Data from test_V78500241_1.txt Node
Date: Fri Mar 25 16:49:00 CST 2022
User: usil
Spectrometer: V785-0024
Trigger mode: 0
Integration Time (sec): 4.000000E-1
Scans to average: 1
Nonlinearity correction enabled: false
Boxcar width: 0
Storing dark spectrum: false
XAxis mode: Wavelengths
Number of Pixels in Spectrum: 1024
>>>>>Begin Spectral Data<<<<<
801.071	8103
801.214	8092
801.356	7974
801.499	7902
801.641	7830
801.783	7871
801.926	8046
802.068	7959
802.211	8058
802.353	8069
802.496	7921
802.638	8008
802.78	7951
802.923	8005
803.065	7860
803.208	7906
803.35	8031
803.492	8157
803.635	8229
803.777	8092
803.919	8130
804.061	8438
804.204	8206
804.346	8145
804.488	7951
804.63	8088
804.773	7993
804.915	8096
805.057	8313
805.199	8202
805.341	8267
805.483	8366
805.626	8256
805.768	8161
805.91	8202
806.052	8214
806.194	8111
806.336	8320
806.478	8145
806.62	8142
806.762	8172
806.904	8259
807.046	8492
807.188	8332
807.33	8381
807.472	8377
807.614	8225
807.756	8142
807.898	8035
808.04	7913
808.182	7963
808.324	7978
808.465	7909
808.607	8138
808.749	8142
808.891	8202
809.033	8240
809.174	8168
809.316	8065
809.458	8111
809.6	8077
809.741	8065
809.883	8062
810.025	8153
810.166	8111
810.308	8054
810.45	8046
810.591	7871
810.733	7750
810.875	7772
811.016	7662
811.158	7540
811.299	7719
811.441	7803
811.582	7727
811.724	7643
811.865	7537
812.007	7715
812.148	7708
812.29	7685
812.431	7818
812.573	7921
812.714	8012
812.855	8145
812.997	8328
813.138	8374
813.279	8233
813.421	8164
813.562	8119
813.703	7890
813.845	7788
813.986	7559
814.127	7266
814.268	7282
814.41	7259
814.551	7225
814.692	7278
814.833	7118
814.974	7137
815.115	7126
815.256	6985
815.397	6954
815.539	6932
815.68	6821
815.821	6806
815.962	6928
816.103	6894
816.244	6798
816.385	6662
816.526	6597
816.666	6551
816.807	6353
816.948	6483
817.089	6494
817.23	6452
817.371	6437
817.512	6384
817.653	6391
817.793	6372
817.934	6403
818.075	6502
818.216	6456
818.356	6506
818.497	6289
818.638	6121
818.778	6175
818.919	6178
819.06	6213
819.2	6391
819.341	6372
819.481	6403
819.622	6623
819.762	6787
819.903	6745
820.043	6707
820.184	6654
820.324	6646
820.465	6764
820.605	6703
820.746	6734
820.886	6635
821.026	6745
821.167	6753
821.307	6848
821.447	6840
821.588	6715
821.728	6635
821.868	6528
822.008	6353
822.149	6391
822.289	6391
822.429	6228
822.569	6159
822.709	6182
822.849	5961
822.99	5977
823.13	5958
823.27	5958
823.41	5821
823.55	5805
823.69	5836
823.83	5805
823.97	5760
824.11	5577
824.25	5566
824.389	5619
824.529	5649
824.669	5558
824.809	5680
824.949	5741
825.089	5680
825.228	5619
825.368	5463
825.508	5398
825.648	5417
825.787	5368
825.927	5448
826.067	5357
826.206	5353
826.346	5444
826.485	5429
826.625	5421
826.765	5600
826.904	5535
827.044	5307
827.183	5231
827.323	5193
827.462	5261
827.601	5197
827.741	5201
827.88	5303
828.02	5147
828.159	5284
828.298	5334
828.437	5421
828.577	5372
828.716	5505
828.855	5398
828.994	5223
829.134	5246
829.273	5254
829.412	5185
829.551	5204
829.69	5170
829.829	5311
829.968	5429
830.107	5337
830.246	5395
830.385	5246
830.524	5140
830.663	5079
830.802	5071
830.941	4957
831.08	4892
831.219	4995
831.357	4987
831.496	5220
831.635	4984
831.774	4911
831.913	4896
832.051	4790
832.19	4759
832.329	4885
832.467	4729
832.606	4717
832.744	4710
832.883	4763
833.022	4771
833.16	4877
833.299	4862
833.437	4858
833.576	4881
833.714	4915
833.852	4892
833.991	4881
834.129	5056
834.267	5018
834.406	4961
834.544	5052
834.682	5025
834.821	4995
834.959	5193
835.097	5052
835.235	5170
835.373	5124
835.511	5155
835.65	5117
835.788	5098
835.926	4946
836.064	4904
836.202	4991
836.34	5235
836.478	5246
836.615	5136
836.753	5239
836.891	5315
837.029	5330
837.167	5261
837.305	5208
837.443	5185
837.58	5117
837.718	5315
837.856	5250
837.993	5204
838.131	5288
838.269	5235
838.406	5246
838.544	5280
838.681	5090
838.819	5090
838.956	4927
839.094	4957
839.231	5056
839.369	5109
839.506	5444
839.643	5303
839.781	5094
839.918	5022
840.055	5185
840.193	5143
840.33	5109
840.467	5181
840.604	5235
840.742	5490
840.879	5086
841.016	5151
841.153	5246
841.29	5398
841.427	5395
841.564	5341
841.701	5440
841.838	5311
841.975	5265
842.112	5341
842.249	5204
842.385	5216
842.522	5349
842.659	5201
842.796	5151
842.933	5204
843.069	5189
843.206	5208
843.343	5315
843.479	5277
843.616	5284
843.752	5048
843.889	5064
844.025	5227
844.162	4995
844.298	5261
844.435	5136
844.571	5079
844.708	5261
844.844	5387
844.98	5383
845.117	5269
845.253	5181
845.389	5181
845.525	5246
845.661	5174
845.798	5086
845.934	5216
846.07	5124
846.206	5242
846.342	5318
846.478	5208
846.614	5006
846.75	5045
846.886	5003
847.022	5174
847.158	5067
847.294	5155
847.429	5151
847.565	5086
847.701	5402
847.837	4877
847.972	4870
848.108	5022
848.244	4991
848.379	4797
848.515	4790
848.65	4763
848.786	4782
848.921	4805
849.057	4889
849.192	4965
849.328	4873
849.463	4908
849.598	4805
849.734	4812
849.869	4752
850.004	4679
850.14	4717
850.275	4672
850.41	4565
850.545	4626
850.68	4618
850.815	4675
850.95	4675
851.085	4919
851.22	4778
851.355	4744
851.49	4664
851.625	4710
851.76	4637
851.895	4588
852.03	4550
852.165	4702
852.299	4797
852.434	4850
852.569	4782
852.703	4824
852.838	4854
852.973	4946
853.107	4984
853.242	4786
853.376	4664
853.511	4554
853.645	4649
853.78	4835
853.914	4736
854.048	4710
854.183	4683
854.317	4752
854.451	4900
854.585	4729
854.72	4672
854.854	4812
854.988	4702
855.122	4656
855.256	4573
855.39	4675
855.524	4843
855.658	4771
855.792	4729
855.926	4805
856.06	4763
856.194	4843
856.327	4721
856.461	4649
856.595	4634
856.729	4679
856.862	4831
856.996	4748
857.13	4854
857.263	4847
857.397	4866
857.53	4698
857.664	4835
857.797	4820
857.931	4831
858.064	4752
858.197	4774
858.331	4691
858.464	4672
858.597	4626
858.731	4664
858.864	4710
858.997	4664
859.13	4683
859.263	4725
859.396	4710
859.529	4641
859.662	4634
859.795	4580
859.928	4664
860.061	4835
860.194	4774
860.327	4668
860.46	4618
860.592	4748
860.725	4763
860.858	4812
860.99	4649
861.123	4573
861.256	4561
861.388	4622
861.521	5467
861.653	4535
861.786	4489
861.918	4523
862.05	4580
862.183	4637
862.315	4683
862.447	4706
862.58	4531
862.712	4405
862.844	4383
862.976	4535
863.108	4531
863.24	4953
863.372	4337
863.504	4462
863.636	4489
863.768	4538
863.9	4508
864.032	4436
864.164	4443
864.296	4538
864.428	4546
864.559	4664
864.691	4607
864.823	4558
864.954	4580
865.086	4580
865.217	4497
865.349	4417
865.48	4527
865.612	4508
865.743	4687
865.875	4489
866.006	4481
866.137	4516
866.269	4531
866.4	4512
866.531	4466
866.662	4451
866.793	4459
866.924	4485
867.055	4550
867.186	4516
867.317	4474
867.448	4402
867.579	4451
867.71	4428
867.841	4424
867.972	4489
868.103	4535
868.233	4504
868.364	4474
868.495	4500
868.625	4744
868.756	4824
868.886	4615
869.017	4630
869.147	4782
869.278	4858
869.408	4672
869.539	4664
869.669	4790
869.799	4698
869.929	4812
870.06	4778
870.19	5010
870.32	4942
870.45	5029
870.58	5090
870.71	5132
870.84	5136
870.97	5025
871.1	5006
871.23	5220
871.36	5178
871.489	5033
871.619	5143
871.749	5201
871.879	5220
872.008	5223
872.138	5132
872.267	5022
872.397	4896
872.526	4854
872.656	4831
872.785	4889
872.915	4961
873.044	5124
873.173	5052
873.303	4957
873.432	4976
873.561	5025
873.69	4930
873.819	4915
873.948	4980
874.077	4889
874.206	4812
874.335	4809
874.464	5018
874.593	5094
874.722	5033
874.851	5220
874.979	5098
875.108	5090
875.237	4965
875.365	4965
875.494	4946
875.623	5033
875.751	4908
875.88	4946
876.008	5025
876.136	5136
876.265	5288
876.393	5429
876.521	5330
876.65	5280
876.778	5162
876.906	5128
877.034	5048
877.162	5060
877.29	5052
877.418	5083
877.546	5151
877.674	5098
877.802	5075
877.93	5022
878.058	4984
878.185	4942
878.313	4991
878.441	5025
878.568	4892
878.696	4923
878.824	5048
878.951	5010
879.079	5189
879.206	5376
879.333	5155
879.461	5041
879.588	5079
879.715	5166
879.842	5341
879.97	5090
880.097	4850
880.224	4782
880.351	4862
880.478	4847
880.605	4858
880.732	4885
880.859	5162
880.986	4957
881.112	4972
881.239	4850
881.366	4725
881.493	4679
881.619	4649
881.746	4634
881.872	4706
881.999	4736
882.125	4771
882.252	4831
882.378	4900
882.505	5048
882.631	4866
882.757	4702
882.883	4771
883.01	4793
883.136	4748
883.262	4641
883.388	4641
883.514	4885
883.64	4870
883.766	4835
883.892	4755
884.018	4725
884.143	4953
884.269	5064
884.395	4691
884.52	4664
884.646	4744
884.772	4653
884.897	4611
885.023	4774
885.148	4847
885.274	4904
885.399	4847
885.524	4801
885.65	4786
885.775	4812
885.9	4797
886.025	4904
886.15	4816
886.275	4812
886.4	4691
886.525	4786
886.65	4755
886.775	4771
886.9	4930
887.025	5083
887.149	4816
887.274	4660
887.399	4622
887.523	4630
887.648	4626
887.773	4622
887.897	4801
888.021	4816
888.146	4759
888.27	4885
888.395	4976
888.519	4858
888.643	4877
888.767	4881
888.891	4729
889.015	4660
889.139	4710
889.263	4656
889.387	4801
889.511	4927
889.635	4873
889.759	4683
889.883	4691
890.006	4809
890.13	4942
890.254	4721
890.377	4710
890.501	4584
890.624	4577
890.748	4683
890.871	4558
890.995	4497
891.118	4417
891.241	4607
891.364	4641
891.488	4672
891.611	4588
891.734	4573
891.857	4656
891.98	4603
892.103	4660
892.226	4603
892.349	4653
892.471	4489
892.594	4603
892.717	4634
892.839	4626
892.962	4607
893.085	4679
893.207	4664
893.33	4523
893.452	4573
893.575	4698
893.697	4641
893.819	4866
893.941	4911
894.064	4816
894.186	4653
894.308	4611
894.43	4801
894.552	4919
894.674	4816
894.796	4641
894.918	4694
895.04	4596
895.161	4782
895.283	4763
895.405	4649
895.526	4672
895.648	4809
895.769	4733
895.891	4733
896.012	4797
896.134	4778
896.255	4691
896.376	4649
896.498	4679
896.619	4714
896.74	4691
896.861	4675
896.982	4976
897.103	5189
897.224	4911
897.345	4812
897.466	4740
897.587	4805
897.708	4915
897.828	4854
897.949	4725
898.07	4615
898.19	4660
898.311	4862
898.431	4725
898.552	4774
898.672	4885
898.792	4870
898.913	4763
899.033	4675
899.153	4535
899.273	4508
899.393	4519
899.513	4577
899.633	4519
899.753	4603
899.873	4531
899.993	4611
900.113	4565
900.232	4645
900.352	4561
900.472	4550
900.591	4485
900.711	4546
900.83	4489
900.95	4664
901.069	4733
901.189	4573
901.308	4417
901.427	4337
901.546	4424
901.665	4565
901.784	4546
901.904	4455
902.023	4371
902.141	4238
902.26	4177
902.379	4329
902.498	4299
902.617	4272
902.735	4390
902.854	4424
902.973	4375
903.091	4268
903.21	4268
903.328	4299
903.446	4295
903.565	4306
903.683	4421
903.801	4314
903.919	4470
904.038	4493
904.156	4383
904.274	4489
904.392	4485
904.51	4508
904.627	4500
904.745	4607
904.863	4717
904.981	4432
905.098	4367
905.216	4383
905.334	4436
905.451	4512
905.569	4523
905.686	4607
905.803	4599
905.921	4436
906.038	4531
906.155	4531
906.272	4367
906.389	4497
906.506	4443
906.623	4413
906.74	4459
906.857	4363
906.974	4455
907.091	4615
907.208	4691
907.324	4649
907.441	4558
907.557	4383
907.674	4421
907.79	4398
907.907	4421
908.023	4535
908.139	4573
908.256	4500
908.372	4493
908.488	4478
908.604	4398
908.72	4386
908.836	4424
908.952	4432
909.068	4489
909.184	4561
909.3	4546
909.415	4660
909.531	4584
909.647	4375
909.762	4417
909.878	4409
909.993	4478
910.108	4481
910.224	4478
910.339	4504
910.454	4466
910.57	4402
910.685	4367
910.8	4679
910.915	4653
911.03	4504
911.145	4344
911.259	4424
911.374	4466
911.489	4356
911.604	4367
911.718	4196
911.833	4234
911.947	4086
912.062	4013
912.176	4253
912.291	4253
912.405	4322
912.519	4523
912.633	4558
912.748	4440
912.862	4402
912.976	4265
913.09	4101
913.204	4207
913.318	4276
913.431	4417
913.545	4386
913.659	4424
913.772	4443
913.886	4318
914	4272
914.113	4462
914.226	4470
914.34	4455
914.453	4284
914.566	4504
914.68	4371
914.793	4405
914.906	4227
915.019	4219
915.132	4169
915.245	4223
915.358	4268
915.47	4291
915.583	4314
915.696	4360
915.809	4432
915.921	4428
916.034	4310
916.146	4325
916.259	4276
916.371	4440
916.483	4371
916.595	4310
916.708	4386
916.82	4379
916.932	4367
917.044	4375
917.156	4417
917.268	4310
917.38	4341
917.491	4356
917.603	4405
917.715	4516
917.826	4493
917.938	4424
918.049	4325
918.161	4428
918.272	4656
918.384	4580
918.495	4497
918.606	4363
918.717	4329
918.828	4409
918.939	4402
919.05	4303
919.161	4428
919.272	4211
919.383	4280
919.494	4489
919.604	4679
919.715	4447
919.826	4470
919.936	4432
920.047	4603
920.157	4531
920.267	4740
920.378	4622
920.488	4573
920.598	4790
920.708	4965
920.818	4824
920.928	4809
921.038	5041
921.148	5033
921.258	4691
921.368	4584
921.477	4569
921.587	4485
921.697	4383
921.806	4630
921.916	4466
922.025	4325
922.134	4291
922.244	4257
922.353	4356
922.462	4257
922.571	4188
922.68	4044
922.789	3983
922.898	4067
923.007	4029
923.116	4147
923.224	4090
923.333	4162
923.442	4017
923.55	4055
923.659	4086
923.767	4158
923.876	4086
923.984	4204
924.092	4086
924.201	4166
924.309	4116
924.417	4162
924.525	4067
924.633	4150
924.741	5102
924.849	3926
924.956	4135
925.064	4013
925.172	3975
925.279	4048
925.387	4135
925.494	4071
925.602	4253
925.709	4257
925.816	4093
925.924	4173
926.031	4299
926.138	4242
926.245	4318
926.352	4135
926.459	4318
926.566	4329
926.673	4204
926.779	4147
926.886	4139
926.993	4059
927.099	4006
927.206	3960
927.312	3953
927.419	4097
927.525	4036
927.631	4143
927.737	3998
927.843	3979
927.95	3876
928.056	4013
928.162	4051
928.267	4154
928.373	4740
928.479	4196
928.585	3941
928.69	4086
928.796	4101
928.901	3998
929.007	3865
929.112	4021
929.218	4029
929.323	4002
929.428	3960
929.533	4120
929.638	4002
929.743	4036
929.848	4063
929.953	4017
930.058	3949
930.163	3823
930.267	3854
930.372	3991
930.477	3808
930.581	4166
930.685	4017
930.79	3876
930.894	3945
930.998	3880
931.103	4086
931.207	3770
931.311	3774
931.415	3732
931.519	3545
931.623	3614
