Data from test_V78500241_1600.txt Node
Date: Fri Mar 25 17:00:07 CST 2022
User: usil
Spectrometer: V785-0024
Trigger mode: 0
Integration Time (sec): 4.000000E-1
Scans to average: 1
Nonlinearity correction enabled: false
Boxcar width: 0
Storing dark spectrum: false
XAxis mode: Wavelengths
Number of Pixels in Spectrum: 1024
>>>>>Begin Spectral Data<<<<<
801.071	7974
801.214	8005
801.356	7864
801.499	7887
801.641	7803
801.783	7776
801.926	7925
802.068	7837
802.211	7989
802.353	8001
802.496	7784
802.638	7818
802.78	7894
802.923	7875
803.065	7822
803.208	7792
803.35	7890
803.492	8069
803.635	8126
803.777	8001
803.919	8142
804.061	8427
804.204	8111
804.346	8054
804.488	7970
804.63	8005
804.773	8012
804.915	8100
805.057	8324
805.199	8145
805.341	8202
805.483	8218
805.626	8164
805.768	8111
805.91	8199
806.052	8202
806.194	8065
806.336	8252
806.478	8126
806.62	8054
806.762	8210
806.904	8271
807.046	8590
807.188	8366
807.33	8275
807.472	8279
807.614	8172
807.756	8168
807.898	7967
808.04	7852
808.182	7921
808.324	7978
808.465	7993
808.607	8054
808.749	8103
808.891	8206
809.033	8336
809.174	8248
809.316	8103
809.458	8077
809.6	8001
809.741	8024
809.883	8024
810.025	8134
810.166	8100
810.308	7993
810.45	8058
810.591	7879
810.733	7677
810.875	7700
811.016	7540
811.158	7495
811.299	7636
811.441	7696
811.582	7677
811.724	7616
811.865	7533
812.007	7548
812.148	7601
812.29	7613
812.431	7746
812.573	7909
812.714	8008
812.855	8202
812.997	8183
813.138	8309
813.279	8210
813.421	8096
813.562	8062
813.703	7814
813.845	7742
813.986	7460
814.127	7228
814.268	7251
814.41	7251
814.551	7160
814.692	7217
814.833	7069
814.974	7137
815.115	7103
815.256	7008
815.397	6958
815.539	6958
815.68	6772
815.821	6776
815.962	6901
816.103	6772
816.244	6757
816.385	6597
816.526	6608
816.666	6517
816.807	6300
816.948	6403
817.089	6479
817.23	6506
817.371	6388
817.512	6422
817.653	6441
817.793	6426
817.934	6418
818.075	6445
818.216	6441
818.356	6490
818.497	6270
818.638	6114
818.778	6182
818.919	6194
819.06	6197
819.2	6365
819.341	6311
819.481	6350
819.622	6528
819.762	6764
819.903	6753
820.043	6635
820.184	6513
820.324	6559
820.465	6738
820.605	6734
820.746	6646
820.886	6563
821.026	6703
821.167	6711
821.307	6734
821.447	6806
821.588	6696
821.728	6574
821.868	6513
822.008	6384
822.149	6376
822.289	6376
822.429	6186
822.569	6102
822.709	6155
822.849	5965
822.99	5920
823.13	5889
823.27	5859
823.41	5794
823.55	5779
823.69	5783
823.83	5828
823.97	5653
824.11	5581
824.25	5524
824.389	5573
824.529	5577
824.669	5570
824.809	5615
824.949	5623
825.089	5619
825.228	5623
825.368	5337
825.508	5337
825.648	5307
825.787	5410
825.927	5383
826.067	5349
826.206	5296
826.346	5376
826.485	5391
826.625	5395
826.765	5558
826.904	5490
827.044	5307
827.183	5189
827.323	5185
827.462	5223
827.601	5178
827.741	5212
827.88	5280
828.02	5105
828.159	5220
828.298	5292
828.437	5334
828.577	5341
828.716	5444
828.855	5334
828.994	5193
829.134	5170
829.273	5204
829.412	5113
829.551	5170
829.69	5178
829.829	5326
829.968	5383
830.107	5288
830.246	5292
830.385	5162
830.524	5174
830.663	5056
830.802	4984
830.941	4930
831.08	4873
831.219	4980
831.357	5006
831.496	5185
831.635	4961
831.774	4900
831.913	4881
832.051	4752
832.19	4763
832.329	4828
832.467	4725
832.606	4641
832.744	4679
832.883	4706
833.022	4748
833.16	4850
833.299	4889
833.437	4862
833.576	4847
833.714	4824
833.852	4908
833.991	4873
834.129	4961
834.267	5018
834.406	4911
834.544	5029
834.682	4938
834.821	4957
834.959	5204
835.097	5025
835.235	5178
835.373	5140
835.511	5094
835.65	5048
835.788	5060
835.926	4919
836.064	4824
836.202	4904
836.34	5155
836.478	5246
836.615	5147
836.753	5258
836.891	5303
837.029	5212
837.167	5239
837.305	5216
837.443	5117
837.58	5075
837.718	5250
837.856	5181
837.993	5166
838.131	5231
838.269	5204
838.406	5185
838.544	5231
838.681	5014
838.819	5033
838.956	4923
839.094	4889
839.231	4972
839.369	5041
839.506	5433
839.643	5277
839.781	5094
839.918	5067
840.055	5105
840.193	5094
840.33	5117
840.467	5090
840.604	5181
840.742	5463
840.879	5086
841.016	5124
841.153	5178
841.29	5383
841.427	5315
841.564	5330
841.701	5376
841.838	5307
841.975	5265
842.112	5303
842.249	5147
842.385	5105
842.522	5341
842.659	5216
842.796	5128
842.933	5170
843.069	5162
843.206	5193
843.343	5337
843.479	5246
843.616	5220
843.752	5041
843.889	4995
844.025	5170
844.162	5033
844.298	5246
844.435	5098
844.571	5052
844.708	5201
844.844	5337
844.98	5345
845.117	5311
845.253	5189
845.389	5090
845.525	5174
845.661	5162
845.798	5075
845.934	5166
846.07	5109
846.206	5235
846.342	5288
846.478	5204
846.614	5105
846.75	4980
846.886	4984
847.022	5193
847.158	5010
847.294	5090
847.429	5140
847.565	5029
847.701	5299
847.837	4858
847.972	4862
848.108	4999
848.244	4987
848.379	4774
848.515	4778
848.65	4729
848.786	4736
848.921	4786
849.057	4911
849.192	4961
849.328	4850
849.463	4847
849.598	4801
849.734	4759
849.869	4694
850.004	4672
850.14	4675
850.275	4622
850.41	4558
850.545	4599
850.68	4603
850.815	4618
850.95	4641
851.085	4854
851.22	4767
851.355	4733
851.49	4649
851.625	4630
851.76	4641
851.895	4573
852.03	4558
852.165	4683
852.299	4736
852.434	4763
852.569	4790
852.703	4744
852.838	4850
852.973	4942
853.107	4968
853.242	4725
853.376	4721
853.511	4588
853.645	4577
853.78	4793
853.914	4706
854.048	4687
854.183	4694
854.317	4698
854.451	4870
854.585	4740
854.72	4645
854.854	4710
854.988	4611
855.122	4679
855.256	4565
855.39	4668
855.524	4774
855.658	4702
855.792	4710
855.926	4698
856.06	4748
856.194	4847
856.327	4702
856.461	4634
856.595	4626
856.729	4649
856.862	4759
856.996	4721
857.13	4774
857.263	4778
857.397	4847
857.53	4641
857.664	4786
857.797	4793
857.931	4755
858.064	4660
858.197	4790
858.331	4649
858.464	4615
858.597	4523
858.731	4672
858.864	4656
858.997	4615
859.13	4672
859.263	4694
859.396	4721
859.529	4577
859.662	4580
859.795	4577
859.928	4641
860.061	4809
860.194	4763
860.327	4550
860.46	4542
860.592	4656
860.725	4748
860.858	4759
860.99	4573
861.123	4516
861.256	4558
861.388	4592
861.521	5216
861.653	4519
861.786	4481
861.918	4462
862.05	4531
862.183	4565
862.315	4618
862.447	4653
862.58	4569
862.712	4451
862.844	4322
862.976	4459
863.108	4527
863.24	4763
863.372	4356
863.504	4474
863.636	4383
863.768	4519
863.9	4455
864.032	4303
864.164	4428
864.296	4481
864.428	4584
864.559	4523
864.691	4512
864.823	4493
864.954	4489
865.086	4500
865.217	4478
865.349	4470
865.48	4443
865.612	4542
865.743	4645
865.875	4466
866.006	4432
866.137	4485
866.269	4474
866.4	4466
866.531	4489
866.662	4409
866.793	4390
866.924	4421
867.055	4512
867.186	4508
867.317	4409
867.448	4337
867.579	4394
867.71	4386
867.841	4424
867.972	4451
868.103	4443
868.233	4432
868.364	4500
868.495	4489
868.625	4694
868.756	4759
868.886	4546
869.017	4645
869.147	4782
869.278	4752
869.408	4626
869.539	4660
869.669	4744
869.799	4679
869.929	4786
870.06	4721
870.19	4927
870.32	4911
870.45	4938
870.58	5037
870.71	5174
870.84	5075
870.97	4953
871.1	4908
871.23	5124
871.36	5124
871.489	5075
871.619	5048
871.749	5083
871.879	5128
872.008	5155
872.138	5083
872.267	4957
872.397	4915
872.526	4786
872.656	4729
872.785	4793
872.915	4908
873.044	5022
873.173	4976
873.303	4972
873.432	4946
873.561	4915
873.69	4892
873.819	4870
873.948	4942
874.077	4805
874.206	4729
874.335	4774
874.464	4927
874.593	5025
874.722	4957
874.851	5128
874.979	5056
875.108	4999
875.237	4957
875.365	4850
875.494	4873
875.623	5029
875.751	4816
875.88	4862
876.008	5022
876.136	4999
876.265	5280
876.393	5364
876.521	5151
876.65	5239
876.778	5136
876.906	5086
877.034	4999
877.162	5048
877.29	5045
877.418	5052
877.546	5006
877.674	5079
877.802	5018
877.93	5045
878.058	4991
878.185	4847
878.313	4972
878.441	5003
878.568	4767
878.696	4873
878.824	4934
878.951	5041
879.079	5181
879.206	5326
879.333	5083
879.461	5033
879.588	5010
879.715	5159
879.842	5204
879.97	5003
880.097	4809
880.224	4759
880.351	4809
880.478	4828
880.605	4850
880.732	4812
880.859	5060
880.986	4915
881.112	4900
881.239	4809
881.366	4786
881.493	4596
881.619	4645
881.746	4672
881.872	4668
881.999	4668
882.125	4748
882.252	4824
882.378	4862
882.505	4927
882.631	4843
882.757	4717
882.883	4786
883.01	4771
883.136	4706
883.262	4649
883.388	4634
883.514	4797
883.64	4889
883.766	4812
883.892	4691
884.018	4774
884.143	4934
884.269	5018
884.395	4759
884.52	4683
884.646	4710
884.772	4626
884.897	4615
885.023	4706
885.148	4847
885.274	4843
885.399	4850
885.524	4721
885.65	4725
885.775	4755
885.9	4736
886.025	4919
886.15	4843
886.275	4755
886.4	4736
886.525	4755
886.65	4710
886.775	4729
886.9	4934
887.025	5105
887.149	4831
887.274	4675
887.399	4656
887.523	4634
887.648	4645
887.773	4645
887.897	4790
888.021	4809
888.146	4714
888.27	4866
888.395	4877
888.519	4850
888.643	4850
888.767	4862
888.891	4717
889.015	4641
889.139	4698
889.263	4630
889.387	4820
889.511	4870
889.635	4877
889.759	4672
889.883	4668
890.006	4801
890.13	4919
890.254	4660
890.377	4748
890.501	4630
890.624	4558
890.748	4618
890.871	4538
890.995	4459
891.118	4409
891.241	4538
891.364	4542
891.488	4622
891.611	4561
891.734	4565
891.857	4687
891.98	4554
892.103	4675
892.226	4637
892.349	4542
892.471	4455
892.594	4603
892.717	4668
892.839	4615
892.962	4626
893.085	4733
893.207	4630
893.33	4504
893.452	4523
893.575	4740
893.697	4573
893.819	4839
893.941	4828
894.064	4824
894.186	4637
894.308	4622
894.43	4797
894.552	4843
894.674	4771
894.796	4588
894.918	4622
895.04	4656
895.161	4744
895.283	4694
895.405	4603
895.526	4683
895.648	4725
895.769	4706
895.891	4752
896.012	4805
896.134	4774
896.255	4729
896.376	4683
896.498	4679
896.619	4672
896.74	4653
896.861	4672
896.982	4976
897.103	5128
897.224	4835
897.345	4763
897.466	4698
897.587	4797
897.708	4873
897.828	4771
897.949	4668
898.07	4622
898.19	4656
898.311	4877
898.431	4710
898.552	4790
898.672	4850
898.792	4816
898.913	4752
899.033	4630
899.153	4527
899.273	4474
899.393	4508
899.513	4577
899.633	4504
899.753	4588
899.873	4550
899.993	4565
900.113	4538
900.232	4584
900.352	4546
900.472	4497
900.591	4428
900.711	4565
900.83	4462
900.95	4649
901.069	4702
901.189	4558
901.308	4447
901.427	4371
901.546	4421
901.665	4508
901.784	4569
901.904	4367
902.023	4360
902.141	4238
902.26	4188
902.379	4322
902.498	4230
902.617	4246
902.735	4379
902.854	4443
902.973	4363
903.091	4223
903.21	4246
903.328	4310
903.446	4318
903.565	4276
903.683	4325
903.801	4303
903.919	4428
904.038	4493
904.156	4367
904.274	4459
904.392	4455
904.51	4428
904.627	4470
904.745	4622
904.863	4714
904.981	4375
905.098	4363
905.216	4383
905.334	4405
905.451	4459
905.569	4470
905.686	4569
905.803	4554
905.921	4424
906.038	4592
906.155	4508
906.272	4413
906.389	4508
906.506	4409
906.623	4447
906.74	4371
906.857	4352
906.974	4413
907.091	4573
907.208	4733
907.324	4588
907.441	4527
907.557	4405
907.674	4360
907.79	4329
907.907	4455
908.023	4538
908.139	4504
908.256	4436
908.372	4519
908.488	4462
908.604	4436
908.72	4363
908.836	4394
908.952	4405
909.068	4485
909.184	4596
909.3	4451
909.415	4641
909.531	4554
909.647	4405
909.762	4363
909.878	4383
909.993	4440
910.108	4451
910.224	4447
910.339	4523
910.454	4432
910.57	4356
910.685	4325
910.8	4702
910.915	4668
911.03	4481
911.145	4360
911.259	4344
911.374	4398
911.489	4318
911.604	4318
911.718	4242
911.833	4257
911.947	4097
912.062	4097
912.176	4200
912.291	4242
912.405	4234
912.519	4493
912.633	4493
912.748	4402
912.862	4344
912.976	4230
913.09	4139
913.204	4207
913.318	4295
913.431	4405
913.545	4386
913.659	4447
913.772	4363
913.886	4276
914	4265
914.113	4360
914.226	4447
914.34	4424
914.453	4265
914.566	4440
914.68	4322
914.793	4375
914.906	4188
915.019	4158
915.132	4124
915.245	4223
915.358	4238
915.47	4238
915.583	4291
915.696	4371
915.809	4413
915.921	4398
916.034	4268
916.146	4284
916.259	4249
916.371	4402
916.483	4390
916.595	4246
916.708	4360
916.82	4363
916.932	4367
917.044	4383
917.156	4348
917.268	4227
917.38	4341
917.491	4284
917.603	4344
917.715	4447
917.826	4428
917.938	4356
918.049	4295
918.161	4352
918.272	4550
918.384	4531
918.495	4455
918.606	4379
918.717	4234
918.828	4299
918.939	4386
919.05	4299
919.161	4379
919.272	4154
919.383	4253
919.494	4466
919.604	4668
919.715	4405
919.826	4386
919.936	4428
920.047	4516
920.157	4500
920.267	4733
920.378	4554
920.488	4527
920.598	4683
920.708	4892
920.818	4729
920.928	4793
921.038	4919
921.148	4923
921.258	4634
921.368	4584
921.477	4561
921.587	4474
921.697	4352
921.806	4561
921.916	4485
922.025	4257
922.134	4276
922.244	4253
922.353	4306
922.462	4227
922.571	4158
922.68	3975
922.789	3979
922.898	4082
923.007	4013
923.116	4143
923.224	4093
923.333	4086
923.442	3979
923.55	3960
923.659	4074
923.767	4116
923.876	4013
923.984	4154
924.092	4010
924.201	4074
924.309	4078
924.417	4124
924.525	4093
924.633	4093
924.741	4961
924.849	3953
924.956	4109
925.064	3960
925.172	3911
925.279	3991
925.387	4097
925.494	4048
925.602	4188
925.709	4173
925.816	4013
925.924	4154
926.031	4223
926.138	4211
926.245	4234
926.352	4112
926.459	4257
926.566	4299
926.673	4227
926.779	4101
926.886	4025
926.993	3987
927.099	3983
927.206	3960
927.312	3949
927.419	4090
927.525	4059
927.631	4128
927.737	4002
927.843	3998
927.95	3876
928.056	3979
928.162	4006
928.267	4059
928.373	4558
928.479	4128
928.585	3873
928.69	3983
928.796	4082
928.901	4002
929.007	3857
929.112	4006
929.218	4010
929.323	3930
929.428	3941
929.533	4090
929.638	3922
929.743	3972
929.848	4074
929.953	4013
930.058	3899
930.163	3838
930.267	3808
930.372	4029
930.477	3823
930.581	4116
930.685	3949
930.79	3842
930.894	3907
930.998	3884
931.103	4059
931.207	3698
931.311	3732
931.415	3675
931.519	3545
931.623	3553
