Data from test_V78500241_1230.txt Node
Date: Fri Mar 25 16:57:33 CST 2022
User: usil
Spectrometer: V785-0024
Trigger mode: 0
Integration Time (sec): 4.000000E-1
Scans to average: 1
Nonlinearity correction enabled: false
Boxcar width: 0
Storing dark spectrum: false
XAxis mode: Wavelengths
Number of Pixels in Spectrum: 1024
>>>>>Begin Spectral Data<<<<<
801.071	7947
801.214	8054
801.356	7909
801.499	7837
801.641	7708
801.783	7788
801.926	7955
802.068	7989
802.211	7989
802.353	8012
802.496	7841
802.638	7849
802.78	7883
802.923	7940
803.065	7913
803.208	7887
803.35	7970
803.492	8069
803.635	8195
803.777	7997
803.919	8149
804.061	8400
804.204	8111
804.346	7986
804.488	7978
804.63	8172
804.773	8039
804.915	8119
805.057	8301
805.199	8176
805.341	8191
805.483	8294
805.626	8176
805.768	8035
805.91	8237
806.052	8168
806.194	8031
806.336	8240
806.478	8092
806.62	8031
806.762	8107
806.904	8237
807.046	8434
807.188	8339
807.33	8214
807.472	8294
807.614	8107
807.756	8149
807.898	7974
808.04	7913
808.182	7940
808.324	7894
808.465	7967
808.607	8096
808.749	8081
808.891	8161
809.033	8301
809.174	8183
809.316	8107
809.458	7955
809.6	8050
809.741	7997
809.883	8043
810.025	8092
810.166	8069
810.308	8058
810.45	8035
810.591	7902
810.733	7727
810.875	7689
811.016	7457
811.158	7480
811.299	7601
811.441	7731
811.582	7753
811.724	7609
811.865	7518
812.007	7537
812.148	7575
812.29	7636
812.431	7655
812.573	7917
812.714	8043
812.855	8069
812.997	8161
813.138	8355
813.279	8180
813.421	8062
813.562	7997
813.703	7894
813.845	7704
813.986	7381
814.127	7255
814.268	7259
814.41	7141
814.551	7149
814.692	7187
814.833	7050
814.974	7080
815.115	7038
815.256	6973
815.397	6913
815.539	6943
815.68	6818
815.821	6795
815.962	6856
816.103	6825
816.244	6749
816.385	6658
816.526	6593
816.666	6441
816.807	6266
816.948	6388
817.089	6464
817.23	6429
817.371	6391
817.512	6456
817.653	6380
817.793	6319
817.934	6437
818.075	6429
818.216	6399
818.356	6418
818.497	6254
818.638	6098
818.778	6152
818.919	6140
819.06	6163
819.2	6266
819.341	6311
819.481	6388
819.622	6517
819.762	6673
819.903	6760
820.043	6589
820.184	6623
820.324	6570
820.465	6631
820.605	6688
820.746	6684
820.886	6540
821.026	6612
821.167	6711
821.307	6802
821.447	6711
821.588	6635
821.728	6513
821.868	6525
822.008	6262
822.149	6410
822.289	6331
822.429	6110
822.569	6076
822.709	6175
822.849	5946
822.99	5889
823.13	5882
823.27	5927
823.41	5783
823.55	5798
823.69	5798
823.83	5809
823.97	5661
824.11	5577
824.25	5478
824.389	5585
824.529	5520
824.669	5501
824.809	5623
824.949	5592
825.089	5630
825.228	5509
825.368	5387
825.508	5330
825.648	5330
825.787	5383
825.927	5353
826.067	5220
826.206	5277
826.346	5360
826.485	5345
826.625	5425
826.765	5539
826.904	5463
827.044	5223
827.183	5185
827.323	5159
827.462	5193
827.601	5189
827.741	5239
827.88	5220
828.02	5098
828.159	5242
828.298	5242
828.437	5364
828.577	5273
828.716	5448
828.855	5349
828.994	5181
829.134	5102
829.273	5151
829.412	5151
829.551	5071
829.69	5124
829.829	5273
829.968	5311
830.107	5277
830.246	5284
830.385	5132
830.524	5128
830.663	5056
830.802	4942
830.941	4942
831.08	4797
831.219	4991
831.357	4968
831.496	5117
831.635	4904
831.774	4850
831.913	4809
832.051	4748
832.19	4744
832.329	4835
832.467	4706
832.606	4630
832.744	4744
832.883	4683
833.022	4698
833.16	4820
833.299	4812
833.437	4835
833.576	4854
833.714	4831
833.852	4847
833.991	4866
834.129	4995
834.267	4953
834.406	4858
834.544	4942
834.682	4972
834.821	4968
834.959	5147
835.097	4972
835.235	5155
835.373	5048
835.511	5132
835.65	4984
835.788	5056
835.926	4854
836.064	4870
836.202	4911
836.34	5155
836.478	5170
836.615	5067
836.753	5178
836.891	5246
837.029	5231
837.167	5201
837.305	5174
837.443	5185
837.58	5117
837.718	5227
837.856	5185
837.993	5102
838.131	5273
838.269	5204
838.406	5181
838.544	5185
838.681	4999
838.819	5014
838.956	4873
839.094	4870
839.231	4972
839.369	5132
839.506	5410
839.643	5242
839.781	5048
839.918	5025
840.055	5147
840.193	5132
840.33	5083
840.467	5117
840.604	5181
840.742	5414
840.879	5098
841.016	5079
841.153	5155
841.29	5357
841.427	5330
841.564	5303
841.701	5353
841.838	5280
841.975	5235
842.112	5315
842.249	5136
842.385	5117
842.522	5258
842.659	5166
842.796	5128
842.933	5178
843.069	5159
843.206	5174
843.343	5288
843.479	5235
843.616	5258
843.752	4987
843.889	4991
844.025	5189
844.162	5079
844.298	5201
844.435	5064
844.571	5014
844.708	5159
844.844	5303
844.98	5288
845.117	5288
845.253	5105
845.389	5029
845.525	5143
845.661	5140
845.798	4987
845.934	5121
846.07	5052
846.206	5181
846.342	5258
846.478	5128
846.614	5018
846.75	4908
846.886	4961
847.022	5060
847.158	5041
847.294	5067
847.429	5079
847.565	5033
847.701	5337
847.837	4835
847.972	4752
848.108	4976
848.244	4927
848.379	4790
848.515	4698
848.65	4683
848.786	4740
848.921	4752
849.057	4858
849.192	4877
849.328	4839
849.463	4858
849.598	4763
849.734	4752
849.869	4660
850.004	4588
850.14	4645
850.275	4618
850.41	4527
850.545	4538
850.68	4618
850.815	4599
850.95	4584
851.085	4839
851.22	4698
851.355	4675
851.49	4634
851.625	4641
851.76	4634
851.895	4500
852.03	4519
852.165	4641
852.299	4759
852.434	4763
852.569	4755
852.703	4748
852.838	4809
852.973	4900
853.107	4892
853.242	4733
853.376	4668
853.511	4550
853.645	4596
853.78	4801
853.914	4675
854.048	4653
854.183	4679
854.317	4679
854.451	4816
854.585	4675
854.72	4645
854.854	4729
854.988	4630
855.122	4649
855.256	4512
855.39	4641
855.524	4759
855.658	4698
855.792	4736
855.926	4744
856.06	4771
856.194	4755
856.327	4653
856.461	4588
856.595	4615
856.729	4675
856.862	4733
856.996	4698
857.13	4725
857.263	4755
857.397	4820
857.53	4637
857.664	4679
857.797	4774
857.931	4771
858.064	4653
858.197	4740
858.331	4649
858.464	4580
858.597	4485
858.731	4675
858.864	4626
858.997	4577
859.13	4626
859.263	4668
859.396	4706
859.529	4584
859.662	4569
859.795	4546
859.928	4634
860.061	4733
860.194	4767
860.327	4607
860.46	4561
860.592	4637
860.725	4683
860.858	4740
860.99	4546
861.123	4440
861.256	4531
861.388	4588
861.521	5242
861.653	4462
861.786	4402
861.918	4405
862.05	4481
862.183	4531
862.315	4584
862.447	4664
862.58	4577
862.712	4394
862.844	4333
862.976	4466
863.108	4413
863.24	4858
863.372	4291
863.504	4383
863.636	4356
863.768	4474
863.9	4436
864.032	4428
864.164	4417
864.296	4421
864.428	4523
864.559	4565
864.691	4565
864.823	4519
864.954	4531
865.086	4500
865.217	4436
865.349	4466
865.48	4428
865.612	4462
865.743	4565
865.875	4436
866.006	4428
866.137	4402
866.269	4432
866.4	4459
866.531	4417
866.662	4360
866.793	4443
866.924	4352
867.055	4466
867.186	4459
867.317	4409
867.448	4398
867.579	4394
867.71	4409
867.841	4402
867.972	4409
868.103	4424
868.233	4466
868.364	4417
868.495	4398
868.625	4622
868.756	4759
868.886	4580
869.017	4626
869.147	4736
869.278	4771
869.408	4611
869.539	4592
869.669	4691
869.799	4637
869.929	4744
870.06	4725
870.19	4961
870.32	4866
870.45	4873
870.58	4942
870.71	5079
870.84	5045
870.97	4942
871.1	4892
871.23	5128
871.36	5147
871.489	5014
871.619	5014
871.749	5079
871.879	5098
872.008	5197
872.138	5071
872.267	5003
872.397	4824
872.526	4858
872.656	4744
872.785	4793
872.915	4938
873.044	4999
873.173	4904
873.303	4927
873.432	4919
873.561	4938
873.69	4843
873.819	4820
873.948	4866
874.077	4862
874.206	4763
874.335	4801
874.464	4908
874.593	5064
874.722	4927
874.851	5067
874.979	5010
875.108	5022
875.237	4892
875.365	4850
875.494	4850
875.623	4999
875.751	4831
875.88	4873
876.008	4968
876.136	5045
876.265	5185
876.393	5337
876.521	5227
876.65	5189
876.778	5185
876.906	5025
877.034	5041
877.162	5048
877.29	4972
877.418	5025
877.546	5006
877.674	5010
877.802	5037
877.93	4972
878.058	4908
878.185	4854
878.313	4961
878.441	4980
878.568	4801
878.696	4847
878.824	4972
878.951	4987
879.079	5197
879.206	5273
879.333	5102
879.461	4904
879.588	4953
879.715	5140
879.842	5216
879.97	4991
880.097	4816
880.224	4748
880.351	4839
880.478	4812
880.605	4797
880.732	4820
880.859	5045
880.986	4870
881.112	4930
881.239	4778
881.366	4702
881.493	4596
881.619	4561
881.746	4668
881.872	4626
881.999	4653
882.125	4656
882.252	4744
882.378	4824
882.505	4934
882.631	4820
882.757	4714
882.883	4714
883.01	4706
883.136	4683
883.262	4565
883.388	4645
883.514	4790
883.64	4816
883.766	4740
883.892	4672
884.018	4687
884.143	4885
884.269	4946
884.395	4656
884.52	4615
884.646	4668
884.772	4550
884.897	4561
885.023	4634
885.148	4793
885.274	4847
885.399	4816
885.524	4717
885.65	4679
885.775	4733
885.9	4725
886.025	4831
886.15	4767
886.275	4759
886.4	4626
886.525	4736
886.65	4679
886.775	4672
886.9	4889
887.025	4991
887.149	4809
887.274	4637
887.399	4592
887.523	4596
887.648	4577
887.773	4603
887.897	4774
888.021	4797
888.146	4706
888.27	4797
888.395	4885
888.519	4786
888.643	4763
888.767	4801
888.891	4630
889.015	4634
889.139	4645
889.263	4565
889.387	4771
889.511	4782
889.635	4748
889.759	4672
889.883	4668
890.006	4687
890.13	4790
890.254	4618
890.377	4656
890.501	4565
890.624	4542
890.748	4580
890.871	4462
890.995	4455
891.118	4371
891.241	4554
891.364	4512
891.488	4611
891.611	4489
891.734	4474
891.857	4599
891.98	4542
892.103	4630
892.226	4603
892.349	4527
892.471	4402
892.594	4535
892.717	4611
892.839	4546
892.962	4584
893.085	4634
893.207	4599
893.33	4466
893.452	4508
893.575	4675
893.697	4577
893.819	4759
893.941	4812
894.064	4778
894.186	4599
894.308	4592
894.43	4729
894.552	4786
894.674	4790
894.796	4512
894.918	4618
895.04	4550
895.161	4672
895.283	4588
895.405	4565
895.526	4615
895.648	4672
895.769	4687
895.891	4694
896.012	4714
896.134	4660
896.255	4687
896.376	4634
896.498	4599
896.619	4656
896.74	4634
896.861	4622
896.982	4881
897.103	5041
897.224	4786
897.345	4752
897.466	4607
897.587	4694
897.708	4870
897.828	4809
897.949	4721
898.07	4561
898.19	4618
898.311	4866
898.431	4649
898.552	4748
898.672	4812
898.792	4774
898.913	4771
899.033	4611
899.153	4546
899.273	4455
899.393	4523
899.513	4432
899.633	4497
899.753	4542
899.873	4497
899.993	4561
900.113	4546
900.232	4565
900.352	4535
900.472	4489
900.591	4386
900.711	4508
900.83	4394
900.95	4615
901.069	4687
901.189	4538
901.308	4383
901.427	4314
901.546	4386
901.665	4459
901.784	4550
901.904	4360
902.023	4314
902.141	4200
902.26	4162
902.379	4295
902.498	4238
902.617	4200
902.735	4402
902.854	4402
902.973	4318
903.091	4192
903.21	4234
903.328	4318
903.446	4299
903.565	4219
903.683	4356
903.801	4276
903.919	4341
904.038	4443
904.156	4367
904.274	4462
904.392	4383
904.51	4409
904.627	4462
904.745	4561
904.863	4607
904.981	4367
905.098	4314
905.216	4356
905.334	4440
905.451	4405
905.569	4424
905.686	4516
905.803	4592
905.921	4398
906.038	4516
906.155	4497
906.272	4371
906.389	4466
906.506	4375
906.623	4356
906.74	4405
906.857	4329
906.974	4314
907.091	4580
907.208	4687
907.324	4622
907.441	4504
907.557	4322
907.674	4337
907.79	4299
907.907	4390
908.023	4466
908.139	4455
908.256	4470
908.372	4447
908.488	4436
908.604	4356
908.72	4371
908.836	4379
908.952	4383
909.068	4424
909.184	4519
909.3	4466
909.415	4512
909.531	4573
909.647	4348
909.762	4352
909.878	4314
909.993	4447
910.108	4379
910.224	4421
910.339	4493
910.454	4371
910.57	4337
910.685	4329
910.8	4649
910.915	4577
911.03	4459
911.145	4314
911.259	4303
911.374	4375
911.489	4325
911.604	4268
911.718	4196
911.833	4200
911.947	4067
912.062	4040
912.176	4200
912.291	4169
912.405	4253
912.519	4455
912.633	4455
912.748	4306
912.862	4318
912.976	4200
913.09	4147
913.204	4200
913.318	4249
913.431	4371
913.545	4337
913.659	4451
913.772	4375
913.886	4234
914	4246
914.113	4413
914.226	4394
914.34	4402
914.453	4242
914.566	4394
914.68	4356
914.793	4344
914.906	4124
915.019	4093
915.132	4090
915.245	4185
915.358	4200
915.47	4204
915.583	4242
915.696	4303
915.809	4371
915.921	4371
916.034	4249
916.146	4257
916.259	4185
916.371	4344
916.483	4386
916.595	4272
916.708	4318
916.82	4341
916.932	4322
917.044	4310
917.156	4299
917.268	4246
917.38	4268
917.491	4284
917.603	4329
917.715	4459
917.826	4436
917.938	4329
918.049	4230
918.161	4367
918.272	4478
918.384	4519
918.495	4451
918.606	4295
918.717	4215
918.828	4322
918.939	4424
919.05	4265
919.161	4310
919.272	4139
919.383	4227
919.494	4394
919.604	4577
919.715	4432
919.826	4333
919.936	4386
920.047	4493
920.157	4504
920.267	4698
920.378	4527
920.488	4535
920.598	4649
920.708	4873
920.818	4759
920.928	4752
921.038	4930
921.148	4843
921.258	4626
921.368	4558
921.477	4481
921.587	4402
921.697	4314
921.806	4588
921.916	4390
922.025	4219
922.134	4276
922.244	4215
922.353	4287
922.462	4158
922.571	4097
922.68	3991
922.789	3979
922.898	4044
923.007	3975
923.116	4105
923.224	4097
923.333	4071
923.442	4006
923.55	3987
923.659	4059
923.767	4101
923.876	3975
923.984	4139
924.092	3991
924.201	4097
924.309	4093
924.417	4128
924.525	4044
924.633	4090
924.741	5056
924.849	3915
924.956	4116
925.064	3911
925.172	3937
925.279	3983
925.387	3991
925.494	4048
925.602	4192
925.709	4162
925.816	4021
925.924	4150
926.031	4253
926.138	4162
926.245	4207
926.352	4078
926.459	4253
926.566	4299
926.673	4158
926.779	4067
926.886	4120
926.993	4006
927.099	3911
927.206	3926
927.312	3941
927.419	4013
927.525	4025
927.631	4082
927.737	3975
927.843	3918
927.95	3827
928.056	3930
928.162	4006
928.267	4078
928.373	4637
928.479	4097
928.585	3907
928.69	4021
928.796	4032
928.901	3930
929.007	3876
929.112	4025
929.218	3968
929.323	3960
929.428	3915
929.533	4128
929.638	3903
929.743	3956
929.848	4029
929.953	3975
930.058	3922
930.163	3797
930.267	3819
930.372	3945
930.477	3812
930.581	4055
930.685	3956
930.79	3819
930.894	3861
930.998	3846
931.103	4036
931.207	3705
931.311	3713
931.415	3671
931.519	3507
931.623	3504
