Data from test_V78500241_347.txt Node
Date: Fri Mar 25 16:51:24 CST 2022
User: usil
Spectrometer: V785-0024
Trigger mode: 0
Integration Time (sec): 4.000000E-1
Scans to average: 1
Nonlinearity correction enabled: false
Boxcar width: 0
Storing dark spectrum: false
XAxis mode: Wavelengths
Number of Pixels in Spectrum: 1024
>>>>>Begin Spectral Data<<<<<
801.071	8027
801.214	8024
801.356	7898
801.499	7826
801.641	7887
801.783	7841
801.926	7951
802.068	7978
802.211	7967
802.353	7967
802.496	7913
802.638	7887
802.78	7963
802.923	7917
803.065	7925
803.208	7875
803.35	7967
803.492	8065
803.635	8115
803.777	8012
803.919	8138
804.061	8488
804.204	8168
804.346	8020
804.488	7928
804.63	8096
804.773	8046
804.915	8096
805.057	8286
805.199	8145
805.341	8229
805.483	8313
805.626	8218
805.768	8130
805.91	8149
806.052	8157
806.194	8092
806.336	8305
806.478	8172
806.62	8161
806.762	8172
806.904	8267
807.046	8488
807.188	8290
807.33	8294
807.472	8248
807.614	8153
807.756	8164
807.898	7967
808.04	7883
808.182	7936
808.324	7879
808.465	7898
808.607	8119
808.749	8050
808.891	8214
809.033	8271
809.174	8180
809.316	8062
809.458	8069
809.6	7974
809.741	8027
809.883	7982
810.025	8016
810.166	8096
810.308	8096
810.45	8005
810.591	7883
810.733	7799
810.875	7681
811.016	7594
811.158	7502
811.299	7628
811.441	7822
811.582	7750
811.724	7636
811.865	7597
812.007	7677
812.148	7700
812.29	7605
812.431	7734
812.573	7928
812.714	7963
812.855	8092
812.997	8221
813.138	8259
813.279	8229
813.421	8096
813.562	8065
813.703	7833
813.845	7765
813.986	7502
814.127	7327
814.268	7221
814.41	7247
814.551	7221
814.692	7225
814.833	7065
814.974	7057
815.115	7103
815.256	6920
815.397	6924
815.539	6954
815.68	6859
815.821	6833
815.962	6897
816.103	6837
816.244	6795
816.385	6681
816.526	6700
816.666	6464
816.807	6327
816.948	6502
817.089	6494
817.23	6509
817.371	6407
817.512	6445
817.653	6353
817.793	6365
817.934	6460
818.075	6467
818.216	6467
818.356	6429
818.497	6262
818.638	6133
818.778	6121
818.919	6167
819.06	6213
819.2	6327
819.341	6353
819.481	6365
819.622	6517
819.762	6726
819.903	6722
820.043	6593
820.184	6578
820.324	6593
820.465	6673
820.605	6650
820.746	6642
820.886	6521
821.026	6711
821.167	6726
821.307	6802
821.447	6795
821.588	6719
821.728	6566
821.868	6448
822.008	6331
822.149	6380
822.289	6327
822.429	6133
822.569	6140
822.709	6121
822.849	5912
822.99	5958
823.13	5904
823.27	5908
823.41	5817
823.55	5809
823.69	5752
823.83	5775
823.97	5729
824.11	5577
824.25	5577
824.389	5615
824.529	5551
824.669	5611
824.809	5600
824.949	5646
825.089	5649
825.228	5573
825.368	5448
825.508	5349
825.648	5387
825.787	5414
825.927	5398
826.067	5318
826.206	5284
826.346	5398
826.485	5433
826.625	5444
826.765	5535
826.904	5512
827.044	5284
827.183	5212
827.323	5143
827.462	5231
827.601	5201
827.741	5193
827.88	5235
828.02	5147
828.159	5250
828.298	5318
828.437	5402
828.577	5296
828.716	5493
828.855	5391
828.994	5117
829.134	5162
829.273	5227
829.412	5147
829.551	5147
829.69	5151
829.829	5242
829.968	5402
830.107	5254
830.246	5292
830.385	5162
830.524	5113
830.663	5067
830.802	4987
830.941	4961
831.08	4915
831.219	5033
831.357	4999
831.496	5136
831.635	4942
831.774	4862
831.913	4831
832.051	4744
832.19	4809
832.329	4831
832.467	4767
832.606	4611
832.744	4725
832.883	4740
833.022	4752
833.16	4759
833.299	4854
833.437	4797
833.576	4862
833.714	4892
833.852	4885
833.991	4873
834.129	5010
834.267	4911
834.406	4904
834.544	5018
834.682	5010
834.821	4885
834.959	5212
835.097	4968
835.235	5094
835.373	5071
835.511	5086
835.65	5056
835.788	5056
835.926	4908
836.064	4889
836.202	4930
836.34	5181
836.478	5261
836.615	5117
836.753	5204
836.891	5337
837.029	5239
837.167	5204
837.305	5181
837.443	5174
837.58	5090
837.718	5292
837.856	5166
837.993	5178
838.131	5250
838.269	5239
838.406	5254
838.544	5212
838.681	5033
838.819	4999
838.956	4953
839.094	4930
839.231	4953
839.369	5075
839.506	5459
839.643	5280
839.781	5124
839.918	5045
840.055	5098
840.193	5159
840.33	5140
840.467	5155
840.604	5170
840.742	5395
840.879	5113
841.016	5086
841.153	5143
841.29	5410
841.427	5379
841.564	5341
841.701	5395
841.838	5288
841.975	5265
842.112	5254
842.249	5143
842.385	5086
842.522	5326
842.659	5159
842.796	5128
842.933	5193
843.069	5143
843.206	5174
843.343	5288
843.479	5239
843.616	5284
843.752	5010
843.889	5022
844.025	5231
844.162	5041
844.298	5204
844.435	5064
844.571	5022
844.708	5159
844.844	5322
844.98	5337
845.117	5284
845.253	5162
845.389	5124
845.525	5239
845.661	5170
845.798	5006
845.934	5143
846.07	5045
846.206	5239
846.342	5307
846.478	5121
846.614	5014
846.75	5006
846.886	4987
847.022	5128
847.158	5075
847.294	5056
847.429	5117
847.565	5033
847.701	5337
847.837	4889
847.972	4801
848.108	4942
848.244	4965
848.379	4809
848.515	4683
848.65	4748
848.786	4733
848.921	4790
849.057	4866
849.192	4862
849.328	4862
849.463	4862
849.598	4809
849.734	4786
849.869	4694
850.004	4599
850.14	4672
850.275	4630
850.41	4535
850.545	4580
850.68	4584
850.815	4592
850.95	4599
851.085	4877
851.22	4793
851.355	4672
851.49	4622
851.625	4611
851.76	4649
851.895	4569
852.03	4550
852.165	4653
852.299	4710
852.434	4782
852.569	4774
852.703	4828
852.838	4801
852.973	4934
853.107	4927
853.242	4736
853.376	4649
853.511	4561
853.645	4580
853.78	4793
853.914	4691
854.048	4641
854.183	4634
854.317	4691
854.451	4866
854.585	4721
854.72	4596
854.854	4771
854.988	4592
855.122	4603
855.256	4588
855.39	4717
855.524	4790
855.658	4706
855.792	4656
855.926	4698
856.06	4740
856.194	4866
856.327	4694
856.461	4664
856.595	4607
856.729	4626
856.862	4778
856.996	4694
857.13	4793
857.263	4774
857.397	4835
857.53	4622
857.664	4744
857.797	4767
857.931	4782
858.064	4694
858.197	4706
858.331	4683
858.464	4622
858.597	4512
858.731	4649
858.864	4637
858.997	4535
859.13	4637
859.263	4729
859.396	4622
859.529	4592
859.662	4535
859.795	4565
859.928	4660
860.061	4778
860.194	4748
860.327	4558
860.46	4596
860.592	4740
860.725	4694
860.858	4740
860.99	4592
861.123	4516
861.256	4523
861.388	4672
861.521	5368
861.653	4432
861.786	4436
861.918	4485
862.05	4519
862.183	4584
862.315	4637
862.447	4668
862.58	4573
862.712	4375
862.844	4314
862.976	4447
863.108	4451
863.24	4801
863.372	4348
863.504	4413
863.636	4413
863.768	4531
863.9	4447
864.032	4367
864.164	4436
864.296	4478
864.428	4519
864.559	4516
864.691	4577
864.823	4535
864.954	4523
865.086	4531
865.217	4447
865.349	4440
865.48	4459
865.612	4516
865.743	4596
865.875	4504
866.006	4409
866.137	4474
866.269	4462
866.4	4436
866.531	4451
866.662	4394
866.793	4375
866.924	4421
867.055	4504
867.186	4459
867.317	4379
867.448	4386
867.579	4428
867.71	4375
867.841	4386
867.972	4516
868.103	4455
868.233	4474
868.364	4443
868.495	4500
868.625	4653
868.756	4767
868.886	4573
869.017	4630
869.147	4790
869.278	4767
869.408	4714
869.539	4641
869.669	4679
869.799	4683
869.929	4782
870.06	4740
870.19	4995
870.32	4908
870.45	4908
870.58	4995
870.71	5083
870.84	5067
870.97	4949
871.1	4927
871.23	5151
871.36	5117
871.489	5075
871.619	5067
871.749	5071
871.879	5181
872.008	5151
872.138	5052
872.267	5025
872.397	4866
872.526	4835
872.656	4706
872.785	4812
872.915	4946
873.044	4991
873.173	4934
873.303	4946
873.432	4965
873.561	4965
873.69	4858
873.819	4900
873.948	4942
874.077	4828
874.206	4740
874.335	4824
874.464	4919
874.593	5064
874.722	4976
874.851	5086
874.979	5086
875.108	5075
875.237	4961
875.365	4873
875.494	4885
875.623	4953
875.751	4812
875.88	4873
876.008	4980
876.136	5033
876.265	5201
876.393	5345
876.521	5246
876.65	5269
876.778	5166
876.906	5083
877.034	5033
877.162	5041
877.29	4968
877.418	5075
877.546	5064
877.674	5071
877.802	5037
877.93	5010
878.058	4953
878.185	4847
878.313	4972
878.441	4934
878.568	4847
878.696	4870
878.824	4984
878.951	5010
879.079	5147
879.206	5269
879.333	5094
879.461	5041
879.588	4949
879.715	5121
879.842	5254
879.97	5006
880.097	4755
880.224	4706
880.351	4847
880.478	4805
880.605	4793
880.732	4809
880.859	5159
880.986	4911
881.112	4911
881.239	4733
881.366	4687
881.493	4618
881.619	4649
881.746	4641
881.872	4672
881.999	4645
882.125	4656
882.252	4812
882.378	4797
882.505	4961
882.631	4831
882.757	4679
882.883	4733
883.01	4691
883.136	4660
883.262	4641
883.388	4622
883.514	4828
883.64	4923
883.766	4782
883.892	4736
884.018	4729
884.143	4980
884.269	4965
884.395	4714
884.52	4634
884.646	4645
884.772	4611
884.897	4527
885.023	4656
885.148	4824
885.274	4835
885.399	4801
885.524	4736
885.65	4660
885.775	4748
885.9	4725
886.025	4843
886.15	4828
886.275	4691
886.4	4710
886.525	4744
886.65	4694
886.775	4672
886.9	4934
887.025	5041
887.149	4820
887.274	4694
887.399	4611
887.523	4592
887.648	4546
887.773	4599
887.897	4771
888.021	4786
888.146	4679
888.27	4828
888.395	4892
888.519	4801
888.643	4847
888.767	4850
888.891	4683
889.015	4656
889.139	4672
889.263	4645
889.387	4774
889.511	4866
889.635	4862
889.759	4664
889.883	4683
890.006	4748
890.13	4854
890.254	4634
890.377	4653
890.501	4569
890.624	4565
890.748	4626
890.871	4459
890.995	4440
891.118	4375
891.241	4546
891.364	4584
891.488	4694
891.611	4451
891.734	4508
891.857	4592
891.98	4577
892.103	4687
892.226	4584
892.349	4561
892.471	4466
892.594	4531
892.717	4603
892.839	4580
892.962	4592
893.085	4634
893.207	4675
893.33	4500
893.452	4550
893.575	4725
893.697	4588
893.819	4763
893.941	4847
894.064	4771
894.186	4542
894.308	4565
894.43	4767
894.552	4797
894.674	4759
894.796	4550
894.918	4584
895.04	4573
895.161	4740
895.283	4672
895.405	4634
895.526	4702
895.648	4694
895.769	4683
895.891	4729
896.012	4755
896.134	4748
896.255	4656
896.376	4664
896.498	4618
896.619	4660
896.74	4656
896.861	4634
896.982	4938
897.103	5075
897.224	4847
897.345	4790
897.466	4702
897.587	4752
897.708	4850
897.828	4797
897.949	4675
898.07	4561
898.19	4660
898.311	4843
898.431	4672
898.552	4694
898.672	4828
898.792	4816
898.913	4759
899.033	4645
899.153	4519
899.273	4424
899.393	4508
899.513	4554
899.633	4550
899.753	4527
899.873	4508
899.993	4615
900.113	4519
900.232	4569
900.352	4569
900.472	4485
900.591	4386
900.711	4485
900.83	4428
900.95	4607
901.069	4687
901.189	4519
901.308	4341
901.427	4356
901.546	4394
901.665	4493
901.784	4508
901.904	4417
902.023	4299
902.141	4147
902.26	4192
902.379	4318
902.498	4242
902.617	4196
902.735	4348
902.854	4436
902.973	4371
903.091	4276
903.21	4230
903.328	4325
903.446	4280
903.565	4253
903.683	4325
903.801	4314
903.919	4363
904.038	4409
904.156	4337
904.274	4459
904.392	4367
904.51	4409
904.627	4485
904.745	4569
904.863	4603
904.981	4428
905.098	4306
905.216	4402
905.334	4405
905.451	4459
905.569	4428
905.686	4577
905.803	4516
905.921	4428
906.038	4573
906.155	4462
906.272	4383
906.389	4470
906.506	4363
906.623	4363
906.74	4367
906.857	4295
906.974	4329
907.091	4554
907.208	4675
907.324	4588
907.441	4527
907.557	4341
907.674	4344
907.79	4341
907.907	4436
908.023	4481
908.139	4462
908.256	4432
908.372	4497
908.488	4443
908.604	4386
908.72	4322
908.836	4402
908.952	4367
909.068	4432
909.184	4577
909.3	4508
909.415	4615
909.531	4592
909.647	4325
909.762	4348
909.878	4299
909.993	4424
910.108	4409
910.224	4421
910.339	4485
910.454	4455
910.57	4337
910.685	4291
910.8	4675
910.915	4573
911.03	4512
911.145	4352
911.259	4363
911.374	4367
911.489	4272
911.604	4303
911.718	4177
911.833	4204
911.947	4097
912.062	4082
912.176	4211
912.291	4314
912.405	4261
912.519	4478
912.633	4481
912.748	4402
912.862	4360
912.976	4223
913.09	4082
913.204	4211
913.318	4230
913.431	4390
913.545	4325
913.659	4447
913.772	4383
913.886	4223
914	4230
914.113	4371
914.226	4402
914.34	4379
914.453	4223
914.566	4402
914.68	4306
914.793	4371
914.906	4169
915.019	4090
915.132	4101
915.245	4185
915.358	4196
915.47	4219
915.583	4280
915.696	4337
915.809	4436
915.921	4459
916.034	4219
916.146	4310
916.259	4223
916.371	4367
916.483	4371
916.595	4249
916.708	4375
916.82	4383
916.932	4306
917.044	4325
917.156	4306
917.268	4265
917.38	4268
917.491	4299
917.603	4322
917.715	4440
917.826	4379
917.938	4379
918.049	4280
918.161	4386
918.272	4573
918.384	4573
918.495	4459
918.606	4352
918.717	4246
918.828	4333
918.939	4344
919.05	4287
919.161	4325
919.272	4128
919.383	4253
919.494	4443
919.604	4660
919.715	4459
919.826	4314
919.936	4421
920.047	4538
920.157	4504
920.267	4733
920.378	4592
920.488	4519
920.598	4725
920.708	4889
920.818	4706
920.928	4748
921.038	4949
921.148	4930
921.258	4592
921.368	4546
921.477	4497
921.587	4440
921.697	4375
921.806	4573
921.916	4462
922.025	4257
922.134	4272
922.244	4291
922.353	4303
922.462	4215
922.571	4169
922.68	4036
922.789	3994
922.898	4071
923.007	4010
923.116	4147
923.224	4101
923.333	4074
923.442	4002
923.55	3983
923.659	4021
923.767	4120
923.876	4017
923.984	4074
924.092	4017
924.201	4055
924.309	4101
924.417	4112
924.525	4055
924.633	4128
924.741	4862
924.849	3903
924.956	4120
925.064	3975
925.172	3903
925.279	3991
925.387	4032
925.494	4071
925.602	4230
925.709	4200
925.816	4048
925.924	4150
926.031	4249
926.138	4207
926.245	4219
926.352	4093
926.459	4291
926.566	4310
926.673	4150
926.779	4109
926.886	4109
926.993	3983
927.099	4017
927.206	3937
927.312	3941
927.419	4071
927.525	4044
927.631	4071
927.737	3968
927.843	3964
927.95	3827
928.056	3941
928.162	4040
928.267	4063
928.373	4698
928.479	4158
928.585	3896
928.69	4036
928.796	4090
928.901	3953
929.007	3827
929.112	3987
929.218	3998
929.323	3949
929.428	3896
929.533	4143
929.638	3941
929.743	3972
929.848	4029
929.953	3987
930.058	3945
930.163	3770
930.267	3835
930.372	4013
930.477	3819
930.581	4101
930.685	3941
930.79	3785
930.894	3873
930.998	3838
931.103	4017
931.207	3755
931.311	3717
931.415	3686
931.519	3542
931.623	3534
