Data from test_V78500241_1231.txt Node
Date: Fri Mar 25 16:57:33 CST 2022
User: usil
Spectrometer: V785-0024
Trigger mode: 0
Integration Time (sec): 4.000000E-1
Scans to average: 1
Nonlinearity correction enabled: false
Boxcar width: 0
Storing dark spectrum: false
XAxis mode: Wavelengths
Number of Pixels in Spectrum: 1024
>>>>>Begin Spectral Data<<<<<
801.071	8043
801.214	8020
801.356	7917
801.499	7845
801.641	7799
801.783	7818
801.926	7974
802.068	7982
802.211	8001
802.353	7986
802.496	7841
802.638	7864
802.78	7974
802.923	7947
803.065	7947
803.208	7925
803.35	8005
803.492	8123
803.635	8153
803.777	8077
803.919	8111
804.061	8541
804.204	8210
804.346	8084
804.488	7982
804.63	8138
804.773	8073
804.915	8115
805.057	8290
805.199	8172
805.341	8275
805.483	8290
805.626	8279
805.768	8161
805.91	8183
806.052	8229
806.194	8157
806.336	8279
806.478	8161
806.62	8016
806.762	8176
806.904	8301
807.046	8495
807.188	8332
807.33	8324
807.472	8370
807.614	8142
807.756	8107
807.898	8020
808.04	7963
808.182	7909
808.324	7940
808.465	7974
808.607	8035
808.749	8096
808.891	8180
809.033	8328
809.174	8176
809.316	8050
809.458	8035
809.6	7807
809.741	7997
809.883	8103
810.025	8081
810.166	8115
810.308	8062
810.45	8035
810.591	7913
810.733	7723
810.875	7662
811.016	7582
811.158	7518
811.299	7639
811.441	7788
811.582	7715
811.724	7597
811.865	7510
812.007	7578
812.148	7575
812.29	7616
812.431	7784
812.573	7860
812.714	7917
812.855	8103
812.997	8191
813.138	8336
813.279	8240
813.421	8119
813.562	8005
813.703	7856
813.845	7803
813.986	7441
814.127	7240
814.268	7179
814.41	7183
814.551	7156
814.692	7171
814.833	7031
814.974	7099
815.115	7141
815.256	6951
815.397	6928
815.539	6966
815.68	6810
815.821	6760
815.962	6863
816.103	6844
816.244	6669
816.385	6696
816.526	6604
816.666	6525
816.807	6247
816.948	6445
817.089	6479
817.23	6410
817.371	6334
817.512	6395
817.653	6376
817.793	6361
817.934	6399
818.075	6483
818.216	6414
818.356	6418
818.497	6251
818.638	6148
818.778	6152
818.919	6163
819.06	6201
819.2	6304
819.341	6338
819.481	6357
819.622	6540
819.762	6795
819.903	6700
820.043	6559
820.184	6559
820.324	6582
820.465	6662
820.605	6696
820.746	6646
820.886	6502
821.026	6700
821.167	6734
821.307	6776
821.447	6711
821.588	6623
821.728	6593
821.868	6513
822.008	6338
822.149	6365
822.289	6346
822.429	6171
822.569	6057
822.709	6163
822.849	5923
822.99	5878
823.13	5912
823.27	5931
823.41	5809
823.55	5832
823.69	5790
823.83	5828
823.97	5653
824.11	5463
824.25	5452
824.389	5592
824.529	5615
824.669	5539
824.809	5680
824.949	5661
825.089	5608
825.228	5638
825.368	5444
825.508	5284
825.648	5372
825.787	5398
825.927	5341
826.067	5280
826.206	5269
826.346	5353
826.485	5395
826.625	5398
826.765	5493
826.904	5474
827.044	5227
827.183	5185
827.323	5170
827.462	5250
827.601	5109
827.741	5201
827.88	5254
828.02	5121
828.159	5223
828.298	5322
828.437	5357
828.577	5303
828.716	5448
828.855	5296
828.994	5185
829.134	5162
829.273	5178
829.412	5155
829.551	5113
829.69	5162
829.829	5273
829.968	5402
830.107	5269
830.246	5284
830.385	5159
830.524	5128
830.663	5098
830.802	4972
830.941	4900
831.08	4892
831.219	5010
831.357	4987
831.496	5151
831.635	4934
831.774	4850
831.913	4835
832.051	4736
832.19	4774
832.329	4850
832.467	4710
832.606	4630
832.744	4740
832.883	4706
833.022	4721
833.16	4782
833.299	4824
833.437	4828
833.576	4801
833.714	4854
833.852	4892
833.991	4881
834.129	4976
834.267	4987
834.406	4900
834.544	4946
834.682	4987
834.821	4946
834.959	5132
835.097	4961
835.235	5117
835.373	5056
835.511	5079
835.65	5022
835.788	5052
835.926	4896
836.064	4900
836.202	4881
836.34	5132
836.478	5250
836.615	5124
836.753	5231
836.891	5231
837.029	5227
837.167	5212
837.305	5140
837.443	5185
837.58	5090
837.718	5227
837.856	5227
837.993	5174
838.131	5220
838.269	5193
838.406	5212
838.544	5178
838.681	5056
838.819	5033
838.956	4919
839.094	4934
839.231	4930
839.369	5098
839.506	5421
839.643	5280
839.781	5090
839.918	4999
840.055	5117
840.193	5117
840.33	5075
840.467	5124
840.604	5201
840.742	5471
840.879	5113
841.016	5086
841.153	5136
841.29	5387
841.427	5398
841.564	5315
841.701	5334
841.838	5379
841.975	5258
842.112	5284
842.249	5185
842.385	5098
842.522	5315
842.659	5140
842.796	5132
842.933	5189
843.069	5071
843.206	5178
843.343	5299
843.479	5208
843.616	5246
843.752	5060
843.889	4991
844.025	5193
844.162	5014
844.298	5216
844.435	5052
844.571	5048
844.708	5166
844.844	5299
844.98	5311
845.117	5307
845.253	5136
845.389	5143
845.525	5178
845.661	5136
845.798	4976
845.934	5185
846.07	5102
846.206	5174
846.342	5261
846.478	5147
846.614	5067
846.75	4919
846.886	4892
847.022	5136
847.158	5037
847.294	5018
847.429	5094
847.565	5098
847.701	5307
847.837	4843
847.972	4831
848.108	4965
848.244	4923
848.379	4782
848.515	4748
848.65	4706
848.786	4691
848.921	4752
849.057	4877
849.192	4911
849.328	4850
849.463	4881
849.598	4801
849.734	4790
849.869	4683
850.004	4607
850.14	4668
850.275	4538
850.41	4497
850.545	4565
850.68	4580
850.815	4607
850.95	4584
851.085	4847
851.22	4744
851.355	4656
851.49	4577
851.625	4637
851.76	4637
851.895	4519
852.03	4523
852.165	4656
852.299	4729
852.434	4805
852.569	4706
852.703	4767
852.838	4854
852.973	4889
853.107	4934
853.242	4748
853.376	4672
853.511	4538
853.645	4607
853.78	4831
853.914	4698
854.048	4634
854.183	4710
854.317	4698
854.451	4835
854.585	4672
854.72	4607
854.854	4778
854.988	4577
855.122	4649
855.256	4508
855.39	4599
855.524	4824
855.658	4717
855.792	4725
855.926	4714
856.06	4759
856.194	4771
856.327	4691
856.461	4634
856.595	4615
856.729	4618
856.862	4767
856.996	4706
857.13	4733
857.263	4759
857.397	4767
857.53	4649
857.664	4641
857.797	4782
857.931	4831
858.064	4717
858.197	4694
858.331	4577
858.464	4535
858.597	4512
858.731	4630
858.864	4664
858.997	4565
859.13	4649
859.263	4668
859.396	4679
859.529	4569
859.662	4478
859.795	4516
859.928	4596
860.061	4763
860.194	4733
860.327	4622
860.46	4565
860.592	4694
860.725	4736
860.858	4733
860.99	4558
861.123	4478
861.256	4519
861.388	4599
861.521	5239
861.653	4440
861.786	4394
861.918	4451
862.05	4531
862.183	4527
862.315	4599
862.447	4618
862.58	4558
862.712	4367
862.844	4383
862.976	4443
863.108	4390
863.24	4927
863.372	4375
863.504	4455
863.636	4405
863.768	4481
863.9	4440
864.032	4325
864.164	4379
864.296	4466
864.428	4592
864.559	4561
864.691	4455
864.823	4546
864.954	4466
865.086	4466
865.217	4523
865.349	4375
865.48	4436
865.612	4527
865.743	4584
865.875	4462
866.006	4424
866.137	4428
866.269	4451
866.4	4402
866.531	4451
866.662	4413
866.793	4402
866.924	4383
867.055	4481
867.186	4428
867.317	4421
867.448	4348
867.579	4367
867.71	4394
867.841	4329
867.972	4462
868.103	4455
868.233	4440
868.364	4455
868.495	4455
868.625	4641
868.756	4725
868.886	4580
869.017	4577
869.147	4763
869.278	4778
869.408	4630
869.539	4611
869.669	4736
869.799	4653
869.929	4706
870.06	4694
870.19	4915
870.32	4866
870.45	4896
870.58	4987
870.71	5048
870.84	5052
870.97	4885
871.1	4885
871.23	5090
871.36	5094
871.489	5014
871.619	5105
871.749	5113
871.879	5113
872.008	5151
872.138	5086
872.267	4949
872.397	4892
872.526	4755
872.656	4691
872.785	4820
872.915	4949
873.044	5014
873.173	4949
873.303	4965
873.432	4927
873.561	4953
873.69	4900
873.819	4835
873.948	4889
874.077	4843
874.206	4740
874.335	4793
874.464	4866
874.593	5022
874.722	4938
874.851	5075
874.979	5037
875.108	5022
875.237	4889
875.365	4881
875.494	4866
875.623	4999
875.751	4835
875.88	4862
876.008	4968
876.136	4961
876.265	5216
876.393	5326
876.521	5239
876.65	5185
876.778	5143
876.906	5075
877.034	4991
877.162	4999
877.29	4957
877.418	5056
877.546	5052
877.674	5010
877.802	5018
877.93	4972
878.058	4938
878.185	4885
878.313	4991
878.441	4911
878.568	4778
878.696	4854
878.824	4908
878.951	4942
879.079	5155
879.206	5299
879.333	5083
879.461	4965
879.588	4972
879.715	5128
879.842	5235
879.97	4987
880.097	4828
880.224	4733
880.351	4793
880.478	4782
880.605	4752
880.732	4782
880.859	5098
880.986	4877
881.112	4873
881.239	4793
881.366	4637
881.493	4599
881.619	4615
881.746	4660
881.872	4603
881.999	4653
882.125	4698
882.252	4816
882.378	4797
882.505	4984
882.631	4831
882.757	4675
882.883	4744
883.01	4702
883.136	4702
883.262	4626
883.388	4626
883.514	4801
883.64	4847
883.766	4793
883.892	4641
884.018	4755
884.143	4911
884.269	4984
884.395	4698
884.52	4653
884.646	4615
884.772	4596
884.897	4584
885.023	4603
885.148	4752
885.274	4778
885.399	4816
885.524	4694
885.65	4687
885.775	4774
885.9	4725
886.025	4835
886.15	4778
886.275	4656
886.4	4622
886.525	4740
886.65	4641
886.775	4626
886.9	4900
887.025	5022
887.149	4805
887.274	4637
887.399	4596
887.523	4615
887.648	4565
887.773	4596
887.897	4725
888.021	4820
888.146	4656
888.27	4782
888.395	4892
888.519	4736
888.643	4835
888.767	4801
888.891	4668
889.015	4580
889.139	4668
889.263	4550
889.387	4755
889.511	4858
889.635	4782
889.759	4618
889.883	4588
890.006	4748
890.13	4847
890.254	4580
890.377	4645
890.501	4550
890.624	4489
890.748	4618
890.871	4535
890.995	4428
891.118	4402
891.241	4497
891.364	4497
891.488	4649
891.611	4497
891.734	4588
891.857	4573
891.98	4538
892.103	4649
892.226	4558
892.349	4470
892.471	4417
892.594	4535
892.717	4565
892.839	4516
892.962	4588
893.085	4592
893.207	4573
893.33	4462
893.452	4459
893.575	4645
893.697	4580
893.819	4763
893.941	4831
894.064	4778
894.186	4531
894.308	4599
894.43	4767
894.552	4778
894.674	4729
894.796	4554
894.918	4584
895.04	4550
895.161	4691
895.283	4706
895.405	4561
895.526	4611
895.648	4649
895.769	4615
895.891	4736
896.012	4763
896.134	4717
896.255	4668
896.376	4649
896.498	4618
896.619	4694
896.74	4603
896.861	4649
896.982	4930
897.103	5109
897.224	4778
897.345	4744
897.466	4687
897.587	4725
897.708	4824
897.828	4748
897.949	4679
898.07	4573
898.19	4668
898.311	4759
898.431	4611
898.552	4672
898.672	4824
898.792	4774
898.913	4763
899.033	4637
899.153	4489
899.273	4394
899.393	4512
899.513	4580
899.633	4569
899.753	4546
899.873	4447
899.993	4599
900.113	4516
900.232	4577
900.352	4516
900.472	4459
900.591	4413
900.711	4497
900.83	4417
900.95	4588
901.069	4656
901.189	4565
901.308	4348
901.427	4333
901.546	4375
901.665	4424
901.784	4542
901.904	4383
902.023	4276
902.141	4185
902.26	4166
902.379	4314
902.498	4200
902.617	4223
902.735	4379
902.854	4390
902.973	4341
903.091	4207
903.21	4242
903.328	4291
903.446	4246
903.565	4219
903.683	4337
903.801	4253
903.919	4409
904.038	4451
904.156	4310
904.274	4398
904.392	4398
904.51	4455
904.627	4443
904.745	4588
904.863	4603
904.981	4390
905.098	4291
905.216	4348
905.334	4413
905.451	4417
905.569	4421
905.686	4535
905.803	4561
905.921	4417
906.038	4538
906.155	4466
906.272	4356
906.389	4424
906.506	4375
906.623	4405
906.74	4383
906.857	4322
906.974	4394
907.091	4577
907.208	4687
907.324	4596
907.441	4485
907.557	4310
907.674	4306
907.79	4344
907.907	4390
908.023	4485
908.139	4485
908.256	4436
908.372	4455
908.488	4489
908.604	4341
908.72	4318
908.836	4341
908.952	4341
909.068	4383
909.184	4565
909.3	4481
909.415	4554
909.531	4550
909.647	4352
909.762	4367
909.878	4356
909.993	4428
910.108	4371
910.224	4390
910.339	4451
910.454	4405
910.57	4306
910.685	4261
910.8	4649
910.915	4615
911.03	4508
911.145	4318
911.259	4333
911.374	4360
911.489	4284
911.604	4257
911.718	4166
911.833	4211
911.947	4051
912.062	4040
912.176	4177
912.291	4223
912.405	4223
912.519	4451
912.633	4440
912.748	4367
912.862	4303
912.976	4181
913.09	4074
913.204	4139
913.318	4204
913.431	4386
913.545	4360
913.659	4462
913.772	4333
913.886	4227
914	4257
914.113	4356
914.226	4402
914.34	4356
914.453	4272
914.566	4421
914.68	4280
914.793	4272
914.906	4147
915.019	4090
915.132	4090
915.245	4200
915.358	4219
915.47	4211
915.583	4238
915.696	4249
915.809	4417
915.921	4440
916.034	4211
916.146	4219
916.259	4196
916.371	4405
916.483	4333
916.595	4272
916.708	4310
916.82	4310
916.932	4280
917.044	4341
917.156	4337
917.268	4265
917.38	4268
917.491	4299
917.603	4299
917.715	4421
917.826	4421
917.938	4341
918.049	4253
918.161	4352
918.272	4523
918.384	4519
918.495	4417
918.606	4299
918.717	4211
918.828	4329
918.939	4363
919.05	4234
919.161	4325
919.272	4154
919.383	4249
919.494	4421
919.604	4577
919.715	4424
919.826	4306
919.936	4394
920.047	4497
920.157	4443
920.267	4672
920.378	4596
920.488	4447
920.598	4698
920.708	4843
920.818	4786
920.928	4793
921.038	4942
921.148	4908
921.258	4622
921.368	4527
921.477	4470
921.587	4432
921.697	4375
921.806	4523
921.916	4428
922.025	4272
922.134	4253
922.244	4188
922.353	4295
922.462	4227
922.571	4109
922.68	3991
922.789	4006
922.898	4032
923.007	3964
923.116	4086
923.224	4067
923.333	4101
923.442	3960
923.55	3983
923.659	3994
923.767	4078
923.876	4010
923.984	4112
924.092	3937
924.201	4048
924.309	4112
924.417	4139
924.525	4048
924.633	4097
924.741	5056
924.849	3926
924.956	4116
925.064	3998
925.172	3918
925.279	3953
925.387	4036
925.494	4059
925.602	4227
925.709	4173
925.816	4048
925.924	4097
926.031	4188
926.138	4150
926.245	4185
926.352	4040
926.459	4246
926.566	4344
926.673	4185
926.779	4074
926.886	4090
926.993	3915
927.099	3975
927.206	3953
927.312	3922
927.419	4074
927.525	4055
927.631	4032
927.737	3979
927.843	3880
927.95	3827
928.056	3937
928.162	4013
928.267	4048
928.373	4717
928.479	4090
928.585	3915
928.69	3975
928.796	4090
928.901	3937
929.007	3842
929.112	4040
929.218	3968
929.323	3964
929.428	3953
929.533	4120
929.638	3911
929.743	3941
929.848	4025
929.953	3979
930.058	3937
930.163	3781
930.267	3774
930.372	4017
930.477	3804
930.581	4036
930.685	3926
930.79	3865
930.894	3884
930.998	3861
931.103	4002
931.207	3663
931.311	3690
931.415	3682
931.519	3545
931.623	3545
