Data from test_V78500241_1024.txt Node
Date: Fri Mar 25 16:56:07 CST 2022
User: usil
Spectrometer: V785-0024
Trigger mode: 0
Integration Time (sec): 4.000000E-1
Scans to average: 1
Nonlinearity correction enabled: false
Boxcar width: 0
Storing dark spectrum: false
XAxis mode: Wavelengths
Number of Pixels in Spectrum: 1024
>>>>>Begin Spectral Data<<<<<
801.071	8008
801.214	8077
801.356	7909
801.499	7864
801.641	7742
801.783	7746
801.926	7944
802.068	7913
802.211	7963
802.353	7909
802.496	7761
802.638	7894
802.78	7852
802.923	7894
803.065	7906
803.208	7864
803.35	7967
803.492	8073
803.635	8180
803.777	8008
803.919	8096
804.061	8412
804.204	8195
804.346	7997
804.488	7921
804.63	8103
804.773	7959
804.915	8115
805.057	8199
805.199	8214
805.341	8199
805.483	8256
805.626	8164
805.768	8035
805.91	8138
806.052	8149
806.194	8081
806.336	8286
806.478	8043
806.62	8050
806.762	8157
806.904	8237
807.046	8404
807.188	8279
807.33	8248
807.472	8336
807.614	8084
807.756	8142
807.898	8024
808.04	7947
808.182	7902
808.324	7875
808.465	7894
808.607	8084
808.749	8050
808.891	8168
809.033	8282
809.174	8218
809.316	8005
809.458	8031
809.6	7963
809.741	8050
809.883	8005
810.025	8050
810.166	7978
810.308	7921
810.45	7993
810.591	7811
810.733	7632
810.875	7666
811.016	7460
811.158	7476
811.299	7533
811.441	7708
811.582	7670
811.724	7597
811.865	7480
812.007	7537
812.148	7563
812.29	7578
812.431	7757
812.573	7807
812.714	7982
812.855	8054
812.997	8161
813.138	8347
813.279	8153
813.421	8130
813.562	8027
813.703	7826
813.845	7792
813.986	7495
814.127	7259
814.268	7206
814.41	7164
814.551	7080
814.692	7110
814.833	6981
814.974	7042
815.115	7126
815.256	6989
815.397	6913
815.539	6962
815.68	6863
815.821	6715
815.962	6867
816.103	6802
816.244	6711
816.385	6635
816.526	6669
816.666	6494
816.807	6300
816.948	6422
817.089	6452
817.23	6433
817.371	6357
817.512	6380
817.653	6395
817.793	6395
817.934	6323
818.075	6452
818.216	6433
818.356	6342
818.497	6182
818.638	6072
818.778	6060
818.919	6182
819.06	6175
819.2	6270
819.341	6342
819.481	6311
819.622	6509
819.762	6703
819.903	6711
820.043	6646
820.184	6555
820.324	6517
820.465	6639
820.605	6646
820.746	6593
820.886	6426
821.026	6669
821.167	6673
821.307	6703
821.447	6734
821.588	6665
821.728	6601
821.868	6479
822.008	6319
822.149	6353
822.289	6388
822.429	6209
822.569	5973
822.709	6072
822.849	5916
822.99	5863
823.13	5882
823.27	5935
823.41	5767
823.55	5767
823.69	5748
823.83	5764
823.97	5638
824.11	5516
824.25	5512
824.389	5493
824.529	5627
824.669	5459
824.809	5646
824.949	5649
825.089	5570
825.228	5524
825.368	5395
825.508	5360
825.648	5334
825.787	5376
825.927	5311
826.067	5277
826.206	5311
826.346	5387
826.485	5391
826.625	5410
826.765	5547
826.904	5455
827.044	5239
827.183	5174
827.323	5124
827.462	5216
827.601	5193
827.741	5147
827.88	5216
828.02	5136
828.159	5235
828.298	5303
828.437	5311
828.577	5269
828.716	5474
828.855	5330
828.994	5159
829.134	5136
829.273	5162
829.412	5132
829.551	5117
829.69	5113
829.829	5235
829.968	5299
830.107	5277
830.246	5246
830.385	5159
830.524	5117
830.663	4987
830.802	4957
830.941	4854
831.08	4866
831.219	4942
831.357	4991
831.496	5136
831.635	4896
831.774	4862
831.913	4824
832.051	4725
832.19	4774
832.329	4801
832.467	4679
832.606	4618
832.744	4752
832.883	4679
833.022	4694
833.16	4790
833.299	4809
833.437	4786
833.576	4755
833.714	4850
833.852	4839
833.991	4828
834.129	4957
834.267	4927
834.406	4854
834.544	4930
834.682	4984
834.821	4984
834.959	5136
835.097	4908
835.235	5117
835.373	5098
835.511	5098
835.65	5048
835.788	5014
835.926	4877
836.064	4862
836.202	4908
836.34	5151
836.478	5204
836.615	5124
836.753	5204
836.891	5265
837.029	5239
837.167	5208
837.305	5143
837.443	5117
837.58	5056
837.718	5181
837.856	5185
837.993	5143
838.131	5204
838.269	5170
838.406	5151
838.544	5143
838.681	5010
838.819	4999
838.956	4881
839.094	4881
839.231	4927
839.369	5048
839.506	5398
839.643	5227
839.781	5037
839.918	5037
840.055	5105
840.193	5105
840.33	5083
840.467	5143
840.604	5151
840.742	5417
840.879	5022
841.016	5128
841.153	5185
841.29	5334
841.427	5341
841.564	5322
841.701	5368
841.838	5288
841.975	5212
842.112	5246
842.249	5102
842.385	5086
842.522	5326
842.659	5220
842.796	5151
842.933	5189
843.069	5155
843.206	5128
843.343	5311
843.479	5227
843.616	5246
843.752	5060
843.889	5014
844.025	5174
844.162	4976
844.298	5197
844.435	5079
844.571	5079
844.708	5204
844.844	5261
844.98	5318
845.117	5250
845.253	5105
845.389	5033
845.525	5102
845.661	5067
845.798	5037
845.934	5060
846.07	4984
846.206	5155
846.342	5280
846.478	5193
846.614	4957
846.75	4942
846.886	4885
847.022	5094
847.158	5014
847.294	5003
847.429	5102
847.565	5067
847.701	5311
847.837	4866
847.972	4774
848.108	4946
848.244	4908
848.379	4733
848.515	4725
848.65	4679
848.786	4714
848.921	4714
849.057	4866
849.192	4877
849.328	4786
849.463	4828
849.598	4767
849.734	4755
849.869	4660
850.004	4573
850.14	4656
850.275	4599
850.41	4542
850.545	4599
850.68	4603
850.815	4634
850.95	4584
851.085	4824
851.22	4721
851.355	4626
851.49	4592
851.625	4618
851.76	4615
851.895	4535
852.03	4478
852.165	4626
852.299	4687
852.434	4778
852.569	4725
852.703	4729
852.838	4839
852.973	4873
853.107	4900
853.242	4717
853.376	4668
853.511	4580
853.645	4626
853.78	4744
853.914	4660
854.048	4626
854.183	4565
854.317	4675
854.451	4870
854.585	4653
854.72	4626
854.854	4767
854.988	4615
855.122	4664
855.256	4497
855.39	4660
855.524	4702
855.658	4706
855.792	4668
855.926	4717
856.06	4736
856.194	4812
856.327	4702
856.461	4561
856.595	4611
856.729	4626
856.862	4691
856.996	4683
857.13	4725
857.263	4729
857.397	4771
857.53	4615
857.664	4755
857.797	4782
857.931	4771
858.064	4672
858.197	4717
858.331	4634
858.464	4561
858.597	4478
858.731	4611
858.864	4573
858.997	4584
859.13	4653
859.263	4607
859.396	4717
859.529	4565
859.662	4603
859.795	4577
859.928	4599
860.061	4782
860.194	4710
860.327	4577
860.46	4508
860.592	4675
860.725	4736
860.858	4706
860.99	4599
861.123	4535
861.256	4527
861.388	4592
861.521	5246
861.653	4459
861.786	4421
861.918	4462
862.05	4436
862.183	4497
862.315	4558
862.447	4641
862.58	4550
862.712	4413
862.844	4314
862.976	4428
863.108	4462
863.24	4786
863.372	4341
863.504	4405
863.636	4432
863.768	4436
863.9	4447
864.032	4386
864.164	4348
864.296	4485
864.428	4527
864.559	4516
864.691	4504
864.823	4531
864.954	4474
865.086	4500
865.217	4462
865.349	4432
865.48	4455
865.612	4523
865.743	4615
865.875	4474
866.006	4459
866.137	4455
866.269	4440
866.4	4424
866.531	4462
866.662	4356
866.793	4363
866.924	4363
867.055	4485
867.186	4386
867.317	4379
867.448	4443
867.579	4341
867.71	4409
867.841	4383
867.972	4436
868.103	4428
868.233	4371
868.364	4413
868.495	4493
868.625	4622
868.756	4774
868.886	4523
869.017	4588
869.147	4786
869.278	4774
869.408	4580
869.539	4626
869.669	4698
869.799	4645
869.929	4733
870.06	4672
870.19	4889
870.32	4892
870.45	4938
870.58	5003
870.71	5098
870.84	5075
870.97	4938
871.1	4862
871.23	5102
871.36	5086
871.489	4968
871.619	5056
871.749	5022
871.879	5121
872.008	5147
872.138	5052
872.267	4968
872.397	4850
872.526	4755
872.656	4698
872.785	4801
872.915	4892
873.044	4984
873.173	4934
873.303	4999
873.432	4915
873.561	4938
873.69	4873
873.819	4812
873.948	4911
874.077	4843
874.206	4767
874.335	4831
874.464	4885
874.593	5071
874.722	4976
874.851	5098
874.979	5022
875.108	5048
875.237	4892
875.365	4866
875.494	4877
875.623	4938
875.751	4828
875.88	4892
876.008	4946
876.136	5060
876.265	5220
876.393	5353
876.521	5307
876.65	5235
876.778	5201
876.906	5048
877.034	5052
877.162	5029
877.29	4984
877.418	5060
877.546	5090
877.674	5113
877.802	5067
877.93	5037
878.058	4987
878.185	4911
878.313	4984
878.441	4927
878.568	4805
878.696	4908
878.824	5022
878.951	4991
879.079	5136
879.206	5326
879.333	5086
879.461	5029
879.588	5075
879.715	5170
879.842	5204
879.97	5048
880.097	4870
880.224	4812
880.351	4835
880.478	4877
880.605	4786
880.732	4873
880.859	5102
880.986	4885
881.112	4938
881.239	4828
881.366	4683
881.493	4626
881.619	4641
881.746	4664
881.872	4675
881.999	4721
882.125	4683
882.252	4797
882.378	4862
882.505	5071
882.631	4782
882.757	4721
882.883	4717
883.01	4809
883.136	4679
883.262	4653
883.388	4634
883.514	4820
883.64	4915
883.766	4866
883.892	4668
884.018	4778
884.143	4900
884.269	5056
884.395	4710
884.52	4649
884.646	4660
884.772	4622
884.897	4596
885.023	4683
885.148	4858
885.274	4873
885.399	4854
885.524	4733
885.65	4698
885.775	4801
885.9	4740
886.025	4847
886.15	4870
886.275	4752
886.4	4698
886.525	4710
886.65	4717
886.775	4729
886.9	4919
887.025	5067
887.149	4812
887.274	4706
887.399	4664
887.523	4641
887.648	4592
887.773	4573
887.897	4816
888.021	4767
888.146	4687
888.27	4835
888.395	4900
888.519	4858
888.643	4854
888.767	4858
888.891	4744
889.015	4634
889.139	4634
889.263	4618
889.387	4805
889.511	4889
889.635	4790
889.759	4710
889.883	4668
890.006	4714
890.13	4885
890.254	4607
890.377	4702
890.501	4554
890.624	4542
890.748	4630
890.871	4584
890.995	4485
891.118	4428
891.241	4527
891.364	4584
891.488	4615
891.611	4561
891.734	4565
891.857	4645
891.98	4535
892.103	4710
892.226	4599
892.349	4542
892.471	4436
892.594	4554
892.717	4607
892.839	4588
892.962	4542
893.085	4706
893.207	4618
893.33	4481
893.452	4535
893.575	4698
893.697	4580
893.819	4816
893.941	4839
894.064	4786
894.186	4596
894.308	4554
894.43	4748
894.552	4793
894.674	4786
894.796	4596
894.918	4592
895.04	4596
895.161	4733
895.283	4687
895.405	4637
895.526	4664
895.648	4691
895.769	4706
895.891	4725
896.012	4725
896.134	4717
896.255	4717
896.376	4656
896.498	4603
896.619	4683
896.74	4622
896.861	4710
896.982	4946
897.103	5090
897.224	4854
897.345	4733
897.466	4710
897.587	4748
897.708	4858
897.828	4763
897.949	4729
898.07	4569
898.19	4649
898.311	4831
898.431	4710
898.552	4717
898.672	4820
898.792	4854
898.913	4778
899.033	4630
899.153	4519
899.273	4436
899.393	4497
899.513	4554
899.633	4554
899.753	4607
899.873	4508
899.993	4607
900.113	4554
900.232	4641
900.352	4527
900.472	4550
900.591	4432
900.711	4535
900.83	4462
900.95	4599
901.069	4645
901.189	4554
901.308	4356
901.427	4383
901.546	4405
901.665	4516
901.784	4542
901.904	4459
902.023	4375
902.141	4188
902.26	4215
902.379	4303
902.498	4268
902.617	4272
902.735	4394
902.854	4417
902.973	4375
903.091	4215
903.21	4265
903.328	4356
903.446	4268
903.565	4272
903.683	4348
903.801	4287
903.919	4383
904.038	4436
904.156	4352
904.274	4489
904.392	4424
904.51	4459
904.627	4531
904.745	4599
904.863	4649
904.981	4394
905.098	4322
905.216	4363
905.334	4394
905.451	4398
905.569	4459
905.686	4573
905.803	4516
905.921	4428
906.038	4542
906.155	4535
906.272	4455
906.389	4462
906.506	4417
906.623	4409
906.74	4413
906.857	4337
906.974	4337
907.091	4573
907.208	4691
907.324	4577
907.441	4535
907.557	4379
907.674	4371
907.79	4341
907.907	4432
908.023	4516
908.139	4474
908.256	4428
908.372	4531
908.488	4402
908.604	4360
908.72	4322
908.836	4379
908.952	4402
909.068	4474
909.184	4599
909.3	4481
909.415	4637
909.531	4554
909.647	4371
909.762	4386
909.878	4367
909.993	4421
910.108	4459
910.224	4436
910.339	4516
910.454	4383
910.57	4375
910.685	4314
910.8	4660
910.915	4596
911.03	4519
911.145	4371
911.259	4322
911.374	4367
911.489	4287
911.604	4280
911.718	4230
911.833	4192
911.947	4067
912.062	4040
912.176	4234
912.291	4253
912.405	4246
912.519	4527
912.633	4519
912.748	4402
912.862	4367
912.976	4234
913.09	4086
913.204	4230
913.318	4299
913.431	4398
913.545	4417
913.659	4455
913.772	4360
913.886	4249
914	4211
914.113	4367
914.226	4443
914.34	4432
914.453	4261
914.566	4451
914.68	4352
914.793	4383
914.906	4230
915.019	4162
915.132	4139
915.245	4200
915.358	4211
915.47	4215
915.583	4348
915.696	4329
915.809	4443
915.921	4394
916.034	4295
916.146	4249
916.259	4223
916.371	4421
916.483	4352
916.595	4306
916.708	4356
916.82	4329
916.932	4409
917.044	4337
917.156	4341
917.268	4261
917.38	4291
917.491	4322
917.603	4344
917.715	4462
917.826	4470
917.938	4371
918.049	4272
918.161	4409
918.272	4504
918.384	4618
918.495	4478
918.606	4284
918.717	4215
918.828	4390
918.939	4413
919.05	4227
919.161	4322
919.272	4147
919.383	4265
919.494	4512
919.604	4675
919.715	4497
919.826	4371
919.936	4432
920.047	4535
920.157	4519
920.267	4702
920.378	4535
920.488	4538
920.598	4752
920.708	4896
920.818	4767
920.928	4714
921.038	4946
921.148	4968
921.258	4634
921.368	4558
921.477	4523
921.587	4474
921.697	4398
921.806	4599
921.916	4428
922.025	4276
922.134	4310
922.244	4219
922.353	4318
922.462	4204
922.571	4131
922.68	4059
922.789	3979
922.898	4051
923.007	4025
923.116	4093
923.224	4071
923.333	4051
923.442	4010
923.55	4010
923.659	4029
923.767	4124
923.876	4067
923.984	4128
924.092	4006
924.201	4112
924.309	4120
924.417	4086
924.525	4067
924.633	4109
924.741	5071
924.849	3941
924.956	4124
925.064	3960
925.172	3941
925.279	3987
925.387	4086
925.494	4090
925.602	4211
925.709	4207
925.816	4048
925.924	4135
926.031	4230
926.138	4177
926.245	4211
926.352	4105
926.459	4295
926.566	4291
926.673	4177
926.779	4044
926.886	4097
926.993	3991
927.099	3960
927.206	3968
927.312	3930
927.419	4017
927.525	4025
927.631	4082
927.737	3968
927.843	3937
927.95	3865
928.056	3968
928.162	4013
928.267	4059
928.373	4740
928.479	4109
928.585	3869
928.69	4017
928.796	4071
928.901	3945
929.007	3854
929.112	3983
929.218	3987
929.323	3945
929.428	3964
929.533	4124
929.638	3941
929.743	3964
929.848	4063
929.953	4013
930.058	3998
930.163	3747
930.267	3869
930.372	4002
930.477	3857
930.581	4090
930.685	3991
930.79	3854
930.894	3915
930.998	3838
931.103	4044
931.207	3717
931.311	3701
931.415	3698
931.519	3523
931.623	3576
