Data from test_V78500241_1038.txt Node
Date: Fri Mar 25 16:56:13 CST 2022
User: usil
Spectrometer: V785-0024
Trigger mode: 0
Integration Time (sec): 4.000000E-1
Scans to average: 1
Nonlinearity correction enabled: false
Boxcar width: 0
Storing dark spectrum: false
XAxis mode: Wavelengths
Number of Pixels in Spectrum: 1024
>>>>>Begin Spectral Data<<<<<
801.071	8008
801.214	8043
801.356	7807
801.499	7837
801.641	7738
801.783	7849
801.926	7986
802.068	7887
802.211	7928
802.353	7947
802.496	7814
802.638	7841
802.78	7875
802.923	7982
803.065	7841
803.208	7883
803.35	7921
803.492	8062
803.635	8191
803.777	8024
803.919	8111
804.061	8423
804.204	8157
804.346	8031
804.488	7940
804.63	8062
804.773	8058
804.915	8001
805.057	8328
805.199	8077
805.341	8153
805.483	8202
805.626	8123
805.768	8069
805.91	8195
806.052	8214
806.194	8119
806.336	8271
806.478	8054
806.62	8077
806.762	8107
806.904	8183
807.046	8446
807.188	8214
807.33	8301
807.472	8248
807.614	8092
807.756	8088
807.898	7986
808.04	7875
808.182	7875
808.324	7803
808.465	7906
808.607	8096
808.749	8043
808.891	8176
809.033	8309
809.174	8225
809.316	8039
809.458	8054
809.6	8016
809.741	8073
809.883	8069
810.025	8024
810.166	8020
810.308	7951
810.45	8020
810.591	7852
810.733	7685
810.875	7643
811.016	7506
811.158	7460
811.299	7552
811.441	7746
811.582	7696
811.724	7533
811.865	7525
812.007	7571
812.148	7594
812.29	7620
812.431	7700
812.573	7940
812.714	7967
812.855	8096
812.997	8202
813.138	8374
813.279	8119
813.421	8084
813.562	8054
813.703	7898
813.845	7780
813.986	7468
814.127	7312
814.268	7198
814.41	7190
814.551	7160
814.692	7095
814.833	7076
814.974	7069
815.115	7088
815.256	6943
815.397	6867
815.539	6958
815.68	6867
815.821	6783
815.962	6814
816.103	6829
816.244	6677
816.385	6585
816.526	6650
816.666	6483
816.807	6300
816.948	6441
817.089	6448
817.23	6456
817.371	6399
817.512	6407
817.653	6388
817.793	6361
817.934	6388
818.075	6452
818.216	6483
818.356	6456
818.497	6281
818.638	6095
818.778	6190
818.919	6129
819.06	6167
819.2	6346
819.341	6285
819.481	6323
819.622	6528
819.762	6719
819.903	6730
820.043	6601
820.184	6582
820.324	6593
820.465	6627
820.605	6654
820.746	6620
820.886	6490
821.026	6593
821.167	6604
821.307	6734
821.447	6684
821.588	6654
821.728	6544
821.868	6555
822.008	6331
822.149	6407
822.289	6319
822.429	6098
822.569	6038
822.709	6083
822.849	5901
822.99	5893
823.13	5931
823.27	5897
823.41	5771
823.55	5741
823.69	5771
823.83	5764
823.97	5630
824.11	5493
824.25	5516
824.389	5512
824.529	5570
824.669	5528
824.809	5577
824.949	5665
825.089	5562
825.228	5543
825.368	5436
825.508	5284
825.648	5372
825.787	5284
825.927	5364
826.067	5326
826.206	5223
826.346	5326
826.485	5387
826.625	5357
826.765	5433
826.904	5410
827.044	5223
827.183	5189
827.323	5113
827.462	5299
827.601	5212
827.741	5181
827.88	5208
828.02	5132
828.159	5223
828.298	5269
828.437	5307
828.577	5284
828.716	5471
828.855	5334
828.994	5189
829.134	5181
829.273	5216
829.412	5102
829.551	5117
829.69	5128
829.829	5227
829.968	5406
830.107	5318
830.246	5246
830.385	5155
830.524	5132
830.663	5041
830.802	4976
830.941	4850
831.08	4862
831.219	4984
831.357	4949
831.496	5155
831.635	4923
831.774	4797
831.913	4858
832.051	4714
832.19	4717
832.329	4831
832.467	4641
832.606	4634
832.744	4717
832.883	4702
833.022	4736
833.16	4778
833.299	4778
833.437	4862
833.576	4858
833.714	4854
833.852	4854
833.991	4870
834.129	4957
834.267	4911
834.406	4923
834.544	4946
834.682	4953
834.821	4961
834.959	5155
835.097	4930
835.235	5147
835.373	5048
835.511	5052
835.65	4995
835.788	5003
835.926	4839
836.064	4889
836.202	4870
836.34	5170
836.478	5208
836.615	5083
836.753	5216
836.891	5250
837.029	5284
837.167	5181
837.305	5159
837.443	5132
837.58	5045
837.718	5189
837.856	5212
837.993	5121
838.131	5242
838.269	5212
838.406	5136
838.544	5136
838.681	5025
838.819	4976
838.956	4820
839.094	4896
839.231	4980
839.369	5094
839.506	5337
839.643	5231
839.781	5090
839.918	4968
840.055	5083
840.193	5060
840.33	5029
840.467	5075
840.604	5178
840.742	5429
840.879	5113
841.016	5075
841.153	5155
841.29	5349
841.427	5349
841.564	5273
841.701	5353
841.838	5269
841.975	5197
842.112	5254
842.249	5170
842.385	5056
842.522	5330
842.659	5197
842.796	5105
842.933	5132
843.069	5143
843.206	5113
843.343	5284
843.479	5204
843.616	5250
843.752	5006
843.889	4991
844.025	5147
844.162	4995
844.298	5185
844.435	5071
844.571	5037
844.708	5136
844.844	5326
844.98	5296
845.117	5326
845.253	5094
845.389	5064
845.525	5132
845.661	5181
845.798	4991
845.934	5071
846.07	5079
846.206	5178
846.342	5250
846.478	5136
846.614	4965
846.75	4949
846.886	4892
847.022	5067
847.158	5052
847.294	5048
847.429	5121
847.565	5033
847.701	5299
847.837	4908
847.972	4782
848.108	4908
848.244	4919
848.379	4763
848.515	4748
848.65	4725
848.786	4729
848.921	4774
849.057	4889
849.192	4847
849.328	4790
849.463	4793
849.598	4790
849.734	4782
849.869	4664
850.004	4630
850.14	4618
850.275	4577
850.41	4527
850.545	4565
850.68	4580
850.815	4565
850.95	4603
851.085	4782
851.22	4763
851.355	4656
851.49	4634
851.625	4603
851.76	4630
851.895	4516
852.03	4500
852.165	4592
852.299	4702
852.434	4782
852.569	4729
852.703	4748
852.838	4843
852.973	4862
853.107	4885
853.242	4706
853.376	4649
853.511	4542
853.645	4592
853.78	4801
853.914	4653
854.048	4660
854.183	4653
854.317	4691
854.451	4854
854.585	4683
854.72	4611
854.854	4790
854.988	4596
855.122	4599
855.256	4470
855.39	4653
855.524	4767
855.658	4702
855.792	4679
855.926	4675
856.06	4691
856.194	4752
856.327	4668
856.461	4626
856.595	4580
856.729	4626
856.862	4702
856.996	4660
857.13	4706
857.263	4759
857.397	4774
857.53	4637
857.664	4740
857.797	4767
857.931	4748
858.064	4664
858.197	4714
858.331	4649
858.464	4596
858.597	4516
858.731	4558
858.864	4637
858.997	4599
859.13	4672
859.263	4691
859.396	4694
859.529	4588
859.662	4538
859.795	4542
859.928	4641
860.061	4736
860.194	4706
860.327	4569
860.46	4558
860.592	4721
860.725	4672
860.858	4733
860.99	4558
861.123	4527
861.256	4538
861.388	4599
861.521	5311
861.653	4470
861.786	4436
861.918	4489
862.05	4527
862.183	4523
862.315	4584
862.447	4675
862.58	4573
862.712	4367
862.844	4314
862.976	4493
863.108	4466
863.24	4885
863.372	4287
863.504	4417
863.636	4402
863.768	4462
863.9	4421
864.032	4398
864.164	4386
864.296	4462
864.428	4558
864.559	4508
864.691	4481
864.823	4523
864.954	4504
865.086	4485
865.217	4417
865.349	4386
865.48	4432
865.612	4489
865.743	4607
865.875	4493
866.006	4398
866.137	4447
866.269	4440
866.4	4390
866.531	4386
866.662	4428
866.793	4363
866.924	4409
867.055	4459
867.186	4443
867.317	4436
867.448	4363
867.579	4344
867.71	4398
867.841	4375
867.972	4432
868.103	4440
868.233	4478
868.364	4424
868.495	4478
868.625	4683
868.756	4725
868.886	4603
869.017	4565
869.147	4755
869.278	4710
869.408	4607
869.539	4603
869.669	4626
869.799	4615
869.929	4782
870.06	4755
870.19	4942
870.32	4877
870.45	4854
870.58	4976
870.71	5105
870.84	5067
870.97	4961
871.1	4850
871.23	5132
871.36	5048
871.489	5048
871.619	5045
871.749	5048
871.879	5094
872.008	5201
872.138	5075
872.267	4957
872.397	4866
872.526	4782
872.656	4721
872.785	4870
872.915	4976
873.044	5056
873.173	4949
873.303	4976
873.432	4934
873.561	4957
873.69	4839
873.819	4862
873.948	4892
874.077	4790
874.206	4786
874.335	4793
874.464	4862
874.593	5014
874.722	4938
874.851	5029
874.979	5022
875.108	5006
875.237	4961
875.365	4889
875.494	4896
875.623	4919
875.751	4812
875.88	4866
876.008	4965
876.136	5060
876.265	5223
876.393	5318
876.521	5227
876.65	5258
876.778	5109
876.906	5086
877.034	4984
877.162	5006
877.29	4961
877.418	5037
877.546	5018
877.674	5060
877.802	5010
877.93	4995
878.058	4889
878.185	4885
878.313	4949
878.441	4923
878.568	4771
878.696	4839
878.824	4976
878.951	4938
879.079	5037
879.206	5223
879.333	5086
879.461	4911
879.588	5003
879.715	5155
879.842	5178
879.97	5006
880.097	4771
880.224	4748
880.351	4816
880.478	4752
880.605	4816
880.732	4790
880.859	5083
880.986	4911
881.112	4949
881.239	4740
881.366	4637
881.493	4596
881.619	4558
881.746	4599
881.872	4649
881.999	4656
882.125	4698
882.252	4755
882.378	4790
882.505	4923
882.631	4805
882.757	4622
882.883	4714
883.01	4710
883.136	4694
883.262	4569
883.388	4634
883.514	4801
883.64	4850
883.766	4778
883.892	4660
884.018	4721
884.143	4847
884.269	5067
884.395	4687
884.52	4603
884.646	4687
884.772	4531
884.897	4588
885.023	4656
885.148	4755
885.274	4850
885.399	4759
885.524	4664
885.65	4691
885.775	4790
885.9	4725
886.025	4828
886.15	4778
886.275	4706
886.4	4634
886.525	4714
886.65	4721
886.775	4702
886.9	4908
887.025	5029
887.149	4812
887.274	4649
887.399	4599
887.523	4580
887.648	4527
887.773	4554
887.897	4771
888.021	4763
888.146	4645
888.27	4748
888.395	4919
888.519	4870
888.643	4805
888.767	4812
888.891	4637
889.015	4584
889.139	4656
889.263	4607
889.387	4748
889.511	4816
889.635	4771
889.759	4630
889.883	4653
890.006	4763
890.13	4820
890.254	4641
890.377	4649
890.501	4500
890.624	4535
890.748	4622
890.871	4504
890.995	4436
891.118	4390
891.241	4504
891.364	4531
891.488	4687
891.611	4443
891.734	4516
891.857	4599
891.98	4573
892.103	4599
892.226	4554
892.349	4538
892.471	4428
892.594	4569
892.717	4558
892.839	4573
892.962	4561
893.085	4683
893.207	4550
893.33	4428
893.452	4512
893.575	4679
893.697	4569
893.819	4801
893.941	4835
894.064	4736
894.186	4561
894.308	4516
894.43	4710
894.552	4782
894.674	4744
894.796	4523
894.918	4611
895.04	4504
895.161	4721
895.283	4653
895.405	4573
895.526	4618
895.648	4660
895.769	4675
895.891	4748
896.012	4714
896.134	4755
896.255	4668
896.376	4653
896.498	4599
896.619	4653
896.74	4611
896.861	4664
896.982	4919
897.103	5060
897.224	4824
897.345	4706
897.466	4679
897.587	4759
897.708	4801
897.828	4801
897.949	4668
898.07	4565
898.19	4634
898.311	4809
898.431	4641
898.552	4733
898.672	4774
898.792	4752
898.913	4729
899.033	4645
899.153	4531
899.273	4443
899.393	4508
899.513	4493
899.633	4512
899.753	4573
899.873	4413
899.993	4535
900.113	4504
900.232	4561
900.352	4516
900.472	4466
900.591	4375
900.711	4497
900.83	4432
900.95	4607
901.069	4653
901.189	4542
901.308	4325
901.427	4322
901.546	4386
901.665	4462
901.784	4440
901.904	4360
902.023	4363
902.141	4227
902.26	4200
902.379	4314
902.498	4261
902.617	4188
902.735	4398
902.854	4394
902.973	4333
903.091	4204
903.21	4234
903.328	4295
903.446	4303
903.565	4253
903.683	4341
903.801	4265
903.919	4322
904.038	4440
904.156	4318
904.274	4417
904.392	4398
904.51	4413
904.627	4451
904.745	4607
904.863	4687
904.981	4325
905.098	4291
905.216	4363
905.334	4405
905.451	4474
905.569	4436
905.686	4512
905.803	4618
905.921	4428
906.038	4554
906.155	4455
906.272	4409
906.389	4424
906.506	4322
906.623	4341
906.74	4383
906.857	4276
906.974	4379
907.091	4535
907.208	4634
907.324	4577
907.441	4538
907.557	4329
907.674	4344
907.79	4310
907.907	4386
908.023	4455
908.139	4493
908.256	4417
908.372	4478
908.488	4466
908.604	4333
908.72	4333
908.836	4356
908.952	4348
909.068	4443
909.184	4565
909.3	4462
909.415	4580
909.531	4538
909.647	4371
909.762	4344
909.878	4383
909.993	4413
910.108	4417
910.224	4443
910.339	4462
910.454	4390
910.57	4371
910.685	4303
910.8	4656
910.915	4577
911.03	4455
911.145	4341
911.259	4303
911.374	4398
911.489	4310
911.604	4246
911.718	4181
911.833	4181
911.947	4093
912.062	4002
912.176	4173
912.291	4272
912.405	4234
912.519	4466
912.633	4455
912.748	4344
912.862	4287
912.976	4200
913.09	4124
913.204	4219
913.318	4265
913.431	4360
913.545	4398
913.659	4462
913.772	4363
913.886	4246
914	4211
914.113	4310
914.226	4409
914.34	4363
914.453	4242
914.566	4443
914.68	4287
914.793	4325
914.906	4173
915.019	4101
915.132	4029
915.245	4154
915.358	4188
915.47	4238
915.583	4253
915.696	4314
915.809	4386
915.921	4405
916.034	4268
916.146	4227
916.259	4181
916.371	4375
916.483	4360
916.595	4276
916.708	4318
916.82	4265
916.932	4280
917.044	4272
917.156	4341
917.268	4230
917.38	4246
917.491	4249
917.603	4314
917.715	4398
917.826	4470
917.938	4367
918.049	4261
918.161	4360
918.272	4504
918.384	4569
918.495	4459
918.606	4325
918.717	4223
918.828	4303
918.939	4371
919.05	4242
919.161	4325
919.272	4074
919.383	4234
919.494	4421
919.604	4637
919.715	4398
919.826	4341
919.936	4390
920.047	4523
920.157	4443
920.267	4702
920.378	4500
920.488	4519
920.598	4691
920.708	4812
920.818	4748
920.928	4771
921.038	4972
921.148	4873
921.258	4626
921.368	4546
921.477	4489
921.587	4413
921.697	4383
921.806	4516
921.916	4417
922.025	4238
922.134	4268
922.244	4253
922.353	4268
922.462	4173
922.571	4097
922.68	4025
922.789	3945
922.898	3979
923.007	3964
923.116	4082
923.224	4051
923.333	4082
923.442	3983
923.55	3945
923.659	3991
923.767	4105
923.876	4017
923.984	4120
924.092	3991
924.201	4048
924.309	4063
924.417	4097
924.525	4044
924.633	4124
924.741	5010
924.849	3880
924.956	4116
925.064	3937
925.172	3915
925.279	3975
925.387	4071
925.494	4071
925.602	4196
925.709	4166
925.816	4032
925.924	4105
926.031	4188
926.138	4173
926.245	4211
926.352	4124
926.459	4200
926.566	4249
926.673	4188
926.779	4059
926.886	4002
926.993	3945
927.099	3991
927.206	3953
927.312	3934
927.419	4055
927.525	3994
927.631	4105
927.737	4010
927.843	3941
927.95	3800
928.056	3930
928.162	4032
928.267	4048
928.373	4637
928.479	4063
928.585	3892
928.69	4013
928.796	4093
928.901	3968
929.007	3823
929.112	4029
929.218	3987
929.323	3934
929.428	3983
929.533	4093
929.638	3915
929.743	3915
929.848	4055
929.953	3956
930.058	3937
930.163	3785
930.267	3827
930.372	3930
930.477	3816
930.581	4093
930.685	3922
930.79	3781
930.894	3842
930.998	3854
931.103	4067
931.207	3698
931.311	3660
931.415	3618
931.519	3542
931.623	3500
