Data from test_V78500241_244.txt Node
Date: Fri Mar 25 16:50:41 CST 2022
User: usil
Spectrometer: V785-0024
Trigger mode: 0
Integration Time (sec): 4.000000E-1
Scans to average: 1
Nonlinearity correction enabled: false
Boxcar width: 0
Storing dark spectrum: false
XAxis mode: Wavelengths
Number of Pixels in Spectrum: 1024
>>>>>Begin Spectral Data<<<<<
801.071	8050
801.214	7963
801.356	7833
801.499	7917
801.641	7772
801.783	7807
801.926	7951
802.068	7959
802.211	7921
802.353	8031
802.496	7951
802.638	7879
802.78	7986
802.923	7894
803.065	7879
803.208	7814
803.35	8008
803.492	8043
803.635	8202
803.777	8035
803.919	8103
804.061	8412
804.204	8176
804.346	8039
804.488	7925
804.63	8115
804.773	8024
804.915	8103
805.057	8309
805.199	8081
805.341	8195
805.483	8218
805.626	8233
805.768	8065
805.91	8126
806.052	8161
806.194	8077
806.336	8313
806.478	8138
806.62	8008
806.762	8084
806.904	8183
807.046	8393
807.188	8332
807.33	8351
807.472	8267
807.614	8123
807.756	8088
807.898	7959
808.04	7909
808.182	7849
808.324	7879
808.465	7913
808.607	8130
808.749	8176
808.891	8214
809.033	8294
809.174	8153
809.316	8069
809.458	8058
809.6	8005
809.741	8077
809.883	8050
810.025	8020
810.166	8054
810.308	8084
810.45	8024
810.591	7894
810.733	7769
810.875	7677
811.016	7510
811.158	7552
811.299	7662
811.441	7719
811.582	7655
811.724	7582
811.865	7575
812.007	7601
812.148	7571
812.29	7715
812.431	7719
812.573	7860
812.714	7947
812.855	8206
812.997	8252
813.138	8370
813.279	8168
813.421	8111
813.562	8058
813.703	7879
813.845	7757
813.986	7438
814.127	7225
814.268	7232
814.41	7232
814.551	7236
814.692	7118
814.833	7061
814.974	7133
815.115	7133
815.256	7004
815.397	6981
815.539	7000
815.68	6837
815.821	6787
815.962	6886
816.103	6833
816.244	6726
816.385	6597
816.526	6623
816.666	6521
816.807	6315
816.948	6460
817.089	6486
817.23	6395
817.371	6342
817.512	6372
817.653	6372
817.793	6338
817.934	6403
818.075	6471
818.216	6445
818.356	6407
818.497	6194
818.638	6133
818.778	6167
818.919	6125
819.06	6178
819.2	6311
819.341	6311
819.481	6384
819.622	6525
819.762	6677
819.903	6692
820.043	6540
820.184	6532
820.324	6563
820.465	6662
820.605	6650
820.746	6616
820.886	6479
821.026	6589
821.167	6688
821.307	6787
821.447	6700
821.588	6692
821.728	6475
821.868	6498
822.008	6311
822.149	6338
822.289	6399
822.429	6171
822.569	6068
822.709	6106
822.849	5958
822.99	5916
823.13	5908
823.27	5874
823.41	5760
823.55	5786
823.69	5805
823.83	5851
823.97	5649
824.11	5528
824.25	5512
824.389	5600
824.529	5558
824.669	5471
824.809	5604
824.949	5707
825.089	5653
825.228	5539
825.368	5368
825.508	5368
825.648	5337
825.787	5414
825.927	5357
826.067	5326
826.206	5280
826.346	5334
826.485	5364
826.625	5463
826.765	5539
826.904	5543
827.044	5261
827.183	5246
827.323	5128
827.462	5341
827.601	5212
827.741	5204
827.88	5261
828.02	5170
828.159	5273
828.298	5277
828.437	5326
828.577	5261
828.716	5501
828.855	5318
828.994	5132
829.134	5170
829.273	5193
829.412	5124
829.551	5147
829.69	5193
829.829	5216
829.968	5383
830.107	5212
830.246	5296
830.385	5201
830.524	5140
830.663	5056
830.802	5003
830.941	4923
831.08	4911
831.219	4965
831.357	4957
831.496	5113
831.635	4862
831.774	4850
831.913	4847
832.051	4721
832.19	4748
832.329	4858
832.467	4687
832.606	4615
832.744	4725
832.883	4725
833.022	4694
833.16	4805
833.299	4843
833.437	4809
833.576	4866
833.714	4870
833.852	4866
833.991	4896
834.129	4949
834.267	4999
834.406	4919
834.544	4984
834.682	4965
834.821	5010
834.959	5147
835.097	4976
835.235	5140
835.373	5113
835.511	5113
835.65	5060
835.788	5033
835.926	4904
836.064	4889
836.202	4953
836.34	5170
836.478	5235
836.615	5155
836.753	5235
836.891	5288
837.029	5315
837.167	5185
837.305	5204
837.443	5174
837.58	5060
837.718	5315
837.856	5204
837.993	5121
838.131	5212
838.269	5201
838.406	5212
838.544	5147
838.681	5025
838.819	5052
838.956	4930
839.094	4976
839.231	4930
839.369	5071
839.506	5391
839.643	5269
839.781	5052
839.918	4972
840.055	5071
840.193	5132
840.33	5102
840.467	5162
840.604	5208
840.742	5429
840.879	5048
841.016	5090
841.153	5113
841.29	5299
841.427	5334
841.564	5303
841.701	5322
841.838	5265
841.975	5239
842.112	5254
842.249	5102
842.385	5075
842.522	5326
842.659	5204
842.796	5170
842.933	5201
843.069	5181
843.206	5136
843.343	5280
843.479	5227
843.616	5246
843.752	5010
843.889	5025
844.025	5231
844.162	4987
844.298	5197
844.435	5117
844.571	5022
844.708	5220
844.844	5303
844.98	5326
845.117	5277
845.253	5102
845.389	5056
845.525	5155
845.661	5162
845.798	5083
845.934	5086
846.07	5033
846.206	5220
846.342	5307
846.478	5242
846.614	5045
846.75	4942
846.886	4896
847.022	5132
847.158	5048
847.294	5075
847.429	5071
847.565	5064
847.701	5292
847.837	4809
847.972	4828
848.108	4938
848.244	4984
848.379	4786
848.515	4748
848.65	4729
848.786	4755
848.921	4831
849.057	4828
849.192	4908
849.328	4812
849.463	4835
849.598	4729
849.734	4752
849.869	4675
850.004	4668
850.14	4675
850.275	4592
850.41	4519
850.545	4531
850.68	4573
850.815	4637
850.95	4653
851.085	4870
851.22	4790
851.355	4679
851.49	4603
851.625	4565
851.76	4611
851.895	4546
852.03	4569
852.165	4626
852.299	4668
852.434	4767
852.569	4683
852.703	4786
852.838	4820
852.973	4942
853.107	4949
853.242	4793
853.376	4717
853.511	4554
853.645	4645
853.78	4805
853.914	4649
854.048	4675
854.183	4672
854.317	4694
854.451	4850
854.585	4668
854.72	4630
854.854	4755
854.988	4637
855.122	4641
855.256	4561
855.39	4679
855.524	4820
855.658	4771
855.792	4717
855.926	4740
856.06	4771
856.194	4763
856.327	4698
856.461	4622
856.595	4580
856.729	4637
856.862	4763
856.996	4694
857.13	4694
857.263	4748
857.397	4793
857.53	4691
857.664	4740
857.797	4801
857.931	4801
858.064	4721
858.197	4752
858.331	4675
858.464	4607
858.597	4500
858.731	4634
858.864	4702
858.997	4573
859.13	4653
859.263	4706
859.396	4656
859.529	4577
859.662	4573
859.795	4569
859.928	4622
860.061	4744
860.194	4774
860.327	4622
860.46	4618
860.592	4691
860.725	4714
860.858	4733
860.99	4535
861.123	4538
861.256	4504
861.388	4653
861.521	5417
861.653	4531
861.786	4447
861.918	4436
862.05	4519
862.183	4538
862.315	4641
862.447	4634
862.58	4554
862.712	4371
862.844	4299
862.976	4455
863.108	4440
863.24	4866
863.372	4310
863.504	4402
863.636	4386
863.768	4478
863.9	4424
864.032	4375
864.164	4405
864.296	4459
864.428	4554
864.559	4569
864.691	4519
864.823	4519
864.954	4512
865.086	4519
865.217	4504
865.349	4409
865.48	4428
865.612	4493
865.743	4656
865.875	4451
866.006	4440
866.137	4459
866.269	4455
866.4	4443
866.531	4390
866.662	4405
866.793	4432
866.924	4386
867.055	4523
867.186	4485
867.317	4443
867.448	4352
867.579	4421
867.71	4440
867.841	4371
867.972	4489
868.103	4462
868.233	4455
868.364	4398
868.495	4493
868.625	4702
868.756	4752
868.886	4550
869.017	4622
869.147	4774
869.278	4767
869.408	4637
869.539	4691
869.669	4694
869.799	4630
869.929	4755
870.06	4763
870.19	4984
870.32	4949
870.45	4942
870.58	5010
870.71	5121
870.84	5083
870.97	4968
871.1	4904
871.23	5121
871.36	5083
871.489	5029
871.619	5094
871.749	5090
871.879	5147
872.008	5174
872.138	5010
872.267	4949
872.397	4873
872.526	4820
872.656	4717
872.785	4877
872.915	4984
873.044	5048
873.173	4980
873.303	4965
873.432	4961
873.561	4972
873.69	4896
873.819	4835
873.948	4900
874.077	4870
874.206	4759
874.335	4831
874.464	4904
874.593	5033
874.722	4976
874.851	5136
874.979	5060
875.108	5025
875.237	4915
875.365	4892
875.494	4873
875.623	4965
875.751	4801
875.88	4938
876.008	4953
876.136	5113
876.265	5204
876.393	5345
876.521	5246
876.65	5273
876.778	5121
876.906	5056
877.034	5025
877.162	5079
877.29	4999
877.418	5048
877.546	5041
877.674	5048
877.802	5041
877.93	4999
878.058	4934
878.185	4858
878.313	4968
878.441	4919
878.568	4797
878.696	4896
878.824	4976
878.951	5010
879.079	5143
879.206	5258
879.333	5113
879.461	4976
879.588	4995
879.715	5121
879.842	5227
879.97	5018
880.097	4812
880.224	4771
880.351	4839
880.478	4885
880.605	4793
880.732	4782
880.859	5098
880.986	4919
881.112	4949
881.239	4782
881.366	4691
881.493	4630
881.619	4558
881.746	4653
881.872	4683
881.999	4592
882.125	4717
882.252	4763
882.378	4866
882.505	4980
882.631	4782
882.757	4736
882.883	4736
883.01	4687
883.136	4687
883.262	4615
883.388	4618
883.514	4801
883.64	4889
883.766	4824
883.892	4679
884.018	4691
884.143	4892
884.269	5052
884.395	4679
884.52	4630
884.646	4660
884.772	4618
884.897	4603
885.023	4706
885.148	4782
885.274	4915
885.399	4839
885.524	4748
885.65	4683
885.775	4778
885.9	4717
886.025	4847
886.15	4778
886.275	4733
886.4	4634
886.525	4763
886.65	4691
886.775	4675
886.9	4957
887.025	5010
887.149	4778
887.274	4649
887.399	4596
887.523	4611
887.648	4603
887.773	4603
887.897	4805
888.021	4793
888.146	4645
888.27	4812
888.395	4896
888.519	4843
888.643	4797
888.767	4843
888.891	4698
889.015	4675
889.139	4672
889.263	4634
889.387	4759
889.511	4877
889.635	4790
889.759	4626
889.883	4679
890.006	4748
890.13	4828
890.254	4615
890.377	4694
890.501	4580
890.624	4500
890.748	4641
890.871	4516
890.995	4466
891.118	4413
891.241	4550
891.364	4554
891.488	4615
891.611	4550
891.734	4561
891.857	4550
891.98	4542
892.103	4664
892.226	4660
892.349	4565
892.471	4409
892.594	4569
892.717	4611
892.839	4535
892.962	4622
893.085	4672
893.207	4596
893.33	4485
893.452	4523
893.575	4664
893.697	4592
893.819	4839
893.941	4824
894.064	4778
894.186	4596
894.308	4546
894.43	4736
894.552	4824
894.674	4744
894.796	4527
894.918	4596
895.04	4573
895.161	4706
895.283	4664
895.405	4580
895.526	4675
895.648	4691
895.769	4679
895.891	4687
896.012	4725
896.134	4763
896.255	4653
896.376	4637
896.498	4660
896.619	4691
896.74	4645
896.861	4630
896.982	4923
897.103	5048
897.224	4839
897.345	4778
897.466	4649
897.587	4679
897.708	4782
897.828	4805
897.949	4664
898.07	4615
898.19	4653
898.311	4858
898.431	4641
898.552	4755
898.672	4812
898.792	4755
898.913	4725
899.033	4637
899.153	4493
899.273	4466
899.393	4485
899.513	4516
899.633	4523
899.753	4542
899.873	4500
899.993	4573
900.113	4546
900.232	4596
900.352	4546
900.472	4497
900.591	4421
900.711	4470
900.83	4447
900.95	4615
901.069	4660
901.189	4588
901.308	4360
901.427	4322
901.546	4455
901.665	4500
901.784	4531
901.904	4424
902.023	4344
902.141	4200
902.26	4200
902.379	4314
902.498	4287
902.617	4261
902.735	4390
902.854	4436
902.973	4440
903.091	4219
903.21	4242
903.328	4322
903.446	4310
903.565	4261
903.683	4383
903.801	4265
903.919	4432
904.038	4451
904.156	4303
904.274	4447
904.392	4371
904.51	4394
904.627	4462
904.745	4554
904.863	4634
904.981	4398
905.098	4333
905.216	4379
905.334	4424
905.451	4447
905.569	4405
905.686	4580
905.803	4538
905.921	4383
906.038	4573
906.155	4459
906.272	4371
906.389	4455
906.506	4379
906.623	4383
906.74	4398
906.857	4348
906.974	4367
907.091	4527
907.208	4698
907.324	4603
907.441	4493
907.557	4341
907.674	4398
907.79	4310
907.907	4371
908.023	4497
908.139	4481
908.256	4394
908.372	4504
908.488	4462
908.604	4352
908.72	4348
908.836	4379
908.952	4360
909.068	4462
909.184	4580
909.3	4466
909.415	4607
909.531	4573
909.647	4360
909.762	4394
909.878	4344
909.993	4390
910.108	4383
910.224	4371
910.339	4535
910.454	4436
910.57	4375
910.685	4322
910.8	4717
910.915	4596
911.03	4519
911.145	4322
911.259	4329
911.374	4356
911.489	4287
911.604	4299
911.718	4188
911.833	4211
911.947	4063
912.062	4040
912.176	4204
912.291	4261
912.405	4246
912.519	4478
912.633	4523
912.748	4383
912.862	4344
912.976	4204
913.09	4101
913.204	4154
913.318	4272
913.431	4402
913.545	4356
913.659	4478
913.772	4379
913.886	4230
914	4227
914.113	4398
914.226	4478
914.34	4383
914.453	4238
914.566	4432
914.68	4291
914.793	4329
914.906	4196
915.019	4116
915.132	4120
915.245	4147
915.358	4215
915.47	4238
915.583	4272
915.696	4310
915.809	4371
915.921	4489
916.034	4234
916.146	4230
916.259	4261
916.371	4379
916.483	4383
916.595	4291
916.708	4341
916.82	4303
916.932	4344
917.044	4318
917.156	4314
917.268	4238
917.38	4295
917.491	4287
917.603	4303
917.715	4344
917.826	4436
917.938	4348
918.049	4284
918.161	4371
918.272	4561
918.384	4580
918.495	4424
918.606	4337
918.717	4268
918.828	4360
918.939	4375
919.05	4303
919.161	4287
919.272	4124
919.383	4234
919.494	4424
919.604	4637
919.715	4455
919.826	4329
919.936	4394
920.047	4546
920.157	4478
920.267	4702
920.378	4573
920.488	4558
920.598	4679
920.708	4904
920.818	4744
920.928	4736
921.038	4976
921.148	4889
921.258	4607
921.368	4599
921.477	4474
921.587	4466
921.697	4409
921.806	4580
921.916	4459
922.025	4276
922.134	4272
922.244	4230
922.353	4371
922.462	4227
922.571	4154
922.68	4002
922.789	3987
922.898	4074
923.007	4013
923.116	4112
923.224	4071
923.333	4074
923.442	3937
923.55	4029
923.659	4040
923.767	4131
923.876	4029
923.984	4131
924.092	4006
924.201	4135
924.309	4090
924.417	4124
924.525	4067
924.633	4143
924.741	5083
924.849	3907
924.956	4143
925.064	3934
925.172	3907
925.279	3964
925.387	4048
925.494	4032
925.602	4227
925.709	4173
925.816	4071
925.924	4173
926.031	4261
926.138	4166
926.245	4227
926.352	4105
926.459	4234
926.566	4356
926.673	4139
926.779	4086
926.886	4105
926.993	3979
927.099	3964
927.206	3915
927.312	3926
927.419	4082
927.525	3987
927.631	4116
927.737	3991
927.843	3907
927.95	3842
928.056	3956
928.162	3975
928.267	4032
928.373	4618
928.479	4135
928.585	3892
928.69	4017
928.796	4124
928.901	4055
929.007	3861
929.112	4021
929.218	3991
929.323	3987
929.428	3876
929.533	4071
929.638	3937
929.743	4002
929.848	4032
929.953	4006
930.058	3964
930.163	3800
930.267	3842
930.372	3994
930.477	3804
930.581	4090
930.685	3987
930.79	3808
930.894	3922
930.998	3850
931.103	4036
931.207	3717
931.311	3690
931.415	3698
931.519	3530
931.623	3538
