Data from test_V78500241_774.txt Node
Date: Fri Mar 25 16:54:23 CST 2022
User: usil
Spectrometer: V785-0024
Trigger mode: 0
Integration Time (sec): 4.000000E-1
Scans to average: 1
Nonlinearity correction enabled: false
Boxcar width: 0
Storing dark spectrum: false
XAxis mode: Wavelengths
Number of Pixels in Spectrum: 1024
>>>>>Begin Spectral Data<<<<<
801.071	7959
801.214	8008
801.356	7909
801.499	7887
801.641	7799
801.783	7833
801.926	8001
802.068	7913
802.211	7986
802.353	7963
802.496	7906
802.638	7868
802.78	7894
802.923	7967
803.065	7913
803.208	7940
803.35	8016
803.492	8054
803.635	8168
803.777	8119
803.919	8103
804.061	8324
804.204	8088
804.346	8069
804.488	7970
804.63	8088
804.773	8050
804.915	8145
805.057	8290
805.199	8218
805.341	8180
805.483	8237
805.626	8191
805.768	8092
805.91	8195
806.052	8176
806.194	8119
806.336	8313
806.478	8077
806.62	8054
806.762	8115
806.904	8225
807.046	8461
807.188	8305
807.33	8233
807.472	8355
807.614	8130
807.756	8123
807.898	8016
808.04	7849
808.182	7871
808.324	7807
808.465	7947
808.607	8039
808.749	8069
808.891	8218
809.033	8309
809.174	8115
809.316	8126
809.458	8050
809.6	7928
809.741	8081
809.883	8012
810.025	8130
810.166	8077
810.308	8001
810.45	8062
810.591	7947
810.733	7769
810.875	7719
811.016	7548
811.158	7453
811.299	7582
811.441	7696
811.582	7704
811.724	7563
811.865	7518
812.007	7658
812.148	7613
812.29	7525
812.431	7704
812.573	7818
812.714	7978
812.855	8084
812.997	8206
813.138	8332
813.279	8157
813.421	8111
813.562	7989
813.703	7868
813.845	7792
813.986	7464
814.127	7266
814.268	7209
814.41	7145
814.551	7107
814.692	7149
814.833	7053
814.974	7057
815.115	7057
815.256	6951
815.397	6943
815.539	6947
815.68	6795
815.821	6772
815.962	6878
816.103	6745
816.244	6673
816.385	6623
816.526	6616
816.666	6475
816.807	6285
816.948	6464
817.089	6479
817.23	6399
817.371	6429
817.512	6372
817.653	6391
817.793	6388
817.934	6376
818.075	6448
818.216	6433
818.356	6357
818.497	6235
818.638	6117
818.778	6136
818.919	6140
819.06	6106
819.2	6342
819.341	6285
819.481	6384
819.622	6578
819.762	6669
819.903	6665
820.043	6597
820.184	6563
820.324	6639
820.465	6722
820.605	6662
820.746	6631
820.886	6490
821.026	6623
821.167	6722
821.307	6806
821.447	6715
821.588	6635
821.728	6540
821.868	6471
822.008	6342
822.149	6395
822.289	6338
822.429	6117
822.569	6091
822.709	6136
822.849	5935
822.99	5916
823.13	5961
823.27	5897
823.41	5832
823.55	5752
823.69	5821
823.83	5809
823.97	5642
824.11	5535
824.25	5524
824.389	5562
824.529	5608
824.669	5589
824.809	5653
824.949	5653
825.089	5604
825.228	5539
825.368	5395
825.508	5349
825.648	5353
825.787	5357
825.927	5349
826.067	5307
826.206	5299
826.346	5478
826.485	5410
826.625	5414
826.765	5532
826.904	5501
827.044	5269
827.183	5223
827.323	5098
827.462	5277
827.601	5181
827.741	5216
827.88	5265
828.02	5121
828.159	5212
828.298	5246
828.437	5334
828.577	5311
828.716	5524
828.855	5341
828.994	5147
829.134	5147
829.273	5208
829.412	5094
829.551	5113
829.69	5159
829.829	5261
829.968	5337
830.107	5280
830.246	5318
830.385	5201
830.524	5181
830.663	5109
830.802	4995
830.941	4885
831.08	4881
831.219	4927
831.357	4987
831.496	5117
831.635	4927
831.774	4824
831.913	4843
832.051	4759
832.19	4767
832.329	4816
832.467	4717
832.606	4603
832.744	4763
832.883	4729
833.022	4694
833.16	4820
833.299	4820
833.437	4805
833.576	4850
833.714	4885
833.852	4866
833.991	4930
834.129	4923
834.267	5003
834.406	4938
834.544	4911
834.682	5006
834.821	5003
834.959	5143
835.097	5018
835.235	5147
835.373	5083
835.511	5083
835.65	5067
835.788	5041
835.926	4896
836.064	4873
836.202	4919
836.34	5204
836.478	5212
836.615	5132
836.753	5185
836.891	5307
837.029	5231
837.167	5201
837.305	5193
837.443	5117
837.58	5090
837.718	5235
837.856	5159
837.993	5185
838.131	5269
838.269	5166
838.406	5216
838.544	5166
838.681	5086
838.819	5041
838.956	4896
839.094	4892
839.231	4999
839.369	5056
839.506	5376
839.643	5269
839.781	5041
839.918	5010
840.055	5029
840.193	5094
840.33	5090
840.467	5170
840.604	5128
840.742	5474
840.879	5060
841.016	5086
841.153	5079
841.29	5345
841.427	5330
841.564	5364
841.701	5383
841.838	5250
841.975	5212
842.112	5265
842.249	5147
842.385	5105
842.522	5334
842.659	5147
842.796	5155
842.933	5231
843.069	5174
843.206	5189
843.343	5303
843.479	5216
843.616	5322
843.752	5067
843.889	4953
844.025	5201
844.162	4991
844.298	5159
844.435	5083
844.571	5052
844.708	5170
844.844	5334
844.98	5398
845.117	5334
845.253	5105
845.389	5086
845.525	5102
845.661	5128
845.798	5064
845.934	5124
846.07	5014
846.206	5220
846.342	5250
846.478	5170
846.614	4999
846.75	4965
846.886	4892
847.022	5181
847.158	5003
847.294	5003
847.429	5098
847.565	5094
847.701	5296
847.837	4847
847.972	4831
848.108	4976
848.244	4908
848.379	4759
848.515	4733
848.65	4721
848.786	4771
848.921	4752
849.057	4881
849.192	4850
849.328	4774
849.463	4843
849.598	4786
849.734	4759
849.869	4744
850.004	4698
850.14	4672
850.275	4580
850.41	4535
850.545	4531
850.68	4561
850.815	4596
850.95	4626
851.085	4870
851.22	4767
851.355	4710
851.49	4599
851.625	4611
851.76	4607
851.895	4558
852.03	4523
852.165	4656
852.299	4744
852.434	4748
852.569	4733
852.703	4816
852.838	4797
852.973	4934
853.107	4957
853.242	4755
853.376	4683
853.511	4577
853.645	4599
853.78	4801
853.914	4664
854.048	4637
854.183	4645
854.317	4691
854.451	4858
854.585	4649
854.72	4641
854.854	4740
854.988	4603
855.122	4641
855.256	4523
855.39	4649
855.524	4797
855.658	4672
855.792	4729
855.926	4729
856.06	4748
856.194	4774
856.327	4714
856.461	4615
856.595	4607
856.729	4580
856.862	4740
856.996	4710
857.13	4717
857.263	4721
857.397	4816
857.53	4611
857.664	4729
857.797	4797
857.931	4774
858.064	4649
858.197	4771
858.331	4664
858.464	4592
858.597	4519
858.731	4653
858.864	4626
858.997	4630
859.13	4637
859.263	4660
859.396	4755
859.529	4554
859.662	4527
859.795	4508
859.928	4634
860.061	4778
860.194	4767
860.327	4558
860.46	4588
860.592	4729
860.725	4691
860.858	4717
860.99	4504
861.123	4519
861.256	4546
861.388	4607
861.521	5368
861.653	4466
861.786	4443
861.918	4462
862.05	4481
862.183	4588
862.315	4580
862.447	4668
862.58	4561
862.712	4356
862.844	4291
862.976	4500
863.108	4459
863.24	4873
863.372	4303
863.504	4398
863.636	4432
863.768	4527
863.9	4394
864.032	4394
864.164	4436
864.296	4466
864.428	4569
864.559	4527
864.691	4516
864.823	4497
864.954	4512
865.086	4508
865.217	4489
865.349	4455
865.48	4493
865.612	4531
865.743	4603
865.875	4493
866.006	4386
866.137	4489
866.269	4459
866.4	4440
866.531	4413
866.662	4428
866.793	4432
866.924	4424
867.055	4493
867.186	4455
867.317	4421
867.448	4390
867.579	4409
867.71	4379
867.841	4360
867.972	4455
868.103	4508
868.233	4424
868.364	4417
868.495	4405
868.625	4656
868.756	4748
868.886	4565
869.017	4634
869.147	4725
869.278	4740
869.408	4634
869.539	4637
869.669	4733
869.799	4691
869.929	4744
870.06	4702
870.19	4930
870.32	4896
870.45	4904
870.58	5003
870.71	5090
870.84	5105
870.97	4949
871.1	4911
871.23	5143
871.36	5155
871.489	4984
871.619	5060
871.749	5071
871.879	5086
872.008	5136
872.138	5022
872.267	4949
872.397	4782
872.526	4790
872.656	4714
872.785	4812
872.915	4934
873.044	5018
873.173	4919
873.303	4953
873.432	4911
873.561	4991
873.69	4866
873.819	4870
873.948	4900
874.077	4816
874.206	4725
874.335	4774
874.464	4923
874.593	5041
874.722	4938
874.851	5083
874.979	5033
875.108	5018
875.237	4900
875.365	4835
875.494	4843
875.623	4942
875.751	4828
875.88	4881
876.008	5003
876.136	4968
876.265	5178
876.393	5337
876.521	5246
876.65	5212
876.778	5174
876.906	5067
877.034	4999
877.162	5014
877.29	5022
877.418	4980
877.546	5029
877.674	5037
877.802	5029
877.93	4980
878.058	4957
878.185	4870
878.313	4934
878.441	4919
878.568	4744
878.696	4870
878.824	4972
878.951	4953
879.079	5121
879.206	5265
879.333	5056
879.461	4995
879.588	5010
879.715	5083
879.842	5223
879.97	4972
880.097	4801
880.224	4714
880.351	4748
880.478	4782
880.605	4816
880.732	4831
880.859	5109
880.986	4824
881.112	4877
881.239	4786
881.366	4660
881.493	4588
881.619	4538
881.746	4641
881.872	4630
881.999	4653
882.125	4668
882.252	4801
882.378	4790
882.505	4927
882.631	4778
882.757	4649
882.883	4752
883.01	4679
883.136	4694
883.262	4683
883.388	4596
883.514	4816
883.64	4862
883.766	4812
883.892	4691
884.018	4721
884.143	4850
884.269	4972
884.395	4679
884.52	4615
884.646	4626
884.772	4603
884.897	4558
885.023	4584
885.148	4778
885.274	4854
885.399	4748
885.524	4683
885.65	4710
885.775	4717
885.9	4664
886.025	4915
886.15	4774
886.275	4698
886.4	4626
886.525	4721
886.65	4721
886.775	4717
886.9	4843
887.025	5025
887.149	4828
887.274	4649
887.399	4535
887.523	4580
887.648	4596
887.773	4607
887.897	4763
888.021	4710
888.146	4710
888.27	4797
888.395	4858
888.519	4809
888.643	4797
888.767	4820
888.891	4683
889.015	4656
889.139	4656
889.263	4645
889.387	4767
889.511	4896
889.635	4824
889.759	4599
889.883	4675
890.006	4717
890.13	4850
890.254	4577
890.377	4706
890.501	4538
890.624	4523
890.748	4580
890.871	4504
890.995	4451
891.118	4398
891.241	4485
891.364	4531
891.488	4580
891.611	4531
891.734	4504
891.857	4569
891.98	4500
892.103	4630
892.226	4584
892.349	4508
892.471	4424
892.594	4550
892.717	4588
892.839	4580
892.962	4626
893.085	4679
893.207	4565
893.33	4459
893.452	4523
893.575	4637
893.697	4603
893.819	4763
893.941	4824
894.064	4748
894.186	4580
894.308	4596
894.43	4740
894.552	4790
894.674	4744
894.796	4527
894.918	4649
895.04	4558
895.161	4668
895.283	4603
895.405	4554
895.526	4675
895.648	4683
895.769	4691
895.891	4660
896.012	4752
896.134	4706
896.255	4668
896.376	4664
896.498	4618
896.619	4664
896.74	4588
896.861	4615
896.982	4942
897.103	5048
897.224	4793
897.345	4763
897.466	4630
897.587	4771
897.708	4809
897.828	4744
897.949	4679
898.07	4550
898.19	4622
898.311	4847
898.431	4698
898.552	4729
898.672	4831
898.792	4801
898.913	4736
899.033	4645
899.153	4481
899.273	4436
899.393	4504
899.513	4535
899.633	4538
899.753	4527
899.873	4558
899.993	4622
900.113	4523
900.232	4603
900.352	4535
900.472	4451
900.591	4405
900.711	4481
900.83	4424
900.95	4698
901.069	4653
901.189	4618
901.308	4337
901.427	4322
901.546	4375
901.665	4470
901.784	4508
901.904	4428
902.023	4261
902.141	4188
902.26	4211
902.379	4325
902.498	4234
902.617	4223
902.735	4383
902.854	4360
902.973	4325
903.091	4169
903.21	4204
903.328	4310
903.446	4238
903.565	4272
903.683	4348
903.801	4287
903.919	4428
904.038	4413
904.156	4329
904.274	4424
904.392	4383
904.51	4447
904.627	4470
904.745	4561
904.863	4584
904.981	4390
905.098	4306
905.216	4325
905.334	4432
905.451	4413
905.569	4428
905.686	4588
905.803	4558
905.921	4424
906.038	4474
906.155	4481
906.272	4379
906.389	4489
906.506	4337
906.623	4352
906.74	4348
906.857	4322
906.974	4371
907.091	4535
907.208	4645
907.324	4573
907.441	4512
907.557	4386
907.674	4337
907.79	4318
907.907	4417
908.023	4493
908.139	4485
908.256	4405
908.372	4485
908.488	4432
908.604	4356
908.72	4322
908.836	4394
908.952	4333
909.068	4424
909.184	4580
909.3	4447
909.415	4588
909.531	4519
909.647	4337
909.762	4333
909.878	4306
909.993	4405
910.108	4394
910.224	4394
910.339	4523
910.454	4428
910.57	4348
910.685	4284
910.8	4615
910.915	4584
911.03	4455
911.145	4356
911.259	4287
911.374	4356
911.489	4299
911.604	4280
911.718	4181
911.833	4185
911.947	4116
912.062	4048
912.176	4219
912.291	4223
912.405	4265
912.519	4447
912.633	4504
912.748	4356
912.862	4322
912.976	4249
913.09	4101
913.204	4150
913.318	4230
913.431	4360
913.545	4367
913.659	4409
913.772	4398
913.886	4238
914	4230
914.113	4398
914.226	4466
914.34	4341
914.453	4257
914.566	4424
914.68	4322
914.793	4295
914.906	4150
915.019	4090
915.132	4071
915.245	4173
915.358	4230
915.47	4268
915.583	4280
915.696	4310
915.809	4383
915.921	4451
916.034	4257
916.146	4253
916.259	4223
916.371	4375
916.483	4375
916.595	4268
916.708	4310
916.82	4333
916.932	4329
917.044	4306
917.156	4341
917.268	4215
917.38	4299
917.491	4265
917.603	4352
917.715	4394
917.826	4402
917.938	4379
918.049	4219
918.161	4443
918.272	4565
918.384	4527
918.495	4478
918.606	4291
918.717	4276
918.828	4337
918.939	4363
919.05	4276
919.161	4337
919.272	4188
919.383	4215
919.494	4428
919.604	4634
919.715	4409
919.826	4344
919.936	4344
920.047	4459
920.157	4443
920.267	4698
920.378	4489
920.488	4508
920.598	4710
920.708	4889
920.818	4733
920.928	4767
921.038	4900
921.148	4900
921.258	4599
921.368	4577
921.477	4531
921.587	4478
921.697	4363
921.806	4584
921.916	4440
922.025	4276
922.134	4261
922.244	4234
922.353	4299
922.462	4234
922.571	4086
922.68	3998
922.789	3956
922.898	3987
923.007	4017
923.116	4067
923.224	4051
923.333	4067
923.442	4021
923.55	4002
923.659	4040
923.767	4055
923.876	3972
923.984	4143
924.092	3994
924.201	4082
924.309	4059
924.417	4101
924.525	4067
924.633	4139
924.741	4858
924.849	3937
924.956	4120
925.064	3937
925.172	3903
925.279	3926
925.387	4086
925.494	4074
925.602	4143
925.709	4177
925.816	3998
925.924	4135
926.031	4177
926.138	4128
926.245	4215
926.352	4082
926.459	4219
926.566	4276
926.673	4166
926.779	4078
926.886	4059
926.993	4021
927.099	3934
927.206	3907
927.312	3922
927.419	4025
927.525	4071
927.631	4105
927.737	3960
927.843	3949
927.95	3831
928.056	3964
928.162	4010
928.267	4078
928.373	4668
928.479	4131
928.585	3888
928.69	4048
928.796	4078
928.901	3934
929.007	3835
929.112	4017
929.218	4002
929.323	3892
929.428	3964
929.533	4112
929.638	3915
929.743	3949
929.848	4074
929.953	3994
930.058	3876
930.163	3800
930.267	3789
930.372	3968
930.477	3778
930.581	4067
930.685	3934
930.79	3819
930.894	3846
930.998	3823
931.103	4032
931.207	3709
931.311	3724
931.415	3648
931.519	3504
931.623	3564
