Data from test_V78500241_441.txt Node
Date: Fri Mar 25 16:52:04 CST 2022
User: usil
Spectrometer: V785-0024
Trigger mode: 0
Integration Time (sec): 4.000000E-1
Scans to average: 1
Nonlinearity correction enabled: false
Boxcar width: 0
Storing dark spectrum: false
XAxis mode: Wavelengths
Number of Pixels in Spectrum: 1024
>>>>>Begin Spectral Data<<<<<
801.071	8130
801.214	8039
801.356	7860
801.499	7883
801.641	7852
801.783	7860
801.926	7982
802.068	8012
802.211	8039
802.353	8008
802.496	7879
802.638	7967
802.78	7955
802.923	7909
803.065	7837
803.208	7883
803.35	7944
803.492	8065
803.635	8088
803.777	8020
803.919	8103
804.061	8427
804.204	8069
804.346	7967
804.488	7982
804.63	8077
804.773	7970
804.915	8050
805.057	8332
805.199	8145
805.341	8176
805.483	8290
805.626	8202
805.768	8092
805.91	8145
806.052	8187
806.194	8077
806.336	8317
806.478	8103
806.62	8081
806.762	8142
806.904	8244
807.046	8438
807.188	8259
807.33	8180
807.472	8301
807.614	8187
807.756	8130
807.898	8016
808.04	7871
808.182	7951
808.324	7970
808.465	7921
808.607	8069
808.749	8054
808.891	8195
809.033	8305
809.174	8176
809.316	7993
809.458	8062
809.6	8065
809.741	8100
809.883	8073
810.025	8138
810.166	8119
810.308	8062
810.45	8058
810.591	7837
810.733	7666
810.875	7658
811.016	7510
811.158	7529
811.299	7575
811.441	7811
811.582	7715
811.724	7685
811.865	7571
812.007	7594
812.148	7620
812.29	7609
812.431	7765
812.573	7928
812.714	7982
812.855	8157
812.997	8214
813.138	8377
813.279	8210
813.421	8168
813.562	8035
813.703	7909
813.845	7761
813.986	7571
814.127	7320
814.268	7274
814.41	7270
814.551	7240
814.692	7263
814.833	7149
814.974	7088
815.115	7080
815.256	6939
815.397	6935
815.539	6943
815.68	6909
815.821	6783
815.962	6871
816.103	6802
816.244	6768
816.385	6627
816.526	6658
816.666	6483
816.807	6388
816.948	6437
817.089	6483
817.23	6407
817.371	6426
817.512	6418
817.653	6376
817.793	6357
817.934	6426
818.075	6448
818.216	6418
818.356	6388
818.497	6350
818.638	6110
818.778	6152
818.919	6121
819.06	6171
819.2	6315
819.341	6334
819.481	6388
819.622	6506
819.762	6745
819.903	6700
820.043	6646
820.184	6593
820.324	6578
820.465	6745
820.605	6700
820.746	6601
820.886	6513
821.026	6696
821.167	6738
821.307	6798
821.447	6734
821.588	6646
821.728	6559
821.868	6494
822.008	6346
822.149	6292
822.289	6342
822.429	6201
822.569	6091
822.709	6140
822.849	5961
822.99	5942
823.13	5946
823.27	5908
823.41	5828
823.55	5821
823.69	5771
823.83	5783
823.97	5668
824.11	5558
824.25	5547
824.389	5539
824.529	5604
824.669	5539
824.809	5581
824.949	5642
825.089	5585
825.228	5509
825.368	5421
825.508	5337
825.648	5383
825.787	5406
825.927	5402
826.067	5315
826.206	5303
826.346	5436
826.485	5429
826.625	5417
826.765	5558
826.904	5547
827.044	5239
827.183	5185
827.323	5121
827.462	5288
827.601	5128
827.741	5185
827.88	5208
828.02	5132
828.159	5235
828.298	5307
828.437	5379
828.577	5258
828.716	5474
828.855	5330
828.994	5181
829.134	5151
829.273	5193
829.412	5181
829.551	5136
829.69	5189
829.829	5239
829.968	5398
830.107	5273
830.246	5242
830.385	5197
830.524	5094
830.663	5075
830.802	5006
830.941	4862
831.08	4892
831.219	4923
831.357	4976
831.496	5178
831.635	4942
831.774	4843
831.913	4847
832.051	4733
832.19	4755
832.329	4805
832.467	4714
832.606	4622
832.744	4752
832.883	4710
833.022	4694
833.16	4828
833.299	4824
833.437	4820
833.576	4812
833.714	4850
833.852	4877
833.991	4892
834.129	4961
834.267	4927
834.406	4915
834.544	4984
834.682	4949
834.821	5018
834.959	5136
835.097	5056
835.235	5121
835.373	5117
835.511	5132
835.65	5079
835.788	5003
835.926	4904
836.064	4862
836.202	4904
836.34	5140
836.478	5155
836.615	5109
836.753	5208
836.891	5288
837.029	5239
837.167	5204
837.305	5189
837.443	5185
837.58	5075
837.718	5273
837.856	5162
837.993	5155
838.131	5185
838.269	5223
838.406	5197
838.544	5147
838.681	5041
838.819	5022
838.956	4908
839.094	4862
839.231	4957
839.369	5064
839.506	5379
839.643	5235
839.781	5041
839.918	5018
840.055	5075
840.193	5109
840.33	5113
840.467	5170
840.604	5170
840.742	5379
840.879	5102
841.016	5060
841.153	5155
841.29	5353
841.427	5395
841.564	5292
841.701	5357
841.838	5273
841.975	5242
842.112	5242
842.249	5193
842.385	5159
842.522	5341
842.659	5197
842.796	5155
842.933	5178
843.069	5185
843.206	5166
843.343	5318
843.479	5227
843.616	5292
843.752	5067
843.889	5022
844.025	5162
844.162	4995
844.298	5212
844.435	5105
844.571	5010
844.708	5185
844.844	5296
844.98	5337
845.117	5292
845.253	5147
845.389	5079
845.525	5193
845.661	5147
845.798	5037
845.934	5105
846.07	5060
846.206	5216
846.342	5242
846.478	5181
846.614	5048
846.75	4987
846.886	4927
847.022	5181
847.158	5018
847.294	5064
847.429	5128
847.565	5022
847.701	5318
847.837	4828
847.972	4801
848.108	4991
848.244	4953
848.379	4771
848.515	4736
848.65	4725
848.786	4717
848.921	4717
849.057	4847
849.192	4881
849.328	4843
849.463	4850
849.598	4774
849.734	4774
849.869	4698
850.004	4641
850.14	4683
850.275	4588
850.41	4542
850.545	4569
850.68	4618
850.815	4641
850.95	4626
851.085	4850
851.22	4755
851.355	4660
851.49	4645
851.625	4637
851.76	4668
851.895	4561
852.03	4561
852.165	4660
852.299	4664
852.434	4786
852.569	4763
852.703	4782
852.838	4847
852.973	4915
853.107	4938
853.242	4736
853.376	4668
853.511	4607
853.645	4584
853.78	4793
853.914	4714
854.048	4656
854.183	4649
854.317	4725
854.451	4915
854.585	4698
854.72	4668
854.854	4767
854.988	4641
855.122	4637
855.256	4538
855.39	4653
855.524	4771
855.658	4721
855.792	4679
855.926	4706
856.06	4771
856.194	4778
856.327	4679
856.461	4653
856.595	4622
856.729	4694
856.862	4721
856.996	4637
857.13	4744
857.263	4790
857.397	4759
857.53	4687
857.664	4729
857.797	4736
857.931	4778
858.064	4729
858.197	4687
858.331	4656
858.464	4573
858.597	4527
858.731	4596
858.864	4630
858.997	4611
859.13	4664
859.263	4653
859.396	4710
859.529	4588
859.662	4607
859.795	4508
859.928	4668
860.061	4748
860.194	4797
860.327	4573
860.46	4561
860.592	4714
860.725	4733
860.858	4710
860.99	4573
861.123	4554
861.256	4538
861.388	4675
861.521	5429
861.653	4455
861.786	4455
861.918	4443
862.05	4512
862.183	4558
862.315	4656
862.447	4615
862.58	4561
862.712	4443
862.844	4333
862.976	4462
863.108	4455
863.24	4748
863.372	4375
863.504	4402
863.636	4428
863.768	4466
863.9	4443
864.032	4375
864.164	4424
864.296	4489
864.428	4546
864.559	4558
864.691	4500
864.823	4478
864.954	4542
865.086	4500
865.217	4447
865.349	4394
865.48	4470
865.612	4512
865.743	4641
865.875	4508
866.006	4432
866.137	4497
866.269	4466
866.4	4466
866.531	4455
866.662	4390
866.793	4394
866.924	4421
867.055	4485
867.186	4470
867.317	4424
867.448	4379
867.579	4424
867.71	4417
867.841	4367
867.972	4489
868.103	4409
868.233	4478
868.364	4466
868.495	4478
868.625	4668
868.756	4740
868.886	4546
869.017	4649
869.147	4824
869.278	4774
869.408	4710
869.539	4656
869.669	4733
869.799	4683
869.929	4744
870.06	4706
870.19	4946
870.32	4938
870.45	4946
870.58	4999
870.71	5105
870.84	5090
870.97	4968
871.1	4923
871.23	5147
871.36	5128
871.489	5029
871.619	5067
871.749	5113
871.879	5201
872.008	5212
872.138	5075
872.267	4938
872.397	4870
872.526	4805
872.656	4679
872.785	4793
872.915	4976
873.044	5086
873.173	4881
873.303	4991
873.432	4961
873.561	4919
873.69	4900
873.819	4824
873.948	4930
874.077	4809
874.206	4755
874.335	4767
874.464	4942
874.593	5075
874.722	4976
874.851	5075
874.979	5083
875.108	5037
875.237	4889
875.365	4900
875.494	4949
875.623	4965
875.751	4866
875.88	4904
876.008	4984
876.136	5041
876.265	5189
876.393	5280
876.521	5201
876.65	5235
876.778	5159
876.906	5086
877.034	5010
877.162	5048
877.29	4987
877.418	5086
877.546	4987
877.674	5048
877.802	5037
877.93	4991
878.058	4957
878.185	4930
878.313	4946
878.441	4927
878.568	4778
878.696	4862
878.824	4976
878.951	5018
879.079	5140
879.206	5277
879.333	5090
879.461	5022
879.588	5014
879.715	5132
879.842	5178
879.97	4980
880.097	4831
880.224	4767
880.351	4790
880.478	4831
880.605	4820
880.732	4790
880.859	5079
880.986	4892
881.112	4896
881.239	4733
881.366	4702
881.493	4596
881.619	4584
881.746	4637
881.872	4668
881.999	4664
882.125	4687
882.252	4778
882.378	4824
882.505	4984
882.631	4801
882.757	4622
882.883	4748
883.01	4729
883.136	4668
883.262	4611
883.388	4618
883.514	4816
883.64	4843
883.766	4805
883.892	4664
884.018	4755
884.143	4892
884.269	5029
884.395	4694
884.52	4611
884.646	4672
884.772	4565
884.897	4569
885.023	4683
885.148	4786
885.274	4930
885.399	4831
885.524	4725
885.65	4702
885.775	4721
885.9	4714
886.025	4854
886.15	4835
886.275	4752
886.4	4698
886.525	4725
886.65	4656
886.775	4717
886.9	4911
887.025	5037
887.149	4858
887.274	4679
887.399	4607
887.523	4607
887.648	4641
887.773	4603
887.897	4786
888.021	4740
888.146	4702
888.27	4824
888.395	4877
888.519	4790
888.643	4801
888.767	4850
888.891	4675
889.015	4622
889.139	4649
889.263	4584
889.387	4782
889.511	4881
889.635	4831
889.759	4634
889.883	4649
890.006	4759
890.13	4786
890.254	4626
890.377	4668
890.501	4531
890.624	4519
890.748	4649
890.871	4550
890.995	4470
891.118	4398
891.241	4512
891.364	4577
891.488	4611
891.611	4516
891.734	4561
891.857	4664
891.98	4592
892.103	4675
892.226	4558
892.349	4565
892.471	4462
892.594	4580
892.717	4588
892.839	4588
892.962	4580
893.085	4641
893.207	4588
893.33	4470
893.452	4542
893.575	4615
893.697	4561
893.819	4839
893.941	4866
894.064	4774
894.186	4603
894.308	4535
894.43	4774
894.552	4790
894.674	4793
894.796	4538
894.918	4603
895.04	4603
895.161	4752
895.283	4721
895.405	4542
895.526	4664
895.648	4702
895.769	4714
895.891	4717
896.012	4733
896.134	4694
896.255	4664
896.376	4645
896.498	4634
896.619	4691
896.74	4630
896.861	4653
896.982	4919
897.103	5132
897.224	4820
897.345	4771
897.466	4656
897.587	4733
897.708	4892
897.828	4767
897.949	4702
898.07	4546
898.19	4649
898.311	4843
898.431	4687
898.552	4725
898.672	4767
898.792	4831
898.913	4725
899.033	4656
899.153	4531
899.273	4390
899.393	4512
899.513	4546
899.633	4546
899.753	4508
899.873	4512
899.993	4588
900.113	4531
900.232	4554
900.352	4519
900.472	4481
900.591	4417
900.711	4481
900.83	4432
900.95	4611
901.069	4694
901.189	4561
901.308	4371
901.427	4341
901.546	4398
901.665	4440
901.784	4478
901.904	4402
902.023	4314
902.141	4196
902.26	4200
902.379	4318
902.498	4257
902.617	4230
902.735	4325
902.854	4394
902.973	4390
903.091	4200
903.21	4246
903.328	4314
903.446	4287
903.565	4246
903.683	4318
903.801	4341
903.919	4386
904.038	4451
904.156	4360
904.274	4485
904.392	4455
904.51	4405
904.627	4432
904.745	4577
904.863	4596
904.981	4367
905.098	4310
905.216	4337
905.334	4432
905.451	4451
905.569	4451
905.686	4588
905.803	4542
905.921	4413
906.038	4508
906.155	4519
906.272	4379
906.389	4466
906.506	4344
906.623	4363
906.74	4352
906.857	4337
906.974	4363
907.091	4580
907.208	4656
907.324	4603
907.441	4550
907.557	4348
907.674	4356
907.79	4310
907.907	4325
908.023	4561
908.139	4459
908.256	4489
908.372	4497
908.488	4409
908.604	4333
908.72	4360
908.836	4447
908.952	4375
909.068	4432
909.184	4611
909.3	4436
909.415	4645
909.531	4573
909.647	4360
909.762	4402
909.878	4367
909.993	4421
910.108	4459
910.224	4402
910.339	4478
910.454	4390
910.57	4375
910.685	4314
910.8	4634
910.915	4599
911.03	4508
911.145	4325
911.259	4360
911.374	4390
911.489	4333
911.604	4261
911.718	4177
911.833	4215
911.947	4097
912.062	4063
912.176	4215
912.291	4257
912.405	4215
912.519	4466
912.633	4519
912.748	4402
912.862	4276
912.976	4207
913.09	4105
913.204	4223
913.318	4261
913.431	4409
913.545	4375
913.659	4440
913.772	4322
913.886	4284
914	4223
914.113	4341
914.226	4432
914.34	4402
914.453	4249
914.566	4455
914.68	4322
914.793	4325
914.906	4181
915.019	4158
915.132	4116
915.245	4185
915.358	4227
915.47	4246
915.583	4310
915.696	4276
915.809	4455
915.921	4428
916.034	4253
916.146	4268
916.259	4230
916.371	4375
916.483	4371
916.595	4249
916.708	4299
916.82	4375
916.932	4352
917.044	4303
917.156	4322
917.268	4280
917.38	4333
917.491	4272
917.603	4367
917.715	4474
917.826	4379
917.938	4348
918.049	4276
918.161	4443
918.272	4561
918.384	4523
918.495	4474
918.606	4318
918.717	4238
918.828	4333
918.939	4386
919.05	4257
919.161	4409
919.272	4139
919.383	4249
919.494	4402
919.604	4622
919.715	4402
919.826	4356
919.936	4413
920.047	4497
920.157	4474
920.267	4679
920.378	4527
920.488	4470
920.598	4687
920.708	4885
920.818	4744
920.928	4759
921.038	4938
921.148	4908
921.258	4656
921.368	4580
921.477	4497
921.587	4466
921.697	4398
921.806	4523
921.916	4413
922.025	4299
922.134	4249
922.244	4219
922.353	4318
922.462	4143
922.571	4162
922.68	4044
922.789	3975
922.898	4021
923.007	4010
923.116	4059
923.224	4067
923.333	4082
923.442	3979
923.55	3968
923.659	4055
923.767	4093
923.876	3987
923.984	4109
924.092	3991
924.201	4090
924.309	4101
924.417	4128
924.525	4086
924.633	4097
924.741	5094
924.849	3899
924.956	4093
925.064	3968
925.172	3880
925.279	3953
925.387	4067
925.494	4036
925.602	4215
925.709	4215
925.816	4078
925.924	4112
926.031	4276
926.138	4169
926.245	4204
926.352	4078
926.459	4280
926.566	4306
926.673	4177
926.779	4093
926.886	4109
926.993	3994
927.099	3987
927.206	3941
927.312	3941
927.419	4112
927.525	3994
927.631	4097
927.737	3983
927.843	3937
927.95	3823
928.056	3994
928.162	4025
928.267	4063
928.373	4683
928.479	4097
928.585	3842
928.69	3994
928.796	4059
928.901	4013
929.007	3873
929.112	4002
929.218	3987
929.323	3979
929.428	3941
929.533	4086
929.638	3934
929.743	3949
929.848	4067
929.953	3994
930.058	3926
930.163	3770
930.267	3774
930.372	3983
930.477	3838
930.581	4090
930.685	3987
930.79	3816
930.894	3869
930.998	3880
931.103	4071
931.207	3705
931.311	3698
931.415	3633
931.519	3549
931.623	3561
