Data from test_V78500241_786.txt Node
Date: Fri Mar 25 16:54:28 CST 2022
User: usil
Spectrometer: V785-0024
Trigger mode: 0
Integration Time (sec): 4.000000E-1
Scans to average: 1
Nonlinearity correction enabled: false
Boxcar width: 0
Storing dark spectrum: false
XAxis mode: Wavelengths
Number of Pixels in Spectrum: 1024
>>>>>Begin Spectral Data<<<<<
801.071	8012
801.214	7978
801.356	7871
801.499	7875
801.641	7803
801.783	7826
801.926	8020
802.068	7982
802.211	8024
802.353	7951
802.496	7921
802.638	7947
802.78	7940
802.923	8012
803.065	7814
803.208	7925
803.35	7997
803.492	8054
803.635	8161
803.777	7993
803.919	8130
804.061	8400
804.204	8092
804.346	8020
804.488	7940
804.63	8134
804.773	8031
804.915	8073
805.057	8229
805.199	8161
805.341	8180
805.483	8275
805.626	8195
805.768	8126
805.91	8218
806.052	8237
806.194	8130
806.336	8275
806.478	8096
806.62	8054
806.762	8103
806.904	8244
807.046	8446
807.188	8393
807.33	8339
807.472	8339
807.614	8244
807.756	8092
807.898	8005
808.04	7887
808.182	7845
808.324	7887
808.465	7890
808.607	8039
808.749	8111
808.891	8157
809.033	8263
809.174	8119
809.316	8077
809.458	8058
809.6	7944
809.741	8054
809.883	8088
810.025	8180
810.166	8077
810.308	8084
810.45	8031
810.591	7887
810.733	7704
810.875	7700
811.016	7597
811.158	7468
811.299	7586
811.441	7765
811.582	7715
811.724	7563
811.865	7499
812.007	7487
812.148	7540
812.29	7636
812.431	7738
812.573	7784
812.714	7955
812.855	8096
812.997	8214
813.138	8282
813.279	8214
813.421	8084
813.562	8058
813.703	7841
813.845	7795
813.986	7518
814.127	7305
814.268	7301
814.41	7202
814.551	7141
814.692	7168
814.833	7008
814.974	7072
815.115	7099
815.256	6920
815.397	6954
815.539	6951
815.68	6856
815.821	6795
815.962	6905
816.103	6795
816.244	6707
816.385	6642
816.526	6623
816.666	6506
816.807	6254
816.948	6426
817.089	6464
817.23	6429
817.371	6369
817.512	6388
817.653	6357
817.793	6357
817.934	6410
818.075	6502
818.216	6407
818.356	6353
818.497	6235
818.638	6163
818.778	6129
818.919	6167
819.06	6159
819.2	6338
819.341	6308
819.481	6353
819.622	6597
819.762	6715
819.903	6719
820.043	6662
820.184	6639
820.324	6547
820.465	6688
820.605	6662
820.746	6623
820.886	6464
821.026	6738
821.167	6658
821.307	6837
821.447	6798
821.588	6662
821.728	6578
821.868	6498
822.008	6350
822.149	6353
822.289	6315
822.429	6106
822.569	6110
822.709	6125
822.849	5920
822.99	5916
823.13	5916
823.27	5980
823.41	5817
823.55	5824
823.69	5722
823.83	5794
823.97	5634
824.11	5539
824.25	5505
824.389	5581
824.529	5611
824.669	5486
824.809	5691
824.949	5646
825.089	5646
825.228	5547
825.368	5391
825.508	5349
825.648	5341
825.787	5360
825.927	5379
826.067	5341
826.206	5299
826.346	5383
826.485	5414
826.625	5406
826.765	5551
826.904	5448
827.044	5280
827.183	5242
827.323	5143
827.462	5223
827.601	5178
827.741	5181
827.88	5250
828.02	5136
828.159	5269
828.298	5280
828.437	5277
828.577	5269
828.716	5459
828.855	5357
828.994	5189
829.134	5143
829.273	5231
829.412	5143
829.551	5121
829.69	5174
829.829	5216
829.968	5357
830.107	5345
830.246	5250
830.385	5189
830.524	5098
830.663	5060
830.802	4999
830.941	4881
831.08	4881
831.219	4980
831.357	5018
831.496	5140
831.635	4938
831.774	4862
831.913	4812
832.051	4778
832.19	4744
832.329	4839
832.467	4698
832.606	4645
832.744	4725
832.883	4729
833.022	4706
833.16	4774
833.299	4805
833.437	4858
833.576	4839
833.714	4889
833.852	4858
833.991	4862
834.129	4961
834.267	4972
834.406	4927
834.544	5006
834.682	4968
834.821	4949
834.959	5147
835.097	5003
835.235	5159
835.373	5102
835.511	5166
835.65	5018
835.788	4987
835.926	4919
836.064	4896
836.202	4908
836.34	5124
836.478	5231
836.615	5090
836.753	5227
836.891	5334
837.029	5250
837.167	5231
837.305	5181
837.443	5151
837.58	5083
837.718	5284
837.856	5181
837.993	5178
838.131	5242
838.269	5212
838.406	5235
838.544	5151
838.681	4965
838.819	5014
838.956	4927
839.094	4942
839.231	4999
839.369	5113
839.506	5406
839.643	5265
839.781	5124
839.918	5037
840.055	5105
840.193	5090
840.33	5128
840.467	5162
840.604	5220
840.742	5376
840.879	5105
841.016	5029
841.153	5227
841.29	5383
841.427	5288
841.564	5280
841.701	5334
841.838	5258
841.975	5277
842.112	5322
842.249	5124
842.385	5086
842.522	5357
842.659	5155
842.796	5124
842.933	5223
843.069	5117
843.206	5132
843.343	5330
843.479	5208
843.616	5220
843.752	5048
843.889	5033
844.025	5258
844.162	5060
844.298	5220
844.435	5090
844.571	5006
844.708	5140
844.844	5265
844.98	5288
845.117	5318
845.253	5151
845.389	5109
845.525	5105
845.661	5193
845.798	5025
845.934	5117
846.07	5052
846.206	5166
846.342	5254
846.478	5212
846.614	5037
846.75	4953
846.886	4900
847.022	5140
847.158	5037
847.294	5075
847.429	5105
847.565	5071
847.701	5337
847.837	4885
847.972	4752
848.108	4930
848.244	4927
848.379	4809
848.515	4736
848.65	4774
848.786	4763
848.921	4767
849.057	4896
849.192	4854
849.328	4793
849.463	4835
849.598	4786
849.734	4778
849.869	4660
850.004	4596
850.14	4672
850.275	4584
850.41	4531
850.545	4569
850.68	4573
850.815	4618
850.95	4630
851.085	4812
851.22	4752
851.355	4702
851.49	4634
851.625	4653
851.76	4664
851.895	4508
852.03	4558
852.165	4596
852.299	4706
852.434	4774
852.569	4729
852.703	4774
852.838	4873
852.973	4896
853.107	4881
853.242	4725
853.376	4656
853.511	4500
853.645	4637
853.78	4786
853.914	4702
854.048	4668
854.183	4649
854.317	4698
854.451	4816
854.585	4691
854.72	4630
854.854	4759
854.988	4535
855.122	4630
855.256	4580
855.39	4599
855.524	4786
855.658	4740
855.792	4664
855.926	4694
856.06	4778
856.194	4767
856.327	4698
856.461	4615
856.595	4607
856.729	4637
856.862	4744
856.996	4721
857.13	4752
857.263	4721
857.397	4771
857.53	4622
857.664	4683
857.797	4725
857.931	4759
858.064	4634
858.197	4717
858.331	4664
858.464	4626
858.597	4527
858.731	4626
858.864	4592
858.997	4599
859.13	4656
859.263	4634
859.396	4679
859.529	4569
859.662	4561
859.795	4561
859.928	4618
860.061	4721
860.194	4782
860.327	4588
860.46	4542
860.592	4683
860.725	4706
860.858	4736
860.99	4580
861.123	4527
861.256	4523
861.388	4630
861.521	5239
861.653	4500
861.786	4462
861.918	4394
862.05	4485
862.183	4542
862.315	4592
862.447	4599
862.58	4580
862.712	4394
862.844	4230
862.976	4462
863.108	4436
863.24	4881
863.372	4344
863.504	4409
863.636	4402
863.768	4481
863.9	4459
864.032	4394
864.164	4398
864.296	4451
864.428	4531
864.559	4538
864.691	4561
864.823	4500
864.954	4440
865.086	4554
865.217	4447
865.349	4413
865.48	4462
865.612	4538
865.743	4649
865.875	4474
866.006	4421
866.137	4478
866.269	4440
866.4	4462
866.531	4432
866.662	4405
866.793	4394
866.924	4447
867.055	4512
867.186	4409
867.317	4451
867.448	4394
867.579	4375
867.71	4402
867.841	4394
867.972	4424
868.103	4428
868.233	4451
868.364	4466
868.495	4478
868.625	4725
868.756	4767
868.886	4546
869.017	4592
869.147	4793
869.278	4763
869.408	4634
869.539	4694
869.669	4683
869.799	4649
869.929	4771
870.06	4767
870.19	4984
870.32	4908
870.45	4854
870.58	5041
870.71	5075
870.84	5075
870.97	4961
871.1	4866
871.23	5117
871.36	5140
871.489	5033
871.619	5102
871.749	5056
871.879	5136
872.008	5155
872.138	5045
872.267	4976
872.397	4809
872.526	4812
872.656	4767
872.785	4809
872.915	4942
873.044	5033
873.173	4942
873.303	4961
873.432	4965
873.561	4927
873.69	4919
873.819	4820
873.948	4908
874.077	4805
874.206	4744
874.335	4809
874.464	4877
874.593	5025
874.722	4938
874.851	5067
874.979	5056
875.108	5056
875.237	4934
875.365	4885
875.494	4862
875.623	4968
875.751	4870
875.88	4919
876.008	4972
876.136	5018
876.265	5136
876.393	5326
876.521	5261
876.65	5220
876.778	5181
876.906	5086
877.034	4991
877.162	5064
877.29	5075
877.418	5048
877.546	5025
877.674	5045
877.802	5025
877.93	4972
878.058	4881
878.185	4870
878.313	4915
878.441	4911
878.568	4748
878.696	4847
878.824	4999
878.951	4987
879.079	5105
879.206	5258
879.333	5094
879.461	4972
879.588	5003
879.715	5102
879.842	5223
879.97	5018
880.097	4809
880.224	4748
880.351	4839
880.478	4793
880.605	4793
880.732	4820
880.859	5029
880.986	4881
881.112	4892
881.239	4778
881.366	4698
881.493	4592
881.619	4558
881.746	4645
881.872	4653
881.999	4653
882.125	4698
882.252	4809
882.378	4843
882.505	4968
882.631	4816
882.757	4660
882.883	4679
883.01	4767
883.136	4645
883.262	4618
883.388	4565
883.514	4801
883.64	4839
883.766	4744
883.892	4656
884.018	4698
884.143	4923
884.269	5048
884.395	4672
884.52	4588
884.646	4649
884.772	4519
884.897	4527
885.023	4641
885.148	4771
885.274	4839
885.399	4828
885.524	4736
885.65	4675
885.775	4771
885.9	4683
886.025	4881
886.15	4778
886.275	4710
886.4	4584
886.525	4717
886.65	4717
886.775	4622
886.9	4877
887.025	5041
887.149	4858
887.274	4664
887.399	4573
887.523	4603
887.648	4599
887.773	4607
887.897	4740
888.021	4767
888.146	4622
888.27	4820
888.395	4854
888.519	4778
888.643	4824
888.767	4790
888.891	4698
889.015	4656
889.139	4645
889.263	4596
889.387	4771
889.511	4850
889.635	4820
889.759	4622
889.883	4649
890.006	4763
890.13	4843
890.254	4664
890.377	4679
890.501	4577
890.624	4474
890.748	4637
890.871	4523
890.995	4436
891.118	4352
891.241	4527
891.364	4516
891.488	4618
891.611	4489
891.734	4573
891.857	4615
891.98	4531
892.103	4603
892.226	4584
892.349	4504
892.471	4443
892.594	4531
892.717	4584
892.839	4565
892.962	4588
893.085	4611
893.207	4615
893.33	4443
893.452	4535
893.575	4687
893.697	4580
893.819	4786
893.941	4816
894.064	4729
894.186	4580
894.308	4565
894.43	4717
894.552	4736
894.674	4793
894.796	4546
894.918	4653
895.04	4542
895.161	4672
895.283	4641
895.405	4641
895.526	4660
895.648	4675
895.769	4645
895.891	4645
896.012	4752
896.134	4740
896.255	4607
896.376	4599
896.498	4588
896.619	4729
896.74	4626
896.861	4641
896.982	4915
897.103	5121
897.224	4812
897.345	4767
897.466	4683
897.587	4698
897.708	4866
897.828	4824
897.949	4698
898.07	4580
898.19	4645
898.311	4801
898.431	4664
898.552	4717
898.672	4824
898.792	4801
898.913	4740
899.033	4641
899.153	4489
899.273	4421
899.393	4459
899.513	4523
899.633	4500
899.753	4588
899.873	4512
899.993	4538
900.113	4573
900.232	4611
900.352	4550
900.472	4493
900.591	4417
900.711	4466
900.83	4402
900.95	4615
901.069	4611
901.189	4580
901.308	4337
901.427	4329
901.546	4375
901.665	4462
901.784	4481
901.904	4428
902.023	4329
902.141	4188
902.26	4196
902.379	4272
902.498	4227
902.617	4166
902.735	4363
902.854	4417
902.973	4306
903.091	4177
903.21	4272
903.328	4310
903.446	4265
903.565	4227
903.683	4360
903.801	4299
903.919	4402
904.038	4409
904.156	4318
904.274	4428
904.392	4390
904.51	4394
904.627	4542
904.745	4565
904.863	4618
904.981	4386
905.098	4310
905.216	4337
905.334	4424
905.451	4455
905.569	4451
905.686	4535
905.803	4523
905.921	4367
906.038	4535
906.155	4459
906.272	4383
906.389	4436
906.506	4314
906.623	4337
906.74	4386
906.857	4306
906.974	4344
907.091	4577
907.208	4721
907.324	4554
907.441	4440
907.557	4356
907.674	4329
907.79	4341
907.907	4352
908.023	4519
908.139	4413
908.256	4455
908.372	4424
908.488	4481
908.604	4348
908.72	4280
908.836	4348
908.952	4402
909.068	4386
909.184	4561
909.3	4451
909.415	4573
909.531	4527
909.647	4341
909.762	4363
909.878	4322
909.993	4409
910.108	4383
910.224	4436
910.339	4474
910.454	4409
910.57	4341
910.685	4329
910.8	4626
910.915	4634
911.03	4466
911.145	4329
911.259	4363
911.374	4383
911.489	4276
911.604	4276
911.718	4173
911.833	4192
911.947	4097
912.062	4021
912.176	4185
912.291	4238
912.405	4268
912.519	4447
912.633	4493
912.748	4371
912.862	4348
912.976	4188
913.09	4128
913.204	4173
913.318	4246
913.431	4344
913.545	4398
913.659	4398
913.772	4356
913.886	4265
914	4249
914.113	4356
914.226	4436
914.34	4394
914.453	4242
914.566	4405
914.68	4299
914.793	4337
914.906	4177
915.019	4139
915.132	4093
915.245	4166
915.358	4238
915.47	4242
915.583	4253
915.696	4261
915.809	4424
915.921	4432
916.034	4242
916.146	4219
916.259	4211
916.371	4371
916.483	4379
916.595	4230
916.708	4314
916.82	4280
916.932	4337
917.044	4310
917.156	4322
917.268	4234
917.38	4268
917.491	4246
917.603	4295
917.715	4428
917.826	4409
917.938	4356
918.049	4249
918.161	4421
918.272	4538
918.384	4451
918.495	4451
918.606	4284
918.717	4253
918.828	4329
918.939	4356
919.05	4246
919.161	4322
919.272	4131
919.383	4215
919.494	4459
919.604	4592
919.715	4466
919.826	4352
919.936	4379
920.047	4485
920.157	4455
920.267	4679
920.378	4523
920.488	4470
920.598	4736
920.708	4885
920.818	4774
920.928	4778
921.038	4930
921.148	4923
921.258	4634
921.368	4618
921.477	4481
921.587	4440
921.697	4402
921.806	4508
921.916	4421
922.025	4295
922.134	4310
922.244	4265
922.353	4318
922.462	4177
922.571	4139
922.68	4006
922.789	3994
922.898	4025
923.007	3953
923.116	4055
923.224	4097
923.333	4063
923.442	4010
923.55	3964
923.659	4051
923.767	4109
923.876	3972
923.984	4112
924.092	3987
924.201	4086
924.309	4074
924.417	4154
924.525	4021
924.633	4071
924.741	4885
924.849	3873
924.956	4124
925.064	3968
925.172	3892
925.279	3968
925.387	4055
925.494	4055
925.602	4200
925.709	4154
925.816	4025
925.924	4116
926.031	4207
926.138	4158
926.245	4177
926.352	4131
926.459	4219
926.566	4314
926.673	4166
926.779	4036
926.886	4067
926.993	3998
927.099	3956
927.206	3903
927.312	3953
927.419	4017
927.525	4013
927.631	4048
927.737	3956
927.843	3956
927.95	3831
928.056	3972
928.162	3960
928.267	4101
928.373	4649
928.479	4093
928.585	3873
928.69	3994
928.796	4059
928.901	3956
929.007	3873
929.112	3998
929.218	3987
929.323	3930
929.428	3911
929.533	4112
929.638	3899
929.743	3934
929.848	4013
929.953	3994
930.058	3960
930.163	3793
930.267	3812
930.372	3972
930.477	3835
930.581	4097
930.685	3918
930.79	3808
930.894	3903
930.998	3884
931.103	4032
931.207	3728
931.311	3682
931.415	3663
931.519	3519
931.623	3564
