Data from test_V78500241_2030.txt Node
Date: Fri Mar 25 17:03:06 CST 2022
User: usil
Spectrometer: V785-0024
Trigger mode: 0
Integration Time (sec): 4.000000E-1
Scans to average: 1
Nonlinearity correction enabled: false
Boxcar width: 0
Storing dark spectrum: false
XAxis mode: Wavelengths
Number of Pixels in Spectrum: 1024
>>>>>Begin Spectral Data<<<<<
801.071	8077
801.214	7936
801.356	7788
801.499	7860
801.641	7784
801.783	7784
801.926	7986
802.068	7902
802.211	7989
802.353	7959
802.496	7890
802.638	7830
802.78	7940
802.923	7868
803.065	7845
803.208	7830
803.35	7909
803.492	8065
803.635	8119
803.777	8039
803.919	8107
804.061	8476
804.204	8081
804.346	8016
804.488	7921
804.63	8119
804.773	7993
804.915	8058
805.057	8248
805.199	8096
805.341	8233
805.483	8218
805.626	8233
805.768	8073
805.91	8187
806.052	8301
806.194	8115
806.336	8237
806.478	8081
806.62	8081
806.762	8157
806.904	8221
807.046	8454
807.188	8385
807.33	8256
807.472	8404
807.614	8225
807.756	8103
807.898	7978
808.04	7909
808.182	7883
808.324	7925
808.465	7860
808.607	8107
808.749	8092
808.891	8195
809.033	8256
809.174	8187
809.316	8065
809.458	8024
809.6	7997
809.741	8058
809.883	8035
810.025	8111
810.166	8069
810.308	7989
810.45	7936
810.591	7788
810.733	7750
810.875	7655
811.016	7495
811.158	7419
811.299	7537
811.441	7655
811.582	7651
811.724	7537
811.865	7624
812.007	7552
812.148	7590
812.29	7609
812.431	7776
812.573	7879
812.714	8001
812.855	8126
812.997	8157
813.138	8294
813.279	8199
813.421	8012
813.562	7947
813.703	7811
813.845	7700
813.986	7419
814.127	7221
814.268	7171
814.41	7225
814.551	7164
814.692	7183
814.833	7145
814.974	7107
815.115	7050
815.256	6962
815.397	6932
815.539	6958
815.68	6810
815.821	6795
815.962	6882
816.103	6878
816.244	6734
816.385	6589
816.526	6604
816.666	6490
816.807	6300
816.948	6460
817.089	6448
817.23	6429
817.371	6380
817.512	6376
817.653	6369
817.793	6426
817.934	6445
818.075	6456
818.216	6391
818.356	6350
818.497	6228
818.638	6152
818.778	6167
818.919	6125
819.06	6175
819.2	6338
819.341	6266
819.481	6388
819.622	6559
819.762	6719
819.903	6658
820.043	6612
820.184	6525
820.324	6559
820.465	6665
820.605	6646
820.746	6662
820.886	6566
821.026	6608
821.167	6681
821.307	6791
821.447	6734
821.588	6696
821.728	6608
821.868	6494
822.008	6300
822.149	6414
822.289	6308
822.429	6133
822.569	6060
822.709	6110
822.849	5885
822.99	5855
823.13	5935
823.27	5973
823.41	5783
823.55	5767
823.69	5695
823.83	5775
823.97	5691
824.11	5501
824.25	5482
824.389	5547
824.529	5577
824.669	5490
824.809	5611
824.949	5665
825.089	5558
825.228	5589
825.368	5433
825.508	5337
825.648	5330
825.787	5387
825.927	5414
826.067	5337
826.206	5292
826.346	5322
826.485	5402
826.625	5376
826.765	5577
826.904	5421
827.044	5250
827.183	5170
827.323	5094
827.462	5235
827.601	5170
827.741	5181
827.88	5216
828.02	5094
828.159	5273
828.298	5284
828.437	5345
828.577	5254
828.716	5455
828.855	5311
828.994	5174
829.134	5136
829.273	5117
829.412	5102
829.551	5098
829.69	5155
829.829	5239
829.968	5334
830.107	5318
830.246	5277
830.385	5162
830.524	5132
830.663	5098
830.802	4972
830.941	4831
831.08	4881
831.219	4961
831.357	4976
831.496	5185
831.635	4934
831.774	4858
831.913	4828
832.051	4710
832.19	4748
832.329	4892
832.467	4725
832.606	4603
832.744	4706
832.883	4729
833.022	4694
833.16	4763
833.299	4790
833.437	4850
833.576	4839
833.714	4835
833.852	4908
833.991	4870
834.129	4911
834.267	4896
834.406	4976
834.544	4968
834.682	4999
834.821	5033
834.959	5197
835.097	4987
835.235	5136
835.373	5083
835.511	5086
835.65	4980
835.788	5045
835.926	4877
836.064	4915
836.202	4915
836.34	5181
836.478	5239
836.615	5128
836.753	5159
836.891	5254
837.029	5254
837.167	5216
837.305	5128
837.443	5083
837.58	5060
837.718	5265
837.856	5178
837.993	5105
838.131	5284
838.269	5166
838.406	5155
838.544	5143
838.681	4999
838.819	4991
838.956	4873
839.094	4919
839.231	4987
839.369	5086
839.506	5414
839.643	5296
839.781	5060
839.918	5003
840.055	5094
840.193	5113
840.33	5075
840.467	5155
840.604	5147
840.742	5376
840.879	5052
841.016	5102
841.153	5136
841.29	5364
841.427	5315
841.564	5326
841.701	5326
841.838	5265
841.975	5223
842.112	5242
842.249	5098
842.385	5109
842.522	5322
842.659	5121
842.796	5155
842.933	5189
843.069	5105
843.206	5140
843.343	5280
843.479	5212
843.616	5250
843.752	5006
843.889	4995
844.025	5201
844.162	5037
844.298	5216
844.435	4999
844.571	5025
844.708	5216
844.844	5307
844.98	5391
845.117	5326
845.253	5117
845.389	5083
845.525	5178
845.661	5143
845.798	5033
845.934	5193
846.07	5041
846.206	5170
846.342	5273
846.478	5170
846.614	4995
846.75	4984
846.886	4900
847.022	5105
847.158	5025
847.294	5033
847.429	5162
847.565	5033
847.701	5296
847.837	4854
847.972	4824
848.108	4968
848.244	4915
848.379	4778
848.515	4759
848.65	4740
848.786	4729
848.921	4740
849.057	4866
849.192	4877
849.328	4752
849.463	4828
849.598	4767
849.734	4752
849.869	4691
850.004	4615
850.14	4664
850.275	4615
850.41	4508
850.545	4588
850.68	4588
850.815	4546
850.95	4596
851.085	4858
851.22	4733
851.355	4660
851.49	4603
851.625	4626
851.76	4656
851.895	4527
852.03	4485
852.165	4668
852.299	4672
852.434	4782
852.569	4771
852.703	4744
852.838	4847
852.973	4930
853.107	4900
853.242	4702
853.376	4618
853.511	4550
853.645	4618
853.78	4759
853.914	4675
854.048	4694
854.183	4664
854.317	4683
854.451	4774
854.585	4649
854.72	4615
854.854	4759
854.988	4577
855.122	4603
855.256	4470
855.39	4683
855.524	4771
855.658	4733
855.792	4660
855.926	4752
856.06	4778
856.194	4812
856.327	4694
856.461	4626
856.595	4668
856.729	4634
856.862	4767
856.996	4656
857.13	4725
857.263	4702
857.397	4809
857.53	4599
857.664	4733
857.797	4752
857.931	4782
858.064	4702
858.197	4740
858.331	4641
858.464	4603
858.597	4497
858.731	4618
858.864	4615
858.997	4611
859.13	4656
859.263	4626
859.396	4653
859.529	4542
859.662	4558
859.795	4493
859.928	4607
860.061	4786
860.194	4748
860.327	4634
860.46	4577
860.592	4672
860.725	4725
860.858	4698
860.99	4554
861.123	4489
861.256	4523
861.388	4622
861.521	5284
861.653	4443
861.786	4459
861.918	4455
862.05	4516
862.183	4569
862.315	4558
862.447	4653
862.58	4565
862.712	4379
862.844	4303
862.976	4470
863.108	4375
863.24	4752
863.372	4287
863.504	4390
863.636	4402
863.768	4447
863.9	4440
864.032	4344
864.164	4455
864.296	4459
864.428	4527
864.559	4527
864.691	4493
864.823	4500
864.954	4459
865.086	4500
865.217	4447
865.349	4386
865.48	4443
865.612	4493
865.743	4615
865.875	4459
866.006	4360
866.137	4451
866.269	4424
866.4	4394
866.531	4421
866.662	4398
866.793	4432
866.924	4390
867.055	4516
867.186	4497
867.317	4398
867.448	4417
867.579	4402
867.71	4352
867.841	4337
867.972	4428
868.103	4459
868.233	4424
868.364	4451
868.495	4481
868.625	4637
868.756	4752
868.886	4580
869.017	4615
869.147	4782
869.278	4736
869.408	4664
869.539	4584
869.669	4668
869.799	4626
869.929	4759
870.06	4740
870.19	4930
870.32	4938
870.45	4961
870.58	5045
870.71	5128
870.84	5033
870.97	4896
871.1	4885
871.23	5113
871.36	5098
871.489	5029
871.619	5033
871.749	5041
871.879	5117
872.008	5201
872.138	5056
872.267	4938
872.397	4850
872.526	4755
872.656	4725
872.785	4786
872.915	4957
873.044	4991
873.173	4915
873.303	4942
873.432	4961
873.561	4930
873.69	4854
873.819	4877
873.948	4915
874.077	4778
874.206	4740
874.335	4790
874.464	4942
874.593	4995
874.722	4946
874.851	5143
874.979	5052
875.108	5029
875.237	4870
875.365	4896
875.494	4877
875.623	4961
875.751	4835
875.88	4862
876.008	4961
876.136	5029
876.265	5220
876.393	5345
876.521	5216
876.65	5170
876.778	5178
876.906	5041
877.034	5056
877.162	5056
877.29	4976
877.418	5029
877.546	5018
877.674	5003
877.802	5018
877.93	5029
878.058	4900
878.185	4900
878.313	4949
878.441	4915
878.568	4752
878.696	4805
878.824	4850
878.951	4980
879.079	5121
879.206	5292
879.333	5117
879.461	4961
879.588	4976
879.715	5105
879.842	5193
879.97	4968
880.097	4797
880.224	4736
880.351	4752
880.478	4831
880.605	4831
880.732	4793
880.859	5056
880.986	4816
881.112	4911
881.239	4740
881.366	4675
881.493	4573
881.619	4561
881.746	4649
881.872	4649
881.999	4615
882.125	4698
882.252	4778
882.378	4805
882.505	4980
882.631	4786
882.757	4664
882.883	4725
883.01	4771
883.136	4630
883.262	4584
883.388	4611
883.514	4793
883.64	4847
883.766	4805
883.892	4687
884.018	4725
884.143	4927
884.269	5037
884.395	4675
884.52	4714
884.646	4733
884.772	4653
884.897	4580
885.023	4710
885.148	4831
885.274	4862
885.399	4847
885.524	4793
885.65	4706
885.775	4767
885.9	4763
886.025	4900
886.15	4820
886.275	4748
886.4	4717
886.525	4752
886.65	4714
886.775	4744
886.9	4885
887.025	5029
887.149	4816
887.274	4694
887.399	4634
887.523	4653
887.648	4577
887.773	4592
887.897	4771
888.021	4831
888.146	4714
888.27	4862
888.395	4934
888.519	4835
888.643	4850
888.767	4862
888.891	4744
889.015	4626
889.139	4691
889.263	4668
889.387	4717
889.511	4847
889.635	4835
889.759	4683
889.883	4675
890.006	4778
890.13	4877
890.254	4656
890.377	4778
890.501	4531
890.624	4531
890.748	4717
890.871	4516
890.995	4481
891.118	4470
891.241	4535
891.364	4603
891.488	4691
891.611	4508
891.734	4577
891.857	4626
891.98	4573
892.103	4603
892.226	4645
892.349	4558
892.471	4455
892.594	4615
892.717	4645
892.839	4637
892.962	4645
893.085	4714
893.207	4584
893.33	4478
893.452	4550
893.575	4656
893.697	4664
893.819	4820
893.941	4892
894.064	4771
894.186	4611
894.308	4611
894.43	4733
894.552	4816
894.674	4744
894.796	4580
894.918	4668
895.04	4611
895.161	4740
895.283	4641
895.405	4672
895.526	4649
895.648	4744
895.769	4744
895.891	4736
896.012	4767
896.134	4786
896.255	4687
896.376	4626
896.498	4683
896.619	4679
896.74	4683
896.861	4683
896.982	4915
897.103	5056
897.224	4858
897.345	4790
897.466	4714
897.587	4721
897.708	4908
897.828	4850
897.949	4649
898.07	4611
898.19	4694
898.311	4866
898.431	4675
898.552	4752
898.672	4835
898.792	4782
898.913	4790
899.033	4668
899.153	4584
899.273	4440
899.393	4573
899.513	4519
899.633	4573
899.753	4550
899.873	4550
899.993	4618
900.113	4527
900.232	4592
900.352	4550
900.472	4493
900.591	4440
900.711	4489
900.83	4459
900.95	4729
901.069	4714
901.189	4550
901.308	4417
901.427	4363
901.546	4421
901.665	4474
901.784	4535
901.904	4409
902.023	4356
902.141	4234
902.26	4204
902.379	4333
902.498	4261
902.617	4249
902.735	4379
902.854	4432
902.973	4386
903.091	4242
903.21	4246
903.328	4344
903.446	4318
903.565	4291
903.683	4363
903.801	4303
903.919	4409
904.038	4466
904.156	4329
904.274	4466
904.392	4417
904.51	4500
904.627	4523
904.745	4603
904.863	4634
904.981	4474
905.098	4383
905.216	4402
905.334	4451
905.451	4470
905.569	4436
905.686	4599
905.803	4592
905.921	4409
906.038	4615
906.155	4538
906.272	4455
906.389	4466
906.506	4402
906.623	4402
906.74	4417
906.857	4348
906.974	4333
907.091	4577
907.208	4702
907.324	4622
907.441	4565
907.557	4405
907.674	4409
907.79	4390
907.907	4436
908.023	4512
908.139	4508
908.256	4497
908.372	4516
908.488	4497
908.604	4428
908.72	4344
908.836	4436
908.952	4394
909.068	4451
909.184	4580
909.3	4489
909.415	4599
909.531	4603
909.647	4341
909.762	4409
909.878	4371
909.993	4500
910.108	4443
910.224	4432
910.339	4546
910.454	4409
910.57	4394
910.685	4318
910.8	4717
910.915	4637
911.03	4516
911.145	4322
911.259	4390
911.374	4428
911.489	4352
911.604	4287
911.718	4211
911.833	4246
911.947	4097
912.062	4055
912.176	4242
912.291	4306
912.405	4257
912.519	4493
912.633	4519
912.748	4394
912.862	4341
912.976	4249
913.09	4116
913.204	4188
913.318	4287
913.431	4398
913.545	4432
913.659	4440
913.772	4421
913.886	4299
914	4287
914.113	4398
914.226	4466
914.34	4402
914.453	4299
914.566	4455
914.68	4356
914.793	4333
914.906	4177
915.019	4135
915.132	4105
915.245	4211
915.358	4223
915.47	4234
915.583	4265
915.696	4299
915.809	4394
915.921	4436
916.034	4322
916.146	4352
916.259	4268
916.371	4421
916.483	4440
916.595	4257
916.708	4360
916.82	4398
916.932	4371
917.044	4360
917.156	4360
917.268	4265
917.38	4310
917.491	4333
917.603	4424
917.715	4432
917.826	4474
917.938	4367
918.049	4249
918.161	4417
918.272	4596
918.384	4542
918.495	4455
918.606	4284
918.717	4261
918.828	4348
918.939	4394
919.05	4253
919.161	4344
919.272	4143
919.383	4284
919.494	4497
919.604	4664
919.715	4459
919.826	4390
919.936	4394
920.047	4542
920.157	4497
920.267	4694
920.378	4599
920.488	4546
920.598	4755
920.708	4892
920.818	4797
920.928	4763
921.038	4976
921.148	4904
921.258	4599
921.368	4569
921.477	4580
921.587	4489
921.697	4424
921.806	4584
921.916	4443
922.025	4261
922.134	4272
922.244	4223
922.353	4379
922.462	4158
922.571	4177
922.68	4006
922.789	4006
922.898	4067
923.007	3983
923.116	4105
923.224	4048
923.333	4120
923.442	3960
923.55	4044
923.659	4059
923.767	4143
923.876	4055
923.984	4166
924.092	4013
924.201	4131
924.309	4112
924.417	4169
924.525	4078
924.633	4166
924.741	5121
924.849	3994
924.956	4128
925.064	4021
925.172	3979
925.279	3998
925.387	4101
925.494	4059
925.602	4261
925.709	4253
925.816	4067
925.924	4158
926.031	4246
926.138	4207
926.245	4249
926.352	4086
926.459	4257
926.566	4325
926.673	4128
926.779	4101
926.886	4059
926.993	3994
927.099	3968
927.206	3922
927.312	3964
927.419	4105
927.525	4032
927.631	4086
927.737	3979
927.843	4002
927.95	3835
928.056	3991
928.162	4044
928.267	4063
928.373	4618
928.479	4135
928.585	3903
928.69	4025
928.796	4048
928.901	3949
929.007	3831
929.112	3998
929.218	3972
929.323	3964
929.428	3975
929.533	4135
929.638	3949
929.743	3975
929.848	4109
929.953	3964
930.058	3960
930.163	3819
930.267	3865
930.372	3968
930.477	3842
930.581	4086
930.685	3964
930.79	3854
930.894	3857
930.998	3857
931.103	4055
931.207	3789
931.311	3694
931.415	3682
931.519	3557
931.623	3545
