Data from test_V78500241_743.txt Node
Date: Fri Mar 25 16:54:10 CST 2022
User: usil
Spectrometer: V785-0024
Trigger mode: 0
Integration Time (sec): 4.000000E-1
Scans to average: 1
Nonlinearity correction enabled: false
Boxcar width: 0
Storing dark spectrum: false
XAxis mode: Wavelengths
Number of Pixels in Spectrum: 1024
>>>>>Begin Spectral Data<<<<<
801.071	8012
801.214	8001
801.356	7845
801.499	7868
801.641	7822
801.783	7837
801.926	7993
802.068	7989
802.211	7967
802.353	8027
802.496	7868
802.638	7860
802.78	7963
802.923	7902
803.065	7909
803.208	7807
803.35	7986
803.492	8153
803.635	8195
803.777	7993
803.919	8084
804.061	8370
804.204	8134
804.346	8035
804.488	7955
804.63	8172
804.773	8046
804.915	8096
805.057	8263
805.199	8126
805.341	8195
805.483	8271
805.626	8282
805.768	8119
805.91	8180
806.052	8248
806.194	8058
806.336	8317
806.478	8100
806.62	8046
806.762	8134
806.904	8206
807.046	8465
807.188	8385
807.33	8355
807.472	8343
807.614	8142
807.756	8107
807.898	7902
808.04	7856
808.182	7887
808.324	7864
808.465	7913
808.607	8065
808.749	8134
808.891	8191
809.033	8317
809.174	8149
809.316	8050
809.458	8062
809.6	7978
809.741	7997
809.883	8065
810.025	8058
810.166	8081
810.308	8008
810.45	8020
810.591	7894
810.733	7719
810.875	7685
811.016	7521
811.158	7518
811.299	7586
811.441	7731
811.582	7639
811.724	7556
811.865	7548
812.007	7567
812.148	7556
812.29	7597
812.431	7788
812.573	7757
812.714	8020
812.855	8100
812.997	8119
813.138	8210
813.279	8180
813.421	8096
813.562	7989
813.703	7822
813.845	7753
813.986	7430
814.127	7282
814.268	7285
814.41	7209
814.551	7156
814.692	7183
814.833	7038
814.974	7084
815.115	7072
815.256	6973
815.397	6962
815.539	6970
815.68	6859
815.821	6768
815.962	6825
816.103	6829
816.244	6677
816.385	6616
816.526	6574
816.666	6490
816.807	6300
816.948	6388
817.089	6460
817.23	6391
817.371	6357
817.512	6395
817.653	6372
817.793	6357
817.934	6426
818.075	6391
818.216	6448
818.356	6429
818.497	6205
818.638	6178
818.778	6140
818.919	6110
819.06	6148
819.2	6300
819.341	6289
819.481	6357
819.622	6536
819.762	6662
819.903	6654
820.043	6555
820.184	6563
820.324	6563
820.465	6665
820.605	6654
820.746	6635
820.886	6441
821.026	6669
821.167	6681
821.307	6764
821.447	6719
821.588	6654
821.728	6555
821.868	6490
822.008	6304
822.149	6361
822.289	6372
822.429	6178
822.569	6038
822.709	6106
822.849	5916
822.99	5923
823.13	5916
823.27	5859
823.41	5798
823.55	5748
823.69	5707
823.83	5775
823.97	5657
824.11	5539
824.25	5486
824.389	5562
824.529	5566
824.669	5463
824.809	5627
824.949	5680
825.089	5634
825.228	5547
825.368	5372
825.508	5330
825.648	5337
825.787	5372
825.927	5368
826.067	5311
826.206	5284
826.346	5364
826.485	5360
826.625	5402
826.765	5516
826.904	5410
827.044	5284
827.183	5204
827.323	5109
827.462	5227
827.601	5109
827.741	5178
827.88	5204
828.02	5113
828.159	5261
828.298	5330
828.437	5337
828.577	5292
828.716	5501
828.855	5360
828.994	5193
829.134	5136
829.273	5208
829.412	5094
829.551	5113
829.69	5166
829.829	5227
829.968	5372
830.107	5258
830.246	5307
830.385	5113
830.524	5151
830.663	5075
830.802	4984
830.941	4908
831.08	4881
831.219	4972
831.357	4957
831.496	5128
831.635	4881
831.774	4858
831.913	4786
832.051	4748
832.19	4782
832.329	4850
832.467	4694
832.606	4626
832.744	4710
832.883	4748
833.022	4759
833.16	4771
833.299	4862
833.437	4782
833.576	4824
833.714	4812
833.852	4839
833.991	4885
834.129	4957
834.267	4953
834.406	4923
834.544	4953
834.682	4949
834.821	4949
834.959	5166
835.097	5018
835.235	5109
835.373	5124
835.511	5079
835.65	5048
835.788	5022
835.926	4904
836.064	4949
836.202	4911
836.34	5178
836.478	5193
836.615	5102
836.753	5201
836.891	5258
837.029	5261
837.167	5212
837.305	5132
837.443	5105
837.58	5090
837.718	5277
837.856	5189
837.993	5140
838.131	5265
838.269	5201
838.406	5201
838.544	5181
838.681	5060
838.819	5033
838.956	4968
839.094	4949
839.231	4995
839.369	5086
839.506	5364
839.643	5288
839.781	5090
839.918	5029
840.055	5113
840.193	5109
840.33	5109
840.467	5140
840.604	5151
840.742	5429
840.879	5064
841.016	5102
841.153	5140
841.29	5360
841.427	5357
841.564	5334
841.701	5345
841.838	5212
841.975	5185
842.112	5277
842.249	5132
842.385	5105
842.522	5349
842.659	5250
842.796	5174
842.933	5216
843.069	5140
843.206	5151
843.343	5261
843.479	5261
843.616	5337
843.752	4991
843.889	4991
844.025	5197
844.162	5037
844.298	5178
844.435	5060
844.571	5052
844.708	5155
844.844	5296
844.98	5315
845.117	5334
845.253	5166
845.389	5121
845.525	5185
845.661	5113
845.798	5045
845.934	5132
846.07	5041
846.206	5197
846.342	5288
846.478	5159
846.614	5052
846.75	4938
846.886	4881
847.022	5113
847.158	5029
847.294	5056
847.429	5105
847.565	5109
847.701	5315
847.837	4885
847.972	4771
848.108	4919
848.244	4927
848.379	4759
848.515	4748
848.65	4683
848.786	4740
848.921	4748
849.057	4892
849.192	4904
849.328	4767
849.463	4816
849.598	4774
849.734	4782
849.869	4672
850.004	4603
850.14	4668
850.275	4596
850.41	4531
850.545	4626
850.68	4603
850.815	4599
850.95	4660
851.085	4828
851.22	4698
851.355	4626
851.49	4630
851.625	4607
851.76	4607
851.895	4603
852.03	4561
852.165	4664
852.299	4721
852.434	4778
852.569	4706
852.703	4790
852.838	4809
852.973	4957
853.107	4873
853.242	4694
853.376	4592
853.511	4531
853.645	4588
853.78	4744
853.914	4660
854.048	4618
854.183	4694
854.317	4706
854.451	4839
854.585	4649
854.72	4626
854.854	4721
854.988	4611
855.122	4630
855.256	4516
855.39	4660
855.524	4755
855.658	4729
855.792	4691
855.926	4717
856.06	4786
856.194	4782
856.327	4717
856.461	4584
856.595	4573
856.729	4683
856.862	4721
856.996	4672
857.13	4733
857.263	4717
857.397	4790
857.53	4626
857.664	4702
857.797	4778
857.931	4759
858.064	4683
858.197	4786
858.331	4649
858.464	4596
858.597	4512
858.731	4645
858.864	4637
858.997	4626
859.13	4634
859.263	4698
859.396	4660
859.529	4603
859.662	4615
859.795	4558
859.928	4603
860.061	4740
860.194	4748
860.327	4615
860.46	4538
860.592	4683
860.725	4710
860.858	4672
860.99	4542
861.123	4527
861.256	4478
861.388	4577
861.521	5330
861.653	4485
861.786	4402
861.918	4470
862.05	4516
862.183	4523
862.315	4584
862.447	4660
862.58	4538
862.712	4398
862.844	4337
862.976	4535
863.108	4493
863.24	4843
863.372	4314
863.504	4424
863.636	4360
863.768	4455
863.9	4459
864.032	4363
864.164	4390
864.296	4447
864.428	4561
864.559	4531
864.691	4455
864.823	4535
864.954	4485
865.086	4459
865.217	4459
865.349	4413
865.48	4466
865.612	4470
865.743	4656
865.875	4443
866.006	4424
866.137	4447
866.269	4424
866.4	4383
866.531	4436
866.662	4386
866.793	4383
866.924	4432
867.055	4440
867.186	4424
867.317	4409
867.448	4344
867.579	4409
867.71	4402
867.841	4352
867.972	4485
868.103	4440
868.233	4394
868.364	4459
868.495	4470
868.625	4706
868.756	4736
868.886	4584
869.017	4641
869.147	4744
869.278	4752
869.408	4611
869.539	4618
869.669	4691
869.799	4706
869.929	4767
870.06	4748
870.19	5003
870.32	4930
870.45	4911
870.58	4938
870.71	5094
870.84	5121
870.97	4908
871.1	4896
871.23	5128
871.36	5109
871.489	4984
871.619	5086
871.749	5098
871.879	5079
872.008	5143
872.138	5079
872.267	4991
872.397	4816
872.526	4839
872.656	4672
872.785	4763
872.915	4904
873.044	5022
873.173	4908
873.303	4942
873.432	4919
873.561	4965
873.69	4911
873.819	4835
873.948	4915
874.077	4824
874.206	4725
874.335	4816
874.464	4908
874.593	5075
874.722	4923
874.851	5090
874.979	5014
875.108	4991
875.237	4915
875.365	4881
875.494	4858
875.623	4968
875.751	4801
875.88	4877
876.008	5041
876.136	5010
876.265	5201
876.393	5353
876.521	5201
876.65	5227
876.778	5162
876.906	5067
877.034	5025
877.162	5090
877.29	5006
877.418	5037
877.546	5025
877.674	5022
877.802	5064
877.93	5018
878.058	4953
878.185	4904
878.313	4923
878.441	4938
878.568	4801
878.696	4858
878.824	4965
878.951	4987
879.079	5170
879.206	5254
879.333	5124
879.461	4957
879.588	5010
879.715	5083
879.842	5204
879.97	5025
880.097	4759
880.224	4744
880.351	4809
880.478	4771
880.605	4801
880.732	4782
880.859	5071
880.986	4904
881.112	4892
881.239	4809
881.366	4694
881.493	4584
881.619	4546
881.746	4706
881.872	4626
881.999	4634
882.125	4714
882.252	4759
882.378	4820
882.505	4892
882.631	4820
882.757	4679
882.883	4710
883.01	4748
883.136	4664
883.262	4626
883.388	4599
883.514	4870
883.64	4850
883.766	4759
883.892	4630
884.018	4637
884.143	4850
884.269	5018
884.395	4683
884.52	4599
884.646	4660
884.772	4561
884.897	4538
885.023	4656
885.148	4763
885.274	4885
885.399	4763
885.524	4710
885.65	4675
885.775	4714
885.9	4706
886.025	4824
886.15	4763
886.275	4683
886.4	4634
886.525	4714
886.65	4683
886.775	4694
886.9	4850
887.025	5037
887.149	4771
887.274	4607
887.399	4588
887.523	4588
887.648	4573
887.773	4565
887.897	4778
888.021	4744
888.146	4679
888.27	4801
888.395	4900
888.519	4767
888.643	4797
888.767	4782
888.891	4637
889.015	4592
889.139	4641
889.263	4592
889.387	4752
889.511	4858
889.635	4835
889.759	4656
889.883	4649
890.006	4687
890.13	4824
890.254	4615
890.377	4645
890.501	4508
890.624	4497
890.748	4637
890.871	4493
890.995	4424
891.118	4413
891.241	4504
891.364	4580
891.488	4637
891.611	4455
891.734	4527
891.857	4588
891.98	4554
892.103	4599
892.226	4561
892.349	4470
892.471	4383
892.594	4508
892.717	4592
892.839	4596
892.962	4550
893.085	4645
893.207	4599
893.33	4489
893.452	4516
893.575	4717
893.697	4542
893.819	4801
893.941	4816
894.064	4748
894.186	4588
894.308	4588
894.43	4748
894.552	4801
894.674	4763
894.796	4542
894.918	4588
895.04	4531
895.161	4702
895.283	4611
895.405	4565
895.526	4630
895.648	4702
895.769	4672
895.891	4714
896.012	4679
896.134	4679
896.255	4706
896.376	4626
896.498	4615
896.619	4710
896.74	4634
896.861	4649
896.982	4900
897.103	5052
897.224	4797
897.345	4752
897.466	4664
897.587	4710
897.708	4889
897.828	4786
897.949	4622
898.07	4573
898.19	4641
898.311	4778
898.431	4649
898.552	4721
898.672	4752
898.792	4812
898.913	4740
899.033	4630
899.153	4497
899.273	4436
899.393	4523
899.513	4558
899.633	4519
899.753	4519
899.873	4497
899.993	4573
900.113	4550
900.232	4611
900.352	4535
900.472	4497
900.591	4371
900.711	4447
900.83	4440
900.95	4622
901.069	4660
901.189	4535
901.308	4405
901.427	4325
901.546	4402
901.665	4466
901.784	4485
901.904	4383
902.023	4322
902.141	4188
902.26	4188
902.379	4352
902.498	4188
902.617	4211
902.735	4390
902.854	4394
902.973	4337
903.091	4230
903.21	4169
903.328	4280
903.446	4287
903.565	4291
903.683	4413
903.801	4253
903.919	4409
904.038	4413
904.156	4352
904.274	4413
904.392	4386
904.51	4424
904.627	4447
904.745	4542
904.863	4634
904.981	4383
905.098	4314
905.216	4394
905.334	4424
905.451	4402
905.569	4440
905.686	4531
905.803	4542
905.921	4383
906.038	4519
906.155	4466
906.272	4428
906.389	4478
906.506	4375
906.623	4421
906.74	4379
906.857	4314
906.974	4383
907.091	4535
907.208	4656
907.324	4519
907.441	4493
907.557	4306
907.674	4344
907.79	4314
907.907	4375
908.023	4489
908.139	4417
908.256	4440
908.372	4466
908.488	4455
908.604	4333
908.72	4276
908.836	4386
908.952	4383
909.068	4432
909.184	4599
909.3	4485
909.415	4558
909.531	4596
909.647	4360
909.762	4348
909.878	4363
909.993	4500
910.108	4386
910.224	4428
910.339	4459
910.454	4443
910.57	4390
910.685	4276
910.8	4656
910.915	4599
911.03	4478
911.145	4310
911.259	4303
911.374	4333
911.489	4284
911.604	4268
911.718	4139
911.833	4147
911.947	4101
912.062	4006
912.176	4219
912.291	4257
912.405	4192
912.519	4466
912.633	4504
912.748	4329
912.862	4318
912.976	4215
913.09	4093
913.204	4166
913.318	4253
913.431	4329
913.545	4405
913.659	4428
913.772	4337
913.886	4276
914	4173
914.113	4341
914.226	4459
914.34	4383
914.453	4253
914.566	4409
914.68	4325
914.793	4303
914.906	4181
915.019	4093
915.132	4074
915.245	4207
915.358	4234
915.47	4268
915.583	4265
915.696	4284
915.809	4421
915.921	4455
916.034	4276
916.146	4253
916.259	4173
916.371	4360
916.483	4409
916.595	4242
916.708	4341
916.82	4341
916.932	4318
917.044	4303
917.156	4318
917.268	4207
917.38	4295
917.491	4318
917.603	4318
917.715	4390
917.826	4424
917.938	4341
918.049	4261
918.161	4383
918.272	4527
918.384	4535
918.495	4462
918.606	4341
918.717	4238
918.828	4371
918.939	4363
919.05	4253
919.161	4337
919.272	4135
919.383	4238
919.494	4466
919.604	4626
919.715	4440
919.826	4318
919.936	4386
920.047	4489
920.157	4489
920.267	4752
920.378	4573
920.488	4516
920.598	4691
920.708	4889
920.818	4767
920.928	4759
921.038	4953
921.148	4900
921.258	4637
921.368	4599
921.477	4481
921.587	4459
921.697	4360
921.806	4542
921.916	4436
922.025	4257
922.134	4265
922.244	4219
922.353	4344
922.462	4177
922.571	4166
922.68	4055
922.789	4013
922.898	4021
923.007	3987
923.116	4120
923.224	4025
923.333	4059
923.442	3964
923.55	3960
923.659	4006
923.767	4097
923.876	3968
923.984	4071
924.092	3964
924.201	4055
924.309	4067
924.417	4128
924.525	4032
924.633	4101
924.741	4870
924.849	3926
924.956	4112
925.064	3907
925.172	3907
925.279	3956
925.387	4093
925.494	4059
925.602	4177
925.709	4173
925.816	4071
925.924	4116
926.031	4192
926.138	4181
926.245	4188
926.352	4071
926.459	4242
926.566	4287
926.673	4154
926.779	4078
926.886	4071
926.993	3975
927.099	3968
927.206	3945
927.312	3956
927.419	4055
927.525	4002
927.631	4090
927.737	3972
927.843	3915
927.95	3842
928.056	3975
928.162	3975
928.267	4090
928.373	4691
928.479	4048
928.585	3857
928.69	3987
928.796	4078
928.901	3941
929.007	3823
929.112	3956
929.218	3987
929.323	3915
929.428	3956
929.533	4086
929.638	3892
929.743	3991
929.848	4055
929.953	4025
930.058	3884
930.163	3789
930.267	3835
930.372	3979
930.477	3846
930.581	4101
930.685	3937
930.79	3816
930.894	3907
930.998	3831
931.103	4025
931.207	3728
931.311	3671
931.415	3690
931.519	3511
931.623	3542
