Data from test_V78500241_2618.txt Node
Date: Fri Mar 25 17:07:12 CST 2022
User: usil
Spectrometer: V785-0024
Trigger mode: 0
Integration Time (sec): 4.000000E-1
Scans to average: 1
Nonlinearity correction enabled: false
Boxcar width: 0
Storing dark spectrum: false
XAxis mode: Wavelengths
Number of Pixels in Spectrum: 1024
>>>>>Begin Spectral Data<<<<<
801.071	8008
801.214	8020
801.356	7917
801.499	7879
801.641	7772
801.783	7864
801.926	8092
802.068	7906
802.211	7982
802.353	8016
802.496	7925
802.638	7887
802.78	7928
802.923	7959
803.065	7902
803.208	7887
803.35	7993
803.492	8149
803.635	8199
803.777	8046
803.919	8115
804.061	8469
804.204	8103
804.346	8005
804.488	7917
804.63	8119
804.773	8065
804.915	8153
805.057	8313
805.199	8096
805.341	8187
805.483	8282
805.626	8336
805.768	8111
805.91	8199
806.052	8218
806.194	8180
806.336	8301
806.478	8107
806.62	8062
806.762	8069
806.904	8210
807.046	8442
807.188	8377
807.33	8282
807.472	8328
807.614	8103
807.756	8123
807.898	8016
808.04	7959
808.182	7898
808.324	7921
808.465	7875
808.607	8054
808.749	8103
808.891	8210
809.033	8290
809.174	8282
809.316	8111
809.458	8012
809.6	7978
809.741	8084
809.883	8016
810.025	8084
810.166	8035
810.308	8046
810.45	8020
810.591	7845
810.733	7704
810.875	7693
811.016	7491
811.158	7472
811.299	7571
811.441	7772
811.582	7715
811.724	7628
811.865	7609
812.007	7575
812.148	7544
812.29	7662
812.431	7765
812.573	7887
812.714	7989
812.855	8126
812.997	8191
813.138	8279
813.279	8248
813.421	8119
813.562	7936
813.703	7837
813.845	7750
813.986	7430
814.127	7270
814.268	7289
814.41	7145
814.551	7114
814.692	7194
814.833	7084
814.974	7103
815.115	7175
815.256	6958
815.397	6890
815.539	6924
815.68	6844
815.821	6768
815.962	6821
816.103	6768
816.244	6696
816.385	6662
816.526	6547
816.666	6502
816.807	6331
816.948	6448
817.089	6540
817.23	6532
817.371	6380
817.512	6380
817.653	6414
817.793	6315
817.934	6372
818.075	6479
818.216	6433
818.356	6384
818.497	6228
818.638	6041
818.778	6148
818.919	6178
819.06	6224
819.2	6289
819.341	6403
819.481	6372
819.622	6563
819.762	6692
819.903	6707
820.043	6608
820.184	6646
820.324	6669
820.465	6719
820.605	6669
820.746	6665
820.886	6551
821.026	6684
821.167	6707
821.307	6814
821.447	6810
821.588	6665
821.728	6627
821.868	6475
822.008	6361
822.149	6289
822.289	6361
822.429	6159
822.569	6083
822.709	6163
822.849	5939
822.99	5874
823.13	5958
823.27	5923
823.41	5790
823.55	5817
823.69	5794
823.83	5767
823.97	5695
824.11	5554
824.25	5524
824.389	5577
824.529	5547
824.669	5532
824.809	5634
824.949	5672
825.089	5634
825.228	5535
825.368	5395
825.508	5391
825.648	5318
825.787	5364
825.927	5402
826.067	5349
826.206	5284
826.346	5402
826.485	5421
826.625	5436
826.765	5562
826.904	5474
827.044	5261
827.183	5197
827.323	5185
827.462	5231
827.601	5246
827.741	5166
827.88	5166
828.02	5086
828.159	5250
828.298	5315
828.437	5425
828.577	5280
828.716	5482
828.855	5349
828.994	5162
829.134	5147
829.273	5197
829.412	5102
829.551	5155
829.69	5124
829.829	5254
829.968	5406
830.107	5318
830.246	5311
830.385	5201
830.524	5109
830.663	5067
830.802	5037
830.941	4866
831.08	4904
831.219	4953
831.357	4919
831.496	5178
831.635	4915
831.774	4816
831.913	4854
832.051	4717
832.19	4771
832.329	4866
832.467	4721
832.606	4645
832.744	4717
832.883	4736
833.022	4706
833.16	4774
833.299	4858
833.437	4778
833.576	4881
833.714	4797
833.852	4858
833.991	4934
834.129	4957
834.267	4934
834.406	4927
834.544	5022
834.682	4953
834.821	5045
834.959	5147
835.097	4991
835.235	5132
835.373	5060
835.511	5094
835.65	4991
835.788	5083
835.926	4938
836.064	4873
836.202	4968
836.34	5136
836.478	5258
836.615	5170
836.753	5201
836.891	5273
837.029	5273
837.167	5170
837.305	5178
837.443	5170
837.58	5060
837.718	5284
837.856	5136
837.993	5170
838.131	5318
838.269	5193
838.406	5193
838.544	5204
838.681	5094
838.819	5056
838.956	4915
839.094	4919
839.231	4980
839.369	5056
839.506	5391
839.643	5223
839.781	5056
839.918	5022
840.055	5094
840.193	5079
840.33	5094
840.467	5102
840.604	5193
840.742	5463
840.879	5033
841.016	5117
841.153	5109
841.29	5360
841.427	5414
841.564	5303
841.701	5299
841.838	5284
841.975	5181
842.112	5280
842.249	5147
842.385	5140
842.522	5277
842.659	5193
842.796	5121
842.933	5181
843.069	5128
843.206	5155
843.343	5315
843.479	5242
843.616	5277
843.752	5003
843.889	5029
844.025	5197
844.162	5033
844.298	5201
844.435	5090
844.571	5022
844.708	5174
844.844	5303
844.98	5330
845.117	5265
845.253	5155
845.389	5113
845.525	5132
845.661	5155
845.798	5037
845.934	5159
846.07	5090
846.206	5201
846.342	5269
846.478	5185
846.614	4965
846.75	4980
846.886	4908
847.022	5170
847.158	5041
847.294	5018
847.429	5113
847.565	5060
847.701	5334
847.837	4896
847.972	4820
848.108	4930
848.244	4923
848.379	4786
848.515	4763
848.65	4721
848.786	4736
848.921	4805
849.057	4812
849.192	4843
849.328	4805
849.463	4828
849.598	4771
849.734	4763
849.869	4698
850.004	4626
850.14	4702
850.275	4588
850.41	4542
850.545	4592
850.68	4592
850.815	4626
850.95	4630
851.085	4885
851.22	4675
851.355	4698
851.49	4626
851.625	4630
851.76	4668
851.895	4531
852.03	4512
852.165	4599
852.299	4729
852.434	4752
852.569	4702
852.703	4782
852.838	4858
852.973	4942
853.107	4877
853.242	4740
853.376	4637
853.511	4531
853.645	4596
853.78	4797
853.914	4698
854.048	4702
854.183	4656
854.317	4683
854.451	4812
854.585	4683
854.72	4683
854.854	4771
854.988	4596
855.122	4622
855.256	4554
855.39	4645
855.524	4782
855.658	4687
855.792	4683
855.926	4717
856.06	4733
856.194	4824
856.327	4691
856.461	4611
856.595	4573
856.729	4588
856.862	4771
856.996	4687
857.13	4729
857.263	4744
857.397	4828
857.53	4615
857.664	4710
857.797	4782
857.931	4797
858.064	4702
858.197	4721
858.331	4630
858.464	4603
858.597	4554
858.731	4607
858.864	4653
858.997	4596
859.13	4626
859.263	4668
859.396	4698
859.529	4599
859.662	4554
859.795	4527
859.928	4637
860.061	4725
860.194	4774
860.327	4580
860.46	4542
860.592	4733
860.725	4767
860.858	4698
860.99	4630
861.123	4500
861.256	4478
861.388	4596
861.521	5459
861.653	4493
861.786	4485
861.918	4405
862.05	4493
862.183	4523
862.315	4592
862.447	4630
862.58	4550
862.712	4417
862.844	4344
862.976	4455
863.108	4474
863.24	4778
863.372	4341
863.504	4436
863.636	4424
863.768	4497
863.9	4432
864.032	4375
864.164	4405
864.296	4485
864.428	4561
864.559	4554
864.691	4523
864.823	4516
864.954	4447
865.086	4500
865.217	4443
865.349	4386
865.48	4474
865.612	4466
865.743	4577
865.875	4436
866.006	4428
866.137	4485
866.269	4440
866.4	4428
866.531	4451
866.662	4398
866.793	4409
866.924	4428
867.055	4466
867.186	4440
867.317	4417
867.448	4379
867.579	4394
867.71	4383
867.841	4356
867.972	4493
868.103	4455
868.233	4436
868.364	4470
868.495	4447
868.625	4664
868.756	4797
868.886	4569
869.017	4592
869.147	4736
869.278	4744
869.408	4698
869.539	4607
869.669	4717
869.799	4618
869.929	4767
870.06	4744
870.19	4991
870.32	4908
870.45	4953
870.58	4991
870.71	5113
870.84	5041
870.97	4957
871.1	4873
871.23	5159
871.36	5113
871.489	5025
871.619	5071
871.749	5117
871.879	5159
872.008	5166
872.138	4972
872.267	4942
872.397	4854
872.526	4828
872.656	4752
872.785	4809
872.915	4965
873.044	5029
873.173	4911
873.303	4991
873.432	5010
873.561	4972
873.69	4847
873.819	4847
873.948	4873
874.077	4763
874.206	4767
874.335	4790
874.464	4927
874.593	5037
874.722	4934
874.851	5128
874.979	5029
875.108	5018
875.237	4877
875.365	4889
875.494	4896
875.623	4980
875.751	4847
875.88	4854
876.008	4976
876.136	5041
876.265	5216
876.393	5368
876.521	5223
876.65	5235
876.778	5143
876.906	5064
877.034	4987
877.162	4980
877.29	5006
877.418	5052
877.546	5045
877.674	5060
877.802	5014
877.93	5045
878.058	4968
878.185	4885
878.313	4965
878.441	4934
878.568	4805
878.696	4870
878.824	4946
878.951	4984
879.079	5136
879.206	5265
879.333	5102
879.461	4965
879.588	4972
879.715	5124
879.842	5197
879.97	5037
880.097	4793
880.224	4744
880.351	4759
880.478	4771
880.605	4793
880.732	4759
880.859	5052
880.986	4892
881.112	4881
881.239	4733
881.366	4656
881.493	4569
881.619	4592
881.746	4622
881.872	4698
881.999	4634
882.125	4717
882.252	4778
882.378	4812
882.505	4927
882.631	4797
882.757	4637
882.883	4759
883.01	4717
883.136	4649
883.262	4584
883.388	4672
883.514	4839
883.64	4835
883.766	4763
883.892	4611
884.018	4725
884.143	4919
884.269	5006
884.395	4653
884.52	4664
884.646	4588
884.772	4558
884.897	4554
885.023	4615
885.148	4748
885.274	4858
885.399	4771
885.524	4694
885.65	4664
885.775	4733
885.9	4675
886.025	4850
886.15	4778
886.275	4740
886.4	4607
886.525	4729
886.65	4691
886.775	4675
886.9	4957
887.025	5045
887.149	4812
887.274	4656
887.399	4588
887.523	4592
887.648	4554
887.773	4569
887.897	4782
888.021	4767
888.146	4672
888.27	4809
888.395	4908
888.519	4824
888.643	4831
888.767	4820
888.891	4721
889.015	4675
889.139	4645
889.263	4660
889.387	4767
889.511	4835
889.635	4828
889.759	4649
889.883	4664
890.006	4687
890.13	4866
890.254	4599
890.377	4706
890.501	4580
890.624	4592
890.748	4698
890.871	4554
890.995	4466
891.118	4402
891.241	4577
891.364	4592
891.488	4630
891.611	4493
891.734	4550
891.857	4618
891.98	4603
892.103	4702
892.226	4645
892.349	4550
892.471	4478
892.594	4584
892.717	4630
892.839	4615
892.962	4653
893.085	4714
893.207	4672
893.33	4538
893.452	4538
893.575	4698
893.697	4584
893.819	4858
893.941	4866
894.064	4835
894.186	4603
894.308	4664
894.43	4733
894.552	4873
894.674	4866
894.796	4599
894.918	4660
895.04	4641
895.161	4763
895.283	4698
895.405	4626
895.526	4679
895.648	4752
895.769	4733
895.891	4752
896.012	4805
896.134	4736
896.255	4706
896.376	4660
896.498	4683
896.619	4729
896.74	4618
896.861	4733
896.982	4965
897.103	5071
897.224	4828
897.345	4831
897.466	4733
897.587	4752
897.708	4942
897.828	4812
897.949	4656
898.07	4611
898.19	4714
898.311	4870
898.431	4706
898.552	4797
898.672	4835
898.792	4801
898.913	4790
899.033	4656
899.153	4550
899.273	4443
899.393	4462
899.513	4584
899.633	4565
899.753	4592
899.873	4596
899.993	4599
900.113	4561
900.232	4637
900.352	4607
900.472	4527
900.591	4466
900.711	4550
900.83	4466
900.95	4618
901.069	4721
901.189	4577
901.308	4428
901.427	4337
901.546	4405
901.665	4493
901.784	4542
901.904	4424
902.023	4356
902.141	4207
902.26	4223
902.379	4360
902.498	4265
902.617	4227
902.735	4440
902.854	4470
902.973	4390
903.091	4227
903.21	4230
903.328	4322
903.446	4303
903.565	4272
903.683	4386
903.801	4329
903.919	4428
904.038	4413
904.156	4276
904.274	4466
904.392	4394
904.51	4405
904.627	4508
904.745	4653
904.863	4740
904.981	4451
905.098	4337
905.216	4360
905.334	4451
905.451	4424
905.569	4558
905.686	4588
905.803	4554
905.921	4440
906.038	4569
906.155	4504
906.272	4443
906.389	4516
906.506	4386
906.623	4390
906.74	4447
906.857	4360
906.974	4417
907.091	4584
907.208	4645
907.324	4618
907.441	4538
907.557	4360
907.674	4333
907.79	4371
907.907	4367
908.023	4504
908.139	4504
908.256	4375
908.372	4500
908.488	4508
908.604	4383
908.72	4344
908.836	4405
908.952	4417
909.068	4474
909.184	4607
909.3	4474
909.415	4634
909.531	4634
909.647	4386
909.762	4413
909.878	4352
909.993	4443
910.108	4481
910.224	4455
910.339	4500
910.454	4447
910.57	4394
910.685	4314
910.8	4645
910.915	4645
911.03	4478
911.145	4344
911.259	4348
911.374	4379
911.489	4310
911.604	4284
911.718	4219
911.833	4246
911.947	4135
912.062	4093
912.176	4196
912.291	4329
912.405	4287
912.519	4531
912.633	4516
912.748	4436
912.862	4379
912.976	4253
913.09	4112
913.204	4169
913.318	4284
913.431	4390
913.545	4363
913.659	4443
913.772	4451
913.886	4295
914	4253
914.113	4402
914.226	4478
914.34	4436
914.453	4280
914.566	4485
914.68	4344
914.793	4371
914.906	4139
915.019	4150
915.132	4116
915.245	4196
915.358	4234
915.47	4257
915.583	4280
915.696	4329
915.809	4447
915.921	4447
916.034	4287
916.146	4287
916.259	4223
916.371	4379
916.483	4390
916.595	4303
916.708	4360
916.82	4318
916.932	4341
917.044	4383
917.156	4348
917.268	4265
917.38	4303
917.491	4246
917.603	4371
917.715	4455
917.826	4417
917.938	4413
918.049	4291
918.161	4413
918.272	4554
918.384	4527
918.495	4481
918.606	4322
918.717	4234
918.828	4383
918.939	4379
919.05	4253
919.161	4337
919.272	4215
919.383	4242
919.494	4466
919.604	4683
919.715	4474
919.826	4402
919.936	4417
920.047	4554
920.157	4519
920.267	4717
920.378	4554
920.488	4531
920.598	4717
920.708	4881
920.818	4748
920.928	4801
921.038	4972
921.148	4946
921.258	4664
921.368	4599
921.477	4542
921.587	4500
921.697	4394
921.806	4569
921.916	4546
922.025	4329
922.134	4249
922.244	4238
922.353	4367
922.462	4177
922.571	4139
922.68	3994
922.789	3994
922.898	4093
923.007	4021
923.116	4135
923.224	4051
923.333	4128
923.442	4078
923.55	3998
923.659	4082
923.767	4116
923.876	4059
923.984	4150
924.092	3994
924.201	4097
924.309	4086
924.417	4116
924.525	4040
924.633	4139
924.741	5067
924.849	3941
924.956	4166
925.064	3998
925.172	3930
925.279	3979
925.387	4071
925.494	4097
925.602	4196
925.709	4223
925.816	4074
925.924	4124
926.031	4265
926.138	4200
926.245	4207
926.352	4128
926.459	4287
926.566	4333
926.673	4173
926.779	4147
926.886	4067
926.993	4044
927.099	3994
927.206	3991
927.312	3972
927.419	4154
927.525	4029
927.631	4135
927.737	4006
927.843	3949
927.95	3850
928.056	3960
928.162	4006
928.267	4055
928.373	4649
928.479	4150
928.585	3880
928.69	4029
928.796	4124
928.901	3983
929.007	3876
929.112	4063
929.218	4029
929.323	3979
929.428	3994
929.533	4131
929.638	3930
929.743	4036
929.848	4074
929.953	4032
930.058	3930
930.163	3812
930.267	3865
930.372	3968
930.477	3823
930.581	4139
930.685	3972
930.79	3838
930.894	3945
930.998	3884
931.103	4055
931.207	3732
931.311	3751
931.415	3671
931.519	3526
931.623	3542
