Data from test_V78500241_1875.txt Node
Date: Fri Mar 25 17:02:02 CST 2022
User: usil
Spectrometer: V785-0024
Trigger mode: 0
Integration Time (sec): 4.000000E-1
Scans to average: 1
Nonlinearity correction enabled: false
Boxcar width: 0
Storing dark spectrum: false
XAxis mode: Wavelengths
Number of Pixels in Spectrum: 1024
>>>>>Begin Spectral Data<<<<<
801.071	7986
801.214	8020
801.356	7883
801.499	7852
801.641	7795
801.783	7845
801.926	7982
802.068	7928
802.211	8043
802.353	8043
802.496	7868
802.638	7860
802.78	7940
802.923	7917
803.065	7887
803.208	7845
803.35	7947
803.492	8138
803.635	8123
803.777	8073
803.919	8168
804.061	8446
804.204	8199
804.346	8077
804.488	7970
804.63	8035
804.773	8016
804.915	8046
805.057	8279
805.199	8233
805.341	8206
805.483	8279
805.626	8199
805.768	8157
805.91	8267
806.052	8290
806.194	8081
806.336	8290
806.478	8096
806.62	8161
806.762	8103
806.904	8320
807.046	8461
807.188	8366
807.33	8313
807.472	8362
807.614	8172
807.756	8145
807.898	8046
808.04	7932
808.182	7879
808.324	7909
808.465	7890
808.607	8084
808.749	8119
808.891	8252
809.033	8282
809.174	8301
809.316	8054
809.458	8024
809.6	8103
809.741	8065
809.883	8058
810.025	8092
810.166	8073
810.308	7986
810.45	7955
810.591	7883
810.733	7788
810.875	7685
811.016	7495
811.158	7499
811.299	7563
811.441	7757
811.582	7734
811.724	7624
811.865	7468
812.007	7559
812.148	7552
812.29	7632
812.431	7780
812.573	7887
812.714	7989
812.855	8164
812.997	8153
813.138	8290
813.279	8214
813.421	8088
813.562	8008
813.703	7852
813.845	7685
813.986	7449
814.127	7305
814.268	7244
814.41	7145
814.551	7194
814.692	7225
814.833	7088
814.974	7088
815.115	7080
815.256	7084
815.397	6935
815.539	6890
815.68	6795
815.821	6711
815.962	6882
816.103	6848
816.244	6738
816.385	6608
816.526	6578
816.666	6471
816.807	6296
816.948	6513
817.089	6498
817.23	6475
817.371	6338
817.512	6380
817.653	6437
817.793	6369
817.934	6399
818.075	6479
818.216	6448
818.356	6403
818.497	6243
818.638	6098
818.778	6171
818.919	6163
819.06	6083
819.2	6350
819.341	6346
819.481	6372
819.622	6506
819.762	6760
819.903	6707
820.043	6604
820.184	6673
820.324	6540
820.465	6703
820.605	6665
820.746	6673
820.886	6513
821.026	6715
821.167	6745
821.307	6833
821.447	6719
821.588	6707
821.728	6528
821.868	6490
822.008	6311
822.149	6422
822.289	6315
822.429	6201
822.569	6083
822.709	6140
822.849	5939
822.99	5897
823.13	5882
823.27	5946
823.41	5760
823.55	5752
823.69	5771
823.83	5805
823.97	5642
824.11	5532
824.25	5528
824.389	5600
824.529	5558
824.669	5528
824.809	5668
824.949	5646
825.089	5634
825.228	5589
825.368	5383
825.508	5307
825.648	5337
825.787	5372
825.927	5379
826.067	5277
826.206	5269
826.346	5334
826.485	5368
826.625	5395
826.765	5581
826.904	5448
827.044	5212
827.183	5193
827.323	5170
827.462	5227
827.601	5162
827.741	5231
827.88	5204
828.02	5098
828.159	5227
828.298	5334
828.437	5322
828.577	5258
828.716	5493
828.855	5345
828.994	5124
829.134	5147
829.273	5178
829.412	5155
829.551	5083
829.69	5170
829.829	5307
829.968	5372
830.107	5288
830.246	5284
830.385	5170
830.524	5105
830.663	5052
830.802	4972
830.941	4900
831.08	4881
831.219	4957
831.357	4968
831.496	5162
831.635	4896
831.774	4873
831.913	4824
832.051	4714
832.19	4733
832.329	4805
832.467	4698
832.606	4653
832.744	4694
832.883	4721
833.022	4694
833.16	4786
833.299	4831
833.437	4805
833.576	4881
833.714	4900
833.852	4862
833.991	4877
834.129	4930
834.267	4953
834.406	4942
834.544	4961
834.682	4934
834.821	4972
834.959	5220
835.097	5025
835.235	5147
835.373	5048
835.511	5113
835.65	5045
835.788	5086
835.926	4934
836.064	4835
836.202	4862
836.34	5132
836.478	5258
836.615	5128
836.753	5193
836.891	5292
837.029	5265
837.167	5174
837.305	5159
837.443	5174
837.58	5113
837.718	5204
837.856	5155
837.993	5181
838.131	5246
838.269	5269
838.406	5193
838.544	5220
838.681	5041
838.819	5014
838.956	4877
839.094	4904
839.231	5003
839.369	5048
839.506	5417
839.643	5246
839.781	5041
839.918	5025
840.055	5117
840.193	5132
840.33	5121
840.467	5128
840.604	5220
840.742	5425
840.879	5045
841.016	5124
841.153	5121
841.29	5364
841.427	5318
841.564	5318
841.701	5311
841.838	5311
841.975	5246
842.112	5269
842.249	5094
842.385	5147
842.522	5311
842.659	5174
842.796	5140
842.933	5178
843.069	5155
843.206	5193
843.343	5334
843.479	5250
843.616	5280
843.752	5010
843.889	5025
844.025	5220
844.162	5102
844.298	5235
844.435	5102
844.571	5022
844.708	5193
844.844	5299
844.98	5337
845.117	5345
845.253	5147
845.389	5098
845.525	5193
845.661	5151
845.798	5022
845.934	5151
846.07	5071
846.206	5185
846.342	5250
846.478	5143
846.614	5041
846.75	4908
846.886	4953
847.022	5128
847.158	5022
847.294	5086
847.429	5079
847.565	5052
847.701	5315
847.837	4809
847.972	4790
848.108	4995
848.244	4930
848.379	4774
848.515	4721
848.65	4725
848.786	4717
848.921	4797
849.057	4866
849.192	4870
849.328	4820
849.463	4847
849.598	4801
849.734	4793
849.869	4679
850.004	4611
850.14	4645
850.275	4599
850.41	4546
850.545	4531
850.68	4580
850.815	4615
850.95	4588
851.085	4797
851.22	4698
851.355	4698
851.49	4596
851.625	4637
851.76	4637
851.895	4550
852.03	4546
852.165	4691
852.299	4714
852.434	4752
852.569	4733
852.703	4740
852.838	4816
852.973	4949
853.107	4908
853.242	4702
853.376	4672
853.511	4565
853.645	4653
853.78	4774
853.914	4618
854.048	4641
854.183	4607
854.317	4706
854.451	4828
854.585	4714
854.72	4649
854.854	4797
854.988	4565
855.122	4580
855.256	4531
855.39	4664
855.524	4771
855.658	4706
855.792	4710
855.926	4694
856.06	4786
856.194	4820
856.327	4702
856.461	4596
856.595	4618
856.729	4649
856.862	4778
856.996	4710
857.13	4710
857.263	4752
857.397	4733
857.53	4607
857.664	4710
857.797	4771
857.931	4797
858.064	4717
858.197	4660
858.331	4649
858.464	4592
858.597	4542
858.731	4637
858.864	4615
858.997	4584
859.13	4664
859.263	4660
859.396	4706
859.529	4618
859.662	4558
859.795	4523
859.928	4645
860.061	4717
860.194	4736
860.327	4611
860.46	4561
860.592	4721
860.725	4675
860.858	4672
860.99	4561
861.123	4554
861.256	4569
861.388	4618
861.521	5383
861.653	4516
861.786	4402
861.918	4478
862.05	4531
862.183	4523
862.315	4565
862.447	4637
862.58	4538
862.712	4405
862.844	4329
862.976	4508
863.108	4474
863.24	4938
863.372	4352
863.504	4413
863.636	4375
863.768	4428
863.9	4432
864.032	4360
864.164	4375
864.296	4527
864.428	4573
864.559	4538
864.691	4508
864.823	4531
864.954	4440
865.086	4497
865.217	4405
865.349	4402
865.48	4474
865.612	4481
865.743	4637
865.875	4481
866.006	4417
866.137	4436
866.269	4424
866.4	4402
866.531	4417
866.662	4394
866.793	4402
866.924	4436
867.055	4512
867.186	4443
867.317	4424
867.448	4409
867.579	4375
867.71	4394
867.841	4356
867.972	4504
868.103	4436
868.233	4519
868.364	4447
868.495	4443
868.625	4656
868.756	4721
868.886	4512
869.017	4664
869.147	4782
869.278	4744
869.408	4660
869.539	4668
869.669	4702
869.799	4687
869.929	4755
870.06	4714
870.19	4976
870.32	4930
870.45	4949
870.58	5010
870.71	5102
870.84	5075
870.97	4934
871.1	4911
871.23	5117
871.36	5090
871.489	4961
871.619	5090
871.749	5121
871.879	5147
872.008	5166
872.138	5048
872.267	4953
872.397	4847
872.526	4721
872.656	4759
872.785	4824
872.915	4942
873.044	5010
873.173	4885
873.303	4938
873.432	4904
873.561	5010
873.69	4873
873.819	4858
873.948	4877
874.077	4782
874.206	4729
874.335	4854
874.464	4942
874.593	5041
874.722	4968
874.851	5147
874.979	5056
875.108	4965
875.237	4881
875.365	4896
875.494	4866
875.623	4972
875.751	4820
875.88	4930
876.008	4961
876.136	5014
876.265	5170
876.393	5307
876.521	5265
876.65	5185
876.778	5208
876.906	5029
877.034	4995
877.162	5018
877.29	4965
877.418	5067
877.546	5048
877.674	5052
877.802	5018
877.93	4984
878.058	4957
878.185	4900
878.313	4976
878.441	4938
878.568	4767
878.696	4862
878.824	4961
878.951	5037
879.079	5102
879.206	5254
879.333	5079
879.461	4934
879.588	4976
879.715	5098
879.842	5174
879.97	5003
880.097	4759
880.224	4786
880.351	4824
880.478	4828
880.605	4782
880.732	4771
880.859	5064
880.986	4873
881.112	4942
881.239	4755
881.366	4618
881.493	4622
881.619	4584
881.746	4656
881.872	4641
881.999	4660
882.125	4721
882.252	4774
882.378	4778
882.505	4968
882.631	4782
882.757	4694
882.883	4729
883.01	4790
883.136	4679
883.262	4577
883.388	4615
883.514	4763
883.64	4866
883.766	4759
883.892	4691
884.018	4725
884.143	4900
884.269	4999
884.395	4653
884.52	4577
884.646	4607
884.772	4558
884.897	4542
885.023	4653
885.148	4740
885.274	4858
885.399	4763
885.524	4729
885.65	4675
885.775	4672
885.9	4714
886.025	4854
886.15	4759
886.275	4634
886.4	4653
886.525	4782
886.65	4687
886.775	4721
886.9	4866
887.025	5033
887.149	4786
887.274	4683
887.399	4554
887.523	4660
887.648	4538
887.773	4615
887.897	4755
888.021	4755
888.146	4672
888.27	4816
888.395	4927
888.519	4778
888.643	4850
888.767	4831
888.891	4694
889.015	4596
889.139	4603
889.263	4554
889.387	4778
889.511	4847
889.635	4816
889.759	4615
889.883	4634
890.006	4721
890.13	4820
890.254	4596
890.377	4668
890.501	4527
890.624	4527
890.748	4599
890.871	4538
890.995	4470
891.118	4455
891.241	4485
891.364	4508
891.488	4596
891.611	4447
891.734	4542
891.857	4569
891.98	4577
892.103	4653
892.226	4607
892.349	4489
892.471	4481
892.594	4546
892.717	4580
892.839	4527
892.962	4554
893.085	4656
893.207	4603
893.33	4455
893.452	4535
893.575	4641
893.697	4561
893.819	4824
893.941	4828
894.064	4763
894.186	4588
894.308	4565
894.43	4687
894.552	4854
894.674	4744
894.796	4516
894.918	4607
895.04	4554
895.161	4717
895.283	4622
895.405	4580
895.526	4618
895.648	4679
895.769	4679
895.891	4721
896.012	4706
896.134	4698
896.255	4687
896.376	4668
896.498	4618
896.619	4664
896.74	4584
896.861	4675
896.982	4908
897.103	5102
897.224	4809
897.345	4778
897.466	4672
897.587	4744
897.708	4839
897.828	4812
897.949	4660
898.07	4546
898.19	4637
898.311	4866
898.431	4683
898.552	4710
898.672	4774
898.792	4786
898.913	4729
899.033	4592
899.153	4504
899.273	4481
899.393	4538
899.513	4519
899.633	4497
899.753	4569
899.873	4508
899.993	4561
900.113	4535
900.232	4580
900.352	4538
900.472	4516
900.591	4390
900.711	4436
900.83	4436
900.95	4637
901.069	4675
901.189	4531
901.308	4333
901.427	4310
901.546	4375
901.665	4508
901.784	4497
901.904	4363
902.023	4314
902.141	4211
902.26	4166
902.379	4287
902.498	4287
902.617	4238
902.735	4398
902.854	4402
902.973	4329
903.091	4154
903.21	4234
903.328	4310
903.446	4242
903.565	4261
903.683	4371
903.801	4265
903.919	4417
904.038	4390
904.156	4348
904.274	4409
904.392	4390
904.51	4478
904.627	4443
904.745	4542
904.863	4622
904.981	4398
905.098	4310
905.216	4363
905.334	4432
905.451	4409
905.569	4421
905.686	4527
905.803	4577
905.921	4413
906.038	4554
906.155	4485
906.272	4390
906.389	4462
906.506	4310
906.623	4440
906.74	4344
906.857	4303
906.974	4337
907.091	4535
907.208	4702
907.324	4603
907.441	4504
907.557	4333
907.674	4371
907.79	4303
907.907	4341
908.023	4466
908.139	4466
908.256	4436
908.372	4455
908.488	4466
908.604	4344
908.72	4314
908.836	4398
908.952	4371
909.068	4424
909.184	4527
909.3	4451
909.415	4584
909.531	4592
909.647	4363
909.762	4383
909.878	4303
909.993	4440
910.108	4405
910.224	4394
910.339	4470
910.454	4424
910.57	4371
910.685	4348
910.8	4645
910.915	4592
911.03	4459
911.145	4280
911.259	4314
911.374	4360
911.489	4280
911.604	4299
911.718	4139
911.833	4177
911.947	4029
912.062	4029
912.176	4185
912.291	4242
912.405	4227
912.519	4443
912.633	4493
912.748	4383
912.862	4303
912.976	4192
913.09	4086
913.204	4169
913.318	4261
913.431	4344
913.545	4371
913.659	4436
913.772	4409
913.886	4215
914	4181
914.113	4367
914.226	4413
914.34	4341
914.453	4215
914.566	4379
914.68	4291
914.793	4280
914.906	4154
915.019	4109
915.132	4116
915.245	4188
915.358	4207
915.47	4230
915.583	4242
915.696	4314
915.809	4398
915.921	4409
916.034	4261
916.146	4238
916.259	4249
916.371	4413
916.483	4322
916.595	4227
916.708	4363
916.82	4310
916.932	4303
917.044	4344
917.156	4295
917.268	4265
917.38	4249
917.491	4253
917.603	4295
917.715	4360
917.826	4409
917.938	4356
918.049	4253
918.161	4352
918.272	4493
918.384	4542
918.495	4481
918.606	4314
918.717	4242
918.828	4348
918.939	4352
919.05	4257
919.161	4314
919.272	4135
919.383	4230
919.494	4409
919.604	4588
919.715	4405
919.826	4314
919.936	4402
920.047	4512
920.157	4481
920.267	4691
920.378	4550
920.488	4500
920.598	4717
920.708	4835
920.818	4729
920.928	4767
921.038	4949
921.148	4904
921.258	4615
921.368	4519
921.477	4500
921.587	4466
921.697	4386
921.806	4550
921.916	4394
922.025	4230
922.134	4253
922.244	4242
922.353	4333
922.462	4173
922.571	4097
922.68	3968
922.789	3983
922.898	4074
923.007	3987
923.116	4055
923.224	4040
923.333	4071
923.442	3998
923.55	4002
923.659	4017
923.767	4135
923.876	3983
923.984	4135
924.092	4002
924.201	4090
924.309	4101
924.417	4063
924.525	4055
924.633	4097
924.741	5071
924.849	3907
924.956	4139
925.064	3956
925.172	3861
925.279	3956
925.387	4063
925.494	4055
925.602	4211
925.709	4147
925.816	4021
925.924	4105
926.031	4181
926.138	4150
926.245	4215
926.352	4040
926.459	4185
926.566	4280
926.673	4154
926.779	4074
926.886	4071
926.993	3956
927.099	3915
927.206	3918
927.312	3956
927.419	4040
927.525	3994
927.631	4105
927.737	4013
927.843	3934
927.95	3876
928.056	3934
928.162	4010
928.267	4086
928.373	4580
928.479	4093
928.585	3880
928.69	4036
928.796	4120
928.901	3926
929.007	3831
929.112	4036
929.218	3972
929.323	3953
929.428	3903
929.533	4082
929.638	3903
929.743	3956
929.848	4063
929.953	4067
930.058	3937
930.163	3808
930.267	3774
930.372	3983
930.477	3804
930.581	4063
930.685	3934
930.79	3846
930.894	3888
930.998	3827
931.103	4055
931.207	3698
931.311	3713
931.415	3682
931.519	3500
931.623	3549
