Data from test_V78500241_264.txt Node
Date: Fri Mar 25 16:50:50 CST 2022
User: usil
Spectrometer: V785-0024
Trigger mode: 0
Integration Time (sec): 4.000000E-1
Scans to average: 1
Nonlinearity correction enabled: false
Boxcar width: 0
Storing dark spectrum: false
XAxis mode: Wavelengths
Number of Pixels in Spectrum: 1024
>>>>>Begin Spectral Data<<<<<
801.071	8069
801.214	8073
801.356	7906
801.499	7852
801.641	7833
801.783	7856
801.926	7978
802.068	7940
802.211	8039
802.353	7951
802.496	7849
802.638	7909
802.78	7894
802.923	7982
803.065	7822
803.208	7871
803.35	7894
803.492	8039
803.635	8157
803.777	8039
803.919	8119
804.061	8434
804.204	8202
804.346	8024
804.488	7978
804.63	8126
804.773	8058
804.915	8046
805.057	8317
805.199	8164
805.341	8240
805.483	8313
805.626	8142
805.768	8111
805.91	8164
806.052	8233
806.194	8134
806.336	8240
806.478	8126
806.62	8084
806.762	8081
806.904	8267
807.046	8492
807.188	8347
807.33	8366
807.472	8374
807.614	8191
807.756	8149
807.898	7993
808.04	7871
808.182	7879
808.324	7921
808.465	7967
808.607	8054
808.749	8138
808.891	8229
809.033	8313
809.174	8142
809.316	8027
809.458	8107
809.6	7993
809.741	7982
809.883	8039
810.025	8069
810.166	8111
810.308	8050
810.45	7997
810.591	7887
810.733	7833
810.875	7696
811.016	7480
811.158	7556
811.299	7613
811.441	7715
811.582	7685
811.724	7590
811.865	7575
812.007	7666
812.148	7636
812.29	7601
812.431	7750
812.573	7902
812.714	8024
812.855	8084
812.997	8256
813.138	8305
813.279	8107
813.421	8065
813.562	7879
813.703	7864
813.845	7708
813.986	7438
814.127	7327
814.268	7228
814.41	7190
814.551	7164
814.692	7190
814.833	7084
814.974	7118
815.115	7206
815.256	6920
815.397	6932
815.539	6909
815.68	6878
815.821	6764
815.962	6863
816.103	6814
816.244	6696
816.385	6654
816.526	6631
816.666	6525
816.807	6342
816.948	6467
817.089	6471
817.23	6422
817.371	6418
817.512	6395
817.653	6418
817.793	6296
817.934	6414
818.075	6452
818.216	6433
818.356	6418
818.497	6292
818.638	6182
818.778	6129
818.919	6087
819.06	6152
819.2	6304
819.341	6327
819.481	6384
819.622	6490
819.762	6738
819.903	6700
820.043	6570
820.184	6593
820.324	6559
820.465	6639
820.605	6582
820.746	6623
820.886	6509
821.026	6623
821.167	6665
821.307	6829
821.447	6783
821.588	6684
821.728	6574
821.868	6525
822.008	6315
822.149	6407
822.289	6315
822.429	6144
822.569	6076
822.709	6155
822.849	5961
822.99	5920
823.13	5893
823.27	5916
823.41	5821
823.55	5802
823.69	5756
823.83	5764
823.97	5657
824.11	5551
824.25	5474
824.389	5600
824.529	5600
824.669	5497
824.809	5638
824.949	5668
825.089	5619
825.228	5535
825.368	5387
825.508	5372
825.648	5353
825.787	5414
825.927	5490
826.067	5345
826.206	5311
826.346	5318
826.485	5421
826.625	5444
826.765	5547
826.904	5474
827.044	5220
827.183	5250
827.323	5136
827.462	5311
827.601	5143
827.741	5178
827.88	5212
828.02	5162
828.159	5223
828.298	5292
828.437	5379
828.577	5273
828.716	5482
828.855	5311
828.994	5193
829.134	5189
829.273	5235
829.412	5193
829.551	5090
829.69	5166
829.829	5265
829.968	5395
830.107	5284
830.246	5284
830.385	5201
830.524	5208
830.663	5140
830.802	4930
830.941	4873
831.08	4900
831.219	4999
831.357	4976
831.496	5227
831.635	4953
831.774	4847
831.913	4870
832.051	4740
832.19	4759
832.329	4820
832.467	4736
832.606	4683
832.744	4767
832.883	4721
833.022	4740
833.16	4771
833.299	4831
833.437	4782
833.576	4870
833.714	4911
833.852	4862
833.991	4885
834.129	5003
834.267	4991
834.406	4873
834.544	4999
834.682	4995
834.821	4995
834.959	5197
835.097	5029
835.235	5136
835.373	5060
835.511	5155
835.65	5121
835.788	5006
835.926	4873
836.064	4896
836.202	4923
836.34	5212
836.478	5220
836.615	5090
836.753	5216
836.891	5296
837.029	5242
837.167	5181
837.305	5189
837.443	5155
837.58	5083
837.718	5246
837.856	5227
837.993	5166
838.131	5258
838.269	5246
838.406	5189
838.544	5193
838.681	5037
838.819	4968
838.956	4942
839.094	4957
839.231	4987
839.369	5075
839.506	5421
839.643	5250
839.781	5083
839.918	4991
840.055	5086
840.193	5113
840.33	5090
840.467	5132
840.604	5223
840.742	5471
840.879	5094
841.016	5094
841.153	5113
841.29	5383
841.427	5326
841.564	5353
841.701	5406
841.838	5280
841.975	5261
842.112	5288
842.249	5189
842.385	5071
842.522	5360
842.659	5197
842.796	5140
842.933	5258
843.069	5212
843.206	5197
843.343	5273
843.479	5231
843.616	5284
843.752	5045
843.889	5010
844.025	5212
844.162	5037
844.298	5258
844.435	5067
844.571	5094
844.708	5216
844.844	5269
844.98	5341
845.117	5284
845.253	5140
845.389	5094
845.525	5162
845.661	5162
845.798	5075
845.934	5143
846.07	5006
846.206	5212
846.342	5299
846.478	5185
846.614	5025
846.75	4942
846.886	4934
847.022	5143
847.158	4961
847.294	5025
847.429	5098
847.565	5075
847.701	5372
847.837	4870
847.972	4816
848.108	4984
848.244	4991
848.379	4805
848.515	4717
848.65	4740
848.786	4706
848.921	4797
849.057	4900
849.192	4938
849.328	4797
849.463	4812
849.598	4793
849.734	4744
849.869	4714
850.004	4626
850.14	4675
850.275	4603
850.41	4577
850.545	4569
850.68	4668
850.815	4630
850.95	4664
851.085	4831
851.22	4740
851.355	4679
851.49	4607
851.625	4599
851.76	4664
851.895	4546
852.03	4569
852.165	4660
852.299	4740
852.434	4774
852.569	4725
852.703	4805
852.838	4793
852.973	4938
853.107	4911
853.242	4755
853.376	4675
853.511	4523
853.645	4573
853.78	4793
853.914	4687
854.048	4656
854.183	4641
854.317	4725
854.451	4824
854.585	4702
854.72	4596
854.854	4778
854.988	4569
855.122	4649
855.256	4504
855.39	4698
855.524	4786
855.658	4763
855.792	4755
855.926	4759
856.06	4771
856.194	4778
856.327	4733
856.461	4656
856.595	4637
856.729	4656
856.862	4755
856.996	4740
857.13	4691
857.263	4763
857.397	4801
857.53	4645
857.664	4668
857.797	4755
857.931	4778
858.064	4672
858.197	4767
858.331	4660
858.464	4577
858.597	4508
858.731	4630
858.864	4626
858.997	4558
859.13	4691
859.263	4694
859.396	4706
859.529	4618
859.662	4592
859.795	4596
859.928	4645
860.061	4755
860.194	4801
860.327	4588
860.46	4618
860.592	4744
860.725	4729
860.858	4714
860.99	4607
861.123	4485
861.256	4512
861.388	4660
861.521	5433
861.653	4508
861.786	4489
861.918	4466
862.05	4485
862.183	4535
862.315	4630
862.447	4668
862.58	4481
862.712	4390
862.844	4318
862.976	4470
863.108	4489
863.24	4892
863.372	4333
863.504	4413
863.636	4421
863.768	4508
863.9	4447
864.032	4371
864.164	4451
864.296	4466
864.428	4569
864.559	4603
864.691	4493
864.823	4504
864.954	4531
865.086	4519
865.217	4474
865.349	4409
865.48	4481
865.612	4489
865.743	4618
865.875	4466
866.006	4390
866.137	4462
866.269	4481
866.4	4440
866.531	4394
866.662	4363
866.793	4421
866.924	4405
867.055	4424
867.186	4497
867.317	4424
867.448	4363
867.579	4367
867.71	4409
867.841	4356
867.972	4443
868.103	4516
868.233	4459
868.364	4436
868.495	4504
868.625	4668
868.756	4771
868.886	4599
869.017	4653
869.147	4774
869.278	4820
869.408	4668
869.539	4653
869.669	4755
869.799	4637
869.929	4752
870.06	4793
870.19	4991
870.32	4949
870.45	4980
870.58	5003
870.71	5109
870.84	5121
870.97	4965
871.1	4900
871.23	5181
871.36	5159
871.489	4976
871.619	5075
871.749	5064
871.879	5121
872.008	5170
872.138	5037
872.267	5014
872.397	4862
872.526	4740
872.656	4721
872.785	4782
872.915	4923
873.044	5003
873.173	4938
873.303	4991
873.432	4908
873.561	4911
873.69	4889
873.819	4896
873.948	4919
874.077	4870
874.206	4748
874.335	4835
874.464	4927
874.593	5067
874.722	4961
874.851	5113
874.979	5056
875.108	5025
875.237	4942
875.365	4858
875.494	4934
875.623	5022
875.751	4839
875.88	4923
876.008	4934
876.136	4995
876.265	5208
876.393	5353
876.521	5315
876.65	5204
876.778	5147
876.906	5117
877.034	5067
877.162	5056
877.29	4965
877.418	5048
877.546	5029
877.674	4984
877.802	5006
877.93	5037
878.058	4968
878.185	4889
878.313	4953
878.441	4953
878.568	4809
878.696	4862
878.824	4927
878.951	5037
879.079	5136
879.206	5254
879.333	5109
879.461	5006
879.588	5014
879.715	5086
879.842	5254
879.97	5025
880.097	4797
880.224	4748
880.351	4824
880.478	4881
880.605	4805
880.732	4744
880.859	5083
880.986	4953
881.112	4938
881.239	4725
881.366	4691
881.493	4645
881.619	4592
881.746	4668
881.872	4660
881.999	4694
882.125	4664
882.252	4805
882.378	4824
882.505	4976
882.631	4797
882.757	4683
882.883	4729
883.01	4717
883.136	4649
883.262	4596
883.388	4637
883.514	4774
883.64	4877
883.766	4786
883.892	4645
884.018	4717
884.143	4889
884.269	5045
884.395	4653
884.52	4630
884.646	4626
884.772	4611
884.897	4565
885.023	4656
885.148	4812
885.274	4877
885.399	4778
885.524	4740
885.65	4736
885.775	4744
885.9	4744
886.025	4839
886.15	4816
886.275	4721
886.4	4622
886.525	4771
886.65	4691
886.775	4694
886.9	4896
887.025	5037
887.149	4805
887.274	4622
887.399	4641
887.523	4577
887.648	4584
887.773	4630
887.897	4687
888.021	4771
888.146	4706
888.27	4828
888.395	4915
888.519	4862
888.643	4881
888.767	4824
888.891	4672
889.015	4599
889.139	4641
889.263	4546
889.387	4744
889.511	4881
889.635	4797
889.759	4607
889.883	4660
890.006	4755
890.13	4854
890.254	4599
890.377	4687
890.501	4531
890.624	4508
890.748	4618
890.871	4577
890.995	4447
891.118	4398
891.241	4569
891.364	4558
891.488	4687
891.611	4546
891.734	4538
891.857	4653
891.98	4592
892.103	4630
892.226	4611
892.349	4561
892.471	4440
892.594	4569
892.717	4596
892.839	4573
892.962	4596
893.085	4653
893.207	4584
893.33	4447
893.452	4481
893.575	4641
893.697	4592
893.819	4820
893.941	4850
894.064	4771
894.186	4580
894.308	4577
894.43	4706
894.552	4816
894.674	4744
894.796	4577
894.918	4618
895.04	4588
895.161	4694
895.283	4649
895.405	4580
895.526	4622
895.648	4683
895.769	4721
895.891	4740
896.012	4748
896.134	4744
896.255	4672
896.376	4675
896.498	4626
896.619	4649
896.74	4596
896.861	4653
896.982	4930
897.103	5121
897.224	4908
897.345	4691
897.466	4683
897.587	4771
897.708	4873
897.828	4774
897.949	4694
898.07	4577
898.19	4637
898.311	4847
898.431	4702
898.552	4763
898.672	4805
898.792	4854
898.913	4721
899.033	4653
899.153	4546
899.273	4409
899.393	4535
899.513	4497
899.633	4531
899.753	4573
899.873	4535
899.993	4645
900.113	4523
900.232	4588
900.352	4523
900.472	4497
900.591	4455
900.711	4519
900.83	4485
900.95	4577
901.069	4656
901.189	4519
901.308	4352
901.427	4322
901.546	4379
901.665	4523
901.784	4523
901.904	4402
902.023	4325
902.141	4196
902.26	4219
902.379	4303
902.498	4261
902.617	4242
902.735	4379
902.854	4394
902.973	4394
903.091	4200
903.21	4276
903.328	4356
903.446	4276
903.565	4253
903.683	4367
903.801	4268
903.919	4428
904.038	4417
904.156	4306
904.274	4432
904.392	4417
904.51	4508
904.627	4455
904.745	4618
904.863	4630
904.981	4459
905.098	4325
905.216	4402
905.334	4436
905.451	4478
905.569	4432
905.686	4580
905.803	4580
905.921	4466
906.038	4542
906.155	4489
906.272	4421
906.389	4481
906.506	4356
906.623	4379
906.74	4409
906.857	4310
906.974	4417
907.091	4542
907.208	4736
907.324	4592
907.441	4497
907.557	4356
907.674	4394
907.79	4341
907.907	4409
908.023	4481
908.139	4462
908.256	4459
908.372	4447
908.488	4478
908.604	4398
908.72	4344
908.836	4341
908.952	4367
909.068	4428
909.184	4584
909.3	4531
909.415	4599
909.531	4512
909.647	4436
909.762	4379
909.878	4329
909.993	4447
910.108	4443
910.224	4383
910.339	4459
910.454	4443
910.57	4344
910.685	4287
910.8	4656
910.915	4577
911.03	4459
911.145	4322
911.259	4329
911.374	4398
911.489	4287
911.604	4280
911.718	4120
911.833	4238
911.947	4101
912.062	4074
912.176	4238
912.291	4249
912.405	4265
912.519	4519
912.633	4516
912.748	4405
912.862	4348
912.976	4188
913.09	4059
913.204	4177
913.318	4242
913.431	4371
913.545	4413
913.659	4440
913.772	4367
913.886	4287
914	4177
914.113	4363
914.226	4409
914.34	4413
914.453	4207
914.566	4424
914.68	4287
914.793	4329
914.906	4173
915.019	4093
915.132	4090
915.245	4150
915.358	4234
915.47	4242
915.583	4318
915.696	4280
915.809	4413
915.921	4428
916.034	4280
916.146	4242
916.259	4253
916.371	4394
916.483	4363
916.595	4249
916.708	4344
916.82	4246
916.932	4310
917.044	4310
917.156	4299
917.268	4257
917.38	4314
917.491	4261
917.603	4329
917.715	4493
917.826	4424
917.938	4375
918.049	4238
918.161	4421
918.272	4535
918.384	4558
918.495	4470
918.606	4291
918.717	4227
918.828	4352
918.939	4405
919.05	4272
919.161	4344
919.272	4150
919.383	4253
919.494	4474
919.604	4599
919.715	4516
919.826	4318
919.936	4428
920.047	4527
920.157	4493
920.267	4675
920.378	4527
920.488	4489
920.598	4733
920.708	4900
920.818	4767
920.928	4774
921.038	4904
921.148	4927
921.258	4645
921.368	4596
921.477	4504
921.587	4451
921.697	4383
921.806	4561
921.916	4451
922.025	4306
922.134	4318
922.244	4246
922.353	4299
922.462	4196
922.571	4188
922.68	4025
922.789	3945
922.898	4074
923.007	3960
923.116	4105
923.224	4097
923.333	4071
923.442	4021
923.55	4074
923.659	4040
923.767	4101
923.876	4021
923.984	4120
924.092	3975
924.201	4078
924.309	4131
924.417	4158
924.525	4082
924.633	4116
924.741	5025
924.849	3941
924.956	4158
925.064	3941
925.172	3861
925.279	3968
925.387	3979
925.494	4044
925.602	4223
925.709	4147
925.816	4059
925.924	4093
926.031	4207
926.138	4173
926.245	4230
926.352	4090
926.459	4223
926.566	4314
926.673	4116
926.779	4109
926.886	4090
926.993	3979
927.099	3998
927.206	3998
927.312	3922
927.419	4067
927.525	4036
927.631	4101
927.737	3983
927.843	3918
927.95	3842
928.056	3968
928.162	4032
928.267	4040
928.373	4618
928.479	4112
928.585	3861
928.69	3998
928.796	4109
928.901	3972
929.007	3857
929.112	4048
929.218	3987
929.323	3953
929.428	3941
929.533	4112
929.638	3899
929.743	3998
929.848	4040
929.953	3991
930.058	3960
930.163	3778
930.267	3789
930.372	4013
930.477	3812
930.581	4078
930.685	3911
930.79	3812
930.894	3880
930.998	3838
931.103	4040
931.207	3732
931.311	3698
931.415	3682
931.519	3538
931.623	3549
