Data from test_V78500241_2767.txt Node
Date: Fri Mar 25 17:08:14 CST 2022
User: usil
Spectrometer: V785-0024
Trigger mode: 0
Integration Time (sec): 4.000000E-1
Scans to average: 1
Nonlinearity correction enabled: false
Boxcar width: 0
Storing dark spectrum: false
XAxis mode: Wavelengths
Number of Pixels in Spectrum: 1024
>>>>>Begin Spectral Data<<<<<
801.071	8096
801.214	7997
801.356	7906
801.499	7871
801.641	7765
801.783	7814
801.926	8008
802.068	7978
802.211	7936
802.353	8027
802.496	7928
802.638	7913
802.78	7947
802.923	7921
803.065	7917
803.208	7784
803.35	7955
803.492	8073
803.635	8119
803.777	8077
803.919	8240
804.061	8465
804.204	8081
804.346	8005
804.488	8043
804.63	8100
804.773	8043
804.915	8157
805.057	8320
805.199	8157
805.341	8244
805.483	8271
805.626	8324
805.768	8092
805.91	8195
806.052	8130
806.194	8096
806.336	8271
806.478	8069
806.62	8111
806.762	8084
806.904	8248
807.046	8396
807.188	8328
807.33	8282
807.472	8366
807.614	8191
807.756	8161
807.898	7970
808.04	7925
808.182	7845
808.324	7932
808.465	7970
808.607	8050
808.749	8153
808.891	8282
809.033	8317
809.174	8259
809.316	8138
809.458	8115
809.6	8027
809.741	8046
809.883	8092
810.025	8161
810.166	8138
810.308	7940
810.45	7944
810.591	7868
810.733	7689
810.875	7761
811.016	7575
811.158	7487
811.299	7590
811.441	7742
811.582	7746
811.724	7548
811.865	7552
812.007	7544
812.148	7563
812.29	7613
812.431	7780
812.573	7898
812.714	8012
812.855	8134
812.997	8187
813.138	8320
813.279	8138
813.421	8119
813.562	8031
813.703	7887
813.845	7746
813.986	7506
814.127	7308
814.268	7164
814.41	7293
814.551	7141
814.692	7225
814.833	7099
814.974	7091
815.115	7050
815.256	6981
815.397	6947
815.539	6970
815.68	6825
815.821	6783
815.962	6886
816.103	6764
816.244	6719
816.385	6620
816.526	6620
816.666	6464
816.807	6357
816.948	6498
817.089	6589
817.23	6433
817.371	6380
817.512	6410
817.653	6388
817.793	6342
817.934	6410
818.075	6467
818.216	6422
818.356	6311
818.497	6216
818.638	6125
818.778	6167
818.919	6110
819.06	6133
819.2	6376
819.341	6361
819.481	6350
819.622	6490
819.762	6814
819.903	6700
820.043	6612
820.184	6582
820.324	6585
820.465	6681
820.605	6673
820.746	6635
820.886	6467
821.026	6631
821.167	6681
821.307	6772
821.447	6783
821.588	6719
821.728	6642
821.868	6525
822.008	6331
822.149	6384
822.289	6407
822.429	6171
822.569	6125
822.709	6072
822.849	5935
822.99	5866
823.13	5935
823.27	6026
823.41	5836
823.55	5832
823.69	5783
823.83	5821
823.97	5707
824.11	5486
824.25	5543
824.389	5512
824.529	5657
824.669	5509
824.809	5691
824.949	5600
825.089	5611
825.228	5528
825.368	5433
825.508	5322
825.648	5383
825.787	5391
825.927	5357
826.067	5307
826.206	5269
826.346	5360
826.485	5429
826.625	5417
826.765	5471
826.904	5459
827.044	5242
827.183	5181
827.323	5151
827.462	5242
827.601	5151
827.741	5193
827.88	5220
828.02	5117
828.159	5185
828.298	5269
828.437	5337
828.577	5288
828.716	5516
828.855	5330
828.994	5128
829.134	5140
829.273	5185
829.412	5197
829.551	5159
829.69	5197
829.829	5216
829.968	5417
830.107	5246
830.246	5277
830.385	5132
830.524	5102
830.663	5098
830.802	4984
830.941	4866
831.08	4839
831.219	4961
831.357	4991
831.496	5166
831.635	4919
831.774	4839
831.913	4858
832.051	4725
832.19	4767
832.329	4854
832.467	4687
832.606	4626
832.744	4702
832.883	4710
833.022	4710
833.16	4816
833.299	4816
833.437	4850
833.576	4847
833.714	4858
833.852	4854
833.991	4915
834.129	4991
834.267	4885
834.406	4866
834.544	4980
834.682	4987
834.821	4991
834.959	5136
835.097	4949
835.235	5166
835.373	5029
835.511	5098
835.65	5052
835.788	4991
835.926	4900
836.064	4923
836.202	4904
836.34	5155
836.478	5242
836.615	5162
836.753	5201
836.891	5292
837.029	5250
837.167	5185
837.305	5128
837.443	5170
837.58	5067
837.718	5204
837.856	5193
837.993	5124
838.131	5220
838.269	5166
838.406	5227
838.544	5227
838.681	5033
838.819	4999
838.956	4866
839.094	4854
839.231	4957
839.369	5079
839.506	5402
839.643	5246
839.781	5098
839.918	5018
840.055	5075
840.193	5128
840.33	5140
840.467	5132
840.604	5212
840.742	5372
840.879	5052
841.016	5075
841.153	5124
841.29	5368
841.427	5284
841.564	5337
841.701	5345
841.838	5280
841.975	5208
842.112	5223
842.249	5094
842.385	5109
842.522	5254
842.659	5193
842.796	5094
842.933	5197
843.069	5162
843.206	5193
843.343	5307
843.479	5189
843.616	5235
843.752	5056
843.889	5025
844.025	5216
844.162	4957
844.298	5178
844.435	5067
844.571	5052
844.708	5227
844.844	5311
844.98	5353
845.117	5277
845.253	5159
845.389	5041
845.525	5140
845.661	5151
845.798	5003
845.934	5151
846.07	5029
846.206	5162
846.342	5254
846.478	5124
846.614	5041
846.75	4972
846.886	4915
847.022	5140
847.158	5048
847.294	5086
847.429	5109
847.565	5048
847.701	5299
847.837	4850
847.972	4847
848.108	4923
848.244	4904
848.379	4755
848.515	4721
848.65	4698
848.786	4729
848.921	4767
849.057	4877
849.192	4877
849.328	4793
849.463	4812
849.598	4809
849.734	4809
849.869	4672
850.004	4622
850.14	4641
850.275	4630
850.41	4489
850.545	4542
850.68	4603
850.815	4641
850.95	4649
851.085	4820
851.22	4752
851.355	4664
851.49	4580
851.625	4615
851.76	4645
851.895	4573
852.03	4493
852.165	4603
852.299	4752
852.434	4786
852.569	4721
852.703	4752
852.838	4801
852.973	4930
853.107	4889
853.242	4740
853.376	4691
853.511	4542
853.645	4618
853.78	4812
853.914	4645
854.048	4702
854.183	4637
854.317	4710
854.451	4862
854.585	4687
854.72	4607
854.854	4740
854.988	4630
855.122	4622
855.256	4493
855.39	4656
855.524	4824
855.658	4740
855.792	4706
855.926	4706
856.06	4729
856.194	4797
856.327	4687
856.461	4622
856.595	4641
856.729	4653
856.862	4755
856.996	4672
857.13	4691
857.263	4733
857.397	4774
857.53	4660
857.664	4733
857.797	4790
857.931	4793
858.064	4706
858.197	4683
858.331	4641
858.464	4611
858.597	4519
858.731	4653
858.864	4622
858.997	4599
859.13	4656
859.263	4710
859.396	4675
859.529	4618
859.662	4569
859.795	4565
859.928	4599
860.061	4752
860.194	4736
860.327	4588
860.46	4561
860.592	4683
860.725	4714
860.858	4717
860.99	4531
861.123	4527
861.256	4535
861.388	4603
861.521	5345
861.653	4493
861.786	4394
861.918	4462
862.05	4531
862.183	4561
862.315	4615
862.447	4702
862.58	4611
862.712	4402
862.844	4375
862.976	4443
863.108	4489
863.24	4721
863.372	4348
863.504	4436
863.636	4394
863.768	4508
863.9	4398
864.032	4367
864.164	4398
864.296	4500
864.428	4588
864.559	4558
864.691	4558
864.823	4542
864.954	4459
865.086	4550
865.217	4466
865.349	4440
865.48	4470
865.612	4527
865.743	4618
865.875	4478
866.006	4405
866.137	4474
866.269	4413
866.4	4428
866.531	4436
866.662	4390
866.793	4402
866.924	4398
867.055	4489
867.186	4443
867.317	4451
867.448	4424
867.579	4390
867.71	4398
867.841	4371
867.972	4455
868.103	4481
868.233	4459
868.364	4455
868.495	4485
868.625	4656
868.756	4755
868.886	4603
869.017	4637
869.147	4748
869.278	4771
869.408	4641
869.539	4634
869.669	4767
869.799	4714
869.929	4744
870.06	4744
870.19	4949
870.32	4946
870.45	4889
870.58	5041
870.71	5105
870.84	5124
870.97	4919
871.1	4885
871.23	5159
871.36	5136
871.489	5052
871.619	5079
871.749	5094
871.879	5075
872.008	5201
872.138	5003
872.267	4999
872.397	4847
872.526	4786
872.656	4710
872.785	4854
872.915	4946
873.044	4984
873.173	4919
873.303	4980
873.432	4942
873.561	4953
873.69	4908
873.819	4862
873.948	4896
874.077	4740
874.206	4752
874.335	4816
874.464	4911
874.593	5117
874.722	4938
874.851	5094
874.979	5071
875.108	5045
875.237	4908
875.365	4911
875.494	4881
875.623	5033
875.751	4778
875.88	4892
876.008	4923
876.136	5041
876.265	5178
876.393	5307
876.521	5265
876.65	5246
876.778	5155
876.906	5140
877.034	5025
877.162	5071
877.29	4976
877.418	5025
877.546	5083
877.674	5060
877.802	5014
877.93	5041
878.058	4976
878.185	4927
878.313	4942
878.441	4961
878.568	4839
878.696	4854
878.824	4984
878.951	5048
879.079	5124
879.206	5322
879.333	5132
879.461	4961
879.588	5029
879.715	5071
879.842	5231
879.97	5018
880.097	4805
880.224	4744
880.351	4850
880.478	4778
880.605	4771
880.732	4793
880.859	5132
880.986	4915
881.112	4908
881.239	4767
881.366	4687
881.493	4580
881.619	4649
881.746	4634
881.872	4675
881.999	4611
882.125	4702
882.252	4774
882.378	4835
882.505	4946
882.631	4824
882.757	4679
882.883	4733
883.01	4725
883.136	4630
883.262	4630
883.388	4641
883.514	4793
883.64	4809
883.766	4736
883.892	4675
884.018	4656
884.143	4835
884.269	4972
884.395	4668
884.52	4615
884.646	4615
884.772	4618
884.897	4558
885.023	4668
885.148	4870
885.274	4847
885.399	4812
885.524	4721
885.65	4698
885.775	4767
885.9	4687
886.025	4900
886.15	4763
886.275	4729
886.4	4630
886.525	4729
886.65	4706
886.775	4668
886.9	4877
887.025	4995
887.149	4824
887.274	4691
887.399	4569
887.523	4580
887.648	4550
887.773	4546
887.897	4774
888.021	4763
888.146	4672
888.27	4801
888.395	4889
888.519	4843
888.643	4828
888.767	4862
888.891	4630
889.015	4592
889.139	4691
889.263	4645
889.387	4774
889.511	4801
889.635	4782
889.759	4580
889.883	4664
890.006	4714
890.13	4774
890.254	4645
890.377	4694
890.501	4538
890.624	4527
890.748	4630
890.871	4478
890.995	4447
891.118	4405
891.241	4561
891.364	4603
891.488	4634
891.611	4497
891.734	4538
891.857	4664
891.98	4599
892.103	4729
892.226	4615
892.349	4538
892.471	4443
892.594	4516
892.717	4634
892.839	4637
892.962	4603
893.085	4672
893.207	4634
893.33	4493
893.452	4554
893.575	4626
893.697	4596
893.819	4763
893.941	4812
894.064	4744
894.186	4561
894.308	4546
894.43	4717
894.552	4793
894.674	4736
894.796	4588
894.918	4607
895.04	4569
895.161	4763
895.283	4626
895.405	4577
895.526	4687
895.648	4649
895.769	4653
895.891	4717
896.012	4790
896.134	4736
896.255	4694
896.376	4607
896.498	4561
896.619	4675
896.74	4664
896.861	4656
896.982	4919
897.103	5067
897.224	4839
897.345	4721
897.466	4698
897.587	4725
897.708	4847
897.828	4687
897.949	4653
898.07	4611
898.19	4653
898.311	4843
898.431	4649
898.552	4744
898.672	4820
898.792	4771
898.913	4786
899.033	4634
899.153	4504
899.273	4455
899.393	4466
899.513	4531
899.633	4481
899.753	4538
899.873	4504
899.993	4599
900.113	4519
900.232	4626
900.352	4584
900.472	4500
900.591	4375
900.711	4485
900.83	4485
900.95	4592
901.069	4683
901.189	4531
901.308	4363
901.427	4325
901.546	4390
901.665	4459
901.784	4512
901.904	4367
902.023	4329
902.141	4196
902.26	4147
902.379	4310
902.498	4272
902.617	4230
902.735	4383
902.854	4352
902.973	4344
903.091	4223
903.21	4227
903.328	4314
903.446	4238
903.565	4227
903.683	4390
903.801	4303
903.919	4367
904.038	4424
904.156	4287
904.274	4375
904.392	4371
904.51	4443
904.627	4474
904.745	4546
904.863	4580
904.981	4386
905.098	4295
905.216	4356
905.334	4398
905.451	4481
905.569	4417
905.686	4577
905.803	4569
905.921	4421
906.038	4538
906.155	4527
906.272	4398
906.389	4470
906.506	4375
906.623	4421
906.74	4379
906.857	4295
906.974	4375
907.091	4596
907.208	4630
907.324	4573
907.441	4512
907.557	4360
907.674	4329
907.79	4310
907.907	4356
908.023	4504
908.139	4436
908.256	4432
908.372	4485
908.488	4402
908.604	4306
908.72	4310
908.836	4363
908.952	4367
909.068	4443
909.184	4580
909.3	4413
909.415	4542
909.531	4580
909.647	4337
909.762	4348
909.878	4344
909.993	4436
910.108	4462
910.224	4371
910.339	4485
910.454	4428
910.57	4367
910.685	4261
910.8	4649
910.915	4527
911.03	4474
911.145	4371
911.259	4333
911.374	4329
911.489	4295
911.604	4295
911.718	4154
911.833	4196
911.947	4101
912.062	4051
912.176	4207
912.291	4268
912.405	4223
912.519	4440
912.633	4481
912.748	4371
912.862	4360
912.976	4166
913.09	4135
913.204	4166
913.318	4196
913.431	4386
913.545	4341
913.659	4417
913.772	4356
913.886	4234
914	4246
914.113	4371
914.226	4459
914.34	4329
914.453	4211
914.566	4440
914.68	4299
914.793	4329
914.906	4185
915.019	4124
915.132	4112
915.245	4131
915.358	4219
915.47	4211
915.583	4257
915.696	4276
915.809	4421
915.921	4390
916.034	4200
916.146	4219
916.259	4219
916.371	4390
916.483	4375
916.595	4268
916.708	4318
916.82	4306
916.932	4280
917.044	4356
917.156	4310
917.268	4177
917.38	4337
917.491	4306
917.603	4341
917.715	4417
917.826	4478
917.938	4363
918.049	4257
918.161	4402
918.272	4554
918.384	4554
918.495	4493
918.606	4344
918.717	4242
918.828	4360
918.939	4356
919.05	4284
919.161	4310
919.272	4154
919.383	4253
919.494	4440
919.604	4630
919.715	4447
919.826	4386
919.936	4417
920.047	4546
920.157	4478
920.267	4672
920.378	4523
920.488	4504
920.598	4698
920.708	4866
920.818	4759
920.928	4748
921.038	4946
921.148	4889
921.258	4634
921.368	4565
921.477	4535
921.587	4436
921.697	4348
921.806	4561
921.916	4390
922.025	4223
922.134	4280
922.244	4230
922.353	4383
922.462	4185
922.571	4109
922.68	3975
922.789	3945
922.898	4032
923.007	3979
923.116	4143
923.224	4097
923.333	4101
923.442	3991
923.55	3964
923.659	4029
923.767	4109
923.876	4044
923.984	4150
924.092	3998
924.201	4074
924.309	4097
924.417	4074
924.525	4059
924.633	4135
924.741	5006
924.849	3926
924.956	4105
925.064	3975
925.172	3926
925.279	3945
925.387	4097
925.494	4078
925.602	4192
925.709	4200
925.816	4036
925.924	4105
926.031	4177
926.138	4147
926.245	4238
926.352	4101
926.459	4253
926.566	4344
926.673	4181
926.779	4067
926.886	4074
926.993	3972
927.099	3972
927.206	3972
927.312	3899
927.419	4032
927.525	3987
927.631	4059
927.737	4002
927.843	3968
927.95	3857
928.056	3964
928.162	3994
928.267	3994
928.373	4733
928.479	4158
928.585	3861
928.69	4010
928.796	4055
928.901	3987
929.007	3838
929.112	3979
929.218	4017
929.323	3945
929.428	3896
929.533	4128
929.638	3903
929.743	3968
929.848	4078
929.953	3991
930.058	3918
930.163	3827
930.267	3831
930.372	3983
930.477	3759
930.581	4112
930.685	3926
930.79	3816
930.894	3835
930.998	3888
931.103	4006
931.207	3675
931.311	3682
931.415	3701
931.519	3549
931.623	3542
