Data from test_V78500241_1608.txt Node
Date: Fri Mar 25 17:00:11 CST 2022
User: usil
Spectrometer: V785-0024
Trigger mode: 0
Integration Time (sec): 4.000000E-1
Scans to average: 1
Nonlinearity correction enabled: false
Boxcar width: 0
Storing dark spectrum: false
XAxis mode: Wavelengths
Number of Pixels in Spectrum: 1024
>>>>>Begin Spectral Data<<<<<
801.071	7982
801.214	8081
801.356	7913
801.499	7909
801.641	7761
801.783	7769
801.926	7955
802.068	7963
802.211	7974
802.353	7997
802.496	7887
802.638	7849
802.78	7856
802.923	7898
803.065	7822
803.208	7841
803.35	7963
803.492	8020
803.635	8088
803.777	7989
803.919	8138
804.061	8385
804.204	8168
804.346	7963
804.488	7986
804.63	8058
804.773	8035
804.915	8043
805.057	8286
805.199	8119
805.341	8206
805.483	8233
805.626	8202
805.768	8073
805.91	8157
806.052	8202
806.194	8191
806.336	8259
806.478	8031
806.62	8035
806.762	8130
806.904	8294
807.046	8454
807.188	8305
807.33	8286
807.472	8298
807.614	8202
807.756	8130
807.898	7944
808.04	7936
808.182	7887
808.324	7856
808.465	7894
808.607	8043
808.749	8092
808.891	8161
809.033	8275
809.174	8202
809.316	8058
809.458	8069
809.6	7974
809.741	8046
809.883	8043
810.025	8046
810.166	8073
810.308	8039
810.45	7944
810.591	7776
810.733	7693
810.875	7670
811.016	7476
811.158	7453
811.299	7643
811.441	7689
811.582	7685
811.724	7559
811.865	7476
812.007	7518
812.148	7552
812.29	7613
812.431	7803
812.573	7875
812.714	7944
812.855	8096
812.997	8168
813.138	8301
813.279	8187
813.421	8096
813.562	7909
813.703	7811
813.845	7731
813.986	7460
814.127	7232
814.268	7232
814.41	7206
814.551	7152
814.692	7251
814.833	7076
814.974	7061
815.115	7072
815.256	6966
815.397	6867
815.539	6859
815.68	6779
815.821	6772
815.962	6844
816.103	6787
816.244	6677
816.385	6646
816.526	6593
816.666	6528
816.807	6296
816.948	6494
817.089	6403
817.23	6433
817.371	6403
817.512	6361
817.653	6418
817.793	6353
817.934	6433
818.075	6452
818.216	6464
818.356	6445
818.497	6209
818.638	6129
818.778	6106
818.919	6053
819.06	6148
819.2	6361
819.341	6334
819.481	6365
819.622	6498
819.762	6726
819.903	6688
820.043	6639
820.184	6506
820.324	6582
820.465	6711
820.605	6639
820.746	6654
820.886	6502
821.026	6703
821.167	6673
821.307	6829
821.447	6821
821.588	6650
821.728	6536
821.868	6448
822.008	6315
822.149	6372
822.289	6372
822.429	6133
822.569	6110
822.709	6110
822.849	5923
822.99	5882
823.13	5946
823.27	5885
823.41	5802
823.55	5764
823.69	5745
823.83	5805
823.97	5634
824.11	5577
824.25	5551
824.389	5539
824.529	5615
824.669	5471
824.809	5657
824.949	5653
825.089	5577
825.228	5581
825.368	5326
825.508	5334
825.648	5368
825.787	5353
825.927	5364
826.067	5353
826.206	5250
826.346	5326
826.485	5421
826.625	5398
826.765	5535
826.904	5452
827.044	5254
827.183	5201
827.323	5121
827.462	5250
827.601	5178
827.741	5189
827.88	5170
828.02	5098
828.159	5216
828.298	5303
828.437	5326
828.577	5242
828.716	5471
828.855	5311
828.994	5162
829.134	5128
829.273	5117
829.412	5117
829.551	5143
829.69	5162
829.829	5212
829.968	5341
830.107	5273
830.246	5242
830.385	5162
830.524	5094
830.663	5083
830.802	4946
830.941	4915
831.08	4847
831.219	4984
831.357	4987
831.496	5212
831.635	4889
831.774	4797
831.913	4854
832.051	4763
832.19	4725
832.329	4805
832.467	4664
832.606	4637
832.744	4694
832.883	4725
833.022	4698
833.16	4755
833.299	4736
833.437	4805
833.576	4820
833.714	4793
833.852	4786
833.991	4889
834.129	5022
834.267	4976
834.406	4911
834.544	4881
834.682	4965
834.821	4972
834.959	5170
835.097	4976
835.235	5109
835.373	5064
835.511	5136
835.65	5018
835.788	5056
835.926	4877
836.064	4862
836.202	4873
836.34	5159
836.478	5227
836.615	5109
836.753	5212
836.891	5311
837.029	5239
837.167	5216
837.305	5185
837.443	5124
837.58	5071
837.718	5235
837.856	5151
837.993	5147
838.131	5239
838.269	5254
838.406	5197
838.544	5170
838.681	5022
838.819	5052
838.956	4889
839.094	4885
839.231	4927
839.369	5064
839.506	5406
839.643	5239
839.781	5014
839.918	4991
840.055	5056
840.193	5094
840.33	5105
840.467	5117
840.604	5147
840.742	5455
840.879	5109
841.016	5086
841.153	5121
841.29	5299
841.427	5273
841.564	5303
841.701	5318
841.838	5341
841.975	5174
842.112	5273
842.249	5124
842.385	5098
842.522	5288
842.659	5185
842.796	5140
842.933	5166
843.069	5128
843.206	5189
843.343	5284
843.479	5265
843.616	5258
843.752	5090
843.889	5025
844.025	5231
844.162	5010
844.298	5181
844.435	5041
844.571	5048
844.708	5159
844.844	5254
844.98	5357
845.117	5242
845.253	5132
845.389	5109
845.525	5143
845.661	5124
845.798	5006
845.934	5132
846.07	5037
846.206	5166
846.342	5296
846.478	5113
846.614	5041
846.75	4946
846.886	4915
847.022	5181
847.158	4980
847.294	5060
847.429	5117
847.565	5048
847.701	5258
847.837	4858
847.972	4782
848.108	4961
848.244	4896
848.379	4771
848.515	4687
848.65	4725
848.786	4740
848.921	4744
849.057	4873
849.192	4900
849.328	4816
849.463	4824
849.598	4801
849.734	4744
849.869	4683
850.004	4577
850.14	4668
850.275	4584
850.41	4512
850.545	4523
850.68	4611
850.815	4596
850.95	4634
851.085	4850
851.22	4759
851.355	4656
851.49	4634
851.625	4634
851.76	4664
851.895	4577
852.03	4497
852.165	4660
852.299	4725
852.434	4805
852.569	4759
852.703	4729
852.838	4828
852.973	4904
853.107	4919
853.242	4698
853.376	4626
853.511	4504
853.645	4653
853.78	4786
853.914	4694
854.048	4702
854.183	4653
854.317	4733
854.451	4831
854.585	4656
854.72	4626
854.854	4763
854.988	4565
855.122	4656
855.256	4481
855.39	4653
855.524	4782
855.658	4714
855.792	4702
855.926	4740
856.06	4771
856.194	4793
856.327	4664
856.461	4618
856.595	4615
856.729	4660
856.862	4706
856.996	4675
857.13	4698
857.263	4778
857.397	4763
857.53	4599
857.664	4729
857.797	4736
857.931	4759
858.064	4645
858.197	4763
858.331	4626
858.464	4618
858.597	4470
858.731	4622
858.864	4649
858.997	4618
859.13	4622
859.263	4687
859.396	4691
859.529	4558
859.662	4573
859.795	4569
859.928	4592
860.061	4740
860.194	4793
860.327	4607
860.46	4611
860.592	4649
860.725	4649
860.858	4725
860.99	4542
861.123	4538
861.256	4550
861.388	4546
861.521	5140
861.653	4489
861.786	4455
861.918	4466
862.05	4500
862.183	4531
862.315	4588
862.447	4660
862.58	4554
862.712	4379
862.844	4348
862.976	4489
863.108	4447
863.24	4714
863.372	4322
863.504	4432
863.636	4375
863.768	4500
863.9	4443
864.032	4325
864.164	4402
864.296	4466
864.428	4554
864.559	4538
864.691	4561
864.823	4535
864.954	4535
865.086	4497
865.217	4405
865.349	4394
865.48	4485
865.612	4500
865.743	4634
865.875	4451
866.006	4394
866.137	4443
866.269	4493
866.4	4443
866.531	4402
866.662	4379
866.793	4398
866.924	4402
867.055	4493
867.186	4443
867.317	4428
867.448	4360
867.579	4402
867.71	4424
867.841	4390
867.972	4470
868.103	4424
868.233	4428
868.364	4413
868.495	4538
868.625	4626
868.756	4702
868.886	4565
869.017	4584
869.147	4797
869.278	4767
869.408	4679
869.539	4615
869.669	4706
869.799	4679
869.929	4729
870.06	4755
870.19	4923
870.32	4911
870.45	4889
870.58	5025
870.71	4999
870.84	5098
870.97	4957
871.1	4900
871.23	5178
871.36	5170
871.489	4984
871.619	5060
871.749	5052
871.879	5102
872.008	5094
872.138	5079
872.267	5003
872.397	4816
872.526	4805
872.656	4710
872.785	4771
872.915	4942
873.044	5029
873.173	4892
873.303	4938
873.432	4976
873.561	4942
873.69	4892
873.819	4847
873.948	4900
874.077	4797
874.206	4744
874.335	4752
874.464	4938
874.593	5098
874.722	4965
874.851	5090
874.979	5052
875.108	5018
875.237	4870
875.365	4862
875.494	4866
875.623	5014
875.751	4793
875.88	4892
876.008	4972
876.136	5048
876.265	5193
876.393	5330
876.521	5284
876.65	5231
876.778	5159
876.906	5147
877.034	5003
877.162	5071
877.29	4991
877.418	5048
877.546	4984
877.674	5029
877.802	5014
877.93	5033
878.058	4915
878.185	4866
878.313	4957
878.441	4927
878.568	4835
878.696	4881
878.824	4938
878.951	5010
879.079	5105
879.206	5250
879.333	5090
879.461	5010
879.588	4976
879.715	5094
879.842	5223
879.97	4995
880.097	4767
880.224	4706
880.351	4797
880.478	4839
880.605	4820
880.732	4763
880.859	5025
880.986	4919
881.112	4877
881.239	4797
881.366	4645
881.493	4618
881.619	4565
881.746	4649
881.872	4672
881.999	4649
882.125	4702
882.252	4774
882.378	4843
882.505	4930
882.631	4786
882.757	4702
882.883	4683
883.01	4736
883.136	4683
883.262	4588
883.388	4656
883.514	4763
883.64	4911
883.766	4793
883.892	4672
884.018	4752
884.143	4938
884.269	5045
884.395	4660
884.52	4634
884.646	4592
884.772	4558
884.897	4569
885.023	4630
885.148	4767
885.274	4828
885.399	4824
885.524	4752
885.65	4683
885.775	4733
885.9	4710
886.025	4820
886.15	4778
886.275	4710
886.4	4630
886.525	4710
886.65	4672
886.775	4698
886.9	4908
887.025	5022
887.149	4793
887.274	4710
887.399	4542
887.523	4630
887.648	4607
887.773	4546
887.897	4702
888.021	4828
888.146	4672
888.27	4816
888.395	4877
888.519	4820
888.643	4847
888.767	4820
888.891	4656
889.015	4607
889.139	4664
889.263	4626
889.387	4771
889.511	4908
889.635	4801
889.759	4630
889.883	4622
890.006	4710
890.13	4831
890.254	4615
890.377	4649
890.501	4519
890.624	4523
890.748	4603
890.871	4493
890.995	4409
891.118	4402
891.241	4481
891.364	4527
891.488	4634
891.611	4474
891.734	4500
891.857	4626
891.98	4569
892.103	4637
892.226	4603
892.349	4508
892.471	4432
892.594	4497
892.717	4573
892.839	4596
892.962	4577
893.085	4626
893.207	4596
893.33	4440
893.452	4500
893.575	4664
893.697	4550
893.819	4809
893.941	4812
894.064	4790
894.186	4516
894.308	4527
894.43	4744
894.552	4816
894.674	4778
894.796	4569
894.918	4596
895.04	4504
895.161	4691
895.283	4675
895.405	4577
895.526	4645
895.648	4679
895.769	4702
895.891	4702
896.012	4755
896.134	4702
896.255	4694
896.376	4584
896.498	4634
896.619	4656
896.74	4550
896.861	4607
896.982	4934
897.103	5048
897.224	4793
897.345	4729
897.466	4645
897.587	4733
897.708	4854
897.828	4767
897.949	4649
898.07	4588
898.19	4618
898.311	4805
898.431	4622
898.552	4729
898.672	4828
898.792	4763
898.913	4725
899.033	4592
899.153	4485
899.273	4424
899.393	4474
899.513	4538
899.633	4516
899.753	4561
899.873	4462
899.993	4596
900.113	4489
900.232	4573
900.352	4500
900.472	4493
900.591	4390
900.711	4462
900.83	4451
900.95	4592
901.069	4675
901.189	4535
901.308	4352
901.427	4318
901.546	4322
901.665	4440
901.784	4462
901.904	4386
902.023	4318
902.141	4181
902.26	4150
902.379	4287
902.498	4246
902.617	4185
902.735	4405
902.854	4390
902.973	4367
903.091	4272
903.21	4242
903.328	4299
903.446	4318
903.565	4299
903.683	4287
903.801	4291
903.919	4383
904.038	4451
904.156	4310
904.274	4424
904.392	4383
904.51	4462
904.627	4470
904.745	4554
904.863	4599
904.981	4398
905.098	4291
905.216	4375
905.334	4428
905.451	4428
905.569	4432
905.686	4584
905.803	4550
905.921	4413
906.038	4561
906.155	4512
906.272	4413
906.389	4462
906.506	4348
906.623	4413
906.74	4379
906.857	4344
906.974	4348
907.091	4558
907.208	4675
907.324	4596
907.441	4519
907.557	4303
907.674	4356
907.79	4253
907.907	4405
908.023	4519
908.139	4474
908.256	4478
908.372	4462
908.488	4462
908.604	4325
908.72	4333
908.836	4371
908.952	4344
909.068	4421
909.184	4516
909.3	4428
909.415	4580
909.531	4497
909.647	4318
909.762	4386
909.878	4314
909.993	4432
910.108	4424
910.224	4428
910.339	4421
910.454	4341
910.57	4325
910.685	4310
910.8	4683
910.915	4569
911.03	4481
911.145	4344
911.259	4314
911.374	4363
911.489	4295
911.604	4299
911.718	4230
911.833	4230
911.947	4082
912.062	4036
912.176	4166
912.291	4204
912.405	4272
912.519	4493
912.633	4519
912.748	4375
912.862	4344
912.976	4192
913.09	4090
913.204	4215
913.318	4272
913.431	4379
913.545	4356
913.659	4443
913.772	4325
913.886	4272
914	4181
914.113	4405
914.226	4402
914.34	4367
914.453	4257
914.566	4394
914.68	4272
914.793	4348
914.906	4150
915.019	4105
915.132	4078
915.245	4177
915.358	4173
915.47	4192
915.583	4253
915.696	4284
915.809	4398
915.921	4440
916.034	4234
916.146	4265
916.259	4173
916.371	4314
916.483	4291
916.595	4246
916.708	4360
916.82	4299
916.932	4318
917.044	4303
917.156	4318
917.268	4238
917.38	4265
917.491	4295
917.603	4306
917.715	4375
917.826	4405
917.938	4363
918.049	4200
918.161	4379
918.272	4474
918.384	4527
918.495	4440
918.606	4306
918.717	4246
918.828	4360
918.939	4314
919.05	4246
919.161	4242
919.272	4150
919.383	4253
919.494	4466
919.604	4622
919.715	4421
919.826	4303
919.936	4402
920.047	4516
920.157	4523
920.267	4630
920.378	4538
920.488	4504
920.598	4691
920.708	4942
920.818	4774
920.928	4755
921.038	4923
921.148	4911
921.258	4596
921.368	4588
921.477	4443
921.587	4455
921.697	4341
921.806	4561
921.916	4500
922.025	4242
922.134	4242
922.244	4211
922.353	4333
922.462	4204
922.571	4116
922.68	4013
922.789	3994
922.898	4036
923.007	3968
923.116	4109
923.224	4032
923.333	4067
923.442	3941
923.55	3975
923.659	4036
923.767	4109
923.876	3972
923.984	4093
924.092	3987
924.201	4044
924.309	4074
924.417	4131
924.525	4017
924.633	4120
924.741	4904
924.849	3903
924.956	4154
925.064	3953
925.172	3896
925.279	3941
925.387	4021
925.494	4051
925.602	4246
925.709	4150
925.816	4036
925.924	4150
926.031	4219
926.138	4139
926.245	4147
926.352	4093
926.459	4242
926.566	4291
926.673	4147
926.779	4059
926.886	4082
926.993	3994
927.099	3911
927.206	3918
927.312	3930
927.419	4013
927.525	4006
927.631	4059
927.737	3941
927.843	3964
927.95	3880
928.056	3934
928.162	3979
928.267	4093
928.373	4565
928.479	4063
928.585	3842
928.69	4021
928.796	4025
928.901	3941
929.007	3835
929.112	3972
929.218	3991
929.323	3960
929.428	3915
929.533	4059
929.638	3888
929.743	3949
929.848	4078
929.953	4006
930.058	3922
930.163	3785
930.267	3842
930.372	3956
930.477	3789
930.581	4044
930.685	3918
930.79	3819
930.894	3808
930.998	3827
931.103	4006
931.207	3698
931.311	3694
931.415	3641
931.519	3488
931.623	3553
