Data from test_V78500241_864.txt Node
Date: Fri Mar 25 16:55:00 CST 2022
User: usil
Spectrometer: V785-0024
Trigger mode: 0
Integration Time (sec): 4.000000E-1
Scans to average: 1
Nonlinearity correction enabled: false
Boxcar width: 0
Storing dark spectrum: false
XAxis mode: Wavelengths
Number of Pixels in Spectrum: 1024
>>>>>Begin Spectral Data<<<<<
801.071	7986
801.214	8046
801.356	7864
801.499	7883
801.641	7761
801.783	7871
801.926	7963
802.068	7864
802.211	7944
802.353	7970
802.496	7856
802.638	7799
802.78	7906
802.923	7917
803.065	7860
803.208	7814
803.35	8027
803.492	8134
803.635	8172
803.777	8008
803.919	8035
804.061	8442
804.204	8107
804.346	7963
804.488	7944
804.63	8096
804.773	7989
804.915	8050
805.057	8252
805.199	8142
805.341	8202
805.483	8279
805.626	8176
805.768	8058
805.91	8138
806.052	8237
806.194	8046
806.336	8286
806.478	8130
806.62	8077
806.762	8134
806.904	8259
807.046	8499
807.188	8298
807.33	8267
807.472	8343
807.614	8187
807.756	8145
807.898	7967
808.04	7868
808.182	7909
808.324	7928
808.465	7845
808.607	8058
808.749	8043
808.891	8206
809.033	8286
809.174	8168
809.316	8092
809.458	8001
809.6	7970
809.741	8008
809.883	8065
810.025	8062
810.166	8039
810.308	8050
810.45	8001
810.591	7856
810.733	7784
810.875	7616
811.016	7499
811.158	7415
811.299	7571
811.441	7727
811.582	7685
811.724	7605
811.865	7563
812.007	7514
812.148	7571
812.29	7693
812.431	7738
812.573	7830
812.714	7932
812.855	8180
812.997	8180
813.138	8286
813.279	8172
813.421	8111
813.562	8016
813.703	7860
813.845	7795
813.986	7464
814.127	7263
814.268	7228
814.41	7175
814.551	7061
814.692	7088
814.833	7019
814.974	7015
815.115	7084
815.256	6993
815.397	6981
815.539	6943
815.68	6837
815.821	6802
815.962	6833
816.103	6810
816.244	6783
816.385	6654
816.526	6681
816.666	6467
816.807	6285
816.948	6376
817.089	6448
817.23	6429
817.371	6353
817.512	6372
817.653	6391
817.793	6319
817.934	6429
818.075	6494
818.216	6388
818.356	6372
818.497	6182
818.638	6106
818.778	6114
818.919	6106
819.06	6155
819.2	6239
819.341	6304
819.481	6304
819.622	6506
819.762	6677
819.903	6692
820.043	6608
820.184	6528
820.324	6597
820.465	6650
820.605	6601
820.746	6597
820.886	6517
821.026	6665
821.167	6673
821.307	6757
821.447	6719
821.588	6627
821.728	6620
821.868	6486
822.008	6357
822.149	6323
822.289	6346
822.429	6095
822.569	6087
822.709	6136
822.849	5889
822.99	5832
823.13	5958
823.27	5904
823.41	5775
823.55	5775
823.69	5756
823.83	5771
823.97	5665
824.11	5562
824.25	5471
824.389	5478
824.529	5608
824.669	5467
824.809	5634
824.949	5623
825.089	5577
825.228	5566
825.368	5379
825.508	5345
825.648	5357
825.787	5360
825.927	5395
826.067	5242
826.206	5277
826.346	5406
826.485	5398
826.625	5379
826.765	5532
826.904	5436
827.044	5235
827.183	5159
827.323	5117
827.462	5166
827.601	5239
827.741	5159
827.88	5197
828.02	5071
828.159	5212
828.298	5269
828.437	5360
828.577	5292
828.716	5512
828.855	5303
828.994	5113
829.134	5170
829.273	5166
829.412	5102
829.551	5124
829.69	5124
829.829	5220
829.968	5315
830.107	5307
830.246	5242
830.385	5208
830.524	5090
830.663	5045
830.802	4976
830.941	4915
831.08	4835
831.219	4946
831.357	4934
831.496	5128
831.635	4892
831.774	4816
831.913	4793
832.051	4733
832.19	4710
832.329	4809
832.467	4733
832.606	4641
832.744	4721
832.883	4675
833.022	4691
833.16	4759
833.299	4820
833.437	4824
833.576	4790
833.714	4862
833.852	4850
833.991	4896
834.129	4934
834.267	4896
834.406	4862
834.544	4927
834.682	4957
834.821	4972
834.959	5121
835.097	4942
835.235	5174
835.373	5075
835.511	5075
835.65	5022
835.788	5014
835.926	4892
836.064	4919
836.202	4927
836.34	5193
836.478	5197
836.615	5094
836.753	5212
836.891	5239
837.029	5273
837.167	5189
837.305	5151
837.443	5117
837.58	5071
837.718	5170
837.856	5242
837.993	5124
838.131	5201
838.269	5178
838.406	5212
838.544	5147
838.681	5067
838.819	4987
838.956	4858
839.094	4885
839.231	4930
839.369	5075
839.506	5417
839.643	5250
839.781	5041
839.918	5064
840.055	5090
840.193	5064
840.33	5102
840.467	5143
840.604	5128
840.742	5406
840.879	5045
841.016	5086
841.153	5136
841.29	5376
841.427	5277
841.564	5326
841.701	5296
841.838	5242
841.975	5178
842.112	5288
842.249	5098
842.385	5128
842.522	5299
842.659	5166
842.796	5166
842.933	5220
843.069	5117
843.206	5143
843.343	5315
843.479	5197
843.616	5284
843.752	5029
843.889	5014
844.025	5178
844.162	4987
844.298	5155
844.435	5075
844.571	5029
844.708	5166
844.844	5258
844.98	5261
845.117	5277
845.253	5204
845.389	5079
845.525	5109
845.661	5193
845.798	5003
845.934	5121
846.07	5018
846.206	5174
846.342	5250
846.478	5201
846.614	5029
846.75	4942
846.886	4942
847.022	5105
847.158	5025
847.294	5045
847.429	5018
847.565	5052
847.701	5280
847.837	4862
847.972	4786
848.108	4911
848.244	4961
848.379	4759
848.515	4698
848.65	4736
848.786	4706
848.921	4744
849.057	4820
849.192	4892
849.328	4778
849.463	4828
849.598	4812
849.734	4740
849.869	4660
850.004	4653
850.14	4672
850.275	4603
850.41	4478
850.545	4470
850.68	4550
850.815	4588
850.95	4592
851.085	4862
851.22	4736
851.355	4645
851.49	4607
851.625	4603
851.76	4599
851.895	4550
852.03	4538
852.165	4626
852.299	4710
852.434	4801
852.569	4744
852.703	4786
852.838	4786
852.973	4972
853.107	4949
853.242	4710
853.376	4626
853.511	4550
853.645	4573
853.78	4793
853.914	4645
854.048	4592
854.183	4596
854.317	4675
854.451	4778
854.585	4687
854.72	4675
854.854	4763
854.988	4592
855.122	4675
855.256	4489
855.39	4641
855.524	4736
855.658	4694
855.792	4691
855.926	4683
856.06	4752
856.194	4805
856.327	4672
856.461	4603
856.595	4672
856.729	4580
856.862	4729
856.996	4691
857.13	4702
857.263	4714
857.397	4786
857.53	4653
857.664	4698
857.797	4767
857.931	4721
858.064	4675
858.197	4740
858.331	4656
858.464	4592
858.597	4512
858.731	4637
858.864	4622
858.997	4558
859.13	4649
859.263	4672
859.396	4679
859.529	4607
859.662	4588
859.795	4538
859.928	4641
860.061	4744
860.194	4763
860.327	4561
860.46	4538
860.592	4649
860.725	4675
860.858	4679
860.99	4538
861.123	4497
861.256	4508
861.388	4645
861.521	5299
861.653	4474
861.786	4386
861.918	4451
862.05	4546
862.183	4493
862.315	4599
862.447	4649
862.58	4500
862.712	4356
862.844	4352
862.976	4451
863.108	4398
863.24	4740
863.372	4306
863.504	4413
863.636	4367
863.768	4538
863.9	4421
864.032	4360
864.164	4363
864.296	4443
864.428	4535
864.559	4573
864.691	4554
864.823	4569
864.954	4523
865.086	4470
865.217	4413
865.349	4398
865.48	4409
865.612	4516
865.743	4618
865.875	4504
866.006	4390
866.137	4440
866.269	4432
866.4	4398
866.531	4413
866.662	4337
866.793	4417
866.924	4413
867.055	4443
867.186	4436
867.317	4375
867.448	4341
867.579	4390
867.71	4363
867.841	4390
867.972	4462
868.103	4462
868.233	4440
868.364	4485
868.495	4481
868.625	4668
868.756	4797
868.886	4569
869.017	4641
869.147	4714
869.278	4774
869.408	4675
869.539	4634
869.669	4664
869.799	4615
869.929	4736
870.06	4740
870.19	4927
870.32	4923
870.45	4862
870.58	5010
870.71	5079
870.84	5086
870.97	4919
871.1	4908
871.23	5094
871.36	5105
871.489	4995
871.619	5037
871.749	5060
871.879	5060
872.008	5147
872.138	5083
872.267	5003
872.397	4850
872.526	4778
872.656	4679
872.785	4782
872.915	4953
873.044	4995
873.173	4930
873.303	4934
873.432	4904
873.561	4915
873.69	4900
873.819	4850
873.948	4889
874.077	4862
874.206	4801
874.335	4778
874.464	4930
874.593	5071
874.722	4938
874.851	5086
874.979	5071
875.108	5029
875.237	4908
875.365	4850
875.494	4908
875.623	4965
875.751	4854
875.88	4881
876.008	4972
876.136	5025
876.265	5189
876.393	5357
876.521	5227
876.65	5204
876.778	5094
876.906	5029
877.034	5048
877.162	5003
877.29	4953
877.418	5045
877.546	5075
877.674	4999
877.802	4961
877.93	5003
878.058	4946
878.185	4870
878.313	4946
878.441	4927
878.568	4782
878.696	4831
878.824	4930
878.951	4991
879.079	5105
879.206	5273
879.333	5052
879.461	4984
879.588	5003
879.715	5128
879.842	5254
879.97	4953
880.097	4721
880.224	4778
880.351	4824
880.478	4801
880.605	4771
880.732	4801
880.859	5094
880.986	4847
881.112	4930
881.239	4774
881.366	4645
881.493	4634
881.619	4554
881.746	4615
881.872	4622
881.999	4637
882.125	4672
882.252	4820
882.378	4790
882.505	4908
882.631	4774
882.757	4649
882.883	4740
883.01	4683
883.136	4641
883.262	4596
883.388	4615
883.514	4793
883.64	4850
883.766	4733
883.892	4664
884.018	4675
884.143	4885
884.269	4972
884.395	4618
884.52	4622
884.646	4615
884.772	4538
884.897	4573
885.023	4664
885.148	4771
885.274	4873
885.399	4812
885.524	4694
885.65	4717
885.775	4793
885.9	4717
886.025	4862
886.15	4793
886.275	4733
886.4	4649
886.525	4714
886.65	4687
886.775	4729
886.9	4877
887.025	5003
887.149	4820
887.274	4649
887.399	4546
887.523	4592
887.648	4565
887.773	4580
887.897	4744
888.021	4740
888.146	4668
888.27	4801
888.395	4961
888.519	4843
888.643	4854
888.767	4812
888.891	4710
889.015	4577
889.139	4656
889.263	4630
889.387	4778
889.511	4908
889.635	4767
889.759	4622
889.883	4611
890.006	4679
890.13	4824
890.254	4626
890.377	4656
890.501	4558
890.624	4531
890.748	4626
890.871	4500
890.995	4447
891.118	4394
891.241	4523
891.364	4546
891.488	4615
891.611	4451
891.734	4516
891.857	4645
891.98	4569
892.103	4634
892.226	4611
892.349	4508
892.471	4413
892.594	4519
892.717	4618
892.839	4554
892.962	4584
893.085	4645
893.207	4577
893.33	4466
893.452	4485
893.575	4668
893.697	4599
893.819	4771
893.941	4801
894.064	4733
894.186	4580
894.308	4577
894.43	4733
894.552	4839
894.674	4759
894.796	4516
894.918	4645
895.04	4569
895.161	4672
895.283	4656
895.405	4554
895.526	4588
895.648	4687
895.769	4691
895.891	4710
896.012	4729
896.134	4710
896.255	4672
896.376	4622
896.498	4584
896.619	4653
896.74	4645
896.861	4622
896.982	4881
897.103	5086
897.224	4839
897.345	4748
897.466	4687
897.587	4736
897.708	4828
897.828	4717
897.949	4687
898.07	4550
898.19	4592
898.311	4778
898.431	4679
898.552	4725
898.672	4797
898.792	4733
898.913	4721
899.033	4615
899.153	4493
899.273	4436
899.393	4421
899.513	4504
899.633	4497
899.753	4554
899.873	4508
899.993	4596
900.113	4504
900.232	4611
900.352	4531
900.472	4447
900.591	4363
900.711	4478
900.83	4402
900.95	4611
901.069	4626
901.189	4588
901.308	4379
901.427	4329
901.546	4325
901.665	4451
901.784	4485
901.904	4379
902.023	4325
902.141	4124
902.26	4150
902.379	4261
902.498	4268
902.617	4223
902.735	4337
902.854	4379
902.973	4333
903.091	4211
903.21	4158
903.328	4268
903.446	4223
903.565	4280
903.683	4360
903.801	4230
903.919	4409
904.038	4409
904.156	4325
904.274	4409
904.392	4360
904.51	4402
904.627	4459
904.745	4519
904.863	4618
904.981	4333
905.098	4291
905.216	4352
905.334	4424
905.451	4386
905.569	4451
905.686	4542
905.803	4592
905.921	4383
906.038	4538
906.155	4470
906.272	4398
906.389	4470
906.506	4322
906.623	4348
906.74	4394
906.857	4314
906.974	4337
907.091	4535
907.208	4660
907.324	4599
907.441	4497
907.557	4322
907.674	4341
907.79	4310
907.907	4402
908.023	4489
908.139	4485
908.256	4398
908.372	4436
908.488	4447
908.604	4356
908.72	4299
908.836	4375
908.952	4375
909.068	4394
909.184	4565
909.3	4481
909.415	4512
909.531	4542
909.647	4333
909.762	4360
909.878	4352
909.993	4447
910.108	4428
910.224	4413
910.339	4493
910.454	4443
910.57	4344
910.685	4322
910.8	4645
910.915	4542
911.03	4470
911.145	4329
911.259	4306
911.374	4352
911.489	4272
911.604	4234
911.718	4158
911.833	4169
911.947	4078
912.062	4025
912.176	4238
912.291	4215
912.405	4261
912.519	4508
912.633	4527
912.748	4371
912.862	4318
912.976	4204
913.09	4086
913.204	4150
913.318	4211
913.431	4356
913.545	4329
913.659	4386
913.772	4379
913.886	4246
914	4204
914.113	4363
914.226	4428
914.34	4360
914.453	4223
914.566	4443
914.68	4314
914.793	4344
914.906	4188
915.019	4105
915.132	4021
915.245	4192
915.358	4219
915.47	4287
915.583	4272
915.696	4314
915.809	4371
915.921	4417
916.034	4299
916.146	4207
916.259	4188
916.371	4341
916.483	4379
916.595	4249
916.708	4356
916.82	4306
916.932	4333
917.044	4314
917.156	4348
917.268	4211
917.38	4280
917.491	4242
917.603	4306
917.715	4424
917.826	4394
917.938	4333
918.049	4276
918.161	4375
918.272	4527
918.384	4561
918.495	4417
918.606	4299
918.717	4219
918.828	4352
918.939	4333
919.05	4280
919.161	4306
919.272	4112
919.383	4261
919.494	4390
919.604	4637
919.715	4436
919.826	4352
919.936	4360
920.047	4519
920.157	4459
920.267	4672
920.378	4542
920.488	4527
920.598	4714
920.708	4866
920.818	4733
920.928	4752
921.038	4919
921.148	4946
921.258	4565
921.368	4588
921.477	4497
921.587	4424
921.697	4367
921.806	4523
921.916	4405
922.025	4249
922.134	4242
922.244	4204
922.353	4280
922.462	4150
922.571	4116
922.68	3998
922.789	3956
922.898	4021
923.007	4002
923.116	4082
923.224	4059
923.333	4059
923.442	3972
923.55	4021
923.659	4051
923.767	4090
923.876	3956
923.984	4120
924.092	3987
924.201	4029
924.309	4071
924.417	4131
924.525	4055
924.633	4086
924.741	4930
924.849	3876
924.956	4139
925.064	3964
925.172	3915
925.279	3953
925.387	4044
925.494	4055
925.602	4162
925.709	4196
925.816	4029
925.924	4105
926.031	4188
926.138	4192
926.245	4162
926.352	4059
926.459	4211
926.566	4318
926.673	4173
926.779	4036
926.886	4112
926.993	3972
927.099	3949
927.206	3899
927.312	3903
927.419	4044
927.525	4002
927.631	4074
927.737	3991
927.843	3960
927.95	3808
928.056	3949
928.162	3975
928.267	4032
928.373	4527
928.479	4124
928.585	3850
928.69	4013
928.796	4078
928.901	3930
929.007	3842
929.112	3991
929.218	3987
929.323	3918
929.428	3922
929.533	4120
929.638	3880
929.743	3949
929.848	4067
929.953	3987
930.058	3892
930.163	3755
930.267	3827
930.372	3972
930.477	3797
930.581	4086
930.685	3922
930.79	3819
930.894	3896
930.998	3808
931.103	4040
931.207	3774
931.311	3652
931.415	3648
931.519	3488
931.623	3515
