Data from test_V78500241_1257.txt Node
Date: Fri Mar 25 16:57:44 CST 2022
User: usil
Spectrometer: V785-0024
Trigger mode: 0
Integration Time (sec): 4.000000E-1
Scans to average: 1
Nonlinearity correction enabled: false
Boxcar width: 0
Storing dark spectrum: false
XAxis mode: Wavelengths
Number of Pixels in Spectrum: 1024
>>>>>Begin Spectral Data<<<<<
801.071	7982
801.214	7997
801.356	7868
801.499	7814
801.641	7727
801.783	7765
801.926	7989
802.068	7909
802.211	7947
802.353	7947
802.496	7852
802.638	7856
802.78	7951
802.923	7947
803.065	7917
803.208	7913
803.35	7883
803.492	8115
803.635	8195
803.777	8024
803.919	8092
804.061	8396
804.204	8161
804.346	8069
804.488	7967
804.63	8054
804.773	7997
804.915	8046
805.057	8221
805.199	8199
805.341	8183
805.483	8324
805.626	8225
805.768	8149
805.91	8225
806.052	8233
806.194	8100
806.336	8263
806.478	8107
806.62	8119
806.762	8187
806.904	8313
807.046	8434
807.188	8343
807.33	8256
807.472	8328
807.614	8187
807.756	8130
807.898	7967
808.04	7887
808.182	7970
808.324	7849
808.465	7909
808.607	8073
808.749	8157
808.891	8195
809.033	8294
809.174	8176
809.316	8039
809.458	7947
809.6	8012
809.741	8016
809.883	8016
810.025	8027
810.166	8005
810.308	8024
810.45	7993
810.591	7849
810.733	7643
810.875	7651
811.016	7540
811.158	7472
811.299	7594
811.441	7712
811.582	7658
811.724	7616
811.865	7510
812.007	7590
812.148	7586
812.29	7563
812.431	7769
812.573	7917
812.714	7967
812.855	8115
812.997	8180
813.138	8301
813.279	8195
813.421	8145
813.562	8005
813.703	7871
813.845	7792
813.986	7537
814.127	7263
814.268	7179
814.41	7202
814.551	7160
814.692	7145
814.833	7023
814.974	7099
815.115	7114
815.256	6989
815.397	6905
815.539	6954
815.68	6863
815.821	6772
815.962	6856
816.103	6814
816.244	6719
816.385	6616
816.526	6601
816.666	6464
816.807	6247
816.948	6426
817.089	6479
817.23	6467
817.371	6361
817.512	6331
817.653	6426
817.793	6369
817.934	6445
818.075	6437
818.216	6437
818.356	6369
818.497	6209
818.638	6079
818.778	6155
818.919	6079
819.06	6133
819.2	6296
819.341	6289
819.481	6388
819.622	6532
819.762	6734
819.903	6677
820.043	6608
820.184	6544
820.324	6540
820.465	6711
820.605	6700
820.746	6597
820.886	6483
821.026	6696
821.167	6646
821.307	6825
821.447	6738
821.588	6658
821.728	6582
821.868	6471
822.008	6334
822.149	6346
822.289	6369
822.429	6152
822.569	6091
822.709	6076
822.849	5851
822.99	5908
823.13	5874
823.27	5855
823.41	5813
823.55	5767
823.69	5786
823.83	5821
823.97	5714
824.11	5512
824.25	5486
824.389	5562
824.529	5562
824.669	5562
824.809	5608
824.949	5672
825.089	5623
825.228	5554
825.368	5368
825.508	5315
825.648	5357
825.787	5330
825.927	5353
826.067	5311
826.206	5288
826.346	5376
826.485	5376
826.625	5402
826.765	5543
826.904	5497
827.044	5220
827.183	5159
827.323	5102
827.462	5197
827.601	5170
827.741	5204
827.88	5201
828.02	5132
828.159	5212
828.298	5326
828.437	5357
828.577	5299
828.716	5486
828.855	5311
828.994	5181
829.134	5140
829.273	5212
829.412	5113
829.551	5037
829.69	5140
829.829	5216
829.968	5410
830.107	5216
830.246	5254
830.385	5121
830.524	5124
830.663	5052
830.802	4934
830.941	4873
831.08	4904
831.219	4923
831.357	4919
831.496	5147
831.635	4889
831.774	4809
831.913	4828
832.051	4687
832.19	4679
832.329	4809
832.467	4656
832.606	4637
832.744	4691
832.883	4702
833.022	4721
833.16	4767
833.299	4850
833.437	4820
833.576	4809
833.714	4831
833.852	4900
833.991	4835
834.129	4987
834.267	4953
834.406	4885
834.544	4961
834.682	4984
834.821	4915
834.959	5193
835.097	4949
835.235	5132
835.373	5033
835.511	5083
835.65	5029
835.788	4999
835.926	4839
836.064	4889
836.202	4923
836.34	5132
836.478	5140
836.615	5102
836.753	5197
836.891	5212
837.029	5216
837.167	5094
837.305	5155
837.443	5094
837.58	5064
837.718	5292
837.856	5250
837.993	5147
838.131	5201
838.269	5174
838.406	5220
838.544	5208
838.681	5022
838.819	5014
838.956	4911
839.094	4908
839.231	4953
839.369	5113
839.506	5425
839.643	5284
839.781	5029
839.918	5006
840.055	5086
840.193	5105
840.33	5075
840.467	5083
840.604	5170
840.742	5471
840.879	5086
841.016	5067
841.153	5162
841.29	5364
841.427	5357
841.564	5292
841.701	5353
841.838	5166
841.975	5296
842.112	5250
842.249	5151
842.385	5132
842.522	5250
842.659	5143
842.796	5166
842.933	5155
843.069	5128
843.206	5193
843.343	5311
843.479	5265
843.616	5258
843.752	5006
843.889	5006
844.025	5201
844.162	5018
844.298	5166
844.435	5048
844.571	5033
844.708	5174
844.844	5273
844.98	5299
845.117	5284
845.253	5136
845.389	5006
845.525	5174
845.661	5109
845.798	4984
845.934	5083
846.07	5022
846.206	5143
846.342	5288
846.478	5143
846.614	5014
846.75	4930
846.886	4923
847.022	5102
847.158	5022
847.294	5105
847.429	5071
847.565	5052
847.701	5288
847.837	4820
847.972	4812
848.108	4957
848.244	4919
848.379	4801
848.515	4675
848.65	4702
848.786	4744
848.921	4778
849.057	4809
849.192	4942
849.328	4801
849.463	4866
849.598	4797
849.734	4740
849.869	4679
850.004	4599
850.14	4622
850.275	4603
850.41	4527
850.545	4561
850.68	4611
850.815	4577
850.95	4599
851.085	4847
851.22	4786
851.355	4615
851.49	4611
851.625	4588
851.76	4645
851.895	4550
852.03	4546
852.165	4580
852.299	4714
852.434	4752
852.569	4725
852.703	4729
852.838	4824
852.973	4923
853.107	4896
853.242	4714
853.376	4675
853.511	4546
853.645	4615
853.78	4809
853.914	4664
854.048	4653
854.183	4637
854.317	4649
854.451	4812
854.585	4687
854.72	4618
854.854	4717
854.988	4554
855.122	4637
855.256	4531
855.39	4656
855.524	4774
855.658	4717
855.792	4698
855.926	4733
856.06	4748
856.194	4790
856.327	4687
856.461	4565
856.595	4580
856.729	4607
856.862	4729
856.996	4698
857.13	4752
857.263	4733
857.397	4763
857.53	4611
857.664	4714
857.797	4786
857.931	4774
858.064	4641
858.197	4752
858.331	4641
858.464	4611
858.597	4500
858.731	4611
858.864	4596
858.997	4565
859.13	4630
859.263	4618
859.396	4672
859.529	4577
859.662	4573
859.795	4516
859.928	4615
860.061	4736
860.194	4729
860.327	4565
860.46	4542
860.592	4736
860.725	4710
860.858	4710
860.99	4565
861.123	4516
861.256	4535
861.388	4569
861.521	5261
861.653	4497
861.786	4432
861.918	4481
862.05	4508
862.183	4538
862.315	4588
862.447	4683
862.58	4554
862.712	4394
862.844	4344
862.976	4493
863.108	4474
863.24	4843
863.372	4284
863.504	4375
863.636	4402
863.768	4443
863.9	4409
864.032	4417
864.164	4405
864.296	4485
864.428	4523
864.559	4538
864.691	4516
864.823	4542
864.954	4474
865.086	4451
865.217	4470
865.349	4394
865.48	4474
865.612	4466
865.743	4649
865.875	4459
866.006	4402
866.137	4417
866.269	4474
866.4	4413
866.531	4428
866.662	4405
866.793	4417
866.924	4409
867.055	4478
867.186	4424
867.317	4398
867.448	4398
867.579	4394
867.71	4344
867.841	4352
867.972	4436
868.103	4462
868.233	4440
868.364	4470
868.495	4504
868.625	4641
868.756	4694
868.886	4573
869.017	4607
869.147	4778
869.278	4755
869.408	4622
869.539	4637
869.669	4710
869.799	4596
869.929	4748
870.06	4687
870.19	4911
870.32	4904
870.45	4911
870.58	5029
870.71	5041
870.84	5117
870.97	4938
871.1	4850
871.23	5174
871.36	5105
871.489	4995
871.619	5048
871.749	5147
871.879	5105
872.008	5166
872.138	5056
872.267	4946
872.397	4866
872.526	4782
872.656	4675
872.785	4812
872.915	4949
873.044	5022
873.173	4908
873.303	4942
873.432	4953
873.561	4927
873.69	4809
873.819	4812
873.948	4896
874.077	4801
874.206	4691
874.335	4790
874.464	4968
874.593	5018
874.722	4927
874.851	5048
874.979	5045
875.108	5075
875.237	4934
875.365	4873
875.494	4873
875.623	4987
875.751	4831
875.88	4870
876.008	4949
876.136	5010
876.265	5216
876.393	5372
876.521	5315
876.65	5185
876.778	5113
876.906	5117
877.034	5045
877.162	5041
877.29	4976
877.418	5025
877.546	5064
877.674	5014
877.802	4991
877.93	5041
878.058	4892
878.185	4831
878.313	4953
878.441	4972
878.568	4790
878.696	4885
878.824	4889
878.951	4957
879.079	5071
879.206	5197
879.333	5105
879.461	4946
879.588	4995
879.715	5079
879.842	5174
879.97	4980
880.097	4793
880.224	4714
880.351	4812
880.478	4809
880.605	4835
880.732	4786
880.859	5064
880.986	4843
881.112	4953
881.239	4744
881.366	4626
881.493	4573
881.619	4611
881.746	4599
881.872	4656
881.999	4660
882.125	4698
882.252	4790
882.378	4771
882.505	4987
882.631	4786
882.757	4656
882.883	4710
883.01	4714
883.136	4694
883.262	4618
883.388	4607
883.514	4850
883.64	4847
883.766	4744
883.892	4641
884.018	4691
884.143	4858
884.269	4976
884.395	4660
884.52	4580
884.646	4668
884.772	4561
884.897	4523
885.023	4634
885.148	4733
885.274	4835
885.399	4793
885.524	4679
885.65	4679
885.775	4786
885.9	4683
886.025	4786
886.15	4752
886.275	4717
886.4	4649
886.525	4714
886.65	4622
886.775	4679
886.9	4904
887.025	4999
887.149	4805
887.274	4622
887.399	4558
887.523	4599
887.648	4603
887.773	4542
887.897	4774
888.021	4771
888.146	4683
888.27	4801
888.395	4911
888.519	4729
888.643	4812
888.767	4778
888.891	4721
889.015	4561
889.139	4710
889.263	4599
889.387	4744
889.511	4774
889.635	4717
889.759	4645
889.883	4607
890.006	4763
890.13	4797
890.254	4603
890.377	4660
890.501	4558
890.624	4531
890.748	4599
890.871	4481
890.995	4390
891.118	4394
891.241	4493
891.364	4519
891.488	4634
891.611	4481
891.734	4497
891.857	4615
891.98	4523
892.103	4653
892.226	4569
892.349	4478
892.471	4413
892.594	4527
892.717	4592
892.839	4554
892.962	4584
893.085	4637
893.207	4531
893.33	4470
893.452	4508
893.575	4634
893.697	4580
893.819	4801
893.941	4801
894.064	4759
894.186	4550
894.308	4554
894.43	4706
894.552	4805
894.674	4710
894.796	4554
894.918	4542
895.04	4508
895.161	4714
895.283	4611
895.405	4561
895.526	4584
895.648	4687
895.769	4675
895.891	4698
896.012	4744
896.134	4721
896.255	4641
896.376	4618
896.498	4588
896.619	4618
896.74	4641
896.861	4618
896.982	4896
897.103	5083
897.224	4828
897.345	4752
897.466	4668
897.587	4774
897.708	4831
897.828	4801
897.949	4664
898.07	4558
898.19	4630
898.311	4839
898.431	4649
898.552	4763
898.672	4866
898.792	4805
898.913	4812
899.033	4664
899.153	4554
899.273	4459
899.393	4519
899.513	4550
899.633	4523
899.753	4561
899.873	4485
899.993	4577
900.113	4531
900.232	4611
900.352	4508
900.472	4497
900.591	4424
900.711	4455
900.83	4447
900.95	4656
901.069	4683
901.189	4580
901.308	4443
901.427	4303
901.546	4409
901.665	4535
901.784	4516
901.904	4371
902.023	4352
902.141	4204
902.26	4181
902.379	4344
902.498	4261
902.617	4246
902.735	4390
902.854	4447
902.973	4379
903.091	4227
903.21	4310
903.328	4318
903.446	4341
903.565	4303
903.683	4379
903.801	4363
903.919	4436
904.038	4485
904.156	4352
904.274	4474
904.392	4485
904.51	4451
904.627	4519
904.745	4599
904.863	4683
904.981	4474
905.098	4356
905.216	4417
905.334	4424
905.451	4497
905.569	4470
905.686	4561
905.803	4580
905.921	4417
906.038	4596
906.155	4478
906.272	4455
906.389	4504
906.506	4424
906.623	4390
906.74	4421
906.857	4333
906.974	4443
907.091	4584
907.208	4714
907.324	4626
907.441	4546
907.557	4322
907.674	4337
907.79	4333
907.907	4421
908.023	4466
908.139	4481
908.256	4478
908.372	4466
908.488	4455
908.604	4417
908.72	4360
908.836	4386
908.952	4421
909.068	4474
909.184	4599
909.3	4523
909.415	4599
909.531	4577
909.647	4303
909.762	4386
909.878	4360
909.993	4440
910.108	4421
910.224	4405
910.339	4474
910.454	4455
910.57	4390
910.685	4356
910.8	4660
910.915	4645
911.03	4542
911.145	4371
911.259	4367
911.374	4405
911.489	4322
911.604	4322
911.718	4204
911.833	4242
911.947	4124
912.062	4048
912.176	4177
912.291	4276
912.405	4253
912.519	4508
912.633	4538
912.748	4386
912.862	4333
912.976	4207
913.09	4128
913.204	4185
913.318	4356
913.431	4352
913.545	4367
913.659	4455
913.772	4383
913.886	4257
914	4257
914.113	4413
914.226	4436
914.34	4398
914.453	4238
914.566	4417
914.68	4386
914.793	4375
914.906	4181
915.019	4135
915.132	4055
915.245	4230
915.358	4238
915.47	4276
915.583	4268
915.696	4287
915.809	4432
915.921	4447
916.034	4284
916.146	4265
916.259	4268
916.371	4409
916.483	4409
916.595	4272
916.708	4291
916.82	4333
916.932	4375
917.044	4318
917.156	4348
917.268	4280
917.38	4287
917.491	4276
917.603	4386
917.715	4470
917.826	4455
917.938	4413
918.049	4314
918.161	4417
918.272	4558
918.384	4565
918.495	4481
918.606	4303
918.717	4280
918.828	4333
918.939	4363
919.05	4272
919.161	4360
919.272	4154
919.383	4268
919.494	4451
919.604	4626
919.715	4436
919.826	4390
919.936	4459
920.047	4504
920.157	4561
920.267	4729
920.378	4577
920.488	4546
920.598	4729
920.708	4930
920.818	4782
920.928	4774
921.038	5006
921.148	4949
921.258	4675
921.368	4535
921.477	4550
921.587	4489
921.697	4390
921.806	4611
921.916	4485
922.025	4306
922.134	4284
922.244	4223
922.353	4383
922.462	4173
922.571	4131
922.68	4032
922.789	4036
922.898	4029
923.007	4013
923.116	4112
923.224	4097
923.333	4093
923.442	4059
923.55	4017
923.659	4097
923.767	4158
923.876	4013
923.984	4131
924.092	4032
924.201	4112
924.309	4135
924.417	4185
924.525	4116
924.633	4116
924.741	5109
924.849	3934
924.956	4143
925.064	3983
925.172	3960
925.279	4013
925.387	4078
925.494	4097
925.602	4204
925.709	4211
925.816	4017
925.924	4196
926.031	4268
926.138	4177
926.245	4227
926.352	4116
926.459	4230
926.566	4344
926.673	4162
926.779	4112
926.886	4090
926.993	4006
927.099	3991
927.206	3987
927.312	3998
927.419	4078
927.525	4086
927.631	4131
927.737	4017
927.843	3956
927.95	3842
928.056	3998
928.162	4002
928.267	4105
928.373	4702
928.479	4215
928.585	3880
928.69	4029
928.796	4093
928.901	3983
929.007	3857
929.112	4025
929.218	3975
929.323	3953
929.428	3945
929.533	4120
929.638	3892
929.743	3979
929.848	4101
929.953	4025
930.058	3998
930.163	3816
930.267	3827
930.372	4036
930.477	3846
930.581	4090
930.685	3953
930.79	3892
930.894	3915
930.998	3892
931.103	4044
931.207	3732
931.311	3728
931.415	3663
931.519	3618
931.623	3561
