Data from test_V78500241_2457.txt Node
Date: Fri Mar 25 17:06:05 CST 2022
User: usil
Spectrometer: V785-0024
Trigger mode: 0
Integration Time (sec): 4.000000E-1
Scans to average: 1
Nonlinearity correction enabled: false
Boxcar width: 0
Storing dark spectrum: false
XAxis mode: Wavelengths
Number of Pixels in Spectrum: 1024
>>>>>Begin Spectral Data<<<<<
801.071	8043
801.214	8035
801.356	7849
801.499	7788
801.641	7898
801.783	7799
801.926	8001
802.068	7898
802.211	7997
802.353	7944
802.496	7826
802.638	7849
802.78	7902
802.923	7955
803.065	7837
803.208	7883
803.35	7959
803.492	8035
803.635	8164
803.777	8088
803.919	8103
804.061	8476
804.204	8145
804.346	8054
804.488	8035
804.63	8126
804.773	8016
804.915	8100
805.057	8294
805.199	8138
805.341	8180
805.483	8320
805.626	8259
805.768	8130
805.91	8244
806.052	8176
806.194	8016
806.336	8317
806.478	8073
806.62	8008
806.762	8153
806.904	8309
807.046	8457
807.188	8313
807.33	8305
807.472	8275
807.614	8161
807.756	8180
807.898	7982
808.04	7826
808.182	7860
808.324	7792
808.465	7936
808.607	8020
808.749	8084
808.891	8195
809.033	8389
809.174	8199
809.316	8084
809.458	8126
809.6	7963
809.741	8046
809.883	8001
810.025	8111
810.166	8027
810.308	8092
810.45	7963
810.591	7909
810.733	7792
810.875	7681
811.016	7548
811.158	7411
811.299	7609
811.441	7746
811.582	7700
811.724	7495
811.865	7552
812.007	7540
812.148	7662
812.29	7693
812.431	7765
812.573	7830
812.714	7951
812.855	8115
812.997	8161
813.138	8279
813.279	8130
813.421	8054
813.562	7986
813.703	7841
813.845	7731
813.986	7472
814.127	7301
814.268	7225
814.41	7171
814.551	7168
814.692	7171
814.833	7149
814.974	7118
815.115	7126
815.256	6943
815.397	6951
815.539	6924
815.68	6814
815.821	6806
815.962	6886
816.103	6848
816.244	6760
816.385	6658
816.526	6654
816.666	6456
816.807	6365
816.948	6471
817.089	6452
817.23	6433
817.371	6410
817.512	6346
817.653	6391
817.793	6357
817.934	6388
818.075	6414
818.216	6384
818.356	6433
818.497	6273
818.638	6095
818.778	6133
818.919	6155
819.06	6194
819.2	6319
819.341	6292
819.481	6376
819.622	6509
819.762	6700
819.903	6738
820.043	6604
820.184	6654
820.324	6551
820.465	6696
820.605	6665
820.746	6681
820.886	6532
821.026	6654
821.167	6734
821.307	6810
821.447	6779
821.588	6669
821.728	6551
821.868	6456
822.008	6311
822.149	6414
822.289	6327
822.429	6178
822.569	6076
822.709	6144
822.849	5908
822.99	5912
823.13	5901
823.27	5885
823.41	5821
823.55	5783
823.69	5775
823.83	5786
823.97	5665
824.11	5551
824.25	5501
824.389	5558
824.529	5600
824.669	5520
824.809	5699
824.949	5672
825.089	5585
825.228	5589
825.368	5379
825.508	5318
825.648	5337
825.787	5406
825.927	5372
826.067	5345
826.206	5341
826.346	5379
826.485	5421
826.625	5444
826.765	5604
826.904	5448
827.044	5334
827.183	5204
827.323	5132
827.462	5330
827.601	5201
827.741	5197
827.88	5280
828.02	5147
828.159	5303
828.298	5349
828.437	5360
828.577	5288
828.716	5551
828.855	5395
828.994	5204
829.134	5212
829.273	5261
829.412	5212
829.551	5128
829.69	5178
829.829	5273
829.968	5414
830.107	5296
830.246	5261
830.385	5212
830.524	5151
830.663	5128
830.802	5045
830.941	4900
831.08	4961
831.219	5029
831.357	4976
831.496	5166
831.635	4953
831.774	4877
831.913	4919
832.051	4763
832.19	4763
832.329	4892
832.467	4774
832.606	4733
832.744	4755
832.883	4767
833.022	4782
833.16	4870
833.299	4889
833.437	4824
833.576	4847
833.714	4919
833.852	4904
833.991	4934
834.129	5018
834.267	4980
834.406	4938
834.544	5018
834.682	5067
834.821	5025
834.959	5178
835.097	5003
835.235	5181
835.373	5113
835.511	5143
835.65	5083
835.788	5037
835.926	5003
836.064	4885
836.202	4968
836.34	5254
836.478	5284
836.615	5208
836.753	5303
836.891	5345
837.029	5212
837.167	5208
837.305	5178
837.443	5227
837.58	5121
837.718	5280
837.856	5246
837.993	5159
838.131	5341
838.269	5242
838.406	5231
838.544	5269
838.681	5045
838.819	5060
838.956	4949
839.094	4942
839.231	5045
839.369	5075
839.506	5410
839.643	5357
839.781	5136
839.918	4987
840.055	5140
840.193	5159
840.33	5124
840.467	5128
840.604	5204
840.742	5493
840.879	5098
841.016	5151
841.153	5197
841.29	5395
841.427	5398
841.564	5349
841.701	5387
841.838	5318
841.975	5303
842.112	5330
842.249	5174
842.385	5098
842.522	5334
842.659	5242
842.796	5204
842.933	5250
843.069	5201
843.206	5204
843.343	5376
843.479	5235
843.616	5277
843.752	5071
843.889	5075
844.025	5235
844.162	5090
844.298	5254
844.435	5128
844.571	5090
844.708	5193
844.844	5357
844.98	5410
845.117	5277
845.253	5189
845.389	5143
845.525	5223
845.661	5155
845.798	5113
845.934	5159
846.07	5056
846.206	5181
846.342	5284
846.478	5220
846.614	5094
846.75	5033
846.886	4984
847.022	5174
847.158	5033
847.294	5098
847.429	5113
847.565	5147
847.701	5330
847.837	4919
847.972	4843
848.108	5006
848.244	4949
848.379	4824
848.515	4759
848.65	4733
848.786	4793
848.921	4790
849.057	4930
849.192	4923
849.328	4862
849.463	4870
849.598	4752
849.734	4816
849.869	4763
850.004	4664
850.14	4733
850.275	4725
850.41	4573
850.545	4611
850.68	4645
850.815	4660
850.95	4660
851.085	4870
851.22	4721
851.355	4710
851.49	4615
851.625	4668
851.76	4664
851.895	4618
852.03	4569
852.165	4710
852.299	4786
852.434	4805
852.569	4733
852.703	4805
852.838	4858
852.973	4984
853.107	4980
853.242	4759
853.376	4694
853.511	4615
853.645	4683
853.78	4828
853.914	4805
854.048	4653
854.183	4660
854.317	4774
854.451	4835
854.585	4729
854.72	4675
854.854	4828
854.988	4611
855.122	4729
855.256	4580
855.39	4683
855.524	4771
855.658	4793
855.792	4755
855.926	4717
856.06	4729
856.194	4820
856.327	4649
856.461	4637
856.595	4630
856.729	4645
856.862	4820
856.996	4710
857.13	4809
857.263	4809
857.397	4816
857.53	4664
857.664	4717
857.797	4805
857.931	4816
858.064	4717
858.197	4763
858.331	4710
858.464	4580
858.597	4561
858.731	4687
858.864	4687
858.997	4653
859.13	4660
859.263	4752
859.396	4721
859.529	4641
859.662	4626
859.795	4584
859.928	4664
860.061	4786
860.194	4847
860.327	4618
860.46	4611
860.592	4752
860.725	4748
860.858	4771
860.99	4577
861.123	4535
861.256	4542
861.388	4653
861.521	5303
861.653	4447
861.786	4462
861.918	4493
862.05	4569
862.183	4561
862.315	4660
862.447	4744
862.58	4577
862.712	4436
862.844	4352
862.976	4550
863.108	4516
863.24	4938
863.372	4352
863.504	4470
863.636	4379
863.768	4497
863.9	4455
864.032	4375
864.164	4440
864.296	4584
864.428	4599
864.559	4592
864.691	4519
864.823	4523
864.954	4493
865.086	4504
865.217	4481
865.349	4485
865.48	4466
865.612	4527
865.743	4660
865.875	4489
866.006	4478
866.137	4538
866.269	4478
866.4	4455
866.531	4421
866.662	4455
866.793	4390
866.924	4474
867.055	4592
867.186	4489
867.317	4466
867.448	4447
867.579	4428
867.71	4421
867.841	4421
867.972	4470
868.103	4462
868.233	4459
868.364	4497
868.495	4538
868.625	4656
868.756	4786
868.886	4599
869.017	4653
869.147	4793
869.278	4778
869.408	4698
869.539	4683
869.669	4725
869.799	4668
869.929	4778
870.06	4736
870.19	4949
870.32	4976
870.45	4999
870.58	4987
870.71	5136
870.84	5117
870.97	5010
871.1	4961
871.23	5162
871.36	5162
871.489	5018
871.619	5071
871.749	5140
871.879	5132
872.008	5212
872.138	5102
872.267	5022
872.397	4847
872.526	4805
872.656	4767
872.785	4877
872.915	4961
873.044	5071
873.173	4927
873.303	5014
873.432	5025
873.561	4946
873.69	4942
873.819	4873
873.948	4965
874.077	4847
874.206	4809
874.335	4801
874.464	4976
874.593	5052
874.722	5014
874.851	5094
874.979	5083
875.108	5071
875.237	4927
875.365	4908
875.494	4896
875.623	5003
875.751	4877
875.88	4919
876.008	5048
876.136	5071
876.265	5185
876.393	5379
876.521	5284
876.65	5242
876.778	5132
876.906	5067
877.034	5064
877.162	5041
877.29	5018
877.418	5121
877.546	5006
877.674	5071
877.802	5064
877.93	5090
878.058	4930
878.185	4900
878.313	4957
878.441	4980
878.568	4835
878.696	4908
878.824	4999
878.951	5025
879.079	5124
879.206	5280
879.333	5143
879.461	5025
879.588	5086
879.715	5113
879.842	5269
879.97	5071
880.097	4805
880.224	4782
880.351	4793
880.478	4835
880.605	4782
880.732	4816
880.859	5071
880.986	4911
881.112	4923
881.239	4782
881.366	4710
881.493	4637
881.619	4641
881.746	4668
881.872	4694
881.999	4656
882.125	4736
882.252	4843
882.378	4847
882.505	5006
882.631	4809
882.757	4759
882.883	4790
883.01	4755
883.136	4691
883.262	4611
883.388	4691
883.514	4854
883.64	4889
883.766	4835
883.892	4687
884.018	4782
884.143	4908
884.269	5018
884.395	4675
884.52	4641
884.646	4668
884.772	4577
884.897	4558
885.023	4660
885.148	4797
885.274	4843
885.399	4790
885.524	4698
885.65	4694
885.775	4797
885.9	4729
886.025	4892
886.15	4812
886.275	4725
886.4	4683
886.525	4706
886.65	4706
886.775	4721
886.9	4934
887.025	5121
887.149	4843
887.274	4660
887.399	4660
887.523	4656
887.648	4599
887.773	4573
887.897	4759
888.021	4816
888.146	4691
888.27	4809
888.395	4915
888.519	4797
888.643	4797
888.767	4873
888.891	4649
889.015	4656
889.139	4637
889.263	4634
889.387	4759
889.511	4850
889.635	4793
889.759	4645
889.883	4592
890.006	4725
890.13	4885
890.254	4626
890.377	4698
890.501	4565
890.624	4500
890.748	4660
890.871	4558
890.995	4474
891.118	4371
891.241	4554
891.364	4561
891.488	4622
891.611	4504
891.734	4542
891.857	4615
891.98	4538
892.103	4641
892.226	4607
892.349	4561
892.471	4436
892.594	4538
892.717	4580
892.839	4580
892.962	4611
893.085	4656
893.207	4653
893.33	4478
893.452	4565
893.575	4641
893.697	4592
893.819	4816
893.941	4831
894.064	4752
894.186	4588
894.308	4573
894.43	4755
894.552	4843
894.674	4797
894.796	4599
894.918	4588
895.04	4622
895.161	4656
895.283	4691
895.405	4554
895.526	4607
895.648	4668
895.769	4691
895.891	4706
896.012	4767
896.134	4759
896.255	4656
896.376	4634
896.498	4603
896.619	4714
896.74	4592
896.861	4687
896.982	4953
897.103	5098
897.224	4877
897.345	4771
897.466	4694
897.587	4740
897.708	4866
897.828	4820
897.949	4653
898.07	4573
898.19	4649
898.311	4862
898.431	4710
898.552	4755
898.672	4755
898.792	4774
898.913	4805
899.033	4653
899.153	4504
899.273	4512
899.393	4561
899.513	4542
899.633	4519
899.753	4558
899.873	4523
899.993	4626
900.113	4512
900.232	4592
900.352	4531
900.472	4489
900.591	4436
900.711	4481
900.83	4489
900.95	4580
901.069	4721
901.189	4542
901.308	4371
901.427	4291
901.546	4413
901.665	4451
901.784	4615
901.904	4371
902.023	4318
902.141	4177
902.26	4169
902.379	4253
902.498	4246
902.617	4246
902.735	4363
902.854	4386
902.973	4314
903.091	4253
903.21	4230
903.328	4333
903.446	4310
903.565	4280
903.683	4394
903.801	4287
903.919	4356
904.038	4421
904.156	4341
904.274	4481
904.392	4421
904.51	4512
904.627	4470
904.745	4626
904.863	4615
904.981	4451
905.098	4322
905.216	4405
905.334	4436
905.451	4398
905.569	4485
905.686	4527
905.803	4596
905.921	4390
906.038	4584
906.155	4451
906.272	4451
906.389	4470
906.506	4337
906.623	4344
906.74	4421
906.857	4306
906.974	4371
907.091	4584
907.208	4660
907.324	4569
907.441	4493
907.557	4329
907.674	4363
907.79	4341
907.907	4405
908.023	4516
908.139	4432
908.256	4432
908.372	4489
908.488	4481
908.604	4394
908.72	4329
908.836	4398
908.952	4390
909.068	4470
909.184	4523
909.3	4512
909.415	4542
909.531	4603
909.647	4371
909.762	4386
909.878	4386
909.993	4497
910.108	4379
910.224	4428
910.339	4493
910.454	4413
910.57	4348
910.685	4299
910.8	4664
910.915	4615
911.03	4558
911.145	4276
911.259	4348
911.374	4383
911.489	4299
911.604	4257
911.718	4215
911.833	4196
911.947	4055
912.062	4040
912.176	4287
912.291	4227
912.405	4291
912.519	4497
912.633	4573
912.748	4325
912.862	4284
912.976	4257
913.09	4086
913.204	4196
913.318	4234
913.431	4341
913.545	4386
913.659	4459
913.772	4386
913.886	4272
914	4287
914.113	4356
914.226	4455
914.34	4421
914.453	4200
914.566	4512
914.68	4337
914.793	4325
914.906	4169
915.019	4131
915.132	4105
915.245	4173
915.358	4238
915.47	4234
915.583	4291
915.696	4284
915.809	4398
915.921	4413
916.034	4257
916.146	4268
916.259	4207
916.371	4379
916.483	4341
916.595	4249
916.708	4325
916.82	4272
916.932	4303
917.044	4322
917.156	4318
917.268	4234
917.38	4284
917.491	4295
917.603	4344
917.715	4371
917.826	4481
917.938	4371
918.049	4223
918.161	4405
918.272	4569
918.384	4565
918.495	4478
918.606	4253
918.717	4242
918.828	4352
918.939	4371
919.05	4276
919.161	4287
919.272	4131
919.383	4257
919.494	4462
919.604	4599
919.715	4424
919.826	4371
919.936	4436
920.047	4535
920.157	4493
920.267	4691
920.378	4535
920.488	4516
920.598	4710
920.708	4885
920.818	4793
920.928	4805
921.038	4953
921.148	4908
921.258	4615
921.368	4588
921.477	4523
921.587	4470
921.697	4390
921.806	4531
921.916	4432
922.025	4257
922.134	4291
922.244	4200
922.353	4352
922.462	4154
922.571	4109
922.68	3994
922.789	3979
922.898	4021
923.007	4013
923.116	4116
923.224	4078
923.333	4082
923.442	3960
923.55	3991
923.659	4032
923.767	4067
923.876	3991
923.984	4105
924.092	3949
924.201	4090
924.309	4093
924.417	4109
924.525	4082
924.633	4109
924.741	5143
924.849	3945
924.956	4120
925.064	3983
925.172	3857
925.279	4010
925.387	4048
925.494	4048
925.602	4200
925.709	4177
925.816	4036
925.924	4147
926.031	4238
926.138	4177
926.245	4215
926.352	4097
926.459	4238
926.566	4333
926.673	4154
926.779	4105
926.886	4078
926.993	3949
927.099	3964
927.206	3937
927.312	3937
927.419	4029
927.525	4006
927.631	4093
927.737	3968
927.843	3953
927.95	3842
928.056	3956
928.162	3968
928.267	4090
928.373	4710
928.479	4158
928.585	3876
928.69	4044
928.796	4067
928.901	3968
929.007	3838
929.112	4017
929.218	3998
929.323	3972
929.428	3956
929.533	4150
929.638	3941
929.743	3964
929.848	4048
929.953	4036
930.058	3964
930.163	3789
930.267	3865
930.372	3987
930.477	3835
930.581	4135
930.685	3918
930.79	3812
930.894	3926
930.998	3861
931.103	4048
931.207	3717
931.311	3713
931.415	3633
931.519	3504
931.623	3534
