Data from test_V78500241_1025.txt Node
Date: Fri Mar 25 16:56:07 CST 2022
User: usil
Spectrometer: V785-0024
Trigger mode: 0
Integration Time (sec): 4.000000E-1
Scans to average: 1
Nonlinearity correction enabled: false
Boxcar width: 0
Storing dark spectrum: false
XAxis mode: Wavelengths
Number of Pixels in Spectrum: 1024
>>>>>Begin Spectral Data<<<<<
801.071	8046
801.214	8020
801.356	7902
801.499	7890
801.641	7772
801.783	7826
801.926	7940
802.068	7925
802.211	7951
802.353	7913
802.496	7807
802.638	7849
802.78	7868
802.923	7974
803.065	7845
803.208	7909
803.35	7970
803.492	8077
803.635	8180
803.777	8065
803.919	8119
804.061	8457
804.204	8172
804.346	8039
804.488	7963
804.63	8069
804.773	8012
804.915	8126
805.057	8248
805.199	8157
805.341	8199
805.483	8286
805.626	8180
805.768	8096
805.91	8233
806.052	8199
806.194	8058
806.336	8286
806.478	8115
806.62	8035
806.762	8145
806.904	8229
807.046	8419
807.188	8358
807.33	8267
807.472	8286
807.614	8107
807.756	8126
807.898	7936
808.04	7944
808.182	7875
808.324	7875
808.465	7906
808.607	8119
808.749	8096
808.891	8210
809.033	8286
809.174	8164
809.316	8096
809.458	8069
809.6	7940
809.741	8035
809.883	8031
810.025	8100
810.166	8073
810.308	7982
810.45	8039
810.591	7868
810.733	7674
810.875	7639
811.016	7556
811.158	7495
811.299	7563
811.441	7685
811.582	7613
811.724	7544
811.865	7529
812.007	7537
812.148	7594
812.29	7586
812.431	7757
812.573	7879
812.714	8020
812.855	8115
812.997	8164
813.138	8328
813.279	8164
813.421	8062
813.562	8043
813.703	7841
813.845	7803
813.986	7453
814.127	7263
814.268	7183
814.41	7202
814.551	7145
814.692	7160
814.833	7122
814.974	7145
815.115	7137
815.256	6977
815.397	6905
815.539	6901
815.68	6802
815.821	6779
815.962	6886
816.103	6821
816.244	6764
816.385	6642
816.526	6639
816.666	6479
816.807	6323
816.948	6426
817.089	6471
817.23	6483
817.371	6426
817.512	6353
817.653	6380
817.793	6350
817.934	6388
818.075	6475
818.216	6422
818.356	6418
818.497	6228
818.638	6125
818.778	6110
818.919	6136
819.06	6155
819.2	6308
819.341	6308
819.481	6388
819.622	6506
819.762	6741
819.903	6677
820.043	6578
820.184	6608
820.324	6483
820.465	6662
820.605	6631
820.746	6658
820.886	6464
821.026	6662
821.167	6711
821.307	6791
821.447	6722
821.588	6662
821.728	6486
821.868	6483
822.008	6258
822.149	6372
822.289	6380
822.429	6148
822.569	6045
822.709	6102
822.849	5889
822.99	5904
823.13	5939
823.27	5965
823.41	5809
823.55	5767
823.69	5794
823.83	5832
823.97	5661
824.11	5554
824.25	5505
824.389	5554
824.529	5558
824.669	5509
824.809	5619
824.949	5676
825.089	5592
825.228	5566
825.368	5376
825.508	5353
825.648	5353
825.787	5326
825.927	5383
826.067	5330
826.206	5307
826.346	5387
826.485	5398
826.625	5391
826.765	5505
826.904	5436
827.044	5220
827.183	5155
827.323	5071
827.462	5235
827.601	5193
827.741	5178
827.88	5220
828.02	5117
828.159	5185
828.298	5288
828.437	5341
828.577	5292
828.716	5482
828.855	5341
828.994	5113
829.134	5151
829.273	5193
829.412	5159
829.551	5155
829.69	5124
829.829	5246
829.968	5357
830.107	5318
830.246	5258
830.385	5166
830.524	5132
830.663	5090
830.802	4987
830.941	4873
831.08	4870
831.219	4972
831.357	4968
831.496	5181
831.635	4904
831.774	4828
831.913	4828
832.051	4729
832.19	4740
832.329	4816
832.467	4710
832.606	4634
832.744	4725
832.883	4710
833.022	4733
833.16	4740
833.299	4828
833.437	4816
833.576	4885
833.714	4831
833.852	4881
833.991	4889
834.129	4984
834.267	4938
834.406	4881
834.544	4995
834.682	4965
834.821	4953
834.959	5151
835.097	4957
835.235	5121
835.373	5067
835.511	5113
835.65	5010
835.788	5022
835.926	4854
836.064	4858
836.202	4930
836.34	5124
836.478	5246
836.615	5121
836.753	5162
836.891	5254
837.029	5242
837.167	5208
837.305	5143
837.443	5185
837.58	5079
837.718	5239
837.856	5121
837.993	5151
838.131	5254
838.269	5185
838.406	5197
838.544	5204
838.681	5022
838.819	4965
838.956	4866
839.094	4892
839.231	4984
839.369	5109
839.506	5387
839.643	5220
839.781	5037
839.918	4999
840.055	5121
840.193	5132
840.33	5132
840.467	5159
840.604	5197
840.742	5425
840.879	5056
841.016	5143
841.153	5143
841.29	5410
841.427	5330
841.564	5326
841.701	5349
841.838	5307
841.975	5216
842.112	5265
842.249	5159
842.385	5090
842.522	5330
842.659	5162
842.796	5143
842.933	5204
843.069	5090
843.206	5128
843.343	5250
843.479	5201
843.616	5296
843.752	5060
843.889	4923
844.025	5174
844.162	5071
844.298	5220
844.435	5086
844.571	4999
844.708	5166
844.844	5345
844.98	5345
845.117	5235
845.253	5124
845.389	5048
845.525	5147
845.661	5132
845.798	5018
845.934	5086
846.07	4980
846.206	5212
846.342	5242
846.478	5170
846.614	4999
846.75	4987
846.886	4930
847.022	5109
847.158	4987
847.294	5025
847.429	5041
847.565	5033
847.701	5296
847.837	4877
847.972	4790
848.108	5010
848.244	4984
848.379	4771
848.515	4706
848.65	4691
848.786	4714
848.921	4809
849.057	4828
849.192	4854
849.328	4824
849.463	4847
849.598	4790
849.734	4763
849.869	4683
850.004	4630
850.14	4721
850.275	4588
850.41	4497
850.545	4573
850.68	4561
850.815	4626
850.95	4592
851.085	4831
851.22	4744
851.355	4630
851.49	4626
851.625	4592
851.76	4611
851.895	4546
852.03	4531
852.165	4607
852.299	4710
852.434	4759
852.569	4767
852.703	4767
852.838	4847
852.973	4934
853.107	4839
853.242	4736
853.376	4637
853.511	4516
853.645	4618
853.78	4778
853.914	4637
854.048	4615
854.183	4630
854.317	4698
854.451	4850
854.585	4626
854.72	4588
854.854	4752
854.988	4588
855.122	4618
855.256	4542
855.39	4683
855.524	4774
855.658	4668
855.792	4664
855.926	4694
856.06	4767
856.194	4797
856.327	4653
856.461	4630
856.595	4618
856.729	4634
856.862	4759
856.996	4656
857.13	4702
857.263	4694
857.397	4774
857.53	4656
857.664	4683
857.797	4801
857.931	4759
858.064	4668
858.197	4752
858.331	4607
858.464	4599
858.597	4535
858.731	4603
858.864	4641
858.997	4569
859.13	4653
859.263	4664
859.396	4698
859.529	4580
859.662	4565
859.795	4554
859.928	4649
860.061	4759
860.194	4755
860.327	4615
860.46	4523
860.592	4725
860.725	4672
860.858	4733
860.99	4573
861.123	4497
861.256	4527
861.388	4580
861.521	5296
861.653	4470
861.786	4440
861.918	4436
862.05	4489
862.183	4538
862.315	4584
862.447	4607
862.58	4577
862.712	4398
862.844	4322
862.976	4497
863.108	4462
863.24	4805
863.372	4344
863.504	4432
863.636	4375
863.768	4455
863.9	4421
864.032	4398
864.164	4417
864.296	4455
864.428	4508
864.559	4611
864.691	4516
864.823	4546
864.954	4470
865.086	4519
865.217	4413
865.349	4421
865.48	4470
865.612	4497
865.743	4653
865.875	4451
866.006	4447
866.137	4455
866.269	4432
866.4	4436
866.531	4379
866.662	4383
866.793	4421
866.924	4462
867.055	4500
867.186	4428
867.317	4402
867.448	4375
867.579	4413
867.71	4398
867.841	4348
867.972	4459
868.103	4440
868.233	4440
868.364	4405
868.495	4466
868.625	4656
868.756	4683
868.886	4504
869.017	4630
869.147	4755
869.278	4725
869.408	4668
869.539	4603
869.669	4702
869.799	4626
869.929	4729
870.06	4736
870.19	4923
870.32	4892
870.45	4877
870.58	4968
870.71	5090
870.84	5090
870.97	4987
871.1	4885
871.23	5140
871.36	5166
871.489	5090
871.619	5071
871.749	5037
871.879	5079
872.008	5147
872.138	5052
872.267	4923
872.397	4812
872.526	4812
872.656	4664
872.785	4793
872.915	4938
873.044	5022
873.173	4923
873.303	4949
873.432	4957
873.561	4953
873.69	4835
873.819	4805
873.948	4862
874.077	4774
874.206	4748
874.335	4752
874.464	4885
874.593	5025
874.722	4930
874.851	5075
874.979	5060
875.108	5029
875.237	4904
875.365	4824
875.494	4892
875.623	4934
875.751	4812
875.88	4847
876.008	4923
876.136	5018
876.265	5162
876.393	5292
876.521	5288
876.65	5220
876.778	5136
876.906	5006
877.034	5048
877.162	5018
877.29	4957
877.418	5052
877.546	5086
877.674	5014
877.802	5033
877.93	5033
878.058	4923
878.185	4854
878.313	4942
878.441	4965
878.568	4793
878.696	4881
878.824	4938
878.951	5064
879.079	5113
879.206	5246
879.333	5086
879.461	4999
879.588	4999
879.715	5079
879.842	5216
879.97	4972
880.097	4771
880.224	4740
880.351	4801
880.478	4809
880.605	4748
880.732	4774
880.859	5086
880.986	4942
881.112	4949
881.239	4767
881.366	4634
881.493	4611
881.619	4603
881.746	4637
881.872	4615
881.999	4607
882.125	4687
882.252	4786
882.378	4828
882.505	4953
882.631	4790
882.757	4691
882.883	4714
883.01	4687
883.136	4668
883.262	4622
883.388	4656
883.514	4812
883.64	4850
883.766	4778
883.892	4691
884.018	4721
884.143	4896
884.269	5022
884.395	4687
884.52	4599
884.646	4637
884.772	4512
884.897	4554
885.023	4687
885.148	4805
885.274	4820
885.399	4820
885.524	4702
885.65	4672
885.775	4736
885.9	4702
886.025	4839
886.15	4767
886.275	4668
886.4	4641
886.525	4702
886.65	4653
886.775	4679
886.9	4870
887.025	4987
887.149	4778
887.274	4698
887.399	4561
887.523	4577
887.648	4580
887.773	4592
887.897	4759
888.021	4771
888.146	4645
888.27	4858
888.395	4854
888.519	4812
888.643	4843
888.767	4748
888.891	4668
889.015	4599
889.139	4664
889.263	4565
889.387	4771
889.511	4854
889.635	4824
889.759	4656
889.883	4641
890.006	4721
890.13	4809
890.254	4615
890.377	4675
890.501	4538
890.624	4550
890.748	4588
890.871	4519
890.995	4405
891.118	4379
891.241	4516
891.364	4493
891.488	4596
891.611	4504
891.734	4554
891.857	4569
891.98	4523
892.103	4656
892.226	4584
892.349	4504
892.471	4409
892.594	4516
892.717	4611
892.839	4592
892.962	4588
893.085	4630
893.207	4599
893.33	4447
893.452	4497
893.575	4588
893.697	4618
893.819	4755
893.941	4816
894.064	4790
894.186	4573
894.308	4558
894.43	4778
894.552	4790
894.674	4733
894.796	4577
894.918	4569
895.04	4531
895.161	4687
895.283	4672
895.405	4596
895.526	4626
895.648	4634
895.769	4660
895.891	4675
896.012	4752
896.134	4702
896.255	4653
896.376	4622
896.498	4573
896.619	4645
896.74	4565
896.861	4626
896.982	4923
897.103	5086
897.224	4759
897.345	4698
897.466	4668
897.587	4729
897.708	4805
897.828	4755
897.949	4672
898.07	4561
898.19	4630
898.311	4805
898.431	4660
898.552	4744
898.672	4816
898.792	4801
898.913	4725
899.033	4603
899.153	4462
899.273	4375
899.393	4508
899.513	4489
899.633	4535
899.753	4538
899.873	4516
899.993	4588
900.113	4493
900.232	4584
900.352	4523
900.472	4432
900.591	4390
900.711	4508
900.83	4394
900.95	4569
901.069	4694
901.189	4523
901.308	4379
901.427	4280
901.546	4394
901.665	4485
901.784	4493
901.904	4352
902.023	4299
902.141	4173
902.26	4169
902.379	4333
902.498	4230
902.617	4242
902.735	4348
902.854	4363
902.973	4295
903.091	4185
903.21	4227
903.328	4333
903.446	4276
903.565	4249
903.683	4348
903.801	4306
903.919	4432
904.038	4424
904.156	4356
904.274	4409
904.392	4356
904.51	4398
904.627	4417
904.745	4584
904.863	4618
904.981	4402
905.098	4299
905.216	4371
905.334	4478
905.451	4432
905.569	4402
905.686	4561
905.803	4535
905.921	4421
906.038	4569
906.155	4455
906.272	4421
906.389	4481
906.506	4337
906.623	4310
906.74	4386
906.857	4306
906.974	4348
907.091	4573
907.208	4637
907.324	4542
907.441	4485
907.557	4344
907.674	4310
907.79	4356
907.907	4352
908.023	4489
908.139	4485
908.256	4447
908.372	4455
908.488	4413
908.604	4310
908.72	4348
908.836	4394
908.952	4375
909.068	4398
909.184	4573
909.3	4485
909.415	4599
909.531	4577
909.647	4322
909.762	4383
909.878	4348
909.993	4424
910.108	4409
910.224	4432
910.339	4493
910.454	4394
910.57	4386
910.685	4341
910.8	4622
910.915	4554
911.03	4443
911.145	4333
911.259	4325
911.374	4367
911.489	4306
911.604	4276
911.718	4185
911.833	4257
911.947	4082
912.062	4086
912.176	4162
912.291	4215
912.405	4219
912.519	4402
912.633	4516
912.748	4375
912.862	4341
912.976	4162
913.09	4120
913.204	4158
913.318	4265
913.431	4344
913.545	4352
913.659	4440
913.772	4306
913.886	4249
914	4200
914.113	4383
914.226	4443
914.34	4405
914.453	4246
914.566	4417
914.68	4291
914.793	4291
914.906	4135
915.019	4120
915.132	4093
915.245	4185
915.358	4219
915.47	4234
915.583	4295
915.696	4318
915.809	4413
915.921	4383
916.034	4265
916.146	4276
916.259	4211
916.371	4394
916.483	4322
916.595	4249
916.708	4299
916.82	4322
916.932	4341
917.044	4325
917.156	4333
917.268	4242
917.38	4246
917.491	4276
917.603	4310
917.715	4424
917.826	4386
917.938	4360
918.049	4223
918.161	4386
918.272	4538
918.384	4519
918.495	4455
918.606	4322
918.717	4211
918.828	4314
918.939	4409
919.05	4234
919.161	4276
919.272	4109
919.383	4223
919.494	4451
919.604	4607
919.715	4394
919.826	4348
919.936	4409
920.047	4493
920.157	4508
920.267	4744
920.378	4558
920.488	4474
920.598	4698
920.708	4896
920.818	4733
920.928	4744
921.038	4961
921.148	4953
921.258	4596
921.368	4459
921.477	4489
921.587	4470
921.697	4337
921.806	4497
921.916	4428
922.025	4276
922.134	4234
922.244	4196
922.353	4306
922.462	4158
922.571	4135
922.68	3983
922.789	3983
922.898	4040
923.007	4036
923.116	4124
923.224	4059
923.333	4051
923.442	4021
923.55	3983
923.659	4002
923.767	4097
923.876	4006
923.984	4112
924.092	3972
924.201	4078
924.309	4147
924.417	4097
924.525	4051
924.633	4063
924.741	5033
924.849	3956
924.956	4124
925.064	3949
925.172	3915
925.279	3941
925.387	4063
925.494	4040
925.602	4207
925.709	4147
925.816	4090
925.924	4128
926.031	4166
926.138	4204
926.245	4204
926.352	4082
926.459	4276
926.566	4287
926.673	4181
926.779	4074
926.886	4074
926.993	3987
927.099	3960
927.206	3926
927.312	3956
927.419	4059
927.525	4044
927.631	4078
927.737	3949
927.843	3907
927.95	3827
928.056	3991
928.162	3972
928.267	4086
928.373	4710
928.479	4128
928.585	3812
928.69	4017
928.796	4044
928.901	3953
929.007	3831
929.112	4048
929.218	3998
929.323	3907
929.428	3937
929.533	4101
929.638	3915
929.743	3930
929.848	4063
929.953	3937
930.058	3918
930.163	3778
930.267	3842
930.372	3949
930.477	3785
930.581	4086
930.685	3960
930.79	3808
930.894	3896
930.998	3861
931.103	4021
931.207	3690
931.311	3686
931.415	3648
931.519	3545
931.623	3530
