Data from test_V78500241_2179.txt Node
Date: Fri Mar 25 17:04:09 CST 2022
User: usil
Spectrometer: V785-0024
Trigger mode: 0
Integration Time (sec): 4.000000E-1
Scans to average: 1
Nonlinearity correction enabled: false
Boxcar width: 0
Storing dark spectrum: false
XAxis mode: Wavelengths
Number of Pixels in Spectrum: 1024
>>>>>Begin Spectral Data<<<<<
801.071	8008
801.214	7989
801.356	7822
801.499	7875
801.641	7833
801.783	7795
801.926	7978
802.068	7955
802.211	7970
802.353	7959
802.496	7849
802.638	7849
802.78	7890
802.923	7849
803.065	7792
803.208	7864
803.35	7986
803.492	8046
803.635	8161
803.777	7989
803.919	8134
804.061	8457
804.204	8180
804.346	8020
804.488	8039
804.63	8069
804.773	7959
804.915	8107
805.057	8263
805.199	8191
805.341	8206
805.483	8267
805.626	8176
805.768	8168
805.91	8164
806.052	8180
806.194	8020
806.336	8339
806.478	8123
806.62	8031
806.762	8069
806.904	8256
807.046	8518
807.188	8408
807.33	8263
807.472	8324
807.614	8157
807.756	8092
807.898	8031
808.04	7837
808.182	7902
808.324	7864
808.465	7894
808.607	8062
808.749	8119
808.891	8237
809.033	8298
809.174	8282
809.316	8077
809.458	8084
809.6	7963
809.741	8012
809.883	8012
810.025	8043
810.166	8081
810.308	8008
810.45	7951
810.591	7826
810.733	7696
810.875	7651
811.016	7438
811.158	7472
811.299	7514
811.441	7693
811.582	7719
811.724	7525
811.865	7464
812.007	7594
812.148	7590
812.29	7655
812.431	7772
812.573	7864
812.714	7936
812.855	8138
812.997	8271
813.138	8305
813.279	8157
813.421	8043
813.562	8001
813.703	7826
813.845	7746
813.986	7392
814.127	7217
814.268	7263
814.41	7091
814.551	7141
814.692	7194
814.833	7095
814.974	7110
815.115	7152
815.256	6973
815.397	6924
815.539	6947
815.68	6776
815.821	6677
815.962	6856
816.103	6818
816.244	6730
816.385	6631
816.526	6604
816.666	6475
816.807	6239
816.948	6410
817.089	6464
817.23	6437
817.371	6376
817.512	6380
817.653	6452
817.793	6357
817.934	6380
818.075	6464
818.216	6437
818.356	6403
818.497	6270
818.638	6159
818.778	6144
818.919	6186
819.06	6133
819.2	6338
819.341	6380
819.481	6376
819.622	6498
819.762	6722
819.903	6635
820.043	6555
820.184	6570
820.324	6578
820.465	6646
820.605	6627
820.746	6631
820.886	6513
821.026	6700
821.167	6700
821.307	6798
821.447	6745
821.588	6608
821.728	6582
821.868	6467
822.008	6350
822.149	6334
822.289	6361
822.429	6171
822.569	6095
822.709	6159
822.849	5935
822.99	5916
823.13	5885
823.27	5863
823.41	5752
823.55	5783
823.69	5802
823.83	5748
823.97	5623
824.11	5524
824.25	5486
824.389	5532
824.529	5570
824.669	5501
824.809	5691
824.949	5615
825.089	5604
825.228	5532
825.368	5372
825.508	5376
825.648	5303
825.787	5391
825.927	5326
826.067	5357
826.206	5299
826.346	5368
826.485	5410
826.625	5452
826.765	5566
826.904	5448
827.044	5280
827.183	5197
827.323	5143
827.462	5220
827.601	5166
827.741	5178
827.88	5254
828.02	5159
828.159	5178
828.298	5303
828.437	5353
828.577	5246
828.716	5436
828.855	5315
828.994	5147
829.134	5178
829.273	5162
829.412	5109
829.551	5109
829.69	5151
829.829	5292
829.968	5402
830.107	5246
830.246	5258
830.385	5216
830.524	5140
830.663	5056
830.802	4965
830.941	4877
831.08	4809
831.219	4953
831.357	4965
831.496	5166
831.635	4927
831.774	4870
831.913	4843
832.051	4706
832.19	4755
832.329	4797
832.467	4675
832.606	4683
832.744	4706
832.883	4691
833.022	4710
833.16	4790
833.299	4839
833.437	4812
833.576	4786
833.714	4854
833.852	4835
833.991	4866
834.129	4991
834.267	4927
834.406	4900
834.544	4938
834.682	4984
834.821	4942
834.959	5136
835.097	4949
835.235	5162
835.373	5113
835.511	5113
835.65	4999
835.788	5037
835.926	4908
836.064	4881
836.202	4968
836.34	5159
836.478	5193
836.615	5128
836.753	5170
836.891	5231
837.029	5235
837.167	5189
837.305	5159
837.443	5113
837.58	5094
837.718	5292
837.856	5147
837.993	5166
838.131	5265
838.269	5204
838.406	5170
838.544	5273
838.681	5033
838.819	5010
838.956	4866
839.094	4930
839.231	4980
839.369	5083
839.506	5433
839.643	5212
839.781	5045
839.918	5025
840.055	5113
840.193	5094
840.33	5128
840.467	5083
840.604	5223
840.742	5486
840.879	5056
841.016	5067
841.153	5143
841.29	5379
841.427	5330
841.564	5296
841.701	5353
841.838	5280
841.975	5185
842.112	5235
842.249	5132
842.385	5086
842.522	5334
842.659	5140
842.796	5155
842.933	5204
843.069	5143
843.206	5147
843.343	5315
843.479	5246
843.616	5284
843.752	5025
843.889	5014
844.025	5216
844.162	5045
844.298	5223
844.435	5037
844.571	5056
844.708	5124
844.844	5284
844.98	5337
845.117	5296
845.253	5067
845.389	5090
845.525	5151
845.661	5124
845.798	5025
845.934	5143
846.07	4976
846.206	5162
846.342	5254
846.478	5132
846.614	5029
846.75	5003
846.886	4934
847.022	5128
847.158	5018
847.294	5075
847.429	5090
847.565	5033
847.701	5299
847.837	4843
847.972	4801
848.108	4972
848.244	4873
848.379	4797
848.515	4721
848.65	4694
848.786	4706
848.921	4790
849.057	4870
849.192	4873
849.328	4805
849.463	4809
849.598	4778
849.734	4767
849.869	4748
850.004	4645
850.14	4645
850.275	4637
850.41	4588
850.545	4554
850.68	4618
850.815	4626
850.95	4679
851.085	4812
851.22	4714
851.355	4694
851.49	4588
851.625	4630
851.76	4637
851.895	4584
852.03	4508
852.165	4626
852.299	4721
852.434	4767
852.569	4763
852.703	4744
852.838	4812
852.973	4946
853.107	4885
853.242	4717
853.376	4683
853.511	4508
853.645	4584
853.78	4801
853.914	4672
854.048	4637
854.183	4683
854.317	4687
854.451	4824
854.585	4649
854.72	4626
854.854	4733
854.988	4603
855.122	4645
855.256	4512
855.39	4641
855.524	4736
855.658	4740
855.792	4706
855.926	4729
856.06	4752
856.194	4744
856.327	4683
856.461	4584
856.595	4626
856.729	4603
856.862	4725
856.996	4691
857.13	4725
857.263	4759
857.397	4778
857.53	4599
857.664	4698
857.797	4714
857.931	4771
858.064	4691
858.197	4725
858.331	4637
858.464	4634
858.597	4497
858.731	4615
858.864	4611
858.997	4592
859.13	4637
859.263	4656
859.396	4679
859.529	4527
859.662	4596
859.795	4531
859.928	4599
860.061	4740
860.194	4782
860.327	4588
860.46	4531
860.592	4675
860.725	4782
860.858	4714
860.99	4580
861.123	4516
861.256	4508
861.388	4607
861.521	5391
861.653	4535
861.786	4455
861.918	4481
862.05	4508
862.183	4497
862.315	4550
862.447	4668
862.58	4542
862.712	4402
862.844	4348
862.976	4466
863.108	4493
863.24	4771
863.372	4306
863.504	4436
863.636	4428
863.768	4481
863.9	4413
864.032	4360
864.164	4455
864.296	4417
864.428	4497
864.559	4523
864.691	4527
864.823	4459
864.954	4451
865.086	4497
865.217	4508
865.349	4390
865.48	4432
865.612	4531
865.743	4588
865.875	4447
866.006	4421
866.137	4405
866.269	4440
866.4	4470
866.531	4432
866.662	4413
866.793	4424
866.924	4386
867.055	4459
867.186	4394
867.317	4443
867.448	4356
867.579	4325
867.71	4383
867.841	4360
867.972	4428
868.103	4459
868.233	4417
868.364	4462
868.495	4489
868.625	4641
868.756	4702
868.886	4588
869.017	4687
869.147	4729
869.278	4736
869.408	4577
869.539	4622
869.669	4748
869.799	4592
869.929	4702
870.06	4694
870.19	4938
870.32	4896
870.45	4942
870.58	4957
870.71	5117
870.84	5075
870.97	4896
871.1	4904
871.23	5185
871.36	5075
871.489	5006
871.619	5086
871.749	5090
871.879	5086
872.008	5174
872.138	5025
872.267	4980
872.397	4835
872.526	4831
872.656	4763
872.785	4774
872.915	4980
873.044	5018
873.173	4923
873.303	4968
873.432	4972
873.561	4953
873.69	4885
873.819	4892
873.948	4866
874.077	4831
874.206	4782
874.335	4835
874.464	4923
874.593	5083
874.722	4976
874.851	5189
874.979	5128
875.108	5045
875.237	4972
875.365	4923
875.494	4900
875.623	4980
875.751	4877
875.88	4938
876.008	5025
876.136	5098
876.265	5185
876.393	5330
876.521	5292
876.65	5265
876.778	5189
876.906	5121
877.034	5033
877.162	5056
877.29	4972
877.418	5132
877.546	5052
877.674	5147
877.802	5079
877.93	5086
878.058	4942
878.185	4908
878.313	5006
878.441	5014
878.568	4862
878.696	4927
878.824	5006
878.951	4976
879.079	5193
879.206	5315
879.333	5136
879.461	4987
879.588	5102
879.715	5185
879.842	5254
879.97	5094
880.097	4858
880.224	4759
880.351	4850
880.478	4866
880.605	4782
880.732	4835
880.859	5105
880.986	4961
881.112	4984
881.239	4782
881.366	4740
881.493	4618
881.619	4649
881.746	4679
881.872	4694
881.999	4679
882.125	4748
882.252	4816
882.378	4862
882.505	5003
882.631	4835
882.757	4679
882.883	4782
883.01	4752
883.136	4710
883.262	4656
883.388	4656
883.514	4839
883.64	4942
883.766	4831
883.892	4740
884.018	4717
884.143	4927
884.269	5060
884.395	4698
884.52	4683
884.646	4656
884.772	4626
884.897	4573
885.023	4691
885.148	4820
885.274	4904
885.399	4831
885.524	4752
885.65	4774
885.775	4812
885.9	4736
886.025	4892
886.15	4778
886.275	4774
886.4	4637
886.525	4771
886.65	4721
886.775	4706
886.9	4995
887.025	5075
887.149	4850
887.274	4679
887.399	4573
887.523	4630
887.648	4584
887.773	4607
887.897	4782
888.021	4824
888.146	4752
888.27	4824
888.395	4946
888.519	4797
888.643	4889
888.767	4873
888.891	4710
889.015	4615
889.139	4698
889.263	4622
889.387	4786
889.511	4877
889.635	4858
889.759	4672
889.883	4683
890.006	4710
890.13	4877
890.254	4641
890.377	4721
890.501	4577
890.624	4550
890.748	4664
890.871	4535
890.995	4470
891.118	4432
891.241	4573
891.364	4565
891.488	4637
891.611	4527
891.734	4546
891.857	4634
891.98	4573
892.103	4649
892.226	4588
892.349	4577
892.471	4474
892.594	4603
892.717	4588
892.839	4588
892.962	4622
893.085	4634
893.207	4626
893.33	4497
893.452	4546
893.575	4733
893.697	4599
893.819	4816
893.941	4885
894.064	4790
894.186	4596
894.308	4626
894.43	4790
894.552	4824
894.674	4797
894.796	4573
894.918	4618
895.04	4622
895.161	4710
895.283	4675
895.405	4630
895.526	4706
895.648	4733
895.769	4733
895.891	4721
896.012	4782
896.134	4774
896.255	4702
896.376	4622
896.498	4634
896.619	4691
896.74	4626
896.861	4668
896.982	4934
897.103	5132
897.224	4885
897.345	4809
897.466	4691
897.587	4725
897.708	4946
897.828	4797
897.949	4725
898.07	4634
898.19	4706
898.311	4870
898.431	4748
898.552	4801
898.672	4831
898.792	4831
898.913	4778
899.033	4672
899.153	4531
899.273	4459
899.393	4519
899.513	4531
899.633	4527
899.753	4542
899.873	4561
899.993	4645
900.113	4573
900.232	4656
900.352	4615
900.472	4516
900.591	4409
900.711	4554
900.83	4470
900.95	4668
901.069	4729
901.189	4565
901.308	4417
901.427	4375
901.546	4413
901.665	4512
901.784	4542
901.904	4432
902.023	4390
902.141	4249
902.26	4249
902.379	4360
902.498	4253
902.617	4223
902.735	4409
902.854	4417
902.973	4443
903.091	4242
903.21	4257
903.328	4356
903.446	4329
903.565	4253
903.683	4356
903.801	4291
903.919	4405
904.038	4451
904.156	4337
904.274	4459
904.392	4405
904.51	4413
904.627	4497
904.745	4611
904.863	4687
904.981	4443
905.098	4363
905.216	4398
905.334	4489
905.451	4455
905.569	4455
905.686	4577
905.803	4618
905.921	4421
906.038	4573
906.155	4538
906.272	4398
906.389	4459
906.506	4352
906.623	4440
906.74	4436
906.857	4303
906.974	4390
907.091	4546
907.208	4694
907.324	4649
907.441	4516
907.557	4318
907.674	4303
907.79	4367
907.907	4390
908.023	4523
908.139	4470
908.256	4459
908.372	4489
908.488	4497
908.604	4375
908.72	4341
908.836	4390
908.952	4367
909.068	4455
909.184	4596
909.3	4508
909.415	4584
909.531	4569
909.647	4394
909.762	4398
909.878	4394
909.993	4432
910.108	4428
910.224	4417
910.339	4523
910.454	4474
910.57	4398
910.685	4341
910.8	4717
910.915	4607
911.03	4508
911.145	4348
911.259	4325
911.374	4360
911.489	4337
911.604	4325
911.718	4246
911.833	4253
911.947	4086
912.062	4086
912.176	4227
912.291	4265
912.405	4257
912.519	4455
912.633	4512
912.748	4405
912.862	4322
912.976	4227
913.09	4150
913.204	4200
913.318	4280
913.431	4371
913.545	4405
913.659	4459
913.772	4402
913.886	4299
914	4265
914.113	4394
914.226	4428
914.34	4375
914.453	4246
914.566	4421
914.68	4303
914.793	4402
914.906	4215
915.019	4078
915.132	4139
915.245	4188
915.358	4227
915.47	4280
915.583	4291
915.696	4306
915.809	4421
915.921	4424
916.034	4322
916.146	4291
916.259	4253
916.371	4394
916.483	4394
916.595	4306
916.708	4352
916.82	4322
916.932	4329
917.044	4360
917.156	4325
917.268	4280
917.38	4337
917.491	4299
917.603	4310
917.715	4440
917.826	4428
917.938	4371
918.049	4238
918.161	4428
918.272	4569
918.384	4573
918.495	4504
918.606	4329
918.717	4207
918.828	4367
918.939	4363
919.05	4242
919.161	4329
919.272	4150
919.383	4261
919.494	4424
919.604	4668
919.715	4417
919.826	4383
919.936	4440
920.047	4592
920.157	4493
920.267	4664
920.378	4535
920.488	4542
920.598	4717
920.708	4915
920.818	4801
920.928	4755
921.038	4995
921.148	4904
921.258	4660
921.368	4596
921.477	4561
921.587	4440
921.697	4383
921.806	4565
921.916	4440
922.025	4284
922.134	4234
922.244	4246
922.353	4337
922.462	4219
922.571	4143
922.68	3994
922.789	3991
922.898	4078
923.007	4021
923.116	4093
923.224	4074
923.333	4063
923.442	4032
923.55	3949
923.659	4013
923.767	4124
923.876	4006
923.984	4162
924.092	4006
924.201	4078
924.309	4128
924.417	4139
924.525	4082
924.633	4135
924.741	5045
924.849	3915
924.956	4150
925.064	3949
925.172	3896
925.279	3918
925.387	4090
925.494	4032
925.602	4207
925.709	4204
925.816	4021
925.924	4116
926.031	4238
926.138	4177
926.245	4215
926.352	4128
926.459	4299
926.566	4333
926.673	4166
926.779	4067
926.886	4082
926.993	3975
927.099	3972
927.206	3964
927.312	3964
927.419	4093
927.525	4059
927.631	4135
927.737	3987
927.843	3998
927.95	3918
928.056	3991
928.162	4021
928.267	4112
928.373	4675
928.479	4086
928.585	3903
928.69	4010
928.796	4093
928.901	4002
929.007	3880
929.112	4021
929.218	4025
929.323	3979
929.428	3979
929.533	4112
929.638	3918
929.743	4006
929.848	4067
929.953	4010
930.058	3915
930.163	3759
930.267	3838
930.372	3998
930.477	3835
930.581	4074
930.685	3987
930.79	3774
930.894	3884
930.998	3850
931.103	4112
931.207	3747
931.311	3690
931.415	3698
931.519	3519
931.623	3515
