Data from test_V78500241_789.txt Node
Date: Fri Mar 25 16:54:29 CST 2022
User: usil
Spectrometer: V785-0024
Trigger mode: 0
Integration Time (sec): 4.000000E-1
Scans to average: 1
Nonlinearity correction enabled: false
Boxcar width: 0
Storing dark spectrum: false
XAxis mode: Wavelengths
Number of Pixels in Spectrum: 1024
>>>>>Begin Spectral Data<<<<<
801.071	8092
801.214	8054
801.356	7947
801.499	7909
801.641	7830
801.783	7822
801.926	8008
802.068	7932
802.211	7982
802.353	8005
802.496	7879
802.638	7913
802.78	7890
802.923	7970
803.065	7856
803.208	7841
803.35	8016
803.492	8142
803.635	8225
803.777	8062
803.919	8130
804.061	8419
804.204	8119
804.346	8134
804.488	7989
804.63	8107
804.773	7989
804.915	8138
805.057	8282
805.199	8153
805.341	8214
805.483	8305
805.626	8275
805.768	8115
805.91	8237
806.052	8168
806.194	8081
806.336	8336
806.478	8088
806.62	8103
806.762	8259
806.904	8244
807.046	8480
807.188	8317
807.33	8290
807.472	8324
807.614	8187
807.756	8145
807.898	7947
808.04	7864
808.182	7963
808.324	7868
808.465	7913
808.607	7989
808.749	8142
808.891	8271
809.033	8294
809.174	8195
809.316	8039
809.458	8092
809.6	7986
809.741	8039
809.883	8096
810.025	8027
810.166	8100
810.308	8039
810.45	7986
810.591	7860
810.733	7765
810.875	7651
811.016	7575
811.158	7514
811.299	7567
811.441	7731
811.582	7666
811.724	7590
811.865	7521
812.007	7578
812.148	7552
812.29	7628
812.431	7704
812.573	7833
812.714	7967
812.855	8065
812.997	8225
813.138	8290
813.279	8218
813.421	8084
813.562	7993
813.703	7890
813.845	7799
813.986	7487
814.127	7297
814.268	7209
814.41	7266
814.551	7118
814.692	7118
814.833	7038
814.974	7065
815.115	7065
815.256	6966
815.397	6943
815.539	6970
815.68	6802
815.821	6776
815.962	6856
816.103	6810
816.244	6734
816.385	6673
816.526	6696
816.666	6475
816.807	6281
816.948	6467
817.089	6540
817.23	6365
817.371	6403
817.512	6403
817.653	6407
817.793	6369
817.934	6452
818.075	6418
818.216	6456
818.356	6380
818.497	6235
818.638	6064
818.778	6197
818.919	6186
819.06	6144
819.2	6262
819.341	6300
819.481	6327
819.622	6502
819.762	6734
819.903	6734
820.043	6623
820.184	6589
820.324	6635
820.465	6711
820.605	6654
820.746	6642
820.886	6563
821.026	6642
821.167	6673
821.307	6734
821.447	6745
821.588	6696
821.728	6551
821.868	6509
822.008	6304
822.149	6365
822.289	6399
822.429	6155
822.569	6049
822.709	6110
822.849	5901
822.99	5851
823.13	5961
823.27	5996
823.41	5809
823.55	5794
823.69	5760
823.83	5779
823.97	5668
824.11	5520
824.25	5497
824.389	5532
824.529	5535
824.669	5528
824.809	5684
824.949	5619
825.089	5596
825.228	5554
825.368	5395
825.508	5303
825.648	5337
825.787	5391
825.927	5391
826.067	5246
826.206	5303
826.346	5398
826.485	5368
826.625	5360
826.765	5512
826.904	5486
827.044	5254
827.183	5208
827.323	5060
827.462	5246
827.601	5197
827.741	5143
827.88	5246
828.02	5140
828.159	5254
828.298	5311
828.437	5322
828.577	5318
828.716	5509
828.855	5311
828.994	5105
829.134	5170
829.273	5170
829.412	5132
829.551	5155
829.69	5193
829.829	5261
829.968	5360
830.107	5261
830.246	5277
830.385	5159
830.524	5204
830.663	5147
830.802	5014
830.941	4881
831.08	4889
831.219	5022
831.357	5003
831.496	5162
831.635	4946
831.774	4801
831.913	4820
832.051	4748
832.19	4752
832.329	4839
832.467	4721
832.606	4656
832.744	4698
832.883	4702
833.022	4710
833.16	4786
833.299	4809
833.437	4866
833.576	4839
833.714	4911
833.852	4889
833.991	4877
834.129	4984
834.267	4927
834.406	4915
834.544	4965
834.682	4961
834.821	4961
834.959	5170
835.097	4942
835.235	5159
835.373	5056
835.511	5109
835.65	5025
835.788	5025
835.926	4919
836.064	4930
836.202	4938
836.34	5162
836.478	5223
836.615	5117
836.753	5235
836.891	5273
837.029	5246
837.167	5193
837.305	5132
837.443	5197
837.58	5083
837.718	5307
837.856	5162
837.993	5178
838.131	5235
838.269	5185
838.406	5235
838.544	5151
838.681	5060
838.819	5006
838.956	4934
839.094	4965
839.231	5029
839.369	5102
839.506	5448
839.643	5269
839.781	5075
839.918	5075
840.055	5071
840.193	5117
840.33	5090
840.467	5162
840.604	5159
840.742	5452
840.879	5094
841.016	5094
841.153	5178
841.29	5364
841.427	5315
841.564	5337
841.701	5337
841.838	5280
841.975	5242
842.112	5250
842.249	5162
842.385	5075
842.522	5307
842.659	5220
842.796	5178
842.933	5170
843.069	5174
843.206	5155
843.343	5296
843.479	5204
843.616	5212
843.752	5022
843.889	5052
844.025	5185
844.162	5056
844.298	5223
844.435	5056
844.571	5003
844.708	5170
844.844	5326
844.98	5334
845.117	5292
845.253	5071
845.389	5098
845.525	5147
845.661	5121
845.798	5086
845.934	5075
846.07	5075
846.206	5201
846.342	5261
846.478	5174
846.614	5083
846.75	5003
846.886	4900
847.022	5124
847.158	4991
847.294	5086
847.429	5090
847.565	5025
847.701	5299
847.837	4908
847.972	4801
848.108	4957
848.244	4972
848.379	4820
848.515	4721
848.65	4714
848.786	4778
848.921	4790
849.057	4850
849.192	4862
849.328	4790
849.463	4843
849.598	4793
849.734	4755
849.869	4702
850.004	4622
850.14	4626
850.275	4577
850.41	4535
850.545	4558
850.68	4626
850.815	4626
850.95	4653
851.085	4774
851.22	4793
851.355	4717
851.49	4615
851.625	4622
851.76	4653
851.895	4607
852.03	4512
852.165	4649
852.299	4740
852.434	4771
852.569	4729
852.703	4725
852.838	4858
852.973	4957
853.107	4938
853.242	4771
853.376	4679
853.511	4535
853.645	4599
853.78	4759
853.914	4683
854.048	4679
854.183	4656
854.317	4748
854.451	4881
854.585	4660
854.72	4637
854.854	4767
854.988	4573
855.122	4630
855.256	4531
855.39	4653
855.524	4763
855.658	4752
855.792	4660
855.926	4774
856.06	4664
856.194	4801
856.327	4698
856.461	4637
856.595	4580
856.729	4626
856.862	4748
856.996	4694
857.13	4687
857.263	4759
857.397	4809
857.53	4637
857.664	4702
857.797	4748
857.931	4782
858.064	4694
858.197	4774
858.331	4679
858.464	4618
858.597	4523
858.731	4626
858.864	4664
858.997	4577
859.13	4634
859.263	4660
859.396	4672
859.529	4603
859.662	4565
859.795	4516
859.928	4588
860.061	4797
860.194	4771
860.327	4622
860.46	4538
860.592	4721
860.725	4698
860.858	4721
860.99	4584
861.123	4561
861.256	4546
861.388	4592
861.521	5269
861.653	4512
861.786	4402
861.918	4466
862.05	4516
862.183	4569
862.315	4584
862.447	4668
862.58	4542
862.712	4371
862.844	4310
862.976	4478
863.108	4447
863.24	4881
863.372	4356
863.504	4398
863.636	4390
863.768	4405
863.9	4447
864.032	4356
864.164	4413
864.296	4436
864.428	4550
864.559	4531
864.691	4561
864.823	4527
864.954	4500
865.086	4504
865.217	4504
865.349	4375
865.48	4481
865.612	4497
865.743	4626
865.875	4451
866.006	4398
866.137	4508
866.269	4432
866.4	4432
866.531	4417
866.662	4375
866.793	4360
866.924	4398
867.055	4470
867.186	4489
867.317	4440
867.448	4367
867.579	4417
867.71	4367
867.841	4318
867.972	4447
868.103	4424
868.233	4470
868.364	4455
868.495	4500
868.625	4660
868.756	4748
868.886	4561
869.017	4607
869.147	4755
869.278	4759
869.408	4641
869.539	4634
869.669	4691
869.799	4698
869.929	4717
870.06	4786
870.19	4930
870.32	4885
870.45	4927
870.58	4976
870.71	5064
870.84	5025
870.97	4949
871.1	4908
871.23	5151
871.36	5159
871.489	4987
871.619	5117
871.749	5071
871.879	5083
872.008	5132
872.138	5056
872.267	4984
872.397	4801
872.526	4809
872.656	4771
872.785	4782
872.915	4915
873.044	5006
873.173	4919
873.303	4999
873.432	4961
873.561	4938
873.69	4877
873.819	4850
873.948	4862
874.077	4820
874.206	4752
874.335	4752
874.464	4900
874.593	5045
874.722	4873
874.851	5124
874.979	5056
875.108	5022
875.237	4862
875.365	4877
875.494	4862
875.623	4923
875.751	4763
875.88	4900
876.008	4927
876.136	5048
876.265	5239
876.393	5341
876.521	5174
876.65	5223
876.778	5166
876.906	5037
877.034	5067
877.162	5052
877.29	5018
877.418	5018
877.546	5022
877.674	5064
877.802	5018
877.93	5056
878.058	4953
878.185	4850
878.313	4949
878.441	4904
878.568	4824
878.696	4862
878.824	4984
878.951	4980
879.079	5136
879.206	5212
879.333	5071
879.461	4984
879.588	5018
879.715	5105
879.842	5201
879.97	5041
880.097	4752
880.224	4706
880.351	4797
880.478	4831
880.605	4767
880.732	4786
880.859	5079
880.986	4885
881.112	4900
881.239	4782
881.366	4641
881.493	4599
881.619	4573
881.746	4607
881.872	4664
881.999	4641
882.125	4660
882.252	4736
882.378	4828
882.505	4934
882.631	4797
882.757	4717
882.883	4759
883.01	4729
883.136	4721
883.262	4645
883.388	4565
883.514	4824
883.64	4843
883.766	4755
883.892	4637
884.018	4725
884.143	4892
884.269	5018
884.395	4645
884.52	4584
884.646	4596
884.772	4542
884.897	4561
885.023	4626
885.148	4805
885.274	4847
885.399	4714
885.524	4656
885.65	4687
885.775	4733
885.9	4660
886.025	4835
886.15	4771
886.275	4694
886.4	4630
886.525	4767
886.65	4694
886.775	4649
886.9	4877
887.025	5041
887.149	4847
887.274	4622
887.399	4561
887.523	4577
887.648	4558
887.773	4550
887.897	4774
888.021	4805
888.146	4687
888.27	4805
888.395	4862
888.519	4812
888.643	4797
888.767	4877
888.891	4675
889.015	4630
889.139	4588
889.263	4622
889.387	4786
889.511	4801
889.635	4778
889.759	4637
889.883	4637
890.006	4691
890.13	4854
890.254	4645
890.377	4694
890.501	4554
890.624	4535
890.748	4679
890.871	4527
890.995	4390
891.118	4363
891.241	4497
891.364	4504
891.488	4607
891.611	4485
891.734	4512
891.857	4577
891.98	4512
892.103	4660
892.226	4569
892.349	4512
892.471	4421
892.594	4512
892.717	4611
892.839	4531
892.962	4592
893.085	4641
893.207	4611
893.33	4428
893.452	4500
893.575	4634
893.697	4554
893.819	4801
893.941	4824
894.064	4786
894.186	4535
894.308	4630
894.43	4752
894.552	4805
894.674	4725
894.796	4538
894.918	4538
895.04	4558
895.161	4725
895.283	4615
895.405	4615
895.526	4607
895.648	4649
895.769	4687
895.891	4710
896.012	4702
896.134	4706
896.255	4687
896.376	4691
896.498	4618
896.619	4653
896.74	4611
896.861	4649
896.982	4934
897.103	5056
897.224	4809
897.345	4740
897.466	4717
897.587	4698
897.708	4854
897.828	4771
897.949	4660
898.07	4592
898.19	4645
898.311	4816
898.431	4664
898.552	4698
898.672	4831
898.792	4805
898.913	4774
899.033	4611
899.153	4474
899.273	4440
899.393	4478
899.513	4512
899.633	4500
899.753	4603
899.873	4470
899.993	4599
900.113	4535
900.232	4561
900.352	4542
900.472	4474
900.591	4409
900.711	4531
900.83	4424
900.95	4622
901.069	4675
901.189	4516
901.308	4360
901.427	4291
901.546	4390
901.665	4413
901.784	4577
901.904	4363
902.023	4352
902.141	4246
902.26	4173
902.379	4329
902.498	4242
902.617	4242
902.735	4413
902.854	4405
902.973	4341
903.091	4147
903.21	4246
903.328	4325
903.446	4261
903.565	4272
903.683	4356
903.801	4284
903.919	4428
904.038	4432
904.156	4344
904.274	4413
904.392	4390
904.51	4470
904.627	4455
904.745	4596
904.863	4577
904.981	4405
905.098	4310
905.216	4341
905.334	4421
905.451	4421
905.569	4394
905.686	4550
905.803	4561
905.921	4443
906.038	4516
906.155	4462
906.272	4405
906.389	4474
906.506	4329
906.623	4341
906.74	4356
906.857	4287
906.974	4352
907.091	4569
907.208	4714
907.324	4580
907.441	4504
907.557	4352
907.674	4363
907.79	4291
907.907	4390
908.023	4436
908.139	4493
908.256	4428
908.372	4432
908.488	4470
908.604	4383
908.72	4341
908.836	4371
908.952	4383
909.068	4440
909.184	4558
909.3	4424
909.415	4584
909.531	4542
909.647	4371
909.762	4333
909.878	4295
909.993	4432
910.108	4447
910.224	4424
910.339	4481
910.454	4398
910.57	4344
910.685	4348
910.8	4691
910.915	4626
911.03	4527
911.145	4310
911.259	4261
911.374	4409
911.489	4299
911.604	4325
911.718	4169
911.833	4211
911.947	4078
912.062	4067
912.176	4242
912.291	4280
912.405	4227
912.519	4478
912.633	4500
912.748	4344
912.862	4303
912.976	4215
913.09	4090
913.204	4173
913.318	4196
913.431	4394
913.545	4394
913.659	4451
913.772	4344
913.886	4280
914	4230
914.113	4409
914.226	4394
914.34	4405
914.453	4230
914.566	4409
914.68	4306
914.793	4337
914.906	4230
915.019	4105
915.132	4055
915.245	4147
915.358	4219
915.47	4261
915.583	4261
915.696	4265
915.809	4455
915.921	4440
916.034	4303
916.146	4280
916.259	4234
916.371	4360
916.483	4379
916.595	4246
916.708	4379
916.82	4280
916.932	4333
917.044	4318
917.156	4329
917.268	4207
917.38	4291
917.491	4284
917.603	4344
917.715	4455
917.826	4428
917.938	4360
918.049	4238
918.161	4367
918.272	4542
918.384	4519
918.495	4432
918.606	4287
918.717	4230
918.828	4356
918.939	4360
919.05	4287
919.161	4314
919.272	4086
919.383	4192
919.494	4440
919.604	4641
919.715	4447
919.826	4356
919.936	4405
920.047	4459
920.157	4462
920.267	4653
920.378	4527
920.488	4489
920.598	4714
920.708	4900
920.818	4729
920.928	4763
921.038	4949
921.148	4896
921.258	4656
921.368	4588
921.477	4451
921.587	4417
921.697	4386
921.806	4554
921.916	4440
922.025	4303
922.134	4306
922.244	4204
922.353	4337
922.462	4185
922.571	4128
922.68	4036
922.789	3975
922.898	4044
923.007	3994
923.116	4067
923.224	4063
923.333	4055
923.442	3972
923.55	3972
923.659	4006
923.767	4112
923.876	4021
923.984	4105
924.092	4017
924.201	4071
924.309	4109
924.417	4090
924.525	4051
924.633	4116
924.741	4824
924.849	3937
924.956	4128
925.064	3964
925.172	3884
925.279	3972
925.387	4071
925.494	4063
925.602	4223
925.709	4196
925.816	4006
925.924	4139
926.031	4200
926.138	4162
926.245	4192
926.352	4090
926.459	4257
926.566	4295
926.673	4173
926.779	4074
926.886	4109
926.993	3953
927.099	3937
927.206	3941
927.312	3907
927.419	4040
927.525	4032
927.631	4112
927.737	3949
927.843	3972
927.95	3797
928.056	3975
928.162	3975
928.267	4059
928.373	4675
928.479	4154
928.585	3892
928.69	4036
928.796	4090
928.901	3937
929.007	3827
929.112	4021
929.218	3937
929.323	3972
929.428	3949
929.533	4086
929.638	3903
929.743	3899
929.848	4040
929.953	3972
930.058	3922
930.163	3789
930.267	3827
930.372	3953
930.477	3762
930.581	4086
930.685	4002
930.79	3804
930.894	3876
930.998	3873
931.103	4013
931.207	3686
931.311	3679
931.415	3671
931.519	3507
931.623	3534
