Data from test_V78500241_149.txt Node
Date: Fri Mar 25 16:50:02 CST 2022
User: usil
Spectrometer: V785-0024
Trigger mode: 0
Integration Time (sec): 4.000000E-1
Scans to average: 1
Nonlinearity correction enabled: false
Boxcar width: 0
Storing dark spectrum: false
XAxis mode: Wavelengths
Number of Pixels in Spectrum: 1024
>>>>>Begin Spectral Data<<<<<
801.071	8039
801.214	7970
801.356	7906
801.499	7875
801.641	7856
801.783	7830
801.926	8035
802.068	7997
802.211	8084
802.353	8005
802.496	7925
802.638	7913
802.78	7913
802.923	7963
803.065	7917
803.208	7860
803.35	7944
803.492	8092
803.635	8202
803.777	8043
803.919	8024
804.061	8408
804.204	8119
804.346	8020
804.488	8001
804.63	8077
804.773	8016
804.915	8084
805.057	8187
805.199	8103
805.341	8199
805.483	8221
805.626	8275
805.768	8096
805.91	8206
806.052	8142
806.194	8123
806.336	8328
806.478	8103
806.62	8103
806.762	8180
806.904	8271
807.046	8431
807.188	8305
807.33	8324
807.472	8377
807.614	8142
807.756	8134
807.898	8020
808.04	7928
808.182	7936
808.324	7898
808.465	7890
808.607	8058
808.749	8142
808.891	8233
809.033	8362
809.174	8259
809.316	8069
809.458	8084
809.6	8046
809.741	8031
809.883	8046
810.025	8187
810.166	8107
810.308	8081
810.45	8016
810.591	7906
810.733	7750
810.875	7704
811.016	7533
811.158	7518
811.299	7628
811.441	7769
811.582	7792
811.724	7658
811.865	7575
812.007	7670
812.148	7670
812.29	7693
812.431	7852
812.573	8008
812.714	8069
812.855	8248
812.997	8423
813.138	8400
813.279	8252
813.421	8187
813.562	8046
813.703	7959
813.845	7902
813.986	7502
814.127	7324
814.268	7297
814.41	7282
814.551	7251
814.692	7305
814.833	7091
814.974	7126
815.115	7244
815.256	7015
815.397	7023
815.539	7061
815.68	6913
815.821	6741
815.962	6833
816.103	6829
816.244	6722
816.385	6684
816.526	6627
816.666	6582
816.807	6357
816.948	6479
817.089	6585
817.23	6433
817.371	6426
817.512	6422
817.653	6502
817.793	6433
817.934	6403
818.075	6517
818.216	6452
818.356	6422
818.497	6251
818.638	6133
818.778	6243
818.919	6152
819.06	6197
819.2	6300
819.341	6376
819.481	6429
819.622	6623
819.762	6779
819.903	6700
820.043	6662
820.184	6612
820.324	6623
820.465	6722
820.605	6757
820.746	6642
820.886	6521
821.026	6734
821.167	6722
821.307	6814
821.447	6787
821.588	6745
821.728	6612
821.868	6574
822.008	6407
822.149	6467
822.289	6350
822.429	6209
822.569	6098
822.709	6186
822.849	5992
822.99	5935
823.13	5965
823.27	5980
823.41	5870
823.55	5863
823.69	5821
823.83	5828
823.97	5756
824.11	5581
824.25	5543
824.389	5600
824.529	5653
824.669	5547
824.809	5646
824.949	5707
825.089	5638
825.228	5596
825.368	5433
825.508	5406
825.648	5379
825.787	5436
825.927	5417
826.067	5360
826.206	5334
826.346	5406
826.485	5433
826.625	5398
826.765	5573
826.904	5478
827.044	5273
827.183	5216
827.323	5136
827.462	5258
827.601	5151
827.741	5273
827.88	5220
828.02	5159
828.159	5315
828.298	5288
828.437	5345
828.577	5265
828.716	5490
828.855	5417
828.994	5212
829.134	5166
829.273	5212
829.412	5170
829.551	5151
829.69	5239
829.829	5284
829.968	5360
830.107	5330
830.246	5299
830.385	5227
830.524	5185
830.663	5124
830.802	5029
830.941	4915
831.08	4881
831.219	5048
831.357	4995
831.496	5201
831.635	4938
831.774	4847
831.913	4911
832.051	4752
832.19	4736
832.329	4858
832.467	4706
832.606	4683
832.744	4763
832.883	4717
833.022	4767
833.16	4805
833.299	4858
833.437	4835
833.576	4885
833.714	4885
833.852	4885
833.991	4957
834.129	5018
834.267	4980
834.406	4942
834.544	5014
834.682	4999
834.821	5041
834.959	5181
835.097	5003
835.235	5178
835.373	5098
835.511	5121
835.65	5071
835.788	5048
835.926	4934
836.064	4892
836.202	4930
836.34	5159
836.478	5223
836.615	5155
836.753	5239
836.891	5303
837.029	5280
837.167	5254
837.305	5193
837.443	5174
837.58	5064
837.718	5326
837.856	5166
837.993	5170
838.131	5277
838.269	5242
838.406	5277
838.544	5193
838.681	5056
838.819	5064
838.956	4938
839.094	4965
839.231	5041
839.369	5143
839.506	5452
839.643	5315
839.781	5102
839.918	5003
840.055	5147
840.193	5132
840.33	5075
840.467	5197
840.604	5189
840.742	5414
840.879	5102
841.016	5105
841.153	5174
841.29	5417
841.427	5364
841.564	5326
841.701	5406
841.838	5296
841.975	5261
842.112	5265
842.249	5147
842.385	5128
842.522	5360
842.659	5193
842.796	5208
842.933	5212
843.069	5212
843.206	5151
843.343	5318
843.479	5235
843.616	5299
843.752	5071
843.889	5018
844.025	5250
844.162	5018
844.298	5258
844.435	5094
844.571	5105
844.708	5151
844.844	5364
844.98	5364
845.117	5326
845.253	5170
845.389	5079
845.525	5189
845.661	5174
845.798	5037
845.934	5151
846.07	5159
846.206	5212
846.342	5326
846.478	5208
846.614	5071
846.75	4999
846.886	4953
847.022	5159
847.158	5071
847.294	5109
847.429	5155
847.565	5064
847.701	5364
847.837	4847
847.972	4858
848.108	4984
848.244	4984
848.379	4797
848.515	4763
848.65	4725
848.786	4778
848.921	4847
849.057	4892
849.192	4889
849.328	4847
849.463	4824
849.598	4847
849.734	4771
849.869	4721
850.004	4660
850.14	4668
850.275	4653
850.41	4558
850.545	4618
850.68	4592
850.815	4637
850.95	4653
851.085	4889
851.22	4767
851.355	4725
851.49	4679
851.625	4634
851.76	4664
851.895	4584
852.03	4561
852.165	4694
852.299	4759
852.434	4824
852.569	4805
852.703	4763
852.838	4858
852.973	4972
853.107	4885
853.242	4763
853.376	4733
853.511	4561
853.645	4645
853.78	4820
853.914	4752
854.048	4706
854.183	4694
854.317	4721
854.451	4889
854.585	4691
854.72	4698
854.854	4790
854.988	4611
855.122	4694
855.256	4508
855.39	4668
855.524	4748
855.658	4744
855.792	4698
855.926	4774
856.06	4774
856.194	4839
856.327	4675
856.461	4641
856.595	4641
856.729	4611
856.862	4721
856.996	4710
857.13	4736
857.263	4782
857.397	4828
857.53	4679
857.664	4759
857.797	4816
857.931	4801
858.064	4721
858.197	4786
858.331	4679
858.464	4645
858.597	4565
858.731	4656
858.864	4637
858.997	4660
859.13	4637
859.263	4736
859.396	4710
859.529	4664
859.662	4615
859.795	4558
859.928	4649
860.061	4771
860.194	4805
860.327	4580
860.46	4565
860.592	4748
860.725	4755
860.858	4748
860.99	4626
861.123	4546
861.256	4569
861.388	4588
861.521	5395
861.653	4527
861.786	4474
861.918	4497
862.05	4500
862.183	4577
862.315	4599
862.447	4683
862.58	4519
862.712	4443
862.844	4337
862.976	4447
863.108	4466
863.24	4858
863.372	4344
863.504	4459
863.636	4443
863.768	4462
863.9	4447
864.032	4367
864.164	4417
864.296	4451
864.428	4577
864.559	4626
864.691	4569
864.823	4527
864.954	4504
865.086	4558
865.217	4550
865.349	4398
865.48	4470
865.612	4546
865.743	4656
865.875	4443
866.006	4451
866.137	4535
866.269	4493
866.4	4421
866.531	4421
866.662	4432
866.793	4421
866.924	4440
867.055	4508
867.186	4504
867.317	4424
867.448	4386
867.579	4371
867.71	4409
867.841	4375
867.972	4497
868.103	4531
868.233	4493
868.364	4443
868.495	4485
868.625	4691
868.756	4782
868.886	4637
869.017	4656
869.147	4831
869.278	4793
869.408	4656
869.539	4653
869.669	4736
869.799	4710
869.929	4790
870.06	4748
870.19	4946
870.32	4968
870.45	4946
870.58	5064
870.71	5098
870.84	5170
870.97	4957
871.1	4908
871.23	5136
871.36	5124
871.489	5056
871.619	5094
871.749	5048
871.879	5136
872.008	5197
872.138	5071
872.267	5006
872.397	4877
872.526	4862
872.656	4771
872.785	4812
872.915	5006
873.044	5018
873.173	4987
873.303	4995
873.432	4991
873.561	4957
873.69	4881
873.819	4892
873.948	4889
874.077	4805
874.206	4748
874.335	4801
874.464	4923
874.593	5056
874.722	4961
874.851	5109
874.979	5086
875.108	5025
875.237	4930
875.365	4927
875.494	4889
875.623	5003
875.751	4843
875.88	4831
876.008	5006
876.136	5064
876.265	5212
876.393	5360
876.521	5239
876.65	5201
876.778	5174
876.906	5090
877.034	5025
877.162	5102
877.29	5033
877.418	5105
877.546	5075
877.674	5086
877.802	5003
877.93	5102
878.058	4938
878.185	4889
878.313	4908
878.441	4987
878.568	4805
878.696	4885
878.824	4942
878.951	5025
879.079	5121
879.206	5292
879.333	5098
879.461	4987
879.588	5037
879.715	5102
879.842	5231
879.97	5018
880.097	4812
880.224	4748
880.351	4854
880.478	4892
880.605	4831
880.732	4778
880.859	5083
880.986	4949
881.112	4980
881.239	4797
881.366	4717
881.493	4641
881.619	4542
881.746	4702
881.872	4660
881.999	4672
882.125	4725
882.252	4812
882.378	4843
882.505	4991
882.631	4778
882.757	4679
882.883	4771
883.01	4774
883.136	4645
883.262	4615
883.388	4637
883.514	4812
883.64	4843
883.766	4809
883.892	4721
884.018	4744
884.143	4900
884.269	5041
884.395	4691
884.52	4611
884.646	4626
884.772	4569
884.897	4588
885.023	4694
885.148	4782
885.274	4831
885.399	4828
885.524	4733
885.65	4702
885.775	4767
885.9	4721
886.025	4904
886.15	4782
886.275	4755
886.4	4717
886.525	4759
886.65	4733
886.775	4672
886.9	4896
887.025	5064
887.149	4847
887.274	4679
887.399	4637
887.523	4611
887.648	4592
887.773	4634
887.897	4812
888.021	4835
888.146	4653
888.27	4801
888.395	4904
888.519	4824
888.643	4797
888.767	4908
888.891	4752
889.015	4565
889.139	4641
889.263	4584
889.387	4793
889.511	4870
889.635	4801
889.759	4679
889.883	4694
890.006	4668
890.13	4820
890.254	4611
890.377	4706
890.501	4497
890.624	4580
890.748	4618
890.871	4538
890.995	4436
891.118	4398
891.241	4504
891.364	4535
891.488	4694
891.611	4519
891.734	4531
891.857	4588
891.98	4573
892.103	4691
892.226	4641
892.349	4546
892.471	4459
892.594	4542
892.717	4584
892.839	4615
892.962	4622
893.085	4698
893.207	4592
893.33	4485
893.452	4527
893.575	4698
893.697	4607
893.819	4824
893.941	4805
894.064	4782
894.186	4603
894.308	4554
894.43	4736
894.552	4828
894.674	4782
894.796	4558
894.918	4618
895.04	4615
895.161	4664
895.283	4634
895.405	4618
895.526	4653
895.648	4717
895.769	4740
895.891	4809
896.012	4748
896.134	4725
896.255	4672
896.376	4679
896.498	4675
896.619	4733
896.74	4656
896.861	4645
896.982	4908
897.103	5117
897.224	4839
897.345	4797
897.466	4656
897.587	4752
897.708	4904
897.828	4831
897.949	4736
898.07	4565
898.19	4649
898.311	4820
898.431	4744
898.552	4675
898.672	4820
898.792	4824
898.913	4778
899.033	4645
899.153	4527
899.273	4451
899.393	4516
899.513	4573
899.633	4565
899.753	4577
899.873	4527
899.993	4603
900.113	4569
900.232	4607
900.352	4561
900.472	4489
900.591	4413
900.711	4516
900.83	4409
900.95	4622
901.069	4691
901.189	4577
901.308	4390
901.427	4329
901.546	4390
901.665	4455
901.784	4554
901.904	4383
902.023	4348
902.141	4192
902.26	4230
902.379	4329
902.498	4299
902.617	4268
902.735	4363
902.854	4421
902.973	4341
903.091	4192
903.21	4223
903.328	4322
903.446	4291
903.565	4310
903.683	4386
903.801	4276
903.919	4405
904.038	4455
904.156	4299
904.274	4474
904.392	4394
904.51	4466
904.627	4519
904.745	4577
904.863	4634
904.981	4398
905.098	4329
905.216	4379
905.334	4443
905.451	4440
905.569	4459
905.686	4523
905.803	4535
905.921	4383
906.038	4573
906.155	4523
906.272	4440
906.389	4481
906.506	4375
906.623	4398
906.74	4386
906.857	4306
906.974	4417
907.091	4558
907.208	4714
907.324	4615
907.441	4508
907.557	4398
907.674	4379
907.79	4356
907.907	4421
908.023	4504
908.139	4459
908.256	4443
908.372	4489
908.488	4428
908.604	4363
908.72	4329
908.836	4405
908.952	4390
909.068	4481
909.184	4550
909.3	4504
909.415	4596
909.531	4554
909.647	4390
909.762	4424
909.878	4383
909.993	4466
910.108	4424
910.224	4424
910.339	4508
910.454	4421
910.57	4405
910.685	4371
910.8	4668
910.915	4626
911.03	4500
911.145	4303
911.259	4318
911.374	4356
911.489	4325
911.604	4265
911.718	4192
911.833	4265
911.947	4078
912.062	4029
912.176	4219
912.291	4265
912.405	4238
912.519	4493
912.633	4535
912.748	4344
912.862	4329
912.976	4276
913.09	4101
913.204	4162
913.318	4276
913.431	4383
913.545	4417
913.659	4504
913.772	4363
913.886	4238
914	4230
914.113	4375
914.226	4455
914.34	4394
914.453	4261
914.566	4394
914.68	4325
914.793	4383
914.906	4166
915.019	4124
915.132	4074
915.245	4200
915.358	4238
915.47	4215
915.583	4287
915.696	4325
915.809	4436
915.921	4424
916.034	4329
916.146	4287
916.259	4230
916.371	4375
916.483	4375
916.595	4291
916.708	4352
916.82	4333
916.932	4318
917.044	4360
917.156	4318
917.268	4257
917.38	4261
917.491	4329
917.603	4337
917.715	4424
917.826	4497
917.938	4306
918.049	4280
918.161	4402
918.272	4561
918.384	4550
918.495	4493
918.606	4360
918.717	4238
918.828	4341
918.939	4394
919.05	4246
919.161	4341
919.272	4143
919.383	4280
919.494	4413
919.604	4675
919.715	4402
919.826	4314
919.936	4424
920.047	4577
920.157	4516
920.267	4702
920.378	4561
920.488	4470
920.598	4698
920.708	4854
920.818	4740
920.928	4763
921.038	4942
921.148	4942
921.258	4622
921.368	4519
921.477	4508
921.587	4485
921.697	4421
921.806	4565
921.916	4398
922.025	4295
922.134	4325
922.244	4272
922.353	4322
922.462	4192
922.571	4166
922.68	3979
922.789	3991
922.898	4074
923.007	4010
923.116	4116
923.224	4090
923.333	4082
923.442	4013
923.55	3979
923.659	4055
923.767	4067
923.876	4002
923.984	4086
924.092	3956
924.201	4097
924.309	4124
924.417	4101
924.525	4036
924.633	4059
924.741	4911
924.849	3949
924.956	4139
925.064	3934
925.172	3922
925.279	3941
925.387	4017
925.494	4086
925.602	4253
925.709	4196
925.816	4040
925.924	4150
926.031	4276
926.138	4249
926.245	4227
926.352	4147
926.459	4257
926.566	4318
926.673	4173
926.779	4078
926.886	4093
926.993	3975
927.099	3991
927.206	3956
927.312	3953
927.419	4112
927.525	4017
927.631	4143
927.737	4006
927.843	3964
927.95	3869
928.056	3991
928.162	3968
928.267	4040
928.373	4668
928.479	4131
928.585	3888
928.69	4017
928.796	4082
928.901	3972
929.007	3838
929.112	4040
929.218	3991
929.323	3960
929.428	3937
929.533	4097
929.638	3899
929.743	3975
929.848	4135
929.953	4013
930.058	3987
930.163	3774
930.267	3854
930.372	4002
930.477	3857
930.581	4124
930.685	3972
930.79	3861
930.894	3892
930.998	3854
931.103	4036
931.207	3740
931.311	3724
931.415	3705
931.519	3507
931.623	3584
