Data from test_V78500241_607.txt Node
Date: Fri Mar 25 16:53:13 CST 2022
User: usil
Spectrometer: V785-0024
Trigger mode: 0
Integration Time (sec): 4.000000E-1
Scans to average: 1
Nonlinearity correction enabled: false
Boxcar width: 0
Storing dark spectrum: false
XAxis mode: Wavelengths
Number of Pixels in Spectrum: 1024
>>>>>Begin Spectral Data<<<<<
801.071	8065
801.214	7997
801.356	7940
801.499	7826
801.641	7841
801.783	7860
801.926	8058
802.068	8005
802.211	8020
802.353	8073
802.496	7879
802.638	8031
802.78	7951
802.923	7963
803.065	7883
803.208	7826
803.35	7974
803.492	8111
803.635	8168
803.777	8020
803.919	8138
804.061	8457
804.204	8115
804.346	8031
804.488	8031
804.63	8084
804.773	8016
804.915	8107
805.057	8324
805.199	8161
805.341	8282
805.483	8290
805.626	8263
805.768	8145
805.91	8206
806.052	8256
806.194	8092
806.336	8339
806.478	8130
806.62	8145
806.762	8195
806.904	8286
807.046	8457
807.188	8381
807.33	8358
807.472	8362
807.614	8237
807.756	8168
807.898	7947
808.04	7868
808.182	7890
808.324	7864
808.465	7898
808.607	8119
808.749	8119
808.891	8248
809.033	8294
809.174	8202
809.316	8073
809.458	8039
809.6	8001
809.741	8020
809.883	7993
810.025	8180
810.166	8092
810.308	8005
810.45	8027
810.591	7875
810.733	7769
810.875	7647
811.016	7495
811.158	7597
811.299	7632
811.441	7727
811.582	7715
811.724	7590
811.865	7586
812.007	7590
812.148	7556
812.29	7578
812.431	7715
812.573	7856
812.714	8058
812.855	8123
812.997	8233
813.138	8313
813.279	8275
813.421	8210
813.562	8016
813.703	7864
813.845	7837
813.986	7441
814.127	7285
814.268	7285
814.41	7240
814.551	7206
814.692	7183
814.833	7061
814.974	7099
815.115	7126
815.256	6954
815.397	6985
815.539	6943
815.68	6837
815.821	6825
815.962	6905
816.103	6810
816.244	6738
816.385	6620
816.526	6612
816.666	6509
816.807	6304
816.948	6418
817.089	6521
817.23	6433
817.371	6384
817.512	6372
817.653	6426
817.793	6353
817.934	6448
818.075	6456
818.216	6437
818.356	6475
818.497	6308
818.638	6083
818.778	6171
818.919	6163
819.06	6140
819.2	6296
819.341	6254
819.481	6361
819.622	6509
819.762	6734
819.903	6696
820.043	6646
820.184	6585
820.324	6547
820.465	6700
820.605	6662
820.746	6665
820.886	6471
821.026	6616
821.167	6658
821.307	6764
821.447	6703
821.588	6646
821.728	6559
821.868	6426
822.008	6323
822.149	6361
822.289	6342
822.429	6106
822.569	6064
822.709	6102
822.849	5920
822.99	5866
823.13	5958
823.27	5863
823.41	5817
823.55	5764
823.69	5786
823.83	5836
823.97	5627
824.11	5573
824.25	5520
824.389	5577
824.529	5638
824.669	5562
824.809	5543
824.949	5634
825.089	5634
825.228	5524
825.368	5425
825.508	5368
825.648	5341
825.787	5455
825.927	5379
826.067	5280
826.206	5334
826.346	5368
826.485	5414
826.625	5406
826.765	5516
826.904	5505
827.044	5258
827.183	5239
827.323	5128
827.462	5239
827.601	5185
827.741	5231
827.88	5208
828.02	5090
828.159	5231
828.298	5284
828.437	5395
828.577	5242
828.716	5448
828.855	5318
828.994	5155
829.134	5098
829.273	5239
829.412	5147
829.551	5166
829.69	5151
829.829	5216
829.968	5326
830.107	5288
830.246	5265
830.385	5204
830.524	5201
830.663	5098
830.802	4987
830.941	4930
831.08	4870
831.219	4961
831.357	4980
831.496	5162
831.635	4919
831.774	4862
831.913	4843
832.051	4755
832.19	4752
832.329	4828
832.467	4736
832.606	4653
832.744	4755
832.883	4763
833.022	4740
833.16	4801
833.299	4824
833.437	4824
833.576	4782
833.714	4881
833.852	4854
833.991	4866
834.129	4942
834.267	4968
834.406	4908
834.544	4949
834.682	4995
834.821	4976
834.959	5162
835.097	5018
835.235	5132
835.373	5109
835.511	5140
835.65	5067
835.788	5033
835.926	4934
836.064	4870
836.202	4881
836.34	5159
836.478	5242
836.615	5113
836.753	5223
836.891	5273
837.029	5235
837.167	5174
837.305	5151
837.443	5117
837.58	5071
837.718	5258
837.856	5174
837.993	5155
838.131	5227
838.269	5223
838.406	5212
838.544	5220
838.681	5010
838.819	5041
838.956	4881
839.094	4896
839.231	5014
839.369	5083
839.506	5410
839.643	5223
839.781	5045
839.918	5037
840.055	5113
840.193	5113
840.33	5147
840.467	5124
840.604	5181
840.742	5417
840.879	5083
841.016	5102
841.153	5159
841.29	5349
841.427	5326
841.564	5299
841.701	5330
841.838	5261
841.975	5258
842.112	5322
842.249	5109
842.385	5151
842.522	5318
842.659	5178
842.796	5121
842.933	5174
843.069	5174
843.206	5140
843.343	5280
843.479	5208
843.616	5318
843.752	5025
843.889	5025
844.025	5212
844.162	4976
844.298	5216
844.435	5109
844.571	5025
844.708	5197
844.844	5318
844.98	5349
845.117	5299
845.253	5056
845.389	5060
845.525	5174
845.661	5136
845.798	5048
845.934	5132
846.07	5060
846.206	5178
846.342	5303
846.478	5178
846.614	5018
846.75	4961
846.886	4938
847.022	5124
847.158	5025
847.294	5067
847.429	5109
847.565	5094
847.701	5360
847.837	4900
847.972	4835
848.108	4953
848.244	4972
848.379	4831
848.515	4710
848.65	4744
848.786	4748
848.921	4755
849.057	4858
849.192	4881
849.328	4809
849.463	4805
849.598	4786
849.734	4740
849.869	4691
850.004	4683
850.14	4653
850.275	4592
850.41	4569
850.545	4592
850.68	4679
850.815	4653
850.95	4653
851.085	4778
851.22	4759
851.355	4649
851.49	4599
851.625	4573
851.76	4626
851.895	4554
852.03	4577
852.165	4634
852.299	4702
852.434	4831
852.569	4778
852.703	4771
852.838	4854
852.973	4949
853.107	4976
853.242	4736
853.376	4630
853.511	4558
853.645	4660
853.78	4790
853.914	4660
854.048	4649
854.183	4630
854.317	4698
854.451	4835
854.585	4626
854.72	4664
854.854	4740
854.988	4603
855.122	4660
855.256	4493
855.39	4672
855.524	4759
855.658	4717
855.792	4679
855.926	4759
856.06	4736
856.194	4771
856.327	4664
856.461	4630
856.595	4641
856.729	4584
856.862	4755
856.996	4729
857.13	4725
857.263	4694
857.397	4790
857.53	4668
857.664	4725
857.797	4755
857.931	4771
858.064	4759
858.197	4740
858.331	4637
858.464	4641
858.597	4508
858.731	4599
858.864	4630
858.997	4645
859.13	4622
859.263	4706
859.396	4702
859.529	4565
859.662	4569
859.795	4519
859.928	4618
860.061	4721
860.194	4771
860.327	4596
860.46	4558
860.592	4710
860.725	4733
860.858	4725
860.99	4558
861.123	4535
861.256	4527
861.388	4561
861.521	5402
861.653	4459
861.786	4413
861.918	4455
862.05	4558
862.183	4561
862.315	4561
862.447	4645
862.58	4523
862.712	4428
862.844	4344
862.976	4500
863.108	4455
863.24	4870
863.372	4363
863.504	4402
863.636	4428
863.768	4466
863.9	4451
864.032	4363
864.164	4447
864.296	4493
864.428	4565
864.559	4550
864.691	4561
864.823	4497
864.954	4478
865.086	4489
865.217	4428
865.349	4402
865.48	4432
865.612	4516
865.743	4645
865.875	4459
866.006	4440
866.137	4466
866.269	4455
866.4	4459
866.531	4428
866.662	4413
866.793	4386
866.924	4405
867.055	4527
867.186	4390
867.317	4421
867.448	4363
867.579	4390
867.71	4356
867.841	4337
867.972	4451
868.103	4428
868.233	4432
868.364	4424
868.495	4497
868.625	4645
868.756	4755
868.886	4550
869.017	4672
869.147	4793
869.278	4759
869.408	4664
869.539	4656
869.669	4740
869.799	4717
869.929	4778
870.06	4755
870.19	5003
870.32	4923
870.45	4927
870.58	5014
870.71	5079
870.84	5132
870.97	4930
871.1	4889
871.23	5166
871.36	5048
871.489	5014
871.619	5079
871.749	5090
871.879	5109
872.008	5185
872.138	5045
872.267	4984
872.397	4862
872.526	4839
872.656	4721
872.785	4843
872.915	4934
873.044	5003
873.173	4919
873.303	4949
873.432	4999
873.561	4942
873.69	4881
873.819	4854
873.948	4892
874.077	4839
874.206	4771
874.335	4767
874.464	4953
874.593	5109
874.722	4946
874.851	5113
874.979	5041
875.108	5064
875.237	4919
875.365	4866
875.494	4866
875.623	4972
875.751	4812
875.88	4873
876.008	4949
876.136	4995
876.265	5162
876.393	5360
876.521	5254
876.65	5227
876.778	5136
876.906	5128
877.034	5052
877.162	5014
877.29	4961
877.418	5010
877.546	4991
877.674	5048
877.802	5022
877.93	5014
878.058	4927
878.185	4854
878.313	5003
878.441	4972
878.568	4790
878.696	4873
878.824	4957
878.951	4927
879.079	5098
879.206	5261
879.333	5094
879.461	4984
879.588	5025
879.715	5094
879.842	5265
879.97	4991
880.097	4793
880.224	4744
880.351	4797
880.478	4843
880.605	4828
880.732	4828
880.859	5041
880.986	4904
881.112	4889
881.239	4828
881.366	4672
881.493	4607
881.619	4611
881.746	4618
881.872	4641
881.999	4626
882.125	4691
882.252	4801
882.378	4847
882.505	4946
882.631	4850
882.757	4683
882.883	4698
883.01	4725
883.136	4706
883.262	4603
883.388	4649
883.514	4805
883.64	4877
883.766	4809
883.892	4675
884.018	4694
884.143	4858
884.269	5003
884.395	4679
884.52	4599
884.646	4611
884.772	4615
884.897	4565
885.023	4630
885.148	4805
885.274	4892
885.399	4744
885.524	4706
885.65	4740
885.775	4763
885.9	4717
886.025	4843
886.15	4767
886.275	4664
886.4	4691
886.525	4725
886.65	4702
886.775	4656
886.9	4923
887.025	5033
887.149	4831
887.274	4656
887.399	4592
887.523	4630
887.648	4611
887.773	4577
887.897	4721
888.021	4786
888.146	4656
888.27	4831
888.395	4850
888.519	4786
888.643	4839
888.767	4820
888.891	4668
889.015	4630
889.139	4683
889.263	4596
889.387	4755
889.511	4870
889.635	4816
889.759	4660
889.883	4607
890.006	4774
890.13	4847
890.254	4607
890.377	4748
890.501	4516
890.624	4565
890.748	4653
890.871	4493
890.995	4455
891.118	4363
891.241	4550
891.364	4611
891.488	4622
891.611	4512
891.734	4504
891.857	4630
891.98	4538
892.103	4634
892.226	4637
892.349	4527
892.471	4409
892.594	4603
892.717	4588
892.839	4611
892.962	4607
893.085	4637
893.207	4569
893.33	4481
893.452	4462
893.575	4653
893.697	4573
893.819	4778
893.941	4862
894.064	4847
894.186	4577
894.308	4527
894.43	4733
894.552	4763
894.674	4721
894.796	4527
894.918	4607
895.04	4523
895.161	4675
895.283	4664
895.405	4554
895.526	4672
895.648	4656
895.769	4679
895.891	4767
896.012	4698
896.134	4736
896.255	4668
896.376	4637
896.498	4558
896.619	4649
896.74	4588
896.861	4668
896.982	4873
897.103	5067
897.224	4847
897.345	4717
897.466	4653
897.587	4717
897.708	4847
897.828	4793
897.949	4733
898.07	4584
898.19	4641
898.311	4858
898.431	4664
898.552	4744
898.672	4828
898.792	4801
898.913	4763
899.033	4611
899.153	4493
899.273	4428
899.393	4485
899.513	4512
899.633	4508
899.753	4535
899.873	4489
899.993	4535
900.113	4550
900.232	4561
900.352	4565
900.472	4478
900.591	4322
900.711	4474
900.83	4493
900.95	4577
901.069	4714
901.189	4523
901.308	4337
901.427	4303
901.546	4386
901.665	4493
901.784	4531
901.904	4402
902.023	4295
902.141	4192
902.26	4188
902.379	4348
902.498	4253
902.617	4257
902.735	4356
902.854	4383
902.973	4379
903.091	4169
903.21	4207
903.328	4295
903.446	4246
903.565	4246
903.683	4363
903.801	4306
903.919	4440
904.038	4394
904.156	4341
904.274	4481
904.392	4405
904.51	4455
904.627	4489
904.745	4577
904.863	4607
904.981	4375
905.098	4299
905.216	4375
905.334	4428
905.451	4447
905.569	4428
905.686	4523
905.803	4550
905.921	4424
906.038	4542
906.155	4497
906.272	4363
906.389	4432
906.506	4341
906.623	4398
906.74	4413
906.857	4299
906.974	4375
907.091	4603
907.208	4656
907.324	4573
907.441	4466
907.557	4356
907.674	4337
907.79	4367
907.907	4443
908.023	4466
908.139	4497
908.256	4436
908.372	4462
908.488	4485
908.604	4363
908.72	4344
908.836	4329
908.952	4348
909.068	4394
909.184	4569
909.3	4459
909.415	4573
909.531	4550
909.647	4333
909.762	4436
909.878	4303
909.993	4421
910.108	4428
910.224	4421
910.339	4497
910.454	4409
910.57	4348
910.685	4261
910.8	4630
910.915	4607
911.03	4455
911.145	4329
911.259	4318
911.374	4375
911.489	4284
911.604	4276
911.718	4166
911.833	4200
911.947	4067
912.062	4025
912.176	4249
912.291	4257
912.405	4246
912.519	4443
912.633	4424
912.748	4329
912.862	4344
912.976	4211
913.09	4112
913.204	4177
913.318	4223
913.431	4356
913.545	4363
913.659	4474
913.772	4367
913.886	4265
914	4173
914.113	4424
914.226	4451
914.34	4417
914.453	4276
914.566	4421
914.68	4329
914.793	4367
914.906	4147
915.019	4139
915.132	4082
915.245	4169
915.358	4249
915.47	4268
915.583	4318
915.696	4265
915.809	4413
915.921	4417
916.034	4246
916.146	4276
916.259	4188
916.371	4383
916.483	4360
916.595	4234
916.708	4318
916.82	4310
916.932	4329
917.044	4325
917.156	4314
917.268	4253
917.38	4295
917.491	4303
917.603	4352
917.715	4413
917.826	4440
917.938	4344
918.049	4257
918.161	4417
918.272	4527
918.384	4558
918.495	4478
918.606	4318
918.717	4261
918.828	4348
918.939	4371
919.05	4249
919.161	4390
919.272	4166
919.383	4219
919.494	4462
919.604	4615
919.715	4493
919.826	4363
919.936	4379
920.047	4523
920.157	4554
920.267	4702
920.378	4550
920.488	4508
920.598	4706
920.708	4885
920.818	4767
920.928	4778
921.038	4908
921.148	4942
921.258	4615
921.368	4512
921.477	4497
921.587	4478
921.697	4348
921.806	4542
921.916	4417
922.025	4295
922.134	4257
922.244	4181
922.353	4375
922.462	4200
922.571	4124
922.68	3994
922.789	4002
922.898	4013
923.007	4006
923.116	4131
923.224	4040
923.333	4093
923.442	4025
923.55	3975
923.659	4025
923.767	4120
923.876	3972
923.984	4124
924.092	4010
924.201	4051
924.309	4074
924.417	4120
924.525	4032
924.633	4082
924.741	5025
924.849	3918
924.956	4116
925.064	3937
925.172	3876
925.279	3960
925.387	4059
925.494	4017
925.602	4204
925.709	4181
925.816	4010
925.924	4116
926.031	4227
926.138	4158
926.245	4215
926.352	4124
926.459	4234
926.566	4318
926.673	4131
926.779	4036
926.886	4044
926.993	3964
927.099	3975
927.206	3922
927.312	3941
927.419	4032
927.525	4025
927.631	4112
927.737	3953
927.843	3941
927.95	3888
928.056	3991
928.162	4002
928.267	4036
928.373	4672
928.479	4109
928.585	3945
928.69	4013
928.796	4059
928.901	3991
929.007	3869
929.112	4059
929.218	3956
929.323	3956
929.428	3953
929.533	4105
929.638	3899
929.743	3926
929.848	4021
929.953	3987
930.058	3972
930.163	3770
930.267	3812
930.372	3960
930.477	3823
930.581	4078
930.685	3953
930.79	3831
930.894	3918
930.998	3854
931.103	4013
931.207	3724
931.311	3698
931.415	3622
931.519	3530
931.623	3545
