Data from test_V78500241_1357.txt Node
Date: Fri Mar 25 16:58:26 CST 2022
User: usil
Spectrometer: V785-0024
Trigger mode: 0
Integration Time (sec): 4.000000E-1
Scans to average: 1
Nonlinearity correction enabled: false
Boxcar width: 0
Storing dark spectrum: false
XAxis mode: Wavelengths
Number of Pixels in Spectrum: 1024
>>>>>Begin Spectral Data<<<<<
801.071	8138
801.214	8001
801.356	7890
801.499	7803
801.641	7807
801.783	7841
801.926	7955
802.068	7967
802.211	8001
802.353	7967
802.496	7769
802.638	7826
802.78	7864
802.923	7921
803.065	7830
803.208	7845
803.35	7947
803.492	8145
803.635	8183
803.777	7997
803.919	8111
804.061	8415
804.204	8138
804.346	8027
804.488	8016
804.63	8077
804.773	8024
804.915	8161
805.057	8286
805.199	8119
805.341	8195
805.483	8240
805.626	8256
805.768	8130
805.91	8244
806.052	8240
806.194	8134
806.336	8271
806.478	8115
806.62	8088
806.762	8119
806.904	8271
807.046	8461
807.188	8362
807.33	8313
807.472	8275
807.614	8134
807.756	8107
807.898	7944
808.04	7852
808.182	7898
808.324	7921
808.465	7909
808.607	8039
808.749	8126
808.891	8161
809.033	8240
809.174	8183
809.316	8058
809.458	8024
809.6	7932
809.741	8024
809.883	8016
810.025	8088
810.166	8073
810.308	8035
810.45	7970
810.591	7883
810.733	7685
810.875	7685
811.016	7476
811.158	7510
811.299	7636
811.441	7681
811.582	7723
811.724	7632
811.865	7556
812.007	7609
812.148	7537
812.29	7605
812.431	7731
812.573	7921
812.714	7967
812.855	8134
812.997	8202
813.138	8275
813.279	8210
813.421	8088
813.562	8043
813.703	7879
813.845	7750
813.986	7422
814.127	7263
814.268	7251
814.41	7206
814.551	7179
814.692	7209
814.833	7103
814.974	7088
815.115	7069
815.256	6951
815.397	6897
815.539	6901
815.68	6867
815.821	6795
815.962	6867
816.103	6821
816.244	6696
816.385	6589
816.526	6585
816.666	6521
816.807	6258
816.948	6456
817.089	6483
817.23	6422
817.371	6395
817.512	6376
817.653	6403
817.793	6346
817.934	6429
818.075	6486
818.216	6391
818.356	6342
818.497	6209
818.638	6064
818.778	6125
818.919	6098
819.06	6144
819.2	6304
819.341	6342
819.481	6361
819.622	6509
819.762	6696
819.903	6662
820.043	6593
820.184	6601
820.324	6547
820.465	6688
820.605	6677
820.746	6639
820.886	6448
821.026	6631
821.167	6662
821.307	6802
821.447	6726
821.588	6585
821.728	6574
821.868	6429
822.008	6346
822.149	6338
822.289	6323
822.429	6098
822.569	6076
822.709	6121
822.849	5901
822.99	5912
823.13	5908
823.27	5882
823.41	5786
823.55	5699
823.69	5760
823.83	5786
823.97	5710
824.11	5520
824.25	5516
824.389	5554
824.529	5573
824.669	5528
824.809	5665
824.949	5680
825.089	5619
825.228	5566
825.368	5383
825.508	5292
825.648	5345
825.787	5349
825.927	5349
826.067	5250
826.206	5250
826.346	5391
826.485	5398
826.625	5425
826.765	5547
826.904	5440
827.044	5197
827.183	5174
827.323	5140
827.462	5273
827.601	5098
827.741	5178
827.88	5242
828.02	5136
828.159	5220
828.298	5284
828.437	5334
828.577	5250
828.716	5471
828.855	5277
828.994	5147
829.134	5147
829.273	5220
829.412	5105
829.551	5117
829.69	5197
829.829	5220
829.968	5349
830.107	5231
830.246	5284
830.385	5178
830.524	5147
830.663	5071
830.802	4961
830.941	4862
831.08	4881
831.219	4946
831.357	4999
831.496	5170
831.635	4942
831.774	4809
831.913	4843
832.051	4740
832.19	4721
832.329	4805
832.467	4675
832.606	4615
832.744	4694
832.883	4721
833.022	4706
833.16	4786
833.299	4774
833.437	4809
833.576	4820
833.714	4847
833.852	4824
833.991	4873
834.129	4923
834.267	4968
834.406	4835
834.544	4987
834.682	4980
834.821	4908
834.959	5166
835.097	5041
835.235	5083
835.373	5083
835.511	5102
835.65	5041
835.788	5014
835.926	4831
836.064	4839
836.202	4858
836.34	5151
836.478	5143
836.615	5075
836.753	5201
836.891	5235
837.029	5246
837.167	5212
837.305	5159
837.443	5098
837.58	5102
837.718	5181
837.856	5162
837.993	5109
838.131	5185
838.269	5132
838.406	5174
838.544	5143
838.681	5033
838.819	5022
838.956	4870
839.094	4915
839.231	4980
839.369	5105
839.506	5417
839.643	5258
839.781	5037
839.918	5014
840.055	5124
840.193	5060
840.33	5064
840.467	5124
840.604	5227
840.742	5436
840.879	5121
841.016	5105
841.153	5170
841.29	5364
841.427	5303
841.564	5318
841.701	5322
841.838	5288
841.975	5227
842.112	5201
842.249	5132
842.385	5113
842.522	5341
842.659	5140
842.796	5121
842.933	5231
843.069	5223
843.206	5098
843.343	5307
843.479	5231
843.616	5231
843.752	5045
843.889	4987
844.025	5174
844.162	5003
844.298	5159
844.435	5037
844.571	5071
844.708	5170
844.844	5235
844.98	5372
845.117	5280
845.253	5162
845.389	5048
845.525	5155
845.661	5113
845.798	5048
845.934	5041
846.07	5029
846.206	5159
846.342	5246
846.478	5185
846.614	4980
846.75	4934
846.886	4946
847.022	5136
847.158	5052
847.294	5048
847.429	5018
847.565	5010
847.701	5349
847.837	4843
847.972	4782
848.108	4927
848.244	4946
848.379	4752
848.515	4694
848.65	4717
848.786	4740
848.921	4774
849.057	4866
849.192	4843
849.328	4755
849.463	4805
849.598	4828
849.734	4736
849.869	4641
850.004	4577
850.14	4634
850.275	4611
850.41	4489
850.545	4546
850.68	4630
850.815	4611
850.95	4660
851.085	4843
851.22	4714
851.355	4630
851.49	4630
851.625	4630
851.76	4615
851.895	4504
852.03	4550
852.165	4687
852.299	4710
852.434	4752
852.569	4706
852.703	4778
852.838	4790
852.973	4889
853.107	4896
853.242	4752
853.376	4698
853.511	4584
853.645	4592
853.78	4782
853.914	4668
854.048	4615
854.183	4675
854.317	4672
854.451	4812
854.585	4679
854.72	4592
854.854	4774
854.988	4558
855.122	4584
855.256	4489
855.39	4611
855.524	4755
855.658	4694
855.792	4694
855.926	4706
856.06	4767
856.194	4778
856.327	4714
856.461	4615
856.595	4626
856.729	4630
856.862	4759
856.996	4634
857.13	4763
857.263	4744
857.397	4782
857.53	4630
857.664	4748
857.797	4786
857.931	4752
858.064	4637
858.197	4721
858.331	4649
858.464	4607
858.597	4466
858.731	4641
858.864	4607
858.997	4611
859.13	4637
859.263	4664
859.396	4710
859.529	4546
859.662	4592
859.795	4485
859.928	4653
860.061	4809
860.194	4763
860.327	4626
860.46	4538
860.592	4694
860.725	4694
860.858	4683
860.99	4618
861.123	4546
861.256	4527
861.388	4607
861.521	5307
861.653	4443
861.786	4436
861.918	4436
862.05	4504
862.183	4550
862.315	4660
862.447	4649
862.58	4546
862.712	4360
862.844	4318
862.976	4447
863.108	4432
863.24	4900
863.372	4341
863.504	4421
863.636	4443
863.768	4485
863.9	4386
864.032	4367
864.164	4367
864.296	4405
864.428	4531
864.559	4565
864.691	4542
864.823	4500
864.954	4440
865.086	4531
865.217	4443
865.349	4409
865.48	4455
865.612	4489
865.743	4615
865.875	4447
866.006	4459
866.137	4413
866.269	4428
866.4	4424
866.531	4413
866.662	4409
866.793	4413
866.924	4402
867.055	4519
867.186	4466
867.317	4402
867.448	4390
867.579	4344
867.71	4398
867.841	4413
867.972	4462
868.103	4455
868.233	4432
868.364	4432
868.495	4497
868.625	4641
868.756	4733
868.886	4542
869.017	4558
869.147	4729
869.278	4740
869.408	4626
869.539	4634
869.669	4698
869.799	4607
869.929	4755
870.06	4721
870.19	4904
870.32	4915
870.45	4942
870.58	4965
870.71	5048
870.84	5109
870.97	4942
871.1	4866
871.23	5147
871.36	5094
871.489	5025
871.619	5067
871.749	5102
871.879	5121
872.008	5109
872.138	5037
872.267	4991
872.397	4850
872.526	4801
872.656	4721
872.785	4828
872.915	4946
873.044	4968
873.173	4923
873.303	4968
873.432	4946
873.561	4968
873.69	4816
873.819	4816
873.948	4870
874.077	4805
874.206	4733
874.335	4843
874.464	4930
874.593	5071
874.722	4911
874.851	5140
874.979	5037
875.108	5048
875.237	4908
875.365	4870
875.494	4858
875.623	4991
875.751	4847
875.88	4854
876.008	4957
876.136	4999
876.265	5151
876.393	5307
876.521	5284
876.65	5193
876.778	5102
876.906	5102
877.034	5006
877.162	5018
877.29	4984
877.418	5029
877.546	4980
877.674	5010
877.802	5014
877.93	5048
878.058	4942
878.185	4828
878.313	4961
878.441	4957
878.568	4831
878.696	4839
878.824	4984
878.951	4999
879.079	5155
879.206	5250
879.333	5098
879.461	4930
879.588	4976
879.715	5083
879.842	5223
879.97	4957
880.097	4755
880.224	4698
880.351	4801
880.478	4805
880.605	4793
880.732	4778
880.859	5060
880.986	4881
881.112	4911
881.239	4790
881.366	4660
881.493	4607
881.619	4538
881.746	4637
881.872	4645
881.999	4653
882.125	4717
882.252	4824
882.378	4771
882.505	4942
882.631	4847
882.757	4626
882.883	4683
883.01	4656
883.136	4645
883.262	4550
883.388	4626
883.514	4824
883.64	4908
883.766	4759
883.892	4698
884.018	4694
884.143	4877
884.269	4987
884.395	4626
884.52	4645
884.646	4634
884.772	4577
884.897	4538
885.023	4641
885.148	4816
885.274	4828
885.399	4778
885.524	4702
885.65	4714
885.775	4717
885.9	4706
886.025	4866
886.15	4752
886.275	4729
886.4	4679
886.525	4706
886.65	4725
886.775	4683
886.9	4896
887.025	5022
887.149	4793
887.274	4584
887.399	4554
887.523	4626
887.648	4577
887.773	4573
887.897	4759
888.021	4725
888.146	4626
888.27	4786
888.395	4889
888.519	4824
888.643	4812
888.767	4793
888.891	4664
889.015	4630
889.139	4656
889.263	4569
889.387	4694
889.511	4854
889.635	4782
889.759	4596
889.883	4641
890.006	4740
890.13	4797
890.254	4618
890.377	4656
890.501	4535
890.624	4508
890.748	4653
890.871	4504
890.995	4421
891.118	4360
891.241	4538
891.364	4531
891.488	4668
891.611	4504
891.734	4538
891.857	4607
891.98	4542
892.103	4626
892.226	4565
892.349	4531
892.471	4413
892.594	4508
892.717	4645
892.839	4592
892.962	4535
893.085	4630
893.207	4577
893.33	4474
893.452	4516
893.575	4660
893.697	4516
893.819	4774
893.941	4843
894.064	4755
894.186	4569
894.308	4577
894.43	4683
894.552	4809
894.674	4725
894.796	4535
894.918	4584
895.04	4531
895.161	4653
895.283	4615
895.405	4508
895.526	4611
895.648	4660
895.769	4675
895.891	4809
896.012	4755
896.134	4668
896.255	4637
896.376	4656
896.498	4645
896.619	4596
896.74	4577
896.861	4672
896.982	4911
897.103	5124
897.224	4873
897.345	4721
897.466	4698
897.587	4698
897.708	4843
897.828	4763
897.949	4656
898.07	4561
898.19	4653
898.311	4858
898.431	4656
898.552	4717
898.672	4831
898.792	4828
898.913	4706
899.033	4622
899.153	4523
899.273	4447
899.393	4485
899.513	4504
899.633	4527
899.753	4550
899.873	4497
899.993	4573
900.113	4531
900.232	4573
900.352	4565
900.472	4504
900.591	4443
900.711	4489
900.83	4394
900.95	4622
901.069	4675
901.189	4523
901.308	4402
901.427	4352
901.546	4348
901.665	4402
901.784	4508
901.904	4352
902.023	4344
902.141	4188
902.26	4147
902.379	4280
902.498	4230
902.617	4215
902.735	4367
902.854	4348
902.973	4379
903.091	4215
903.21	4219
903.328	4310
903.446	4223
903.565	4227
903.683	4367
903.801	4280
903.919	4360
904.038	4421
904.156	4363
904.274	4417
904.392	4363
904.51	4459
904.627	4409
904.745	4577
904.863	4558
904.981	4390
905.098	4356
905.216	4341
905.334	4409
905.451	4398
905.569	4470
905.686	4493
905.803	4512
905.921	4360
906.038	4588
906.155	4459
906.272	4363
906.389	4466
906.506	4360
906.623	4352
906.74	4390
906.857	4284
906.974	4363
907.091	4546
907.208	4649
907.324	4634
907.441	4478
907.557	4352
907.674	4322
907.79	4333
907.907	4367
908.023	4447
908.139	4462
908.256	4417
908.372	4478
908.488	4413
908.604	4337
908.72	4314
908.836	4367
908.952	4390
909.068	4379
909.184	4550
909.3	4440
909.415	4573
909.531	4519
909.647	4348
909.762	4348
909.878	4318
909.993	4432
910.108	4390
910.224	4405
910.339	4500
910.454	4394
910.57	4356
910.685	4268
910.8	4607
910.915	4565
911.03	4470
911.145	4333
911.259	4356
911.374	4360
911.489	4253
911.604	4280
911.718	4173
911.833	4204
911.947	4074
912.062	3979
912.176	4219
912.291	4211
912.405	4227
912.519	4451
912.633	4527
912.748	4379
912.862	4284
912.976	4131
913.09	4124
913.204	4196
913.318	4242
913.431	4352
913.545	4337
913.659	4417
913.772	4356
913.886	4223
914	4188
914.113	4383
914.226	4398
914.34	4348
914.453	4230
914.566	4402
914.68	4348
914.793	4356
914.906	4124
915.019	4093
915.132	4109
915.245	4162
915.358	4238
915.47	4188
915.583	4253
915.696	4276
915.809	4371
915.921	4379
916.034	4238
916.146	4230
916.259	4181
916.371	4367
916.483	4344
916.595	4287
916.708	4261
916.82	4352
916.932	4310
917.044	4291
917.156	4314
917.268	4200
917.38	4272
917.491	4272
917.603	4348
917.715	4424
917.826	4443
917.938	4348
918.049	4249
918.161	4394
918.272	4531
918.384	4508
918.495	4462
918.606	4276
918.717	4223
918.828	4325
918.939	4314
919.05	4238
919.161	4356
919.272	4109
919.383	4196
919.494	4413
919.604	4611
919.715	4394
919.826	4318
919.936	4383
920.047	4538
920.157	4508
920.267	4687
920.378	4561
920.488	4478
920.598	4694
920.708	4881
920.818	4752
920.928	4755
921.038	4957
921.148	4885
921.258	4626
921.368	4580
921.477	4485
921.587	4466
921.697	4352
921.806	4538
921.916	4421
922.025	4257
922.134	4276
922.244	4200
922.353	4329
922.462	4192
922.571	4093
922.68	4010
922.789	4002
922.898	4006
923.007	3960
923.116	4124
923.224	4032
923.333	4086
923.442	3968
923.55	4002
923.659	3991
923.767	4093
923.876	4021
923.984	4101
924.092	3991
924.201	4063
924.309	4086
924.417	4086
924.525	4074
924.633	4105
924.741	5003
924.849	3922
924.956	4120
925.064	3953
925.172	3922
925.279	4002
925.387	4093
925.494	4025
925.602	4188
925.709	4162
925.816	4017
925.924	4082
926.031	4246
926.138	4162
926.245	4223
926.352	4109
926.459	4238
926.566	4299
926.673	4177
926.779	4093
926.886	4032
926.993	3968
927.099	3930
927.206	3911
927.312	3926
927.419	4051
927.525	4021
927.631	4093
927.737	3987
927.843	3964
927.95	3816
928.056	3922
928.162	3953
928.267	4040
928.373	4675
928.479	4101
928.585	3903
928.69	4013
928.796	4040
928.901	3956
929.007	3827
929.112	3964
929.218	3968
929.323	3956
929.428	3941
929.533	4074
929.638	3869
929.743	3937
929.848	4029
929.953	3945
930.058	3884
930.163	3751
930.267	3755
930.372	3949
930.477	3850
930.581	4090
930.685	3926
930.79	3804
930.894	3857
930.998	3827
931.103	4055
931.207	3701
931.311	3701
931.415	3606
931.519	3469
931.623	3542
