Data from test_V78500241_1837.txt Node
Date: Fri Mar 25 17:01:46 CST 2022
User: usil
Spectrometer: V785-0024
Trigger mode: 0
Integration Time (sec): 4.000000E-1
Scans to average: 1
Nonlinearity correction enabled: false
Boxcar width: 0
Storing dark spectrum: false
XAxis mode: Wavelengths
Number of Pixels in Spectrum: 1024
>>>>>Begin Spectral Data<<<<<
801.071	8016
801.214	8069
801.356	7841
801.499	7860
801.641	7830
801.783	7826
801.926	7970
802.068	7887
802.211	7932
802.353	7989
802.496	7830
802.638	7864
802.78	7849
802.923	7925
803.065	7818
803.208	7868
803.35	7944
803.492	7978
803.635	8149
803.777	8020
803.919	8088
804.061	8412
804.204	8115
804.346	8008
804.488	7917
804.63	8031
804.773	8031
804.915	8119
805.057	8271
805.199	8126
805.341	8134
805.483	8263
805.626	8123
805.768	8088
805.91	8180
806.052	8164
806.194	8180
806.336	8290
806.478	8065
806.62	8050
806.762	8130
806.904	8324
807.046	8495
807.188	8404
807.33	8298
807.472	8343
807.614	8164
807.756	8123
807.898	7978
808.04	7860
808.182	7932
808.324	7856
808.465	7974
808.607	8073
808.749	8065
808.891	8191
809.033	8332
809.174	8210
809.316	8054
809.458	8073
809.6	8012
809.741	8081
809.883	8043
810.025	8046
810.166	8073
810.308	7974
810.45	7974
810.591	7830
810.733	7753
810.875	7632
811.016	7453
811.158	7445
811.299	7655
811.441	7761
811.582	7674
811.724	7544
811.865	7552
812.007	7597
812.148	7578
812.29	7670
812.431	7776
812.573	7860
812.714	7909
812.855	8134
812.997	8187
813.138	8244
813.279	8244
813.421	8005
813.562	7849
813.703	7921
813.845	7731
813.986	7441
814.127	7285
814.268	7175
814.41	7221
814.551	7198
814.692	7236
814.833	7088
814.974	7160
815.115	7053
815.256	6920
815.397	6935
815.539	6886
815.68	6772
815.821	6814
815.962	6856
816.103	6802
816.244	6734
816.385	6623
816.526	6604
816.666	6467
816.807	6327
816.948	6399
817.089	6486
817.23	6479
817.371	6376
817.512	6350
817.653	6361
817.793	6384
817.934	6407
818.075	6426
818.216	6494
818.356	6429
818.497	6277
818.638	6125
818.778	6121
818.919	6125
819.06	6140
819.2	6380
819.341	6300
819.481	6338
819.622	6490
819.762	6734
819.903	6719
820.043	6536
820.184	6544
820.324	6585
820.465	6631
820.605	6665
820.746	6646
820.886	6528
821.026	6627
821.167	6711
821.307	6798
821.447	6745
821.588	6703
821.728	6642
821.868	6521
822.008	6338
822.149	6395
822.289	6350
822.429	6182
822.569	6110
822.709	6057
822.849	5870
822.99	5844
823.13	5908
823.27	5950
823.41	5790
823.55	5794
823.69	5771
823.83	5783
823.97	5699
824.11	5497
824.25	5497
824.389	5528
824.529	5592
824.669	5516
824.809	5604
824.949	5657
825.089	5608
825.228	5585
825.368	5345
825.508	5337
825.648	5303
825.787	5322
825.927	5364
826.067	5326
826.206	5280
826.346	5368
826.485	5482
826.625	5387
826.765	5532
826.904	5459
827.044	5189
827.183	5143
827.323	5159
827.462	5235
827.601	5178
827.741	5220
827.88	5246
828.02	5098
828.159	5208
828.298	5322
828.437	5341
828.577	5284
828.716	5463
828.855	5299
828.994	5185
829.134	5197
829.273	5208
829.412	5075
829.551	5162
829.69	5124
829.829	5277
829.968	5326
830.107	5239
830.246	5250
830.385	5140
830.524	5147
830.663	5029
830.802	4957
830.941	4904
831.08	4885
831.219	5010
831.357	4957
831.496	5140
831.635	4889
831.774	4820
831.913	4797
832.051	4771
832.19	4755
832.329	4831
832.467	4691
832.606	4618
832.744	4759
832.883	4721
833.022	4687
833.16	4752
833.299	4831
833.437	4835
833.576	4831
833.714	4812
833.852	4858
833.991	4892
834.129	4927
834.267	4934
834.406	4911
834.544	4949
834.682	4938
834.821	4923
834.959	5151
835.097	4991
835.235	5121
835.373	5079
835.511	5060
835.65	5037
835.788	5029
835.926	4911
836.064	4915
836.202	4835
836.34	5124
836.478	5227
836.615	5128
836.753	5212
836.891	5299
837.029	5254
837.167	5189
837.305	5170
837.443	5147
837.58	5045
837.718	5261
837.856	5181
837.993	5174
838.131	5258
838.269	5159
838.406	5185
838.544	5208
838.681	5067
838.819	4995
838.956	4889
839.094	4930
839.231	4957
839.369	5060
839.506	5414
839.643	5250
839.781	5048
839.918	5003
840.055	5060
840.193	5090
840.33	5117
840.467	5083
840.604	5174
840.742	5402
840.879	5071
841.016	5083
841.153	5128
841.29	5322
841.427	5296
841.564	5273
841.701	5349
841.838	5284
841.975	5239
842.112	5303
842.249	5098
842.385	5014
842.522	5357
842.659	5147
842.796	5136
842.933	5254
843.069	5128
843.206	5181
843.343	5296
843.479	5235
843.616	5223
843.752	4987
843.889	5003
844.025	5216
844.162	5010
844.298	5185
844.435	5075
844.571	5037
844.708	5185
844.844	5288
844.98	5318
845.117	5280
845.253	5159
845.389	5079
845.525	5136
845.661	5105
845.798	5048
845.934	5128
846.07	5010
846.206	5239
846.342	5345
846.478	5193
846.614	5025
846.75	4942
846.886	4938
847.022	5121
847.158	5018
847.294	5029
847.429	5067
847.565	5025
847.701	5330
847.837	4892
847.972	4767
848.108	5010
848.244	4911
848.379	4752
848.515	4748
848.65	4683
848.786	4744
848.921	4790
849.057	4870
849.192	4904
849.328	4805
849.463	4866
849.598	4828
849.734	4736
849.869	4660
850.004	4596
850.14	4694
850.275	4618
850.41	4519
850.545	4531
850.68	4588
850.815	4603
850.95	4615
851.085	4782
851.22	4748
851.355	4656
851.49	4584
851.625	4615
851.76	4641
851.895	4580
852.03	4508
852.165	4675
852.299	4706
852.434	4786
852.569	4733
852.703	4793
852.838	4835
852.973	4919
853.107	4919
853.242	4744
853.376	4656
853.511	4573
853.645	4611
853.78	4839
853.914	4691
854.048	4634
854.183	4641
854.317	4778
854.451	4793
854.585	4687
854.72	4679
854.854	4752
854.988	4615
855.122	4687
855.256	4538
855.39	4626
855.524	4774
855.658	4706
855.792	4694
855.926	4698
856.06	4736
856.194	4759
856.327	4706
856.461	4531
856.595	4630
856.729	4664
856.862	4763
856.996	4748
857.13	4717
857.263	4714
857.397	4782
857.53	4660
857.664	4717
857.797	4774
857.931	4790
858.064	4683
858.197	4710
858.331	4615
858.464	4596
858.597	4497
858.731	4592
858.864	4599
858.997	4618
859.13	4637
859.263	4637
859.396	4675
859.529	4603
859.662	4565
859.795	4531
859.928	4584
860.061	4717
860.194	4721
860.327	4694
860.46	4508
860.592	4691
860.725	4717
860.858	4736
860.99	4577
861.123	4535
861.256	4485
861.388	4618
861.521	5391
861.653	4481
861.786	4417
861.918	4504
862.05	4516
862.183	4588
862.315	4599
862.447	4664
862.58	4535
862.712	4386
862.844	4352
862.976	4451
863.108	4489
863.24	4835
863.372	4337
863.504	4386
863.636	4417
863.768	4459
863.9	4436
864.032	4383
864.164	4428
864.296	4390
864.428	4481
864.559	4523
864.691	4508
864.823	4519
864.954	4527
865.086	4512
865.217	4447
865.349	4432
865.48	4417
865.612	4462
865.743	4607
865.875	4512
866.006	4398
866.137	4527
866.269	4428
866.4	4447
866.531	4390
866.662	4402
866.793	4436
866.924	4398
867.055	4504
867.186	4481
867.317	4394
867.448	4398
867.579	4394
867.71	4424
867.841	4360
867.972	4459
868.103	4481
868.233	4432
868.364	4440
868.495	4519
868.625	4714
868.756	4767
868.886	4531
869.017	4607
869.147	4771
869.278	4740
869.408	4679
869.539	4599
869.669	4729
869.799	4691
869.929	4725
870.06	4736
870.19	4980
870.32	4904
870.45	4949
870.58	5029
870.71	5109
870.84	5102
870.97	5006
871.1	4873
871.23	5174
871.36	5147
871.489	5037
871.619	5098
871.749	5071
871.879	5143
872.008	5159
872.138	5056
872.267	4995
872.397	4824
872.526	4801
872.656	4771
872.785	4828
872.915	4949
873.044	5010
873.173	4934
873.303	4949
873.432	4938
873.561	4923
873.69	4809
873.819	4885
873.948	4877
874.077	4835
874.206	4740
874.335	4771
874.464	4927
874.593	5045
874.722	4957
874.851	5056
874.979	5025
875.108	5086
875.237	4938
875.365	4877
875.494	4831
875.623	4976
875.751	4881
875.88	4862
876.008	4976
876.136	5033
876.265	5181
876.393	5345
876.521	5239
876.65	5227
876.778	5098
876.906	5090
877.034	5029
877.162	5033
877.29	4949
877.418	5045
877.546	5064
877.674	5003
877.802	5014
877.93	5003
878.058	4934
878.185	4965
878.313	4915
878.441	4961
878.568	4771
878.696	4828
878.824	4949
878.951	4991
879.079	5140
879.206	5284
879.333	5056
879.461	4953
879.588	5041
879.715	5094
879.842	5174
879.97	4980
880.097	4782
880.224	4721
880.351	4835
880.478	4831
880.605	4809
880.732	4763
880.859	5025
880.986	4889
881.112	4904
881.239	4809
881.366	4622
881.493	4588
881.619	4584
881.746	4599
881.872	4649
881.999	4603
882.125	4694
882.252	4790
882.378	4797
882.505	4919
882.631	4786
882.757	4641
882.883	4717
883.01	4740
883.136	4656
883.262	4615
883.388	4603
883.514	4801
883.64	4774
883.766	4816
883.892	4664
884.018	4717
884.143	4904
884.269	5010
884.395	4672
884.52	4626
884.646	4622
884.772	4596
884.897	4542
885.023	4664
885.148	4744
885.274	4866
885.399	4812
885.524	4691
885.65	4649
885.775	4744
885.9	4660
886.025	4839
886.15	4797
886.275	4748
886.4	4618
886.525	4729
886.65	4672
886.775	4672
886.9	4904
887.025	5045
887.149	4786
887.274	4641
887.399	4577
887.523	4565
887.648	4527
887.773	4641
887.897	4714
888.021	4801
888.146	4694
888.27	4790
888.395	4908
888.519	4805
888.643	4805
888.767	4801
888.891	4656
889.015	4611
889.139	4656
889.263	4588
889.387	4744
889.511	4824
889.635	4786
889.759	4611
889.883	4641
890.006	4725
890.13	4835
890.254	4596
890.377	4656
890.501	4577
890.624	4500
890.748	4675
890.871	4451
890.995	4421
891.118	4390
891.241	4550
891.364	4584
891.488	4641
891.611	4504
891.734	4592
891.857	4580
891.98	4538
892.103	4607
892.226	4573
892.349	4546
892.471	4405
892.594	4554
892.717	4618
892.839	4573
892.962	4554
893.085	4656
893.207	4607
893.33	4459
893.452	4561
893.575	4736
893.697	4584
893.819	4778
893.941	4809
894.064	4752
894.186	4569
894.308	4523
894.43	4736
894.552	4801
894.674	4748
894.796	4554
894.918	4603
895.04	4542
895.161	4706
895.283	4664
895.405	4523
895.526	4634
895.648	4626
895.769	4698
895.891	4672
896.012	4755
896.134	4717
896.255	4675
896.376	4611
896.498	4584
896.619	4679
896.74	4592
896.861	4641
896.982	4923
897.103	5086
897.224	4790
897.345	4736
897.466	4687
897.587	4771
897.708	4885
897.828	4793
897.949	4660
898.07	4527
898.19	4645
898.311	4839
898.431	4637
898.552	4714
898.672	4759
898.792	4786
898.913	4771
899.033	4618
899.153	4527
899.273	4462
899.393	4481
899.513	4546
899.633	4519
899.753	4535
899.873	4485
899.993	4573
900.113	4512
900.232	4592
900.352	4512
900.472	4451
900.591	4394
900.711	4462
900.83	4451
900.95	4561
901.069	4645
901.189	4531
901.308	4325
901.427	4272
901.546	4360
901.665	4474
901.784	4478
901.904	4360
902.023	4299
902.141	4192
902.26	4173
902.379	4337
902.498	4249
902.617	4204
902.735	4352
902.854	4386
902.973	4333
903.091	4223
903.21	4227
903.328	4299
903.446	4227
903.565	4268
903.683	4383
903.801	4261
903.919	4371
904.038	4451
904.156	4363
904.274	4398
904.392	4337
904.51	4428
904.627	4398
904.745	4611
904.863	4615
904.981	4360
905.098	4310
905.216	4405
905.334	4390
905.451	4417
905.569	4466
905.686	4561
905.803	4577
905.921	4360
906.038	4565
906.155	4493
906.272	4356
906.389	4466
906.506	4325
906.623	4352
906.74	4424
906.857	4268
906.974	4386
907.091	4596
907.208	4660
907.324	4550
907.441	4470
907.557	4329
907.674	4348
907.79	4287
907.907	4379
908.023	4516
908.139	4470
908.256	4417
908.372	4474
908.488	4424
908.604	4386
908.72	4337
908.836	4329
908.952	4356
909.068	4428
909.184	4577
909.3	4455
909.415	4527
909.531	4565
909.647	4356
909.762	4402
909.878	4348
909.993	4443
910.108	4390
910.224	4398
910.339	4451
910.454	4436
910.57	4398
910.685	4322
910.8	4672
910.915	4592
911.03	4451
911.145	4310
911.259	4329
911.374	4394
911.489	4284
911.604	4291
911.718	4158
911.833	4230
911.947	4082
912.062	4010
912.176	4211
912.291	4223
912.405	4223
912.519	4466
912.633	4512
912.748	4360
912.862	4303
912.976	4246
913.09	4090
913.204	4196
913.318	4276
913.431	4352
913.545	4337
913.659	4424
913.772	4341
913.886	4246
914	4276
914.113	4348
914.226	4440
914.34	4375
914.453	4215
914.566	4409
914.68	4352
914.793	4386
914.906	4112
915.019	4112
915.132	4112
915.245	4169
915.358	4196
915.47	4200
915.583	4268
915.696	4352
915.809	4402
915.921	4413
916.034	4242
916.146	4261
916.259	4200
916.371	4394
916.483	4367
916.595	4234
916.708	4276
916.82	4325
916.932	4299
917.044	4291
917.156	4303
917.268	4242
917.38	4246
917.491	4276
917.603	4352
917.715	4424
917.826	4413
917.938	4371
918.049	4246
918.161	4409
918.272	4516
918.384	4493
918.495	4379
918.606	4352
918.717	4257
918.828	4333
918.939	4386
919.05	4272
919.161	4287
919.272	4139
919.383	4234
919.494	4478
919.604	4596
919.715	4424
919.826	4344
919.936	4402
920.047	4531
920.157	4493
920.267	4645
920.378	4554
920.488	4512
920.598	4725
920.708	4881
920.818	4767
920.928	4755
921.038	4938
921.148	4896
921.258	4653
921.368	4546
921.477	4470
921.587	4500
921.697	4386
921.806	4531
921.916	4436
922.025	4249
922.134	4238
922.244	4242
922.353	4348
922.462	4162
922.571	4147
922.68	4029
922.789	3964
922.898	4036
923.007	4006
923.116	4120
923.224	4105
923.333	4086
923.442	3968
923.55	3934
923.659	3987
923.767	4116
923.876	4032
923.984	4120
924.092	4006
924.201	4071
924.309	4090
924.417	4101
924.525	4109
924.633	4097
924.741	5056
924.849	3876
924.956	4128
925.064	3979
925.172	3899
925.279	3934
925.387	4029
925.494	4044
925.602	4188
925.709	4162
925.816	4017
925.924	4124
926.031	4246
926.138	4196
926.245	4207
926.352	4074
926.459	4227
926.566	4280
926.673	4147
926.779	4063
926.886	4082
926.993	4025
927.099	4013
927.206	3937
927.312	3941
927.419	4082
927.525	4036
927.631	4135
927.737	3960
927.843	3926
927.95	3804
928.056	3922
928.162	3987
928.267	4051
928.373	4592
928.479	4067
928.585	3869
928.69	3964
928.796	4109
928.901	3956
929.007	3831
929.112	3953
929.218	3991
929.323	3983
929.428	3926
929.533	4120
929.638	3876
929.743	3926
929.848	4021
929.953	3987
930.058	3884
930.163	3778
930.267	3804
930.372	3956
930.477	3770
930.581	4101
930.685	3922
930.79	3774
930.894	3930
930.998	3842
931.103	4002
931.207	3724
931.311	3713
931.415	3656
931.519	3542
931.623	3526
