Data from test_V78500241_2679.txt Node
Date: Fri Mar 25 17:07:37 CST 2022
User: usil
Spectrometer: V785-0024
Trigger mode: 0
Integration Time (sec): 4.000000E-1
Scans to average: 1
Nonlinearity correction enabled: false
Boxcar width: 0
Storing dark spectrum: false
XAxis mode: Wavelengths
Number of Pixels in Spectrum: 1024
>>>>>Begin Spectral Data<<<<<
801.071	8031
801.214	7967
801.356	7887
801.499	7906
801.641	7841
801.783	7879
801.926	8016
802.068	7925
802.211	7986
802.353	8081
802.496	7921
802.638	7902
802.78	7932
802.923	7959
803.065	7871
803.208	7856
803.35	7936
803.492	8096
803.635	8187
803.777	8035
803.919	8149
804.061	8469
804.204	8206
804.346	8107
804.488	8012
804.63	8005
804.773	7989
804.915	8054
805.057	8332
805.199	8164
805.341	8172
805.483	8233
805.626	8206
805.768	8202
805.91	8237
806.052	8267
806.194	8172
806.336	8305
806.478	8084
806.62	8027
806.762	8065
806.904	8229
807.046	8404
807.188	8358
807.33	8358
807.472	8320
807.614	8153
807.756	8138
807.898	8058
808.04	7909
808.182	7852
808.324	7875
808.465	7947
808.607	8058
808.749	8142
808.891	8233
809.033	8317
809.174	8244
809.316	8054
809.458	8073
809.6	7982
809.741	8027
809.883	8001
810.025	8176
810.166	8027
810.308	8020
810.45	8027
810.591	7890
810.733	7822
810.875	7693
811.016	7578
811.158	7468
811.299	7582
811.441	7734
811.582	7681
811.724	7582
811.865	7491
812.007	7609
812.148	7544
812.29	7677
812.431	7776
812.573	7898
812.714	7967
812.855	8100
812.997	8248
813.138	8301
813.279	8176
813.421	8134
813.562	8020
813.703	7803
813.845	7696
813.986	7449
814.127	7209
814.268	7183
814.41	7137
814.551	7107
814.692	7141
814.833	7015
814.974	7160
815.115	7080
815.256	6996
815.397	6909
815.539	6909
815.68	6821
815.821	6787
815.962	6818
816.103	6837
816.244	6779
816.385	6658
816.526	6707
816.666	6486
816.807	6292
816.948	6464
817.089	6479
817.23	6437
817.371	6327
817.512	6346
817.653	6365
817.793	6342
817.934	6433
818.075	6418
818.216	6388
818.356	6346
818.497	6262
818.638	6194
818.778	6175
818.919	6148
819.06	6144
819.2	6292
819.341	6281
819.481	6372
819.622	6528
819.762	6669
819.903	6669
820.043	6620
820.184	6642
820.324	6593
820.465	6692
820.605	6654
820.746	6681
820.886	6498
821.026	6715
821.167	6738
821.307	6852
821.447	6745
821.588	6722
821.728	6601
821.868	6422
822.008	6380
822.149	6380
822.289	6388
822.429	6171
822.569	6129
822.709	6194
822.849	5920
822.99	5969
823.13	5973
823.27	5973
823.41	5836
823.55	5802
823.69	5764
823.83	5874
823.97	5688
824.11	5566
824.25	5535
824.389	5532
824.529	5573
824.669	5558
824.809	5737
824.949	5741
825.089	5615
825.228	5585
825.368	5467
825.508	5387
825.648	5395
825.787	5414
825.927	5429
826.067	5334
826.206	5326
826.346	5444
826.485	5398
826.625	5429
826.765	5592
826.904	5554
827.044	5239
827.183	5250
827.323	5143
827.462	5318
827.601	5284
827.741	5185
827.88	5261
828.02	5159
828.159	5326
828.298	5360
828.437	5387
828.577	5311
828.716	5520
828.855	5326
828.994	5197
829.134	5193
829.273	5239
829.412	5174
829.551	5201
829.69	5201
829.829	5307
829.968	5459
830.107	5326
830.246	5334
830.385	5212
830.524	5147
830.663	5128
830.802	5029
830.941	4934
831.08	4904
831.219	5045
831.357	4984
831.496	5227
831.635	5010
831.774	4915
831.913	4870
832.051	4812
832.19	4767
832.329	4915
832.467	4706
832.606	4694
832.744	4733
832.883	4816
833.022	4748
833.16	4858
833.299	4866
833.437	4892
833.576	4831
833.714	4870
833.852	4915
833.991	4953
834.129	5006
834.267	4972
834.406	4930
834.544	5010
834.682	4995
834.821	4999
834.959	5250
835.097	5029
835.235	5174
835.373	5094
835.511	5094
835.65	5075
835.788	5052
835.926	4889
836.064	4854
836.202	5003
836.34	5227
836.478	5284
836.615	5193
836.753	5246
836.891	5277
837.029	5277
837.167	5220
837.305	5246
837.443	5166
837.58	5159
837.718	5292
837.856	5239
837.993	5208
838.131	5296
838.269	5212
838.406	5242
838.544	5162
838.681	5060
838.819	5060
838.956	4957
839.094	4904
839.231	5018
839.369	5094
839.506	5467
839.643	5307
839.781	5102
839.918	5056
840.055	5166
840.193	5147
840.33	5159
840.467	5155
840.604	5166
840.742	5482
840.879	5121
841.016	5132
841.153	5189
841.29	5395
841.427	5341
841.564	5318
841.701	5357
841.838	5337
841.975	5231
842.112	5261
842.249	5166
842.385	5143
842.522	5421
842.659	5223
842.796	5208
842.933	5231
843.069	5181
843.206	5151
843.343	5353
843.479	5277
843.616	5288
843.752	5045
843.889	5048
844.025	5250
844.162	5075
844.298	5261
844.435	5067
844.571	5090
844.708	5235
844.844	5345
844.98	5334
845.117	5296
845.253	5185
845.389	5102
845.525	5155
845.661	5136
845.798	5060
845.934	5140
846.07	5090
846.206	5261
846.342	5265
846.478	5143
846.614	5060
846.75	5022
846.886	4999
847.022	5201
847.158	5083
847.294	5090
847.429	5170
847.565	5064
847.701	5303
847.837	4873
847.972	4854
848.108	4965
848.244	4957
848.379	4835
848.515	4759
848.65	4710
848.786	4809
848.921	4847
849.057	4938
849.192	4946
849.328	4854
849.463	4862
849.598	4805
849.734	4828
849.869	4694
850.004	4660
850.14	4630
850.275	4656
850.41	4558
850.545	4546
850.68	4668
850.815	4656
850.95	4618
851.085	4870
851.22	4824
851.355	4717
851.49	4649
851.625	4672
851.76	4706
851.895	4577
852.03	4561
852.165	4710
852.299	4740
852.434	4793
852.569	4782
852.703	4797
852.838	4790
852.973	4908
853.107	4961
853.242	4759
853.376	4672
853.511	4561
853.645	4618
853.78	4755
853.914	4729
854.048	4702
854.183	4698
854.317	4694
854.451	4854
854.585	4694
854.72	4683
854.854	4740
854.988	4653
855.122	4675
855.256	4542
855.39	4698
855.524	4835
855.658	4736
855.792	4736
855.926	4759
856.06	4778
856.194	4805
856.327	4763
856.461	4656
856.595	4664
856.729	4679
856.862	4748
856.996	4740
857.13	4763
857.263	4786
857.397	4854
857.53	4618
857.664	4706
857.797	4790
857.931	4820
858.064	4706
858.197	4755
858.331	4649
858.464	4641
858.597	4554
858.731	4675
858.864	4683
858.997	4592
859.13	4714
859.263	4687
859.396	4729
859.529	4611
859.662	4569
859.795	4558
859.928	4645
860.061	4793
860.194	4801
860.327	4683
860.46	4535
860.592	4752
860.725	4683
860.858	4721
860.99	4599
861.123	4580
861.256	4519
861.388	4603
861.521	5379
861.653	4535
861.786	4447
861.918	4504
862.05	4508
862.183	4546
862.315	4634
862.447	4691
862.58	4599
862.712	4436
862.844	4344
862.976	4516
863.108	4497
863.24	4812
863.372	4398
863.504	4440
863.636	4459
863.768	4519
863.9	4443
864.032	4405
864.164	4440
864.296	4565
864.428	4550
864.559	4596
864.691	4573
864.823	4550
864.954	4474
865.086	4527
865.217	4455
865.349	4432
865.48	4443
865.612	4531
865.743	4641
865.875	4508
866.006	4455
866.137	4497
866.269	4474
866.4	4485
866.531	4436
866.662	4398
866.793	4421
866.924	4417
867.055	4554
867.186	4474
867.317	4459
867.448	4386
867.579	4459
867.71	4413
867.841	4428
867.972	4474
868.103	4436
868.233	4440
868.364	4436
868.495	4542
868.625	4694
868.756	4767
868.886	4618
869.017	4637
869.147	4748
869.278	4801
869.408	4691
869.539	4729
869.669	4733
869.799	4679
869.929	4790
870.06	4748
870.19	4968
870.32	4961
870.45	4930
870.58	5014
870.71	5109
870.84	5109
870.97	4930
871.1	4923
871.23	5212
871.36	5086
871.489	5033
871.619	5113
871.749	5102
871.879	5174
872.008	5239
872.138	5098
872.267	4946
872.397	4889
872.526	4793
872.656	4729
872.785	4778
872.915	4961
873.044	5056
873.173	5045
873.303	5018
873.432	4995
873.561	5018
873.69	4911
873.819	4946
873.948	4908
874.077	4873
874.206	4839
874.335	4812
874.464	4976
874.593	5086
874.722	4957
874.851	5102
874.979	5067
875.108	5064
875.237	4946
875.365	4877
875.494	4919
875.623	4995
875.751	4862
875.88	4942
876.008	4987
876.136	5067
876.265	5231
876.393	5311
876.521	5318
876.65	5258
876.778	5102
876.906	5075
877.034	5037
877.162	5052
877.29	5018
877.418	5121
877.546	5060
877.674	5045
877.802	5037
877.93	5006
878.058	4991
878.185	4934
878.313	4999
878.441	4984
878.568	4820
878.696	4934
878.824	4961
878.951	5045
879.079	5174
879.206	5311
879.333	5090
879.461	4980
879.588	5067
879.715	5174
879.842	5269
879.97	5045
880.097	4809
880.224	4790
880.351	4763
880.478	4839
880.605	4839
880.732	4763
880.859	5071
880.986	4892
881.112	4938
881.239	4812
881.366	4706
881.493	4618
881.619	4645
881.746	4656
881.872	4672
881.999	4683
882.125	4710
882.252	4854
882.378	4850
882.505	4927
882.631	4854
882.757	4653
882.883	4725
883.01	4763
883.136	4675
883.262	4660
883.388	4607
883.514	4835
883.64	4927
883.766	4816
883.892	4637
884.018	4683
884.143	4927
884.269	5033
884.395	4683
884.52	4630
884.646	4668
884.772	4599
884.897	4649
885.023	4653
885.148	4790
885.274	4946
885.399	4786
885.524	4694
885.65	4691
885.775	4752
885.9	4691
886.025	4870
886.15	4790
886.275	4733
886.4	4664
886.525	4744
886.65	4710
886.775	4710
886.9	4908
887.025	5045
887.149	4809
887.274	4706
887.399	4558
887.523	4649
887.648	4611
887.773	4584
887.897	4835
888.021	4774
888.146	4740
888.27	4805
888.395	4870
888.519	4843
888.643	4828
888.767	4847
888.891	4729
889.015	4664
889.139	4641
889.263	4656
889.387	4767
889.511	4873
889.635	4820
889.759	4622
889.883	4710
890.006	4748
890.13	4828
890.254	4611
890.377	4706
890.501	4565
890.624	4527
890.748	4630
890.871	4519
890.995	4485
891.118	4424
891.241	4577
891.364	4599
891.488	4649
891.611	4546
891.734	4489
891.857	4611
891.98	4596
892.103	4694
892.226	4573
892.349	4516
892.471	4481
892.594	4577
892.717	4599
892.839	4561
892.962	4588
893.085	4656
893.207	4626
893.33	4455
893.452	4508
893.575	4656
893.697	4599
893.819	4809
893.941	4862
894.064	4774
894.186	4599
894.308	4592
894.43	4740
894.552	4820
894.674	4752
894.796	4603
894.918	4599
895.04	4599
895.161	4729
895.283	4733
895.405	4584
895.526	4653
895.648	4675
895.769	4721
895.891	4725
896.012	4729
896.134	4782
896.255	4691
896.376	4698
896.498	4645
896.619	4675
896.74	4641
896.861	4618
896.982	4968
897.103	5075
897.224	4824
897.345	4744
897.466	4698
897.587	4763
897.708	4896
897.828	4847
897.949	4656
898.07	4626
898.19	4691
898.311	4843
898.431	4664
898.552	4733
898.672	4870
898.792	4767
898.913	4755
899.033	4618
899.153	4489
899.273	4489
899.393	4538
899.513	4546
899.633	4512
899.753	4615
899.873	4550
899.993	4637
900.113	4519
900.232	4599
900.352	4569
900.472	4440
900.591	4402
900.711	4497
900.83	4443
900.95	4558
901.069	4687
901.189	4512
901.308	4402
901.427	4348
901.546	4405
901.665	4470
901.784	4538
901.904	4417
902.023	4287
902.141	4223
902.26	4192
902.379	4318
902.498	4234
902.617	4234
902.735	4402
902.854	4424
902.973	4398
903.091	4234
903.21	4223
903.328	4272
903.446	4318
903.565	4234
903.683	4375
903.801	4246
903.919	4432
904.038	4428
904.156	4306
904.274	4436
904.392	4409
904.51	4443
904.627	4485
904.745	4546
904.863	4656
904.981	4375
905.098	4299
905.216	4379
905.334	4409
905.451	4443
905.569	4500
905.686	4546
905.803	4573
905.921	4436
906.038	4523
906.155	4481
906.272	4394
906.389	4447
906.506	4386
906.623	4386
906.74	4379
906.857	4322
906.974	4386
907.091	4573
907.208	4668
907.324	4622
907.441	4508
907.557	4314
907.674	4352
907.79	4322
907.907	4386
908.023	4474
908.139	4474
908.256	4440
908.372	4474
908.488	4451
908.604	4352
908.72	4333
908.836	4375
908.952	4424
909.068	4386
909.184	4573
909.3	4436
909.415	4596
909.531	4596
909.647	4363
909.762	4360
909.878	4363
909.993	4455
910.108	4409
910.224	4432
910.339	4527
910.454	4375
910.57	4375
910.685	4371
910.8	4641
910.915	4561
911.03	4512
911.145	4325
911.259	4333
911.374	4394
911.489	4341
911.604	4268
911.718	4158
911.833	4181
911.947	4067
912.062	4048
912.176	4223
912.291	4261
912.405	4242
912.519	4508
912.633	4474
912.748	4306
912.862	4318
912.976	4268
913.09	4124
913.204	4181
913.318	4265
913.431	4383
913.545	4325
913.659	4424
913.772	4356
913.886	4230
914	4261
914.113	4379
914.226	4421
914.34	4405
914.453	4261
914.566	4398
914.68	4371
914.793	4348
914.906	4135
915.019	4139
915.132	4097
915.245	4169
915.358	4219
915.47	4261
915.583	4325
915.696	4272
915.809	4440
915.921	4405
916.034	4253
916.146	4234
916.259	4234
916.371	4398
916.483	4386
916.595	4268
916.708	4356
916.82	4325
916.932	4299
917.044	4303
917.156	4314
917.268	4211
917.38	4329
917.491	4265
917.603	4348
917.715	4424
917.826	4440
917.938	4348
918.049	4253
918.161	4455
918.272	4569
918.384	4485
918.495	4459
918.606	4272
918.717	4265
918.828	4375
918.939	4341
919.05	4242
919.161	4341
919.272	4173
919.383	4272
919.494	4417
919.604	4672
919.715	4470
919.826	4325
919.936	4375
920.047	4554
920.157	4466
920.267	4672
920.378	4542
920.488	4512
920.598	4653
920.708	4927
920.818	4744
920.928	4740
921.038	4946
921.148	4858
921.258	4615
921.368	4538
921.477	4500
921.587	4481
921.697	4367
921.806	4558
921.916	4409
922.025	4242
922.134	4299
922.244	4200
922.353	4337
922.462	4188
922.571	4188
922.68	3975
922.789	3987
922.898	4044
923.007	4002
923.116	4071
923.224	4063
923.333	4017
923.442	3968
923.55	3972
923.659	4029
923.767	4131
923.876	4013
923.984	4112
924.092	3983
924.201	4021
924.309	4082
924.417	4109
924.525	4071
924.633	4093
924.741	5052
924.849	3934
924.956	4105
925.064	3968
925.172	3888
925.279	3960
925.387	4082
925.494	4078
925.602	4246
925.709	4188
925.816	4013
925.924	4162
926.031	4242
926.138	4215
926.245	4196
926.352	4101
926.459	4249
926.566	4280
926.673	4154
926.779	4063
926.886	4063
926.993	3960
927.099	3956
927.206	3918
927.312	3949
927.419	4029
927.525	3983
927.631	4139
927.737	3964
927.843	3968
927.95	3842
928.056	3964
928.162	4010
928.267	4048
928.373	4596
928.479	4120
928.585	3850
928.69	4063
928.796	4082
928.901	3934
929.007	3831
929.112	4067
929.218	4006
929.323	3972
929.428	3964
929.533	4097
929.638	3930
929.743	3941
929.848	4040
929.953	4010
930.058	3899
930.163	3781
930.267	3846
930.372	3975
930.477	3789
930.581	4055
930.685	3975
930.79	3835
930.894	3861
930.998	3888
931.103	4006
931.207	3732
931.311	3705
931.415	3625
931.519	3507
931.623	3564
