Data from test_V78500241_340.txt Node
Date: Fri Mar 25 16:51:22 CST 2022
User: usil
Spectrometer: V785-0024
Trigger mode: 0
Integration Time (sec): 4.000000E-1
Scans to average: 1
Nonlinearity correction enabled: false
Boxcar width: 0
Storing dark spectrum: false
XAxis mode: Wavelengths
Number of Pixels in Spectrum: 1024
>>>>>Begin Spectral Data<<<<<
801.071	8008
801.214	8043
801.356	7852
801.499	7860
801.641	7818
801.783	7902
801.926	7986
802.068	7917
802.211	8046
802.353	7932
802.496	7890
802.638	7947
802.78	7909
802.923	8001
803.065	7906
803.208	7837
803.35	7921
803.492	8096
803.635	8119
803.777	7940
803.919	8088
804.061	8408
804.204	8138
804.346	8084
804.488	8027
804.63	8103
804.773	8005
804.915	8119
805.057	8294
805.199	8237
805.341	8187
805.483	8252
805.626	8259
805.768	8088
805.91	8225
806.052	8248
806.194	8073
806.336	8347
806.478	8161
806.62	8092
806.762	8183
806.904	8267
807.046	8408
807.188	8393
807.33	8221
807.472	8343
807.614	8176
807.756	8142
807.898	8012
808.04	7909
808.182	7909
808.324	7936
808.465	7963
808.607	8119
808.749	8145
808.891	8225
809.033	8309
809.174	8183
809.316	8058
809.458	8069
809.6	8069
809.741	8012
809.883	8050
810.025	8054
810.166	8081
810.308	8039
810.45	8031
810.591	7852
810.733	7795
810.875	7685
811.016	7491
811.158	7506
811.299	7670
811.441	7868
811.582	7757
811.724	7548
811.865	7605
812.007	7613
812.148	7655
812.29	7590
812.431	7837
812.573	7864
812.714	7959
812.855	8191
812.997	8168
813.138	8317
813.279	8195
813.421	8149
813.562	8065
813.703	7830
813.845	7795
813.986	7449
814.127	7369
814.268	7198
814.41	7225
814.551	7247
814.692	7266
814.833	7031
814.974	7084
815.115	7088
815.256	6958
815.397	6924
815.539	6954
815.68	6840
815.821	6814
815.962	6871
816.103	6818
816.244	6791
816.385	6673
816.526	6642
816.666	6589
816.807	6346
816.948	6502
817.089	6544
817.23	6407
817.371	6391
817.512	6433
817.653	6429
817.793	6372
817.934	6391
818.075	6471
818.216	6445
818.356	6464
818.497	6285
818.638	6155
818.778	6125
818.919	6136
819.06	6114
819.2	6262
819.341	6357
819.481	6357
819.622	6597
819.762	6707
819.903	6719
820.043	6601
820.184	6620
820.324	6601
820.465	6722
820.605	6700
820.746	6620
820.886	6536
821.026	6642
821.167	6688
821.307	6806
821.447	6791
821.588	6681
821.728	6627
821.868	6525
822.008	6350
822.149	6388
822.289	6361
822.429	6148
822.569	6125
822.709	6148
822.849	5961
822.99	5950
823.13	6011
823.27	5920
823.41	5828
823.55	5805
823.69	5805
823.83	5821
823.97	5699
824.11	5608
824.25	5577
824.389	5573
824.529	5551
824.669	5543
824.809	5665
824.949	5672
825.089	5623
825.228	5532
825.368	5421
825.508	5379
825.648	5322
825.787	5398
825.927	5391
826.067	5288
826.206	5280
826.346	5421
826.485	5406
826.625	5448
826.765	5566
826.904	5524
827.044	5269
827.183	5147
827.323	5105
827.462	5223
827.601	5174
827.741	5204
827.88	5220
828.02	5117
828.159	5273
828.298	5296
828.437	5364
828.577	5303
828.716	5463
828.855	5364
828.994	5147
829.134	5105
829.273	5227
829.412	5159
829.551	5189
829.69	5105
829.829	5265
829.968	5341
830.107	5246
830.246	5322
830.385	5181
830.524	5159
830.663	5083
830.802	4957
830.941	4892
831.08	4900
831.219	5003
831.357	4995
831.496	5143
831.635	4919
831.774	4801
831.913	4885
832.051	4740
832.19	4733
832.329	4828
832.467	4740
832.606	4664
832.744	4733
832.883	4733
833.022	4725
833.16	4809
833.299	4847
833.437	4793
833.576	4877
833.714	4839
833.852	4812
833.991	4847
834.129	4953
834.267	4923
834.406	4911
834.544	5003
834.682	4995
834.821	4999
834.959	5143
835.097	5003
835.235	5166
835.373	5105
835.511	5124
835.65	5033
835.788	5006
835.926	4930
836.064	4877
836.202	4911
836.34	5166
836.478	5212
836.615	5181
836.753	5231
836.891	5341
837.029	5265
837.167	5265
837.305	5208
837.443	5147
837.58	5075
837.718	5311
837.856	5208
837.993	5170
838.131	5299
838.269	5204
838.406	5227
838.544	5208
838.681	5045
838.819	4999
838.956	4934
839.094	4896
839.231	5029
839.369	5067
839.506	5402
839.643	5265
839.781	5094
839.918	5003
840.055	5105
840.193	5147
840.33	5117
840.467	5174
840.604	5201
840.742	5414
840.879	5105
841.016	5113
841.153	5166
841.29	5372
841.427	5315
841.564	5265
841.701	5414
841.838	5269
841.975	5204
842.112	5254
842.249	5143
842.385	5132
842.522	5322
842.659	5216
842.796	5136
842.933	5216
843.069	5201
843.206	5147
843.343	5372
843.479	5220
843.616	5311
843.752	4995
843.889	5033
844.025	5223
844.162	5029
844.298	5227
844.435	5109
844.571	5071
844.708	5223
844.844	5303
844.98	5360
845.117	5326
845.253	5124
845.389	5151
845.525	5174
845.661	5155
845.798	5045
845.934	5147
846.07	5064
846.206	5220
846.342	5288
846.478	5181
846.614	5037
846.75	4961
846.886	4953
847.022	5132
847.158	5025
847.294	5067
847.429	5128
847.565	5052
847.701	5315
847.837	4866
847.972	4797
848.108	4999
848.244	4904
848.379	4782
848.515	4744
848.65	4679
848.786	4675
848.921	4793
849.057	4877
849.192	4915
849.328	4801
849.463	4911
849.598	4790
849.734	4771
849.869	4725
850.004	4626
850.14	4710
850.275	4626
850.41	4523
850.545	4580
850.68	4607
850.815	4637
850.95	4641
851.085	4805
851.22	4710
851.355	4622
851.49	4573
851.625	4668
851.76	4649
851.895	4531
852.03	4508
852.165	4649
852.299	4816
852.434	4816
852.569	4721
852.703	4729
852.838	4892
852.973	4968
853.107	4904
853.242	4759
853.376	4649
853.511	4561
853.645	4611
853.78	4763
853.914	4725
854.048	4660
854.183	4641
854.317	4736
854.451	4904
854.585	4710
854.72	4607
854.854	4721
854.988	4561
855.122	4626
855.256	4504
855.39	4649
855.524	4725
855.658	4717
855.792	4691
855.926	4725
856.06	4767
856.194	4812
856.327	4710
856.461	4645
856.595	4618
856.729	4656
856.862	4702
856.996	4698
857.13	4771
857.263	4729
857.397	4809
857.53	4656
857.664	4736
857.797	4809
857.931	4793
858.064	4691
858.197	4809
858.331	4668
858.464	4626
858.597	4558
858.731	4679
858.864	4611
858.997	4603
859.13	4607
859.263	4679
859.396	4687
859.529	4599
859.662	4569
859.795	4527
859.928	4607
860.061	4782
860.194	4774
860.327	4641
860.46	4607
860.592	4714
860.725	4771
860.858	4702
860.99	4565
861.123	4538
861.256	4573
861.388	4615
861.521	5284
861.653	4462
861.786	4424
861.918	4470
862.05	4497
862.183	4561
862.315	4656
862.447	4672
862.58	4561
862.712	4417
862.844	4344
862.976	4443
863.108	4481
863.24	4759
863.372	4333
863.504	4421
863.636	4394
863.768	4500
863.9	4443
864.032	4360
864.164	4421
864.296	4474
864.428	4561
864.559	4550
864.691	4565
864.823	4508
864.954	4478
865.086	4538
865.217	4421
865.349	4447
865.48	4451
865.612	4500
865.743	4626
865.875	4447
866.006	4413
866.137	4440
866.269	4462
866.4	4462
866.531	4394
866.662	4436
866.793	4413
866.924	4432
867.055	4519
867.186	4493
867.317	4436
867.448	4367
867.579	4447
867.71	4348
867.841	4371
867.972	4489
868.103	4451
868.233	4443
868.364	4447
868.495	4500
868.625	4687
868.756	4790
868.886	4542
869.017	4626
869.147	4812
869.278	4786
869.408	4649
869.539	4721
869.669	4672
869.799	4691
869.929	4710
870.06	4782
870.19	4946
870.32	4915
870.45	4949
870.58	4995
870.71	5121
870.84	5113
870.97	4946
871.1	4927
871.23	5151
871.36	5113
871.489	5025
871.619	5124
871.749	5064
871.879	5121
872.008	5159
872.138	5037
872.267	5014
872.397	4854
872.526	4816
872.656	4721
872.785	4793
872.915	4980
873.044	5010
873.173	4999
873.303	4961
873.432	4946
873.561	4946
873.69	4812
873.819	4877
873.948	4919
874.077	4862
874.206	4778
874.335	4805
874.464	4961
874.593	5067
874.722	4942
874.851	5041
874.979	5052
875.108	5079
875.237	4919
875.365	4881
875.494	4919
875.623	4987
875.751	4854
875.88	4915
876.008	5041
876.136	5033
876.265	5155
876.393	5322
876.521	5239
876.65	5250
876.778	5235
876.906	5098
877.034	5067
877.162	5109
877.29	4976
877.418	5060
877.546	5045
877.674	5048
877.802	5041
877.93	4984
878.058	4946
878.185	4805
878.313	4961
878.441	4961
878.568	4828
878.696	4858
878.824	4946
878.951	4980
879.079	5208
879.206	5315
879.333	5143
879.461	4968
879.588	5010
879.715	5124
879.842	5258
879.97	5018
880.097	4786
880.224	4771
880.351	4820
880.478	4847
880.605	4809
880.732	4790
880.859	5045
880.986	4889
881.112	4927
881.239	4752
881.366	4672
881.493	4653
881.619	4573
881.746	4592
881.872	4691
881.999	4691
882.125	4694
882.252	4820
882.378	4877
882.505	4972
882.631	4790
882.757	4721
882.883	4687
883.01	4736
883.136	4649
883.262	4599
883.388	4592
883.514	4801
883.64	4831
883.766	4831
883.892	4683
884.018	4698
884.143	4927
884.269	4995
884.395	4679
884.52	4588
884.646	4645
884.772	4558
884.897	4569
885.023	4637
885.148	4831
885.274	4870
885.399	4835
885.524	4752
885.65	4717
885.775	4752
885.9	4729
886.025	4885
886.15	4763
886.275	4744
886.4	4675
886.525	4721
886.65	4721
886.775	4740
886.9	4911
887.025	5060
887.149	4847
887.274	4653
887.399	4618
887.523	4634
887.648	4577
887.773	4599
887.897	4748
888.021	4771
888.146	4706
888.27	4820
888.395	4866
888.519	4816
888.643	4831
888.767	4900
888.891	4672
889.015	4599
889.139	4675
889.263	4584
889.387	4824
889.511	4850
889.635	4805
889.759	4675
889.883	4687
890.006	4736
890.13	4835
890.254	4615
890.377	4714
890.501	4508
890.624	4459
890.748	4618
890.871	4519
890.995	4440
891.118	4443
891.241	4558
891.364	4535
891.488	4649
891.611	4542
891.734	4523
891.857	4611
891.98	4580
892.103	4706
892.226	4577
892.349	4550
892.471	4436
892.594	4626
892.717	4615
892.839	4584
892.962	4588
893.085	4645
893.207	4569
893.33	4478
893.452	4516
893.575	4683
893.697	4577
893.819	4809
893.941	4870
894.064	4805
894.186	4618
894.308	4580
894.43	4694
894.552	4767
894.674	4721
894.796	4531
894.918	4615
895.04	4618
895.161	4714
895.283	4649
895.405	4512
895.526	4660
895.648	4679
895.769	4717
895.891	4736
896.012	4774
896.134	4721
896.255	4660
896.376	4645
896.498	4672
896.619	4622
896.74	4618
896.861	4668
896.982	4934
897.103	5079
897.224	4881
897.345	4748
897.466	4672
897.587	4729
897.708	4854
897.828	4759
897.949	4733
898.07	4565
898.19	4649
898.311	4873
898.431	4683
898.552	4710
898.672	4824
898.792	4828
898.913	4721
899.033	4649
899.153	4558
899.273	4432
899.393	4481
899.513	4554
899.633	4535
899.753	4561
899.873	4497
899.993	4622
900.113	4523
900.232	4584
900.352	4580
900.472	4443
900.591	4409
900.711	4497
900.83	4485
900.95	4603
901.069	4721
901.189	4569
901.308	4337
901.427	4322
901.546	4405
901.665	4447
901.784	4523
901.904	4413
902.023	4322
902.141	4215
902.26	4147
902.379	4238
902.498	4246
902.617	4215
902.735	4402
902.854	4413
902.973	4363
903.091	4234
903.21	4249
903.328	4299
903.446	4242
903.565	4242
903.683	4386
903.801	4295
903.919	4402
904.038	4504
904.156	4344
904.274	4421
904.392	4440
904.51	4379
904.627	4481
904.745	4596
904.863	4664
904.981	4386
905.098	4314
905.216	4356
905.334	4417
905.451	4409
905.569	4466
905.686	4615
905.803	4580
905.921	4386
906.038	4527
906.155	4523
906.272	4383
906.389	4462
906.506	4341
906.623	4379
906.74	4421
906.857	4280
906.974	4398
907.091	4584
907.208	4706
907.324	4611
907.441	4508
907.557	4367
907.674	4337
907.79	4360
907.907	4371
908.023	4493
908.139	4459
908.256	4436
908.372	4478
908.488	4436
908.604	4348
908.72	4318
908.836	4402
908.952	4348
909.068	4428
909.184	4580
909.3	4462
909.415	4550
909.531	4569
909.647	4375
909.762	4360
909.878	4386
909.993	4432
910.108	4443
910.224	4405
910.339	4489
910.454	4428
910.57	4371
910.685	4322
910.8	4656
910.915	4596
911.03	4527
911.145	4363
911.259	4322
911.374	4394
911.489	4314
911.604	4276
911.718	4158
911.833	4238
911.947	4105
912.062	4078
912.176	4230
912.291	4246
912.405	4219
912.519	4493
912.633	4538
912.748	4386
912.862	4322
912.976	4169
913.09	4090
913.204	4211
913.318	4242
913.431	4390
913.545	4363
913.659	4421
913.772	4371
913.886	4246
914	4215
914.113	4379
914.226	4424
914.34	4447
914.453	4211
914.566	4443
914.68	4291
914.793	4337
914.906	4173
915.019	4105
915.132	4101
915.245	4177
915.358	4207
915.47	4242
915.583	4314
915.696	4299
915.809	4421
915.921	4417
916.034	4249
916.146	4211
916.259	4177
916.371	4375
916.483	4348
916.595	4242
916.708	4314
916.82	4299
916.932	4329
917.044	4329
917.156	4333
917.268	4261
917.38	4303
917.491	4268
917.603	4402
917.715	4424
917.826	4413
917.938	4310
918.049	4234
918.161	4398
918.272	4569
918.384	4508
918.495	4470
918.606	4306
918.717	4215
918.828	4314
918.939	4360
919.05	4246
919.161	4322
919.272	4177
919.383	4230
919.494	4424
919.604	4618
919.715	4405
919.826	4383
919.936	4413
920.047	4569
920.157	4500
920.267	4687
920.378	4546
920.488	4550
920.598	4664
920.708	4870
920.818	4752
920.928	4790
921.038	4957
921.148	4911
921.258	4615
921.368	4527
921.477	4478
921.587	4451
921.697	4443
921.806	4561
921.916	4447
922.025	4303
922.134	4234
922.244	4242
922.353	4306
922.462	4196
922.571	4128
922.68	4032
922.789	4036
922.898	4071
923.007	3960
923.116	4120
923.224	4071
923.333	4105
923.442	3960
923.55	3979
923.659	4036
923.767	4093
923.876	3991
923.984	4093
924.092	4006
924.201	4093
924.309	4112
924.417	4143
924.525	4067
924.633	4074
924.741	4908
924.849	3911
924.956	4120
925.064	3911
925.172	3884
925.279	3991
925.387	4032
925.494	4055
925.602	4196
925.709	4192
925.816	4048
925.924	4139
926.031	4242
926.138	4219
926.245	4219
926.352	4093
926.459	4284
926.566	4333
926.673	4143
926.779	4071
926.886	4051
926.993	3991
927.099	3949
927.206	3884
927.312	3926
927.419	4067
927.525	4040
927.631	4082
927.737	3983
927.843	3937
927.95	3819
928.056	3979
928.162	4017
928.267	4032
928.373	4607
928.479	4124
928.585	3873
928.69	4013
928.796	4078
928.901	3998
929.007	3880
929.112	3994
929.218	3991
929.323	3941
929.428	3953
929.533	4147
929.638	3987
929.743	3968
929.848	4040
929.953	4021
930.058	3918
930.163	3774
930.267	3850
930.372	3983
930.477	3831
930.581	4112
930.685	3964
930.79	3827
930.894	3876
930.998	3857
931.103	4032
931.207	3705
931.311	3705
931.415	3694
931.519	3549
931.623	3557
