Data from test_V78500241_1320.txt Node
Date: Fri Mar 25 16:58:10 CST 2022
User: usil
Spectrometer: V785-0024
Trigger mode: 0
Integration Time (sec): 4.000000E-1
Scans to average: 1
Nonlinearity correction enabled: false
Boxcar width: 0
Storing dark spectrum: false
XAxis mode: Wavelengths
Number of Pixels in Spectrum: 1024
>>>>>Begin Spectral Data<<<<<
801.071	8012
801.214	7986
801.356	7830
801.499	7830
801.641	7807
801.783	7849
801.926	7982
802.068	7928
802.211	7947
802.353	7982
802.496	7757
802.638	7902
802.78	7909
802.923	7944
803.065	7879
803.208	7902
803.35	7978
803.492	8161
803.635	8081
803.777	7982
803.919	8130
804.061	8476
804.204	8126
804.346	8039
804.488	7974
804.63	8107
804.773	8016
804.915	8077
805.057	8290
805.199	8107
805.341	8218
805.483	8267
805.626	8218
805.768	8096
805.91	8176
806.052	8256
806.194	8062
806.336	8252
806.478	8077
806.62	8027
806.762	8142
806.904	8294
807.046	8450
807.188	8339
807.33	8328
807.472	8282
807.614	8119
807.756	8058
807.898	7970
808.04	7928
808.182	7932
808.324	7807
808.465	7921
808.607	8081
808.749	8062
808.891	8199
809.033	8263
809.174	8187
809.316	8039
809.458	8008
809.6	7959
809.741	7970
809.883	7993
810.025	8031
810.166	8031
810.308	8016
810.45	7951
810.591	7849
810.733	7670
810.875	7590
811.016	7537
811.158	7403
811.299	7571
811.441	7719
811.582	7674
811.724	7537
811.865	7495
812.007	7521
812.148	7544
812.29	7548
812.431	7769
812.573	7860
812.714	7993
812.855	8084
812.997	8161
813.138	8286
813.279	8123
813.421	8103
813.562	7944
813.703	7788
813.845	7742
813.986	7472
814.127	7282
814.268	7240
814.41	7209
814.551	7114
814.692	7209
814.833	7061
814.974	7122
815.115	7057
815.256	6958
815.397	6989
815.539	6928
815.68	6863
815.821	6795
815.962	6901
816.103	6806
816.244	6753
816.385	6601
816.526	6589
816.666	6479
816.807	6346
816.948	6460
817.089	6506
817.23	6471
817.371	6365
817.512	6460
817.653	6448
817.793	6437
817.934	6464
818.075	6460
818.216	6418
818.356	6391
818.497	6308
818.638	6121
818.778	6175
818.919	6213
819.06	6178
819.2	6327
819.341	6357
819.481	6388
819.622	6601
819.762	6745
819.903	6707
820.043	6681
820.184	6631
820.324	6582
820.465	6749
820.605	6738
820.746	6696
820.886	6555
821.026	6623
821.167	6738
821.307	6825
821.447	6821
821.588	6726
821.728	6620
821.868	6513
822.008	6388
822.149	6418
822.289	6426
822.429	6125
822.569	6125
822.709	6133
822.849	5920
822.99	5920
823.13	5958
823.27	5946
823.41	5779
823.55	5794
823.69	5824
823.83	5794
823.97	5699
824.11	5558
824.25	5467
824.389	5524
824.529	5608
824.669	5554
824.809	5653
824.949	5703
825.089	5627
825.228	5562
825.368	5395
825.508	5326
825.648	5318
825.787	5383
825.927	5406
826.067	5345
826.206	5349
826.346	5357
826.485	5406
826.625	5444
826.765	5520
826.904	5486
827.044	5280
827.183	5204
827.323	5162
827.462	5315
827.601	5208
827.741	5277
827.88	5288
828.02	5151
828.159	5296
828.298	5326
828.437	5387
828.577	5284
828.716	5539
828.855	5307
828.994	5193
829.134	5174
829.273	5189
829.412	5143
829.551	5140
829.69	5204
829.829	5258
829.968	5360
830.107	5299
830.246	5296
830.385	5181
830.524	5124
830.663	5090
830.802	4999
830.941	4911
831.08	4892
831.219	4999
831.357	4976
831.496	5140
831.635	4938
831.774	4870
831.913	4862
832.051	4797
832.19	4748
832.329	4866
832.467	4717
832.606	4694
832.744	4717
832.883	4736
833.022	4778
833.16	4767
833.299	4892
833.437	4847
833.576	4786
833.714	4881
833.852	4889
833.991	4889
834.129	4953
834.267	4930
834.406	5003
834.544	4995
834.682	5025
834.821	4934
834.959	5204
835.097	5037
835.235	5185
835.373	5090
835.511	5140
835.65	5045
835.788	5094
835.926	4915
836.064	4904
836.202	4915
836.34	5132
836.478	5216
836.615	5170
836.753	5223
836.891	5235
837.029	5242
837.167	5216
837.305	5159
837.443	5155
837.58	5071
837.718	5239
837.856	5197
837.993	5166
838.131	5223
838.269	5227
838.406	5261
838.544	5174
838.681	5045
838.819	5048
838.956	4904
839.094	4984
839.231	4976
839.369	5117
839.506	5383
839.643	5280
839.781	5056
839.918	5018
840.055	5117
840.193	5098
840.33	5155
840.467	5166
840.604	5208
840.742	5429
840.879	5105
841.016	5079
841.153	5147
841.29	5364
841.427	5387
841.564	5307
841.701	5414
841.838	5254
841.975	5254
842.112	5258
842.249	5162
842.385	5132
842.522	5376
842.659	5166
842.796	5189
842.933	5258
843.069	5162
843.206	5136
843.343	5353
843.479	5269
843.616	5258
843.752	5022
843.889	4984
844.025	5250
844.162	5045
844.298	5246
844.435	5143
844.571	5045
844.708	5174
844.844	5280
844.98	5322
845.117	5311
845.253	5121
845.389	5079
845.525	5155
845.661	5185
845.798	5090
845.934	5181
846.07	5045
846.206	5208
846.342	5299
846.478	5185
846.614	5022
846.75	4968
846.886	4999
847.022	5147
847.158	5052
847.294	5083
847.429	5079
847.565	5060
847.701	5322
847.837	4892
847.972	4847
848.108	5006
848.244	4923
848.379	4809
848.515	4793
848.65	4736
848.786	4793
848.921	4801
849.057	4881
849.192	4965
849.328	4797
849.463	4854
849.598	4793
849.734	4759
849.869	4729
850.004	4637
850.14	4679
850.275	4630
850.41	4558
850.545	4542
850.68	4630
850.815	4645
850.95	4626
851.085	4870
851.22	4839
851.355	4710
851.49	4615
851.625	4653
851.76	4687
851.895	4599
852.03	4622
852.165	4679
852.299	4672
852.434	4748
852.569	4759
852.703	4759
852.838	4801
852.973	5003
853.107	4949
853.242	4744
853.376	4698
853.511	4531
853.645	4618
853.78	4786
853.914	4694
854.048	4679
854.183	4649
854.317	4733
854.451	4854
854.585	4717
854.72	4641
854.854	4771
854.988	4622
855.122	4592
855.256	4542
855.39	4656
855.524	4850
855.658	4736
855.792	4736
855.926	4733
856.06	4759
856.194	4790
856.327	4656
856.461	4607
856.595	4618
856.729	4656
856.862	4725
856.996	4691
857.13	4729
857.263	4790
857.397	4843
857.53	4672
857.664	4736
857.797	4771
857.931	4778
858.064	4706
858.197	4786
858.331	4634
858.464	4641
858.597	4512
858.731	4641
858.864	4683
858.997	4580
859.13	4679
859.263	4683
859.396	4729
859.529	4573
859.662	4630
859.795	4554
859.928	4660
860.061	4763
860.194	4740
860.327	4641
860.46	4573
860.592	4702
860.725	4744
860.858	4717
860.99	4577
861.123	4504
861.256	4542
861.388	4611
861.521	5166
861.653	4527
861.786	4485
861.918	4489
862.05	4554
862.183	4584
862.315	4641
862.447	4664
862.58	4596
862.712	4447
862.844	4348
862.976	4470
863.108	4485
863.24	4850
863.372	4322
863.504	4413
863.636	4394
863.768	4481
863.9	4428
864.032	4367
864.164	4428
864.296	4455
864.428	4569
864.559	4569
864.691	4550
864.823	4516
864.954	4527
865.086	4493
865.217	4470
865.349	4409
865.48	4443
865.612	4474
865.743	4660
865.875	4489
866.006	4421
866.137	4527
866.269	4470
866.4	4417
866.531	4402
866.662	4379
866.793	4459
866.924	4421
867.055	4504
867.186	4512
867.317	4421
867.448	4386
867.579	4421
867.71	4405
867.841	4405
867.972	4443
868.103	4485
868.233	4474
868.364	4451
868.495	4516
868.625	4637
868.756	4714
868.886	4569
869.017	4645
869.147	4752
869.278	4816
869.408	4672
869.539	4679
869.669	4721
869.799	4664
869.929	4801
870.06	4733
870.19	4972
870.32	4908
870.45	4908
870.58	5041
870.71	5098
870.84	5151
870.97	4968
871.1	4919
871.23	5151
871.36	5102
871.489	4991
871.619	5083
871.749	5143
871.879	5170
872.008	5166
872.138	5079
872.267	4991
872.397	4870
872.526	4809
872.656	4744
872.785	4774
872.915	4919
873.044	5045
873.173	4934
873.303	4976
873.432	4968
873.561	4999
873.69	4847
873.819	4824
873.948	4938
874.077	4797
874.206	4790
874.335	4820
874.464	4976
874.593	5064
874.722	4987
874.851	5128
874.979	5090
875.108	5029
875.237	4953
875.365	4900
875.494	4930
875.623	4942
875.751	4793
875.88	4908
876.008	4984
876.136	4991
876.265	5208
876.393	5341
876.521	5258
876.65	5189
876.778	5151
876.906	5071
877.034	4972
877.162	5010
877.29	4961
877.418	5052
877.546	5067
877.674	5033
877.802	5079
877.93	5029
878.058	4866
878.185	4881
878.313	4949
878.441	4942
878.568	4778
878.696	4915
878.824	4957
878.951	4946
879.079	5143
879.206	5307
879.333	5083
879.461	5033
879.588	5029
879.715	5117
879.842	5265
879.97	5018
880.097	4812
880.224	4740
880.351	4790
880.478	4797
880.605	4782
880.732	4805
880.859	5098
880.986	4892
881.112	4896
881.239	4759
881.366	4615
881.493	4599
881.619	4603
881.746	4645
881.872	4656
881.999	4664
882.125	4721
882.252	4782
882.378	4797
882.505	4949
882.631	4782
882.757	4706
882.883	4752
883.01	4714
883.136	4637
883.262	4634
883.388	4622
883.514	4828
883.64	4889
883.766	4778
883.892	4672
884.018	4717
884.143	4885
884.269	5029
884.395	4668
884.52	4599
884.646	4672
884.772	4561
884.897	4531
885.023	4702
885.148	4820
885.274	4892
885.399	4866
885.524	4675
885.65	4725
885.775	4729
885.9	4672
886.025	4839
886.15	4782
886.275	4744
886.4	4702
886.525	4729
886.65	4668
886.775	4706
886.9	4934
887.025	5045
887.149	4847
887.274	4618
887.399	4573
887.523	4615
887.648	4641
887.773	4558
887.897	4710
888.021	4790
888.146	4733
888.27	4805
888.395	4904
888.519	4759
888.643	4782
888.767	4828
888.891	4714
889.015	4637
889.139	4637
889.263	4615
889.387	4771
889.511	4862
889.635	4790
889.759	4675
889.883	4653
890.006	4706
890.13	4809
890.254	4592
890.377	4702
890.501	4546
890.624	4554
890.748	4637
890.871	4523
890.995	4405
891.118	4367
891.241	4481
891.364	4527
891.488	4634
891.611	4500
891.734	4523
891.857	4626
891.98	4569
892.103	4649
892.226	4577
892.349	4558
892.471	4394
892.594	4577
892.717	4580
892.839	4554
892.962	4580
893.085	4622
893.207	4580
893.33	4470
893.452	4516
893.575	4611
893.697	4573
893.819	4767
893.941	4839
894.064	4790
894.186	4588
894.308	4637
894.43	4702
894.552	4809
894.674	4759
894.796	4573
894.918	4618
895.04	4584
895.161	4717
895.283	4645
895.405	4596
895.526	4656
895.648	4672
895.769	4717
895.891	4702
896.012	4778
896.134	4714
896.255	4694
896.376	4626
896.498	4561
896.619	4679
896.74	4626
896.861	4653
896.982	4957
897.103	5060
897.224	4824
897.345	4725
897.466	4637
897.587	4755
897.708	4793
897.828	4801
897.949	4634
898.07	4588
898.19	4653
898.311	4801
898.431	4645
898.552	4752
898.672	4759
898.792	4801
898.913	4683
899.033	4637
899.153	4474
899.273	4417
899.393	4455
899.513	4538
899.633	4474
899.753	4550
899.873	4519
899.993	4584
900.113	4519
900.232	4584
900.352	4527
900.472	4466
900.591	4409
900.711	4512
900.83	4421
900.95	4584
901.069	4668
901.189	4538
901.308	4375
901.427	4299
901.546	4398
901.665	4428
901.784	4519
901.904	4398
902.023	4314
902.141	4196
902.26	4207
902.379	4318
902.498	4246
902.617	4257
902.735	4375
902.854	4390
902.973	4325
903.091	4143
903.21	4257
903.328	4268
903.446	4257
903.565	4291
903.683	4352
903.801	4276
903.919	4409
904.038	4432
904.156	4306
904.274	4474
904.392	4363
904.51	4394
904.627	4462
904.745	4565
904.863	4672
904.981	4398
905.098	4280
905.216	4344
905.334	4447
905.451	4428
905.569	4386
905.686	4558
905.803	4531
905.921	4459
906.038	4550
906.155	4440
906.272	4474
906.389	4512
906.506	4325
906.623	4352
906.74	4436
906.857	4314
906.974	4344
907.091	4561
907.208	4687
907.324	4546
907.441	4474
907.557	4291
907.674	4371
907.79	4291
907.907	4360
908.023	4474
908.139	4497
908.256	4409
908.372	4508
908.488	4459
908.604	4356
908.72	4287
908.836	4386
908.952	4398
909.068	4432
909.184	4561
909.3	4523
909.415	4569
909.531	4550
909.647	4348
909.762	4360
909.878	4455
909.993	4424
910.108	4432
910.224	4432
910.339	4538
910.454	4371
910.57	4291
910.685	4306
910.8	4668
910.915	4561
911.03	4500
911.145	4322
911.259	4310
911.374	4413
911.489	4314
911.604	4276
911.718	4177
911.833	4192
911.947	4097
912.062	4044
912.176	4227
912.291	4196
912.405	4265
912.519	4485
912.633	4478
912.748	4341
912.862	4314
912.976	4234
913.09	4051
913.204	4131
913.318	4268
913.431	4363
913.545	4371
913.659	4451
913.772	4413
913.886	4310
914	4223
914.113	4363
914.226	4424
914.34	4325
914.453	4223
914.566	4394
914.68	4333
914.793	4322
914.906	4135
915.019	4154
915.132	4048
915.245	4147
915.358	4234
915.47	4219
915.583	4272
915.696	4344
915.809	4413
915.921	4428
916.034	4295
916.146	4261
916.259	4192
916.371	4356
916.483	4363
916.595	4204
916.708	4306
916.82	4375
916.932	4291
917.044	4333
917.156	4352
917.268	4253
917.38	4246
917.491	4291
917.603	4322
917.715	4417
917.826	4390
917.938	4333
918.049	4219
918.161	4409
918.272	4569
918.384	4504
918.495	4455
918.606	4303
918.717	4227
918.828	4322
918.939	4344
919.05	4242
919.161	4333
919.272	4147
919.383	4230
919.494	4413
919.604	4546
919.715	4383
919.826	4344
919.936	4367
920.047	4569
920.157	4489
920.267	4683
920.378	4550
920.488	4470
920.598	4698
920.708	4892
920.818	4721
920.928	4721
921.038	4873
921.148	4923
921.258	4592
921.368	4565
921.477	4497
921.587	4424
921.697	4386
921.806	4554
921.916	4432
922.025	4253
922.134	4284
922.244	4238
922.353	4337
922.462	4185
922.571	4112
922.68	3972
922.789	3987
922.898	4048
923.007	3983
923.116	4131
923.224	4078
923.333	4063
923.442	3972
923.55	3937
923.659	4032
923.767	4135
923.876	3949
923.984	4135
924.092	3960
924.201	4109
924.309	4048
924.417	4105
924.525	4044
924.633	4090
924.741	5045
924.849	3915
924.956	4109
925.064	3937
925.172	3945
925.279	3949
925.387	4071
925.494	4048
925.602	4219
925.709	4238
925.816	4002
925.924	4112
926.031	4223
926.138	4120
926.245	4200
926.352	4074
926.459	4230
926.566	4314
926.673	4158
926.779	4105
926.886	4101
926.993	3979
927.099	3941
927.206	3930
927.312	3918
927.419	4017
927.525	4002
927.631	4097
927.737	3960
927.843	3972
927.95	3823
928.056	3934
928.162	3949
928.267	4036
928.373	4706
928.479	4131
928.585	3880
928.69	4025
928.796	4067
928.901	3991
929.007	3869
929.112	3991
929.218	3968
929.323	3922
929.428	3956
929.533	4086
929.638	3907
929.743	3983
929.848	4055
929.953	4017
930.058	3945
930.163	3759
930.267	3793
930.372	3941
930.477	3751
930.581	4082
930.685	3930
930.79	3823
930.894	3865
930.998	3838
931.103	4025
931.207	3732
931.311	3663
931.415	3686
931.519	3526
931.623	3538
