Data from test_V78500241_880.txt Node
Date: Fri Mar 25 16:55:07 CST 2022
User: usil
Spectrometer: V785-0024
Trigger mode: 0
Integration Time (sec): 4.000000E-1
Scans to average: 1
Nonlinearity correction enabled: false
Boxcar width: 0
Storing dark spectrum: false
XAxis mode: Wavelengths
Number of Pixels in Spectrum: 1024
>>>>>Begin Spectral Data<<<<<
801.071	8031
801.214	8043
801.356	7864
801.499	7951
801.641	7864
801.783	7792
801.926	8024
802.068	7932
802.211	7932
802.353	7963
802.496	7883
802.638	7894
802.78	7860
802.923	7951
803.065	7909
803.208	7868
803.35	8031
803.492	8153
803.635	8210
803.777	8024
803.919	8138
804.061	8381
804.204	8088
804.346	8012
804.488	7970
804.63	8145
804.773	8065
804.915	8149
805.057	8259
805.199	8138
805.341	8164
805.483	8210
805.626	8164
805.768	8111
805.91	8180
806.052	8119
806.194	8157
806.336	8275
806.478	8111
806.62	8081
806.762	8130
806.904	8240
807.046	8457
807.188	8393
807.33	8362
807.472	8336
807.614	8195
807.756	8130
807.898	8008
808.04	7928
808.182	7894
808.324	7944
808.465	7944
808.607	8031
808.749	8035
808.891	8187
809.033	8320
809.174	8210
809.316	8084
809.458	8008
809.6	8039
809.741	8016
809.883	8062
810.025	8100
810.166	8111
810.308	8092
810.45	8062
810.591	7906
810.733	7769
810.875	7655
811.016	7472
811.158	7521
811.299	7563
811.441	7761
811.582	7681
811.724	7548
811.865	7559
812.007	7628
812.148	7575
812.29	7609
812.431	7727
812.573	7883
812.714	7940
812.855	8161
812.997	8221
813.138	8355
813.279	8237
813.421	8123
813.562	8035
813.703	7849
813.845	7769
813.986	7464
814.127	7297
814.268	7316
814.41	7266
814.551	7107
814.692	7164
814.833	7031
814.974	7164
815.115	7118
815.256	6962
815.397	6935
815.539	6932
815.68	6852
815.821	6818
815.962	6882
816.103	6791
816.244	6738
816.385	6642
816.526	6601
816.666	6570
816.807	6239
816.948	6471
817.089	6448
817.23	6460
817.371	6407
817.512	6376
817.653	6391
817.793	6353
817.934	6391
818.075	6403
818.216	6429
818.356	6361
818.497	6254
818.638	6163
818.778	6133
818.919	6114
819.06	6194
819.2	6361
819.341	6331
819.481	6365
819.622	6490
819.762	6669
819.903	6703
820.043	6585
820.184	6559
820.324	6574
820.465	6627
820.605	6658
820.746	6642
820.886	6494
821.026	6692
821.167	6711
821.307	6745
821.447	6745
821.588	6620
821.728	6593
821.868	6452
822.008	6380
822.149	6388
822.289	6289
822.429	6091
822.569	6057
822.709	6148
822.849	5916
822.99	5939
823.13	5889
823.27	5965
823.41	5794
823.55	5855
823.69	5767
823.83	5760
823.97	5661
824.11	5524
824.25	5535
824.389	5592
824.529	5558
824.669	5532
824.809	5642
824.949	5688
825.089	5638
825.228	5600
825.368	5364
825.508	5318
825.648	5345
825.787	5387
825.927	5364
826.067	5330
826.206	5284
826.346	5402
826.485	5326
826.625	5387
826.765	5520
826.904	5455
827.044	5273
827.183	5162
827.323	5170
827.462	5288
827.601	5155
827.741	5227
827.88	5189
828.02	5113
828.159	5261
828.298	5261
828.437	5349
828.577	5220
828.716	5440
828.855	5299
828.994	5181
829.134	5105
829.273	5208
829.412	5155
829.551	5170
829.69	5124
829.829	5288
829.968	5383
830.107	5242
830.246	5292
830.385	5128
830.524	5098
830.663	5056
830.802	4980
830.941	4885
831.08	4873
831.219	5010
831.357	5014
831.496	5201
831.635	4938
831.774	4790
831.913	4820
832.051	4694
832.19	4752
832.329	4850
832.467	4649
832.606	4641
832.744	4706
832.883	4710
833.022	4790
833.16	4801
833.299	4797
833.437	4793
833.576	4843
833.714	4816
833.852	4896
833.991	4896
834.129	4984
834.267	4930
834.406	4923
834.544	5029
834.682	4968
834.821	4938
834.959	5128
835.097	5006
835.235	5121
835.373	5083
835.511	5075
835.65	5071
835.788	5029
835.926	4919
836.064	4892
836.202	4904
836.34	5170
836.478	5250
836.615	5113
836.753	5208
836.891	5284
837.029	5242
837.167	5159
837.305	5185
837.443	5159
837.58	5067
837.718	5223
837.856	5246
837.993	5124
838.131	5299
838.269	5208
838.406	5204
838.544	5193
838.681	5045
838.819	5033
838.956	4896
839.094	4892
839.231	4976
839.369	5113
839.506	5391
839.643	5296
839.781	5109
839.918	5029
840.055	5098
840.193	5071
840.33	5166
840.467	5185
840.604	5151
840.742	5402
840.879	5086
841.016	5056
841.153	5143
841.29	5353
841.427	5315
841.564	5357
841.701	5376
841.838	5322
841.975	5265
842.112	5246
842.249	5109
842.385	5109
842.522	5303
842.659	5178
842.796	5143
842.933	5212
843.069	5162
843.206	5155
843.343	5296
843.479	5204
843.616	5246
843.752	5041
843.889	5018
844.025	5193
844.162	5025
844.298	5193
844.435	5083
844.571	5060
844.708	5174
844.844	5273
844.98	5330
845.117	5273
845.253	5121
845.389	5075
845.525	5197
845.661	5117
845.798	5010
845.934	5185
846.07	5037
846.206	5170
846.342	5292
846.478	5170
846.614	5056
846.75	4968
846.886	4968
847.022	5151
847.158	5010
847.294	5064
847.429	5105
847.565	5029
847.701	5315
847.837	4812
847.972	4801
848.108	4984
848.244	4889
848.379	4778
848.515	4717
848.65	4694
848.786	4725
848.921	4759
849.057	4850
849.192	4892
849.328	4767
849.463	4831
849.598	4759
849.734	4759
849.869	4710
850.004	4630
850.14	4675
850.275	4618
850.41	4561
850.545	4573
850.68	4626
850.815	4630
850.95	4611
851.085	4831
851.22	4752
851.355	4641
851.49	4588
851.625	4626
851.76	4611
851.895	4523
852.03	4500
852.165	4660
852.299	4721
852.434	4801
852.569	4702
852.703	4759
852.838	4873
852.973	4900
853.107	4885
853.242	4771
853.376	4634
853.511	4573
853.645	4630
853.78	4767
853.914	4664
854.048	4691
854.183	4649
854.317	4656
854.451	4866
854.585	4714
854.72	4615
854.854	4752
854.988	4588
855.122	4660
855.256	4493
855.39	4660
855.524	4755
855.658	4748
855.792	4649
855.926	4698
856.06	4755
856.194	4786
856.327	4698
856.461	4626
856.595	4649
856.729	4618
856.862	4752
856.996	4668
857.13	4694
857.263	4744
857.397	4774
857.53	4637
857.664	4725
857.797	4740
857.931	4752
858.064	4656
858.197	4736
858.331	4626
858.464	4588
858.597	4516
858.731	4615
858.864	4630
858.997	4573
859.13	4584
859.263	4649
859.396	4687
859.529	4580
859.662	4558
859.795	4531
859.928	4656
860.061	4752
860.194	4771
860.327	4592
860.46	4569
860.592	4706
860.725	4717
860.858	4763
860.99	4554
861.123	4527
861.256	4531
861.388	4637
861.521	5341
861.653	4466
861.786	4440
861.918	4436
862.05	4470
862.183	4523
862.315	4622
862.447	4641
862.58	4565
862.712	4371
862.844	4356
862.976	4451
863.108	4413
863.24	4778
863.372	4352
863.504	4398
863.636	4360
863.768	4481
863.9	4447
864.032	4344
864.164	4409
864.296	4462
864.428	4523
864.559	4523
864.691	4519
864.823	4497
864.954	4451
865.086	4481
865.217	4447
865.349	4386
865.48	4447
865.612	4546
865.743	4603
865.875	4481
866.006	4394
866.137	4440
866.269	4451
866.4	4398
866.531	4413
866.662	4383
866.793	4428
866.924	4379
867.055	4470
867.186	4462
867.317	4413
867.448	4348
867.579	4409
867.71	4405
867.841	4352
867.972	4440
868.103	4447
868.233	4428
868.364	4440
868.495	4470
868.625	4649
868.756	4774
868.886	4630
869.017	4687
869.147	4831
869.278	4778
869.408	4660
869.539	4584
869.669	4733
869.799	4645
869.929	4752
870.06	4725
870.19	4980
870.32	4953
870.45	4892
870.58	5018
870.71	5109
870.84	5052
870.97	4915
871.1	4870
871.23	5079
871.36	5121
871.489	5025
871.619	5060
871.749	5166
871.879	5124
872.008	5151
872.138	5022
872.267	4953
872.397	4805
872.526	4831
872.656	4702
872.785	4797
872.915	4965
873.044	5006
873.173	4927
873.303	4900
873.432	4946
873.561	4850
873.69	4889
873.819	4873
873.948	4908
874.077	4816
874.206	4759
874.335	4786
874.464	4938
874.593	5079
874.722	4980
874.851	5098
874.979	5071
875.108	5025
875.237	4904
875.365	4858
875.494	4862
875.623	4938
875.751	4820
875.88	4862
876.008	4953
876.136	5033
876.265	5193
876.393	5334
876.521	5269
876.65	5178
876.778	5132
876.906	5037
877.034	4980
877.162	5014
877.29	4965
877.418	5086
877.546	5064
877.674	5041
877.802	5003
877.93	5014
878.058	4885
878.185	4854
878.313	4942
878.441	4961
878.568	4733
878.696	4847
878.824	4927
878.951	4938
879.079	5132
879.206	5311
879.333	5067
879.461	4934
879.588	5029
879.715	5056
879.842	5212
879.97	4957
880.097	4801
880.224	4702
880.351	4763
880.478	4854
880.605	4790
880.732	4793
880.859	5064
880.986	4866
881.112	4930
881.239	4778
881.366	4664
881.493	4592
881.619	4573
881.746	4622
881.872	4611
881.999	4660
882.125	4717
882.252	4778
882.378	4767
882.505	4972
882.631	4801
882.757	4645
882.883	4744
883.01	4702
883.136	4702
883.262	4626
883.388	4630
883.514	4801
883.64	4843
883.766	4797
883.892	4687
884.018	4702
884.143	4904
884.269	4995
884.395	4645
884.52	4607
884.646	4634
884.772	4603
884.897	4538
885.023	4664
885.148	4812
885.274	4831
885.399	4778
885.524	4725
885.65	4710
885.775	4691
885.9	4679
886.025	4873
886.15	4763
886.275	4702
886.4	4656
886.525	4706
886.65	4656
886.775	4698
886.9	4885
887.025	5045
887.149	4782
887.274	4721
887.399	4599
887.523	4618
887.648	4588
887.773	4573
887.897	4717
888.021	4763
888.146	4645
888.27	4721
888.395	4881
888.519	4793
888.643	4847
888.767	4809
888.891	4691
889.015	4645
889.139	4664
889.263	4687
889.387	4717
889.511	4854
889.635	4790
889.759	4611
889.883	4603
890.006	4725
890.13	4824
890.254	4596
890.377	4668
890.501	4512
890.624	4478
890.748	4630
890.871	4474
890.995	4459
891.118	4379
891.241	4519
891.364	4542
891.488	4615
891.611	4519
891.734	4519
891.857	4626
891.98	4550
892.103	4615
892.226	4569
892.349	4478
892.471	4436
892.594	4523
892.717	4584
892.839	4538
892.962	4618
893.085	4672
893.207	4615
893.33	4432
893.452	4535
893.575	4630
893.697	4535
893.819	4752
893.941	4782
894.064	4774
894.186	4538
894.308	4531
894.43	4717
894.552	4835
894.674	4748
894.796	4527
894.918	4554
895.04	4550
895.161	4714
895.283	4603
895.405	4546
895.526	4596
895.648	4672
895.769	4645
895.891	4660
896.012	4733
896.134	4729
896.255	4660
896.376	4615
896.498	4584
896.619	4683
896.74	4580
896.861	4618
896.982	4908
897.103	5045
897.224	4854
897.345	4672
897.466	4645
897.587	4714
897.708	4862
897.828	4786
897.949	4683
898.07	4577
898.19	4611
898.311	4782
898.431	4645
898.552	4759
898.672	4809
898.792	4809
898.913	4752
899.033	4641
899.153	4459
899.273	4447
899.393	4489
899.513	4516
899.633	4504
899.753	4565
899.873	4500
899.993	4580
900.113	4470
900.232	4592
900.352	4538
900.472	4443
900.591	4402
900.711	4489
900.83	4436
900.95	4580
901.069	4691
901.189	4493
901.308	4333
901.427	4306
901.546	4360
901.665	4447
901.784	4489
901.904	4386
902.023	4352
902.141	4181
902.26	4150
902.379	4318
902.498	4287
902.617	4230
902.735	4375
902.854	4363
902.973	4341
903.091	4196
903.21	4185
903.328	4280
903.446	4249
903.565	4265
903.683	4318
903.801	4284
903.919	4344
904.038	4432
904.156	4295
904.274	4394
904.392	4363
904.51	4424
904.627	4451
904.745	4546
904.863	4611
904.981	4409
905.098	4272
905.216	4363
905.334	4428
905.451	4409
905.569	4440
905.686	4550
905.803	4554
905.921	4432
906.038	4519
906.155	4466
906.272	4432
906.389	4455
906.506	4344
906.623	4352
906.74	4367
906.857	4299
906.974	4363
907.091	4535
907.208	4645
907.324	4546
907.441	4504
907.557	4322
907.674	4356
907.79	4310
907.907	4356
908.023	4443
908.139	4493
908.256	4451
908.372	4470
908.488	4500
908.604	4379
908.72	4310
908.836	4352
908.952	4379
909.068	4417
909.184	4573
909.3	4466
909.415	4611
909.531	4512
909.647	4394
909.762	4383
909.878	4333
909.993	4451
910.108	4383
910.224	4417
910.339	4466
910.454	4405
910.57	4348
910.685	4303
910.8	4649
910.915	4630
911.03	4508
911.145	4348
911.259	4268
911.374	4386
911.489	4280
911.604	4306
911.718	4211
911.833	4192
911.947	4059
912.062	4013
912.176	4230
912.291	4249
912.405	4234
912.519	4474
912.633	4546
912.748	4379
912.862	4306
912.976	4234
913.09	4105
913.204	4207
913.318	4253
913.431	4363
913.545	4371
913.659	4443
913.772	4322
913.886	4261
914	4242
914.113	4386
914.226	4443
914.34	4367
914.453	4253
914.566	4405
914.68	4276
914.793	4337
914.906	4147
915.019	4139
915.132	4029
915.245	4139
915.358	4200
915.47	4257
915.583	4303
915.696	4276
915.809	4363
915.921	4398
916.034	4211
916.146	4261
916.259	4249
916.371	4360
916.483	4333
916.595	4253
916.708	4341
916.82	4344
916.932	4318
917.044	4352
917.156	4337
917.268	4246
917.38	4284
917.491	4272
917.603	4268
917.715	4383
917.826	4428
917.938	4348
918.049	4230
918.161	4363
918.272	4546
918.384	4546
918.495	4436
918.606	4325
918.717	4242
918.828	4318
918.939	4333
919.05	4223
919.161	4306
919.272	4109
919.383	4246
919.494	4443
919.604	4596
919.715	4417
919.826	4371
919.936	4386
920.047	4519
920.157	4462
920.267	4691
920.378	4516
920.488	4508
920.598	4714
920.708	4870
920.818	4725
920.928	4691
921.038	4915
921.148	4873
921.258	4596
921.368	4565
921.477	4481
921.587	4432
921.697	4428
921.806	4558
921.916	4485
922.025	4230
922.134	4242
922.244	4257
922.353	4325
922.462	4158
922.571	4143
922.68	3991
922.789	3926
922.898	4044
923.007	3998
923.116	4097
923.224	4063
923.333	4131
923.442	3949
923.55	3930
923.659	3979
923.767	4109
923.876	4013
923.984	4090
924.092	3979
924.201	4112
924.309	4055
924.417	4051
924.525	4051
924.633	4101
924.741	4820
924.849	3930
924.956	4135
925.064	3911
925.172	3899
925.279	3949
925.387	4044
925.494	4040
925.602	4150
925.709	4185
925.816	4017
925.924	4139
926.031	4211
926.138	4181
926.245	4215
926.352	4128
926.459	4227
926.566	4318
926.673	4158
926.779	4101
926.886	4055
926.993	3994
927.099	3983
927.206	3930
927.312	3949
927.419	4032
927.525	4036
927.631	4116
927.737	3972
927.843	3983
927.95	3854
928.056	3983
928.162	3983
928.267	4040
928.373	4626
928.479	4139
928.585	3854
928.69	4006
928.796	4071
928.901	3979
929.007	3865
929.112	3998
929.218	3964
929.323	3968
929.428	3968
929.533	4059
929.638	3941
929.743	3979
929.848	3998
929.953	4006
930.058	3934
930.163	3747
930.267	3812
930.372	3926
930.477	3819
930.581	4067
930.685	3922
930.79	3816
930.894	3857
930.998	3861
931.103	3979
931.207	3701
931.311	3701
931.415	3686
931.519	3492
931.623	3568
