Data from test_V78500241_1822.txt Node
Date: Fri Mar 25 17:01:40 CST 2022
User: usil
Spectrometer: V785-0024
Trigger mode: 0
Integration Time (sec): 4.000000E-1
Scans to average: 1
Nonlinearity correction enabled: false
Boxcar width: 0
Storing dark spectrum: false
XAxis mode: Wavelengths
Number of Pixels in Spectrum: 1024
>>>>>Begin Spectral Data<<<<<
801.071	7932
801.214	8001
801.356	7864
801.499	7818
801.641	7841
801.783	7826
801.926	8008
802.068	7932
802.211	7944
802.353	7955
802.496	7807
802.638	7849
802.78	7890
802.923	7940
803.065	7890
803.208	7772
803.35	7970
803.492	8039
803.635	8206
803.777	8058
803.919	8168
804.061	8374
804.204	8195
804.346	8077
804.488	7947
804.63	8062
804.773	7993
804.915	8130
805.057	8206
805.199	8180
805.341	8191
805.483	8271
805.626	8172
805.768	8142
805.91	8218
806.052	8240
806.194	8168
806.336	8336
806.478	8157
806.62	8046
806.762	8134
806.904	8221
807.046	8488
807.188	8415
807.33	8328
807.472	8309
807.614	8111
807.756	8142
807.898	8008
808.04	7902
808.182	7932
808.324	7913
808.465	7925
808.607	8100
808.749	8088
808.891	8229
809.033	8248
809.174	8259
809.316	8088
809.458	8096
809.6	8016
809.741	8077
809.883	8012
810.025	8111
810.166	8046
810.308	8062
810.45	7944
810.591	7890
810.733	7681
810.875	7647
811.016	7571
811.158	7472
811.299	7548
811.441	7719
811.582	7636
811.724	7582
811.865	7552
812.007	7575
812.148	7537
812.29	7590
812.431	7738
812.573	7852
812.714	7940
812.855	8134
812.997	8214
813.138	8320
813.279	8149
813.421	8096
813.562	7936
813.703	7811
813.845	7746
813.986	7426
814.127	7259
814.268	7202
814.41	7232
814.551	7228
814.692	7305
814.833	7034
814.974	7137
815.115	7053
815.256	6977
815.397	6894
815.539	6947
815.68	6795
815.821	6730
815.962	6878
816.103	6818
816.244	6715
816.385	6551
816.526	6616
816.666	6563
816.807	6331
816.948	6460
817.089	6445
817.23	6403
817.371	6384
817.512	6319
817.653	6315
817.793	6350
817.934	6426
818.075	6437
818.216	6395
818.356	6445
818.497	6228
818.638	6144
818.778	6114
818.919	6136
819.06	6190
819.2	6338
819.341	6289
819.481	6350
819.622	6464
819.762	6734
819.903	6734
820.043	6585
820.184	6532
820.324	6582
820.465	6677
820.605	6722
820.746	6623
820.886	6502
821.026	6658
821.167	6692
821.307	6772
821.447	6745
821.588	6646
821.728	6620
821.868	6452
822.008	6331
822.149	6414
822.289	6315
822.429	6121
822.569	6133
822.709	6136
822.849	5931
822.99	5859
823.13	5939
823.27	5878
823.41	5779
823.55	5752
823.69	5718
823.83	5756
823.97	5657
824.11	5532
824.25	5467
824.389	5611
824.529	5623
824.669	5535
824.809	5623
824.949	5691
825.089	5676
825.228	5459
825.368	5376
825.508	5326
825.648	5341
825.787	5364
825.927	5372
826.067	5261
826.206	5246
826.346	5387
826.485	5410
826.625	5429
826.765	5528
826.904	5433
827.044	5220
827.183	5170
827.323	5124
827.462	5223
827.601	5151
827.741	5159
827.88	5201
828.02	5124
828.159	5227
828.298	5269
828.437	5357
828.577	5269
828.716	5497
828.855	5296
828.994	5140
829.134	5181
829.273	5178
829.412	5121
829.551	5155
829.69	5197
829.829	5322
829.968	5341
830.107	5265
830.246	5250
830.385	5162
830.524	5136
830.663	5083
830.802	4980
830.941	4873
831.08	4850
831.219	4991
831.357	4987
831.496	5132
831.635	4919
831.774	4850
831.913	4862
832.051	4660
832.19	4797
832.329	4809
832.467	4733
832.606	4634
832.744	4725
832.883	4691
833.022	4702
833.16	4824
833.299	4866
833.437	4812
833.576	4839
833.714	4862
833.852	4892
833.991	4843
834.129	4972
834.267	4980
834.406	4930
834.544	4961
834.682	4942
834.821	4957
834.959	5132
835.097	5018
835.235	5174
835.373	5086
835.511	5064
835.65	5033
835.788	5033
835.926	4850
836.064	4858
836.202	4866
836.34	5143
836.478	5273
836.615	5155
836.753	5204
836.891	5311
837.029	5250
837.167	5174
837.305	5170
837.443	5140
837.58	5067
837.718	5258
837.856	5147
837.993	5185
838.131	5189
838.269	5162
838.406	5204
838.544	5151
838.681	5037
838.819	5010
838.956	4889
839.094	4870
839.231	4953
839.369	5102
839.506	5455
839.643	5250
839.781	5060
839.918	4999
840.055	5060
840.193	5094
840.33	5140
840.467	5102
840.604	5239
840.742	5467
840.879	5067
841.016	5124
841.153	5174
841.29	5349
841.427	5364
841.564	5284
841.701	5322
841.838	5242
841.975	5166
842.112	5265
842.249	5098
842.385	5121
842.522	5330
842.659	5143
842.796	5174
842.933	5212
843.069	5159
843.206	5136
843.343	5318
843.479	5265
843.616	5254
843.752	5014
843.889	5003
844.025	5193
844.162	4961
844.298	5201
844.435	5048
844.571	5060
844.708	5189
844.844	5231
844.98	5299
845.117	5269
845.253	5128
845.389	5083
845.525	5117
845.661	5121
845.798	5025
845.934	5159
846.07	5006
846.206	5181
846.342	5265
846.478	5193
846.614	4991
846.75	4915
846.886	4953
847.022	5083
847.158	4961
847.294	5056
847.429	5105
847.565	5003
847.701	5307
847.837	4881
847.972	4816
848.108	4976
848.244	4911
848.379	4797
848.515	4733
848.65	4679
848.786	4744
848.921	4774
849.057	4850
849.192	4892
849.328	4801
849.463	4885
849.598	4763
849.734	4714
849.869	4714
850.004	4626
850.14	4634
850.275	4592
850.41	4516
850.545	4527
850.68	4584
850.815	4637
850.95	4599
851.085	4877
851.22	4687
851.355	4660
851.49	4672
851.625	4603
851.76	4573
851.895	4565
852.03	4523
852.165	4622
852.299	4748
852.434	4763
852.569	4752
852.703	4763
852.838	4858
852.973	4885
853.107	4862
853.242	4672
853.376	4649
853.511	4542
853.645	4611
853.78	4801
853.914	4653
854.048	4683
854.183	4641
854.317	4694
854.451	4866
854.585	4668
854.72	4626
854.854	4721
854.988	4580
855.122	4577
855.256	4497
855.39	4664
855.524	4744
855.658	4717
855.792	4729
855.926	4744
856.06	4717
856.194	4839
856.327	4656
856.461	4573
856.595	4588
856.729	4645
856.862	4752
856.996	4668
857.13	4748
857.263	4714
857.397	4801
857.53	4630
857.664	4725
857.797	4740
857.931	4763
858.064	4702
858.197	4725
858.331	4626
858.464	4599
858.597	4535
858.731	4611
858.864	4607
858.997	4554
859.13	4653
859.263	4664
859.396	4702
859.529	4584
859.662	4542
859.795	4558
859.928	4615
860.061	4767
860.194	4786
860.327	4679
860.46	4580
860.592	4664
860.725	4656
860.858	4694
860.99	4592
861.123	4527
861.256	4527
861.388	4584
861.521	5417
861.653	4489
861.786	4424
861.918	4440
862.05	4489
862.183	4550
862.315	4599
862.447	4664
862.58	4497
862.712	4352
862.844	4318
862.976	4462
863.108	4436
863.24	4862
863.372	4299
863.504	4344
863.636	4386
863.768	4451
863.9	4421
864.032	4352
864.164	4421
864.296	4527
864.428	4519
864.559	4508
864.691	4500
864.823	4497
864.954	4500
865.086	4474
865.217	4405
865.349	4417
865.48	4443
865.612	4459
865.743	4565
865.875	4474
866.006	4436
866.137	4455
866.269	4405
866.4	4428
866.531	4383
866.662	4417
866.793	4383
866.924	4402
867.055	4466
867.186	4428
867.317	4405
867.448	4383
867.579	4428
867.71	4428
867.841	4341
867.972	4470
868.103	4436
868.233	4443
868.364	4436
868.495	4504
868.625	4653
868.756	4729
868.886	4550
869.017	4584
869.147	4748
869.278	4714
869.408	4653
869.539	4634
869.669	4683
869.799	4611
869.929	4729
870.06	4744
870.19	4987
870.32	4911
870.45	4953
870.58	5025
870.71	5098
870.84	5083
870.97	5003
871.1	4870
871.23	5143
871.36	5109
871.489	5029
871.619	5071
871.749	5094
871.879	5121
872.008	5223
872.138	5006
872.267	4972
872.397	4824
872.526	4835
872.656	4725
872.785	4797
872.915	4984
873.044	4987
873.173	4892
873.303	4976
873.432	4968
873.561	4957
873.69	4866
873.819	4870
873.948	4896
874.077	4809
874.206	4774
874.335	4793
874.464	4927
874.593	5056
874.722	4961
874.851	5067
874.979	5045
875.108	4991
875.237	4984
875.365	4854
875.494	4942
875.623	4984
875.751	4870
875.88	4900
876.008	5003
876.136	5006
876.265	5162
876.393	5280
876.521	5261
876.65	5250
876.778	5189
876.906	5102
877.034	5064
877.162	5003
877.29	4927
877.418	5071
877.546	5037
877.674	4987
877.802	5025
877.93	4984
878.058	4972
878.185	4835
878.313	4953
878.441	4919
878.568	4809
878.696	4923
878.824	4972
878.951	4968
879.079	5128
879.206	5284
879.333	5109
879.461	4999
879.588	5003
879.715	5102
879.842	5212
879.97	4976
880.097	4786
880.224	4729
880.351	4797
880.478	4812
880.605	4816
880.732	4767
880.859	5075
880.986	4923
881.112	4889
881.239	4763
881.366	4641
881.493	4622
881.619	4596
881.746	4698
881.872	4626
881.999	4653
882.125	4656
882.252	4809
882.378	4816
882.505	4942
882.631	4763
882.757	4672
882.883	4725
883.01	4691
883.136	4668
883.262	4660
883.388	4607
883.514	4847
883.64	4889
883.766	4767
883.892	4634
884.018	4725
884.143	4900
884.269	5048
884.395	4683
884.52	4596
884.646	4660
884.772	4588
884.897	4573
885.023	4656
885.148	4771
885.274	4862
885.399	4740
885.524	4744
885.65	4679
885.775	4771
885.9	4683
886.025	4839
886.15	4763
886.275	4729
886.4	4637
886.525	4679
886.65	4664
886.775	4710
886.9	4870
887.025	5025
887.149	4801
887.274	4599
887.399	4546
887.523	4618
887.648	4558
887.773	4599
887.897	4801
888.021	4725
888.146	4679
888.27	4812
888.395	4904
888.519	4774
888.643	4774
888.767	4816
888.891	4702
889.015	4588
889.139	4615
889.263	4626
889.387	4748
889.511	4873
889.635	4767
889.759	4626
889.883	4641
890.006	4698
890.13	4839
890.254	4599
890.377	4717
890.501	4565
890.624	4519
890.748	4626
890.871	4523
890.995	4432
891.118	4398
891.241	4523
891.364	4565
891.488	4611
891.611	4538
891.734	4466
891.857	4611
891.98	4554
892.103	4618
892.226	4565
892.349	4523
892.471	4466
892.594	4561
892.717	4603
892.839	4550
892.962	4561
893.085	4573
893.207	4588
893.33	4455
893.452	4481
893.575	4683
893.697	4596
893.819	4790
893.941	4771
894.064	4702
894.186	4554
894.308	4577
894.43	4698
894.552	4835
894.674	4763
894.796	4546
894.918	4584
895.04	4573
895.161	4664
895.283	4668
895.405	4592
895.526	4618
895.648	4649
895.769	4694
895.891	4694
896.012	4698
896.134	4725
896.255	4668
896.376	4649
896.498	4577
896.619	4706
896.74	4599
896.861	4656
896.982	4877
897.103	5025
897.224	4812
897.345	4717
897.466	4637
897.587	4755
897.708	4873
897.828	4820
897.949	4649
898.07	4573
898.19	4634
898.311	4839
898.431	4626
898.552	4721
898.672	4790
898.792	4755
898.913	4687
899.033	4615
899.153	4538
899.273	4421
899.393	4519
899.513	4474
899.633	4538
899.753	4542
899.873	4508
899.993	4558
900.113	4546
900.232	4596
900.352	4516
900.472	4500
900.591	4394
900.711	4474
900.83	4478
900.95	4630
901.069	4687
901.189	4561
901.308	4291
901.427	4303
901.546	4367
901.665	4497
901.784	4451
901.904	4386
902.023	4356
902.141	4158
902.26	4128
902.379	4333
902.498	4238
902.617	4200
902.735	4375
902.854	4394
902.973	4329
903.091	4192
903.21	4246
903.328	4295
903.446	4257
903.565	4223
903.683	4329
903.801	4272
903.919	4413
904.038	4474
904.156	4303
904.274	4402
904.392	4413
904.51	4451
904.627	4432
904.745	4523
904.863	4596
904.981	4375
905.098	4276
905.216	4375
905.334	4436
905.451	4470
905.569	4413
905.686	4542
905.803	4596
905.921	4402
906.038	4565
906.155	4531
906.272	4386
906.389	4493
906.506	4356
906.623	4424
906.74	4421
906.857	4310
906.974	4367
907.091	4531
907.208	4622
907.324	4569
907.441	4474
907.557	4344
907.674	4314
907.79	4314
907.907	4405
908.023	4489
908.139	4478
908.256	4409
908.372	4481
908.488	4428
908.604	4371
908.72	4314
908.836	4367
908.952	4367
909.068	4390
909.184	4580
909.3	4493
909.415	4592
909.531	4558
909.647	4344
909.762	4363
909.878	4329
909.993	4405
910.108	4405
910.224	4394
910.339	4440
910.454	4386
910.57	4329
910.685	4318
910.8	4645
910.915	4611
911.03	4455
911.145	4295
911.259	4314
911.374	4341
911.489	4284
911.604	4280
911.718	4162
911.833	4158
911.947	4112
912.062	4010
912.176	4253
912.291	4219
912.405	4287
912.519	4474
912.633	4542
912.748	4386
912.862	4314
912.976	4185
913.09	4131
913.204	4169
913.318	4265
913.431	4409
913.545	4375
913.659	4398
913.772	4371
913.886	4257
914	4219
914.113	4352
914.226	4447
914.34	4413
914.453	4230
914.566	4440
914.68	4287
914.793	4322
914.906	4177
915.019	4166
915.132	4059
915.245	4135
915.358	4204
915.47	4219
915.583	4280
915.696	4261
915.809	4405
915.921	4440
916.034	4261
916.146	4257
916.259	4177
916.371	4363
916.483	4341
916.595	4284
916.708	4333
916.82	4318
916.932	4337
917.044	4318
917.156	4333
917.268	4234
917.38	4280
917.491	4284
917.603	4310
917.715	4402
917.826	4402
917.938	4341
918.049	4291
918.161	4436
918.272	4523
918.384	4592
918.495	4409
918.606	4291
918.717	4253
918.828	4352
918.939	4398
919.05	4219
919.161	4291
919.272	4090
919.383	4204
919.494	4421
919.604	4626
919.715	4421
919.826	4287
919.936	4363
920.047	4493
920.157	4508
920.267	4691
920.378	4554
920.488	4451
920.598	4706
920.708	4831
920.818	4736
920.928	4752
921.038	4980
921.148	4949
921.258	4618
921.368	4538
921.477	4428
921.587	4470
921.697	4402
921.806	4527
921.916	4402
922.025	4306
922.134	4253
922.244	4219
922.353	4322
922.462	4177
922.571	4128
922.68	4006
922.789	4006
922.898	4040
923.007	4017
923.116	4086
923.224	4067
923.333	4071
923.442	3960
923.55	3991
923.659	4013
923.767	4059
923.876	4040
923.984	4090
924.092	3949
924.201	4090
924.309	4051
924.417	4101
924.525	3998
924.633	4112
924.741	5064
924.849	3911
924.956	4185
925.064	3937
925.172	3892
925.279	3998
925.387	4074
925.494	4029
925.602	4188
925.709	4188
925.816	4032
925.924	4173
926.031	4223
926.138	4185
926.245	4223
926.352	4078
926.459	4265
926.566	4333
926.673	4139
926.779	4139
926.886	4071
926.993	3987
927.099	3930
927.206	3941
927.312	3998
927.419	4051
927.525	4029
927.631	4120
927.737	3934
927.843	3899
927.95	3812
928.056	3979
928.162	3975
928.267	4059
928.373	4592
928.479	4124
928.585	3903
928.69	4002
928.796	4017
928.901	3953
929.007	3854
929.112	4006
929.218	4002
929.323	3949
929.428	3926
929.533	4105
929.638	3956
929.743	3968
929.848	4029
929.953	4013
930.058	3907
930.163	3797
930.267	3804
930.372	3964
930.477	3789
930.581	4101
930.685	3922
930.79	3823
930.894	3907
930.998	3854
931.103	4025
931.207	3720
931.311	3686
931.415	3667
931.519	3564
931.623	3557
