Data from test_V78500241_729.txt Node
Date: Fri Mar 25 16:54:04 CST 2022
User: usil
Spectrometer: V785-0024
Trigger mode: 0
Integration Time (sec): 4.000000E-1
Scans to average: 1
Nonlinearity correction enabled: false
Boxcar width: 0
Storing dark spectrum: false
XAxis mode: Wavelengths
Number of Pixels in Spectrum: 1024
>>>>>Begin Spectral Data<<<<<
801.071	7967
801.214	8001
801.356	7852
801.499	7902
801.641	7742
801.783	7811
801.926	8012
802.068	7932
802.211	7947
802.353	8012
802.496	7898
802.638	7883
802.78	7849
802.923	7913
803.065	7799
803.208	7883
803.35	7993
803.492	8020
803.635	8130
803.777	8024
803.919	8073
804.061	8343
804.204	8050
804.346	8043
804.488	8005
804.63	8111
804.773	8043
804.915	7974
805.057	8294
805.199	8157
805.341	8252
805.483	8229
805.626	8237
805.768	8073
805.91	8202
806.052	8180
806.194	8077
806.336	8298
806.478	8100
806.62	8035
806.762	8100
806.904	8305
807.046	8465
807.188	8347
807.33	8229
807.472	8309
807.614	8191
807.756	8123
807.898	7917
808.04	7860
808.182	7925
808.324	7841
808.465	7913
808.607	8039
808.749	8103
808.891	8138
809.033	8279
809.174	8180
809.316	8046
809.458	8005
809.6	7944
809.741	7986
809.883	8027
810.025	8103
810.166	8092
810.308	8016
810.45	8035
810.591	7841
810.733	7742
810.875	7632
811.016	7453
811.158	7491
811.299	7590
811.441	7693
811.582	7624
811.724	7540
811.865	7506
812.007	7548
812.148	7544
812.29	7563
812.431	7628
812.573	7837
812.714	7928
812.855	8115
812.997	8206
813.138	8317
813.279	8138
813.421	8054
813.562	8020
813.703	7868
813.845	7776
813.986	7419
814.127	7308
814.268	7266
814.41	7213
814.551	7137
814.692	7171
814.833	7080
814.974	7099
815.115	7122
815.256	6947
815.397	6970
815.539	6962
815.68	6840
815.821	6798
815.962	6802
816.103	6768
816.244	6681
816.385	6589
816.526	6570
816.666	6525
816.807	6304
816.948	6418
817.089	6460
817.23	6486
817.371	6338
817.512	6426
817.653	6376
817.793	6357
817.934	6338
818.075	6441
818.216	6403
818.356	6376
818.497	6220
818.638	6072
818.778	6076
818.919	6136
819.06	6121
819.2	6266
819.341	6311
819.481	6323
819.622	6441
819.762	6726
819.903	6665
820.043	6563
820.184	6555
820.324	6589
820.465	6646
820.605	6635
820.746	6589
820.886	6479
821.026	6639
821.167	6669
821.307	6783
821.447	6715
821.588	6616
821.728	6494
821.868	6464
822.008	6327
822.149	6311
822.289	6315
822.429	6167
822.569	6026
822.709	6110
822.849	5847
822.99	5946
823.13	5893
823.27	5878
823.41	5821
823.55	5775
823.69	5794
823.83	5786
823.97	5634
824.11	5520
824.25	5528
824.389	5520
824.529	5589
824.669	5463
824.809	5604
824.949	5703
825.089	5577
825.228	5539
825.368	5372
825.508	5303
825.648	5353
825.787	5379
825.927	5364
826.067	5330
826.206	5337
826.346	5398
826.485	5395
826.625	5395
826.765	5604
826.904	5452
827.044	5231
827.183	5189
827.323	5113
827.462	5284
827.601	5132
827.741	5246
827.88	5204
828.02	5117
828.159	5246
828.298	5337
828.437	5353
828.577	5330
828.716	5524
828.855	5322
828.994	5181
829.134	5151
829.273	5235
829.412	5162
829.551	5143
829.69	5166
829.829	5235
829.968	5406
830.107	5322
830.246	5284
830.385	5223
830.524	5151
830.663	5105
830.802	5018
830.941	4904
831.08	4889
831.219	5037
831.357	5029
831.496	5216
831.635	4972
831.774	4854
831.913	4847
832.051	4721
832.19	4809
832.329	4892
832.467	4733
832.606	4698
832.744	4801
832.883	4782
833.022	4801
833.16	4816
833.299	4839
833.437	4870
833.576	4911
833.714	4881
833.852	4854
833.991	4896
834.129	5048
834.267	5033
834.406	4942
834.544	4980
834.682	4995
834.821	5003
834.959	5208
835.097	4984
835.235	5201
835.373	5105
835.511	5143
835.65	5090
835.788	5022
835.926	4953
836.064	4942
836.202	4911
836.34	5246
836.478	5315
836.615	5124
836.753	5261
836.891	5364
837.029	5204
837.167	5242
837.305	5189
837.443	5159
837.58	5105
837.718	5288
837.856	5197
837.993	5151
838.131	5303
838.269	5239
838.406	5265
838.544	5201
838.681	5067
838.819	5048
838.956	4896
839.094	4965
839.231	5045
839.369	5105
839.506	5467
839.643	5269
839.781	5113
839.918	5052
840.055	5102
840.193	5151
840.33	5117
840.467	5155
840.604	5216
840.742	5478
840.879	5105
841.016	5162
841.153	5151
841.29	5337
841.427	5391
841.564	5353
841.701	5383
841.838	5322
841.975	5258
842.112	5330
842.249	5181
842.385	5185
842.522	5353
842.659	5227
842.796	5223
842.933	5254
843.069	5151
843.206	5204
843.343	5311
843.479	5258
843.616	5284
843.752	5113
843.889	5056
844.025	5250
844.162	5064
844.298	5208
844.435	5113
844.571	5060
844.708	5212
844.844	5360
844.98	5334
845.117	5334
845.253	5174
845.389	5079
845.525	5242
845.661	5140
845.798	5109
845.934	5162
846.07	5056
846.206	5231
846.342	5288
846.478	5204
846.614	5006
846.75	5037
846.886	4900
847.022	5170
847.158	5010
847.294	5067
847.429	5124
847.565	5079
847.701	5372
847.837	4919
847.972	4858
848.108	5003
848.244	4946
848.379	4831
848.515	4755
848.65	4744
848.786	4786
848.921	4790
849.057	4892
849.192	4919
849.328	4850
849.463	4850
849.598	4850
849.734	4793
849.869	4767
850.004	4637
850.14	4675
850.275	4630
850.41	4565
850.545	4596
850.68	4656
850.815	4668
850.95	4672
851.085	4896
851.22	4801
851.355	4637
851.49	4577
851.625	4649
851.76	4694
851.895	4546
852.03	4561
852.165	4694
852.299	4786
852.434	4797
852.569	4805
852.703	4793
852.838	4892
852.973	4949
853.107	4965
853.242	4752
853.376	4717
853.511	4599
853.645	4611
853.78	4820
853.914	4687
854.048	4736
854.183	4672
854.317	4725
854.451	4870
854.585	4710
854.72	4641
854.854	4767
854.988	4618
855.122	4641
855.256	4538
855.39	4668
855.524	4801
855.658	4740
855.792	4717
855.926	4790
856.06	4782
856.194	4839
856.327	4710
856.461	4683
856.595	4630
856.729	4645
856.862	4744
856.996	4664
857.13	4740
857.263	4793
857.397	4835
857.53	4717
857.664	4710
857.797	4721
857.931	4816
858.064	4729
858.197	4748
858.331	4653
858.464	4645
858.597	4588
858.731	4687
858.864	4675
858.997	4645
859.13	4675
859.263	4691
859.396	4782
859.529	4622
859.662	4611
859.795	4592
859.928	4679
860.061	4774
860.194	4763
860.327	4649
860.46	4569
860.592	4714
860.725	4687
860.858	4767
860.99	4618
861.123	4519
861.256	4542
861.388	4634
861.521	5414
861.653	4538
861.786	4428
861.918	4485
862.05	4565
862.183	4603
862.315	4653
862.447	4645
862.58	4565
862.712	4459
862.844	4333
862.976	4500
863.108	4489
863.24	4889
863.372	4325
863.504	4508
863.636	4432
863.768	4493
863.9	4447
864.032	4394
864.164	4451
864.296	4500
864.428	4561
864.559	4603
864.691	4580
864.823	4527
864.954	4531
865.086	4584
865.217	4516
865.349	4424
865.48	4516
865.612	4485
865.743	4599
865.875	4474
866.006	4417
866.137	4489
866.269	4440
866.4	4470
866.531	4424
866.662	4443
866.793	4432
866.924	4481
867.055	4531
867.186	4481
867.317	4428
867.448	4413
867.579	4367
867.71	4417
867.841	4383
867.972	4447
868.103	4455
868.233	4417
868.364	4451
868.495	4531
868.625	4668
868.756	4729
868.886	4618
869.017	4637
869.147	4809
869.278	4793
869.408	4694
869.539	4653
869.669	4740
869.799	4691
869.929	4774
870.06	4774
870.19	4968
870.32	4923
870.45	4946
870.58	4984
870.71	5102
870.84	5113
870.97	4991
871.1	4949
871.23	5166
871.36	5162
871.489	5037
871.619	5079
871.749	5151
871.879	5155
872.008	5140
872.138	5071
872.267	5025
872.397	4873
872.526	4786
872.656	4729
872.785	4759
872.915	4953
873.044	5022
873.173	4957
873.303	4995
873.432	4991
873.561	4991
873.69	4927
873.819	4885
873.948	4934
874.077	4797
874.206	4797
874.335	4816
874.464	4942
874.593	5048
874.722	5006
874.851	5098
874.979	5064
875.108	5037
875.237	4892
875.365	4896
875.494	4858
875.623	4991
875.751	4831
875.88	4946
876.008	4991
876.136	5025
876.265	5246
876.393	5318
876.521	5216
876.65	5242
876.778	5235
876.906	5113
877.034	5098
877.162	5037
877.29	5018
877.418	5045
877.546	5102
877.674	5064
877.802	5018
877.93	4957
878.058	4995
878.185	4915
878.313	4949
878.441	4991
878.568	4835
878.696	4927
878.824	4995
878.951	4999
879.079	5117
879.206	5307
879.333	5124
879.461	5018
879.588	5056
879.715	5117
879.842	5254
879.97	5048
880.097	4771
880.224	4778
880.351	4778
880.478	4862
880.605	4816
880.732	4816
880.859	5064
880.986	4934
881.112	4934
881.239	4805
881.366	4717
881.493	4668
881.619	4634
881.746	4637
881.872	4626
881.999	4672
882.125	4691
882.252	4858
882.378	4809
882.505	4938
882.631	4790
882.757	4656
882.883	4797
883.01	4725
883.136	4672
883.262	4672
883.388	4630
883.514	4892
883.64	4889
883.766	4812
883.892	4683
884.018	4733
884.143	4919
884.269	5025
884.395	4691
884.52	4603
884.646	4634
884.772	4565
884.897	4592
885.023	4679
885.148	4790
885.274	4835
885.399	4793
885.524	4725
885.65	4691
885.775	4805
885.9	4744
886.025	4824
886.15	4809
886.275	4752
886.4	4683
886.525	4752
886.65	4725
886.775	4683
886.9	4911
887.025	5060
887.149	4828
887.274	4702
887.399	4668
887.523	4649
887.648	4596
887.773	4580
887.897	4805
888.021	4839
888.146	4683
888.27	4835
888.395	4938
888.519	4793
888.643	4778
888.767	4805
888.891	4637
889.015	4584
889.139	4691
889.263	4660
889.387	4744
889.511	4881
889.635	4820
889.759	4694
889.883	4641
890.006	4706
890.13	4877
890.254	4672
890.377	4660
890.501	4569
890.624	4516
890.748	4611
890.871	4554
890.995	4474
891.118	4360
891.241	4470
891.364	4565
891.488	4637
891.611	4508
891.734	4603
891.857	4615
891.98	4577
892.103	4710
892.226	4603
892.349	4584
892.471	4421
892.594	4546
892.717	4626
892.839	4626
892.962	4603
893.085	4637
893.207	4611
893.33	4443
893.452	4535
893.575	4714
893.697	4573
893.819	4854
893.941	4881
894.064	4767
894.186	4569
894.308	4580
894.43	4748
894.552	4831
894.674	4790
894.796	4565
894.918	4634
895.04	4599
895.161	4721
895.283	4675
895.405	4603
895.526	4649
895.648	4710
895.769	4706
895.891	4679
896.012	4771
896.134	4748
896.255	4702
896.376	4634
896.498	4679
896.619	4672
896.74	4675
896.861	4679
896.982	4873
897.103	5121
897.224	4835
897.345	4721
897.466	4710
897.587	4679
897.708	4847
897.828	4774
897.949	4736
898.07	4558
898.19	4683
898.311	4866
898.431	4729
898.552	4759
898.672	4850
898.792	4793
898.913	4805
899.033	4641
899.153	4504
899.273	4447
899.393	4516
899.513	4561
899.633	4538
899.753	4527
899.873	4497
899.993	4573
900.113	4550
900.232	4599
900.352	4565
900.472	4516
900.591	4383
900.711	4527
900.83	4424
900.95	4611
901.069	4687
901.189	4580
901.308	4432
901.427	4329
901.546	4421
901.665	4447
901.784	4493
901.904	4398
902.023	4356
902.141	4196
902.26	4192
902.379	4329
902.498	4284
902.617	4246
902.735	4398
902.854	4409
902.973	4383
903.091	4219
903.21	4253
903.328	4299
903.446	4261
903.565	4234
903.683	4322
903.801	4284
903.919	4386
904.038	4436
904.156	4337
904.274	4451
904.392	4413
904.51	4462
904.627	4481
904.745	4584
904.863	4687
904.981	4390
905.098	4348
905.216	4360
905.334	4409
905.451	4440
905.569	4432
905.686	4573
905.803	4569
905.921	4398
906.038	4535
906.155	4516
906.272	4421
906.389	4421
906.506	4390
906.623	4344
906.74	4386
906.857	4341
906.974	4428
907.091	4573
907.208	4706
907.324	4561
907.441	4527
907.557	4333
907.674	4367
907.79	4314
907.907	4386
908.023	4485
908.139	4466
908.256	4443
908.372	4504
908.488	4459
908.604	4390
908.72	4333
908.836	4440
908.952	4398
909.068	4413
909.184	4580
909.3	4466
909.415	4565
909.531	4577
909.647	4341
909.762	4348
909.878	4360
909.993	4432
910.108	4417
910.224	4424
910.339	4470
910.454	4409
910.57	4352
910.685	4341
910.8	4675
910.915	4546
911.03	4466
911.145	4276
911.259	4367
911.374	4402
911.489	4329
911.604	4314
911.718	4188
911.833	4211
911.947	4120
912.062	4032
912.176	4196
912.291	4261
912.405	4257
912.519	4440
912.633	4493
912.748	4386
912.862	4303
912.976	4207
913.09	4078
913.204	4192
913.318	4291
913.431	4356
913.545	4367
913.659	4424
913.772	4390
913.886	4280
914	4325
914.113	4383
914.226	4424
914.34	4432
914.453	4265
914.566	4405
914.68	4341
914.793	4329
914.906	4169
915.019	4112
915.132	4071
915.245	4207
915.358	4211
915.47	4261
915.583	4295
915.696	4337
915.809	4421
915.921	4432
916.034	4253
916.146	4280
916.259	4234
916.371	4383
916.483	4352
916.595	4253
916.708	4371
916.82	4306
916.932	4371
917.044	4329
917.156	4318
917.268	4196
917.38	4253
917.491	4276
917.603	4303
917.715	4428
917.826	4413
917.938	4405
918.049	4238
918.161	4405
918.272	4512
918.384	4508
918.495	4398
918.606	4337
918.717	4257
918.828	4337
918.939	4363
919.05	4238
919.161	4299
919.272	4192
919.383	4200
919.494	4462
919.604	4626
919.715	4443
919.826	4375
919.936	4398
920.047	4519
920.157	4519
920.267	4664
920.378	4523
920.488	4485
920.598	4710
920.708	4927
920.818	4767
920.928	4759
921.038	4972
921.148	4908
921.258	4618
921.368	4535
921.477	4512
921.587	4508
921.697	4417
921.806	4489
921.916	4417
922.025	4265
922.134	4272
922.244	4246
922.353	4337
922.462	4169
922.571	4158
922.68	4006
922.789	4021
922.898	4048
923.007	3964
923.116	4135
923.224	4086
923.333	4086
923.442	4010
923.55	3987
923.659	4044
923.767	4067
923.876	3987
923.984	4143
924.092	3945
924.201	4071
924.309	4147
924.417	4154
924.525	4010
924.633	4051
924.741	4980
924.849	3869
924.956	4150
925.064	3991
925.172	3926
925.279	3987
925.387	4029
925.494	4044
925.602	4204
925.709	4154
925.816	4055
925.924	4128
926.031	4207
926.138	4147
926.245	4223
926.352	4112
926.459	4219
926.566	4348
926.673	4196
926.779	4055
926.886	4112
926.993	3979
927.099	3949
927.206	3972
927.312	3918
927.419	4048
927.525	4044
927.631	4124
927.737	3937
927.843	3934
927.95	3854
928.056	3975
928.162	4010
928.267	4051
928.373	4702
928.479	4112
928.585	3896
928.69	4025
928.796	4093
928.901	3945
929.007	3835
929.112	4017
929.218	3960
929.323	3922
929.428	3975
929.533	4128
929.638	3926
929.743	3941
929.848	4029
929.953	4010
930.058	3926
930.163	3793
930.267	3804
930.372	3956
930.477	3838
930.581	4051
930.685	3915
930.79	3819
930.894	3899
930.998	3880
931.103	4021
931.207	3736
931.311	3686
931.415	3671
931.519	3507
931.623	3564
