Data from test_V78500241_2436.txt Node
Date: Fri Mar 25 17:05:56 CST 2022
User: usil
Spectrometer: V785-0024
Trigger mode: 0
Integration Time (sec): 4.000000E-1
Scans to average: 1
Nonlinearity correction enabled: false
Boxcar width: 0
Storing dark spectrum: false
XAxis mode: Wavelengths
Number of Pixels in Spectrum: 1024
>>>>>Begin Spectral Data<<<<<
801.071	8012
801.214	8005
801.356	7841
801.499	7822
801.641	7792
801.783	7852
801.926	7940
802.068	7894
802.211	8020
802.353	7963
802.496	7826
802.638	7875
802.78	7951
802.923	7860
803.065	7894
803.208	7852
803.35	8043
803.492	8092
803.635	8138
803.777	8073
803.919	8172
804.061	8503
804.204	8195
804.346	8115
804.488	7959
804.63	8088
804.773	8062
804.915	8130
805.057	8343
805.199	8202
805.341	8233
805.483	8290
805.626	8355
805.768	8164
805.91	8172
806.052	8218
806.194	8115
806.336	8290
806.478	8126
806.62	8035
806.762	8145
806.904	8259
807.046	8431
807.188	8404
807.33	8355
807.472	8336
807.614	8172
807.756	8161
807.898	8043
808.04	7830
808.182	7845
808.324	7852
808.465	7871
808.607	8058
808.749	8088
808.891	8271
809.033	8355
809.174	8336
809.316	8081
809.458	8103
809.6	8031
809.741	8100
809.883	8084
810.025	8046
810.166	8088
810.308	8069
810.45	8065
810.591	7944
810.733	7818
810.875	7693
811.016	7620
811.158	7449
811.299	7628
811.441	7719
811.582	7689
811.724	7605
811.865	7510
812.007	7605
812.148	7609
812.29	7624
812.431	7742
812.573	7879
812.714	7959
812.855	8058
812.997	8183
813.138	8279
813.279	8244
813.421	8058
813.562	7947
813.703	7932
813.845	7742
813.986	7518
814.127	7236
814.268	7247
814.41	7297
814.551	7251
814.692	7232
814.833	7145
814.974	7107
815.115	7156
815.256	6947
815.397	6897
815.539	6970
815.68	6825
815.821	6821
815.962	6886
816.103	6738
816.244	6738
816.385	6623
816.526	6639
816.666	6506
816.807	6277
816.948	6479
817.089	6502
817.23	6448
817.371	6426
817.512	6407
817.653	6384
817.793	6372
817.934	6429
818.075	6410
818.216	6445
818.356	6426
818.497	6224
818.638	6095
818.778	6148
818.919	6159
819.06	6205
819.2	6342
819.341	6372
819.481	6365
819.622	6547
819.762	6768
819.903	6719
820.043	6623
820.184	6585
820.324	6639
820.465	6726
820.605	6726
820.746	6734
820.886	6620
821.026	6673
821.167	6715
821.307	6779
821.447	6753
821.588	6684
821.728	6589
821.868	6528
822.008	6384
822.149	6384
822.289	6361
822.429	6247
822.569	6102
822.709	6152
822.849	5927
822.99	5893
823.13	5893
823.27	5931
823.41	5790
823.55	5775
823.69	5783
823.83	5802
823.97	5691
824.11	5528
824.25	5551
824.389	5558
824.529	5608
824.669	5547
824.809	5691
824.949	5688
825.089	5627
825.228	5573
825.368	5440
825.508	5368
825.648	5376
825.787	5376
825.927	5387
826.067	5357
826.206	5326
826.346	5429
826.485	5349
826.625	5383
826.765	5554
826.904	5486
827.044	5307
827.183	5189
827.323	5147
827.462	5258
827.601	5189
827.741	5212
827.88	5235
828.02	5121
828.159	5269
828.298	5288
828.437	5360
828.577	5341
828.716	5448
828.855	5337
828.994	5212
829.134	5155
829.273	5208
829.412	5151
829.551	5216
829.69	5166
829.829	5296
829.968	5406
830.107	5318
830.246	5334
830.385	5181
830.524	5140
830.663	5071
830.802	4919
830.941	4892
831.08	4908
831.219	5041
831.357	4938
831.496	5159
831.635	4911
831.774	4877
831.913	4877
832.051	4801
832.19	4782
832.329	4873
832.467	4706
832.606	4675
832.744	4706
832.883	4744
833.022	4744
833.16	4771
833.299	4828
833.437	4828
833.576	4900
833.714	4889
833.852	4923
833.991	4915
834.129	4927
834.267	4953
834.406	4911
834.544	4991
834.682	4965
834.821	5006
834.959	5204
835.097	4919
835.235	5155
835.373	5098
835.511	5117
835.65	5067
835.788	5018
835.926	4877
836.064	4896
836.202	4915
836.34	5117
836.478	5280
836.615	5109
836.753	5170
836.891	5311
837.029	5258
837.167	5246
837.305	5208
837.443	5162
837.58	5075
837.718	5212
837.856	5174
837.993	5178
838.131	5231
838.269	5220
838.406	5155
838.544	5197
838.681	5086
838.819	4968
838.956	4908
839.094	4968
839.231	5056
839.369	5098
839.506	5452
839.643	5254
839.781	5060
839.918	5014
840.055	5094
840.193	5086
840.33	5098
840.467	5197
840.604	5246
840.742	5417
840.879	5113
841.016	5151
841.153	5151
841.29	5425
841.427	5326
841.564	5322
841.701	5341
841.838	5227
841.975	5227
842.112	5250
842.249	5174
842.385	5136
842.522	5322
842.659	5128
842.796	5223
842.933	5227
843.069	5140
843.206	5193
843.343	5341
843.479	5269
843.616	5311
843.752	5022
843.889	5037
844.025	5204
844.162	5045
844.298	5216
844.435	5094
844.571	4991
844.708	5250
844.844	5307
844.98	5357
845.117	5326
845.253	5151
845.389	5117
845.525	5147
845.661	5155
845.798	5041
845.934	5185
846.07	5060
846.206	5193
846.342	5280
846.478	5193
846.614	5037
846.75	4961
846.886	4949
847.022	5132
847.158	5086
847.294	5064
847.429	5098
847.565	5006
847.701	5311
847.837	4847
847.972	4854
848.108	4949
848.244	4953
848.379	4736
848.515	4755
848.65	4729
848.786	4809
848.921	4782
849.057	4835
849.192	4930
849.328	4820
849.463	4908
849.598	4782
849.734	4733
849.869	4698
850.004	4645
850.14	4687
850.275	4607
850.41	4561
850.545	4622
850.68	4603
850.815	4656
850.95	4645
851.085	4881
851.22	4763
851.355	4687
851.49	4569
851.625	4645
851.76	4668
851.895	4599
852.03	4489
852.165	4656
852.299	4740
852.434	4805
852.569	4767
852.703	4755
852.838	4873
852.973	4949
853.107	4904
853.242	4790
853.376	4660
853.511	4580
853.645	4626
853.78	4786
853.914	4687
854.048	4694
854.183	4664
854.317	4675
854.451	4854
854.585	4702
854.72	4694
854.854	4771
854.988	4584
855.122	4599
855.256	4542
855.39	4687
855.524	4755
855.658	4759
855.792	4702
855.926	4767
856.06	4698
856.194	4820
856.327	4687
856.461	4649
856.595	4607
856.729	4615
856.862	4752
856.996	4729
857.13	4725
857.263	4763
857.397	4843
857.53	4656
857.664	4717
857.797	4771
857.931	4782
858.064	4717
858.197	4786
858.331	4653
858.464	4618
858.597	4538
858.731	4660
858.864	4645
858.997	4626
859.13	4675
859.263	4698
859.396	4706
859.529	4577
859.662	4554
859.795	4527
859.928	4615
860.061	4725
860.194	4755
860.327	4637
860.46	4618
860.592	4717
860.725	4725
860.858	4702
860.99	4580
861.123	4523
861.256	4512
861.388	4611
861.521	5353
861.653	4485
861.786	4485
861.918	4440
862.05	4497
862.183	4542
862.315	4664
862.447	4660
862.58	4542
862.712	4440
862.844	4322
862.976	4474
863.108	4485
863.24	4801
863.372	4356
863.504	4390
863.636	4432
863.768	4455
863.9	4398
864.032	4367
864.164	4409
864.296	4485
864.428	4508
864.559	4592
864.691	4535
864.823	4542
864.954	4485
865.086	4535
865.217	4516
865.349	4402
865.48	4443
865.612	4470
865.743	4580
865.875	4485
866.006	4424
866.137	4478
866.269	4459
866.4	4394
866.531	4405
866.662	4409
866.793	4386
866.924	4428
867.055	4432
867.186	4459
867.317	4390
867.448	4375
867.579	4409
867.71	4386
867.841	4371
867.972	4432
868.103	4462
868.233	4485
868.364	4493
868.495	4497
868.625	4717
868.756	4748
868.886	4592
869.017	4611
869.147	4778
869.278	4801
869.408	4698
869.539	4653
869.669	4698
869.799	4653
869.929	4778
870.06	4721
870.19	4980
870.32	4873
870.45	4953
870.58	4995
870.71	5064
870.84	5102
870.97	4946
871.1	4900
871.23	5102
871.36	5178
871.489	4987
871.619	5064
871.749	5075
871.879	5159
872.008	5235
872.138	5018
872.267	5010
872.397	4854
872.526	4824
872.656	4706
872.785	4831
872.915	4946
873.044	5079
873.173	4923
873.303	5014
873.432	4987
873.561	4965
873.69	4911
873.819	4870
873.948	4908
874.077	4835
874.206	4771
874.335	4809
874.464	4961
874.593	5033
874.722	4942
874.851	5094
874.979	5121
875.108	5048
875.237	4911
875.365	4862
875.494	4900
875.623	4953
875.751	4782
875.88	4831
876.008	4999
876.136	5056
876.265	5220
876.393	5372
876.521	5254
876.65	5242
876.778	5113
876.906	5090
877.034	5014
877.162	5064
877.29	5022
877.418	5083
877.546	5014
877.674	5041
877.802	5048
877.93	5010
878.058	4980
878.185	4881
878.313	4930
878.441	4976
878.568	4809
878.696	4896
878.824	4991
878.951	5010
879.079	5140
879.206	5307
879.333	5094
879.461	5056
879.588	5018
879.715	5136
879.842	5181
879.97	5003
880.097	4752
880.224	4774
880.351	4824
880.478	4835
880.605	4831
880.732	4790
880.859	5105
880.986	4908
881.112	4919
881.239	4717
881.366	4679
881.493	4607
881.619	4596
881.746	4656
881.872	4596
881.999	4710
882.125	4653
882.252	4790
882.378	4847
882.505	4919
882.631	4801
882.757	4706
882.883	4736
883.01	4801
883.136	4691
883.262	4637
883.388	4573
883.514	4824
883.64	4900
883.766	4793
883.892	4672
884.018	4694
884.143	4938
884.269	4976
884.395	4672
884.52	4607
884.646	4645
884.772	4584
884.897	4535
885.023	4668
885.148	4801
885.274	4854
885.399	4812
885.524	4729
885.65	4725
885.775	4774
885.9	4714
886.025	4828
886.15	4778
886.275	4668
886.4	4675
886.525	4725
886.65	4691
886.775	4675
886.9	4911
887.025	4999
887.149	4797
887.274	4637
887.399	4615
887.523	4618
887.648	4580
887.773	4558
887.897	4778
888.021	4820
888.146	4645
888.27	4786
888.395	4911
888.519	4774
888.643	4793
888.767	4797
888.891	4675
889.015	4588
889.139	4645
889.263	4615
889.387	4729
889.511	4870
889.635	4816
889.759	4653
889.883	4626
890.006	4759
890.13	4763
890.254	4584
890.377	4664
890.501	4535
890.624	4523
890.748	4641
890.871	4508
890.995	4402
891.118	4398
891.241	4489
891.364	4508
891.488	4584
891.611	4485
891.734	4542
891.857	4565
891.98	4546
892.103	4694
892.226	4561
892.349	4504
892.471	4413
892.594	4592
892.717	4592
892.839	4599
892.962	4573
893.085	4706
893.207	4577
893.33	4459
893.452	4504
893.575	4691
893.697	4637
893.819	4831
893.941	4831
894.064	4736
894.186	4603
894.308	4550
894.43	4694
894.552	4778
894.674	4752
894.796	4588
894.918	4523
895.04	4607
895.161	4683
895.283	4626
895.405	4596
895.526	4645
895.648	4656
895.769	4672
895.891	4683
896.012	4752
896.134	4698
896.255	4698
896.376	4668
896.498	4611
896.619	4717
896.74	4618
896.861	4634
896.982	4908
897.103	5079
897.224	4797
897.345	4714
897.466	4687
897.587	4771
897.708	4892
897.828	4771
897.949	4710
898.07	4577
898.19	4626
898.311	4805
898.431	4603
898.552	4706
898.672	4790
898.792	4759
898.913	4729
899.033	4656
899.153	4485
899.273	4474
899.393	4527
899.513	4497
899.633	4531
899.753	4542
899.873	4493
899.993	4580
900.113	4523
900.232	4558
900.352	4542
900.472	4508
900.591	4383
900.711	4470
900.83	4489
900.95	4592
901.069	4702
901.189	4531
901.308	4322
901.427	4333
901.546	4375
901.665	4497
901.784	4538
901.904	4432
902.023	4337
902.141	4211
902.26	4185
902.379	4280
902.498	4211
902.617	4257
902.735	4409
902.854	4405
902.973	4325
903.091	4196
903.21	4253
903.328	4291
903.446	4310
903.565	4272
903.683	4367
903.801	4249
903.919	4383
904.038	4462
904.156	4318
904.274	4443
904.392	4440
904.51	4478
904.627	4504
904.745	4577
904.863	4626
904.981	4363
905.098	4352
905.216	4337
905.334	4440
905.451	4436
905.569	4455
905.686	4535
905.803	4569
905.921	4440
906.038	4565
906.155	4508
906.272	4402
906.389	4474
906.506	4379
906.623	4436
906.74	4394
906.857	4284
906.974	4325
907.091	4535
907.208	4649
907.324	4607
907.441	4508
907.557	4333
907.674	4314
907.79	4333
907.907	4383
908.023	4497
908.139	4535
908.256	4405
908.372	4455
908.488	4470
908.604	4371
908.72	4310
908.836	4390
908.952	4383
909.068	4409
909.184	4558
909.3	4462
909.415	4565
909.531	4504
909.647	4394
909.762	4337
909.878	4402
909.993	4424
910.108	4432
910.224	4421
910.339	4478
910.454	4386
910.57	4375
910.685	4314
910.8	4656
910.915	4588
911.03	4451
911.145	4310
911.259	4344
911.374	4379
911.489	4299
911.604	4280
911.718	4192
911.833	4177
911.947	4029
912.062	4029
912.176	4211
912.291	4207
912.405	4268
912.519	4493
912.633	4512
912.748	4363
912.862	4329
912.976	4246
913.09	4147
913.204	4181
913.318	4230
913.431	4371
913.545	4363
913.659	4455
913.772	4379
913.886	4257
914	4185
914.113	4341
914.226	4402
914.34	4394
914.453	4287
914.566	4386
914.68	4356
914.793	4337
914.906	4192
915.019	4086
915.132	4074
915.245	4177
915.358	4253
915.47	4246
915.583	4234
915.696	4265
915.809	4398
915.921	4341
916.034	4272
916.146	4265
916.259	4234
916.371	4348
916.483	4344
916.595	4265
916.708	4352
916.82	4287
916.932	4280
917.044	4303
917.156	4310
917.268	4215
917.38	4249
917.491	4265
917.603	4325
917.715	4440
917.826	4466
917.938	4325
918.049	4246
918.161	4417
918.272	4603
918.384	4535
918.495	4424
918.606	4287
918.717	4261
918.828	4371
918.939	4409
919.05	4284
919.161	4284
919.272	4192
919.383	4238
919.494	4443
919.604	4611
919.715	4474
919.826	4329
919.936	4409
920.047	4519
920.157	4493
920.267	4714
920.378	4538
920.488	4470
920.598	4729
920.708	4889
920.818	4740
920.928	4744
921.038	4881
921.148	4892
921.258	4675
921.368	4588
921.477	4470
921.587	4462
921.697	4352
921.806	4561
921.916	4413
922.025	4223
922.134	4230
922.244	4188
922.353	4314
922.462	4147
922.571	4135
922.68	4021
922.789	3968
922.898	4040
923.007	3998
923.116	4059
923.224	4032
923.333	4059
923.442	4010
923.55	3983
923.659	4025
923.767	4093
923.876	4032
923.984	4071
924.092	3979
924.201	4063
924.309	4105
924.417	4109
924.525	4044
924.633	4128
924.741	5045
924.849	3884
924.956	4090
925.064	3930
925.172	3884
925.279	3926
925.387	4051
925.494	4097
925.602	4211
925.709	4162
925.816	4059
925.924	4128
926.031	4246
926.138	4196
926.245	4207
926.352	4086
926.459	4257
926.566	4306
926.673	4192
926.779	4078
926.886	4112
926.993	3998
927.099	3964
927.206	3918
927.312	3937
927.419	4044
927.525	4040
927.631	4082
927.737	3979
927.843	3956
927.95	3835
928.056	3918
928.162	4021
928.267	4036
928.373	4725
928.479	4131
928.585	3884
928.69	4044
928.796	4048
928.901	4013
929.007	3819
929.112	3983
929.218	3975
929.323	3937
929.428	3937
929.533	4093
929.638	3945
929.743	3949
929.848	4048
929.953	3994
930.058	3922
930.163	3747
930.267	3812
930.372	3994
930.477	3823
930.581	4090
930.685	3945
930.79	3812
930.894	3888
930.998	3861
931.103	4021
931.207	3690
931.311	3682
931.415	3644
931.519	3561
931.623	3587
