Data from test_V78500241_941.txt Node
Date: Fri Mar 25 16:55:32 CST 2022
User: usil
Spectrometer: V785-0024
Trigger mode: 0
Integration Time (sec): 4.000000E-1
Scans to average: 1
Nonlinearity correction enabled: false
Boxcar width: 0
Storing dark spectrum: false
XAxis mode: Wavelengths
Number of Pixels in Spectrum: 1024
>>>>>Begin Spectral Data<<<<<
801.071	8031
801.214	8031
801.356	7936
801.499	7890
801.641	7814
801.783	7868
801.926	7986
802.068	7932
802.211	7913
802.353	7913
802.496	7864
802.638	7799
802.78	7921
802.923	7860
803.065	7826
803.208	7860
803.35	8073
803.492	8096
803.635	8164
803.777	8027
803.919	8100
804.061	8393
804.204	8221
804.346	8046
804.488	7970
804.63	8123
804.773	8020
804.915	8069
805.057	8256
805.199	8180
805.341	8252
805.483	8324
805.626	8130
805.768	8073
805.91	8164
806.052	8225
806.194	8096
806.336	8301
806.478	8103
806.62	8062
806.762	8145
806.904	8248
807.046	8514
807.188	8320
807.33	8324
807.472	8339
807.614	8073
807.756	8123
807.898	8012
808.04	7887
808.182	7852
808.324	7830
808.465	7906
808.607	8092
808.749	8073
808.891	8176
809.033	8259
809.174	8225
809.316	7982
809.458	8069
809.6	8016
809.741	8012
809.883	8012
810.025	8145
810.166	8077
810.308	8096
810.45	7993
810.591	7887
810.733	7750
810.875	7715
811.016	7559
811.158	7518
811.299	7563
811.441	7693
811.582	7700
811.724	7601
811.865	7514
812.007	7491
812.148	7578
812.29	7636
812.431	7742
812.573	7890
812.714	7978
812.855	8111
812.997	8195
813.138	8286
813.279	8199
813.421	8069
813.562	8020
813.703	7830
813.845	7814
813.986	7434
814.127	7255
814.268	7206
814.41	7141
814.551	7084
814.692	7076
814.833	6996
814.974	7038
815.115	7050
815.256	6962
815.397	6935
815.539	6932
815.68	6798
815.821	6852
815.962	6863
816.103	6810
816.244	6730
816.385	6669
816.526	6612
816.666	6525
816.807	6270
816.948	6433
817.089	6475
817.23	6483
817.371	6372
817.512	6338
817.653	6441
817.793	6277
817.934	6418
818.075	6445
818.216	6471
818.356	6342
818.497	6182
818.638	6194
818.778	6098
818.919	6106
819.06	6144
819.2	6327
819.341	6327
819.481	6365
819.622	6475
819.762	6722
819.903	6719
820.043	6658
820.184	6616
820.324	6559
820.465	6711
820.605	6665
820.746	6612
820.886	6486
821.026	6623
821.167	6684
821.307	6852
821.447	6692
821.588	6722
821.728	6528
821.868	6460
822.008	6327
822.149	6365
822.289	6311
822.429	6178
822.569	6117
822.709	6167
822.849	5920
822.99	5885
823.13	5950
823.27	5939
823.41	5775
823.55	5817
823.69	5779
823.83	5851
823.97	5775
824.11	5581
824.25	5573
824.389	5611
824.529	5615
824.669	5524
824.809	5627
824.949	5764
825.089	5589
825.228	5539
825.368	5417
825.508	5330
825.648	5368
825.787	5417
825.927	5387
826.067	5330
826.206	5334
826.346	5398
826.485	5448
826.625	5463
826.765	5615
826.904	5535
827.044	5337
827.183	5208
827.323	5185
827.462	5326
827.601	5223
827.741	5185
827.88	5269
828.02	5151
828.159	5296
828.298	5372
828.437	5402
828.577	5357
828.716	5512
828.855	5334
828.994	5235
829.134	5189
829.273	5201
829.412	5181
829.551	5197
829.69	5204
829.829	5296
829.968	5452
830.107	5246
830.246	5318
830.385	5235
830.524	5166
830.663	5075
830.802	4980
830.941	4949
831.08	4904
831.219	5048
831.357	5014
831.496	5121
831.635	4927
831.774	4873
831.913	4824
832.051	4812
832.19	4801
832.329	4858
832.467	4729
832.606	4698
832.744	4729
832.883	4725
833.022	4733
833.16	4782
833.299	4889
833.437	4870
833.576	4847
833.714	4923
833.852	4923
833.991	4858
834.129	4942
834.267	4946
834.406	4953
834.544	5037
834.682	5018
834.821	4999
834.959	5174
835.097	5003
835.235	5174
835.373	5067
835.511	5121
835.65	5086
835.788	5071
835.926	4938
836.064	4927
836.202	4930
836.34	5147
836.478	5280
836.615	5189
836.753	5239
836.891	5311
837.029	5261
837.167	5212
837.305	5189
837.443	5128
837.58	5075
837.718	5239
837.856	5197
837.993	5102
838.131	5273
838.269	5220
838.406	5216
838.544	5201
838.681	5033
838.819	5041
838.956	4942
839.094	4938
839.231	4987
839.369	5140
839.506	5490
839.643	5288
839.781	5083
839.918	5033
840.055	5098
840.193	5124
840.33	5083
840.467	5159
840.604	5212
840.742	5493
840.879	5136
841.016	5075
841.153	5147
841.29	5357
841.427	5345
841.564	5337
841.701	5349
841.838	5284
841.975	5235
842.112	5337
842.249	5216
842.385	5143
842.522	5376
842.659	5231
842.796	5136
842.933	5212
843.069	5143
843.206	5201
843.343	5360
843.479	5261
843.616	5288
843.752	5064
843.889	5037
844.025	5288
844.162	5022
844.298	5250
844.435	5098
844.571	5003
844.708	5151
844.844	5360
844.98	5398
845.117	5311
845.253	5162
845.389	5117
845.525	5098
845.661	5155
845.798	4991
845.934	5178
846.07	5113
846.206	5185
846.342	5284
846.478	5170
846.614	5083
846.75	5014
846.886	4972
847.022	5147
847.158	5022
847.294	5041
847.429	5151
847.565	5094
847.701	5398
847.837	4824
847.972	4809
848.108	4991
848.244	4934
848.379	4809
848.515	4752
848.65	4733
848.786	4759
848.921	4759
849.057	4896
849.192	4927
849.328	4805
849.463	4904
849.598	4790
849.734	4763
849.869	4729
850.004	4626
850.14	4649
850.275	4679
850.41	4504
850.545	4607
850.68	4634
850.815	4626
850.95	4637
851.085	4850
851.22	4744
851.355	4679
851.49	4675
851.625	4656
851.76	4672
851.895	4573
852.03	4523
852.165	4668
852.299	4778
852.434	4850
852.569	4793
852.703	4752
852.838	4850
852.973	4927
853.107	4927
853.242	4767
853.376	4702
853.511	4546
853.645	4637
853.78	4805
853.914	4702
854.048	4679
854.183	4641
854.317	4721
854.451	4839
854.585	4698
854.72	4653
854.854	4805
854.988	4630
855.122	4660
855.256	4558
855.39	4683
855.524	4793
855.658	4767
855.792	4683
855.926	4736
856.06	4778
856.194	4793
856.327	4729
856.461	4584
856.595	4615
856.729	4649
856.862	4763
856.996	4714
857.13	4767
857.263	4816
857.397	4820
857.53	4687
857.664	4733
857.797	4771
857.931	4805
858.064	4698
858.197	4774
858.331	4675
858.464	4599
858.597	4527
858.731	4637
858.864	4641
858.997	4573
859.13	4660
859.263	4706
859.396	4736
859.529	4596
859.662	4607
859.795	4535
859.928	4645
860.061	4793
860.194	4740
860.327	4569
860.46	4538
860.592	4710
860.725	4717
860.858	4752
860.99	4569
861.123	4554
861.256	4512
861.388	4641
861.521	5178
861.653	4481
861.786	4466
861.918	4485
862.05	4569
862.183	4588
862.315	4641
862.447	4660
862.58	4592
862.712	4447
862.844	4356
862.976	4478
863.108	4485
863.24	4828
863.372	4371
863.504	4386
863.636	4367
863.768	4527
863.9	4451
864.032	4344
864.164	4390
864.296	4466
864.428	4546
864.559	4596
864.691	4546
864.823	4527
864.954	4474
865.086	4523
865.217	4443
865.349	4432
865.48	4443
865.612	4500
865.743	4653
865.875	4531
866.006	4424
866.137	4470
866.269	4493
866.4	4470
866.531	4428
866.662	4360
866.793	4459
866.924	4432
867.055	4497
867.186	4489
867.317	4421
867.448	4383
867.579	4421
867.71	4398
867.841	4356
867.972	4436
868.103	4493
868.233	4459
868.364	4489
868.495	4451
868.625	4653
868.756	4748
868.886	4615
869.017	4683
869.147	4793
869.278	4771
869.408	4634
869.539	4580
869.669	4774
869.799	4660
869.929	4752
870.06	4767
870.19	4923
870.32	4972
870.45	4957
870.58	5025
870.71	5109
870.84	5086
870.97	4991
871.1	4877
871.23	5159
871.36	5143
871.489	4999
871.619	5022
871.749	5083
871.879	5132
872.008	5185
872.138	5083
872.267	4957
872.397	4854
872.526	4771
872.656	4771
872.785	4812
872.915	4980
873.044	5083
873.173	4930
873.303	4999
873.432	4999
873.561	4942
873.69	4896
873.819	4847
873.948	4923
874.077	4812
874.206	4763
874.335	4801
874.464	4889
874.593	5064
874.722	4980
874.851	5090
874.979	5094
875.108	5025
875.237	4915
875.365	4873
875.494	4900
875.623	4976
875.751	4858
875.88	4820
876.008	4934
876.136	5045
876.265	5216
876.393	5322
876.521	5185
876.65	5246
876.778	5151
876.906	5060
877.034	5037
877.162	5056
877.29	4995
877.418	5064
877.546	4972
877.674	5045
877.802	5003
877.93	5029
878.058	4976
878.185	4858
878.313	4957
878.441	4972
878.568	4786
878.696	4843
878.824	4995
878.951	5022
879.079	5140
879.206	5326
879.333	5071
879.461	5010
879.588	5003
879.715	5124
879.842	5201
879.97	5025
880.097	4793
880.224	4767
880.351	4755
880.478	4801
880.605	4820
880.732	4797
880.859	5052
880.986	4885
881.112	4896
881.239	4752
881.366	4656
881.493	4580
881.619	4611
881.746	4702
881.872	4679
881.999	4660
882.125	4649
882.252	4782
882.378	4790
882.505	4965
882.631	4748
882.757	4687
882.883	4778
883.01	4733
883.136	4622
883.262	4607
883.388	4645
883.514	4816
883.64	4843
883.766	4763
883.892	4717
884.018	4717
884.143	4904
884.269	5056
884.395	4698
884.52	4580
884.646	4645
884.772	4519
884.897	4550
885.023	4660
885.148	4778
885.274	4889
885.399	4805
885.524	4733
885.65	4679
885.775	4748
885.9	4736
886.025	4870
886.15	4801
886.275	4763
886.4	4660
886.525	4767
886.65	4615
886.775	4721
886.9	4885
887.025	5090
887.149	4843
887.274	4649
887.399	4588
887.523	4626
887.648	4580
887.773	4535
887.897	4748
888.021	4801
888.146	4691
888.27	4763
888.395	4946
888.519	4847
888.643	4778
888.767	4805
888.891	4694
889.015	4615
889.139	4683
889.263	4603
889.387	4812
889.511	4900
889.635	4820
889.759	4641
889.883	4634
890.006	4710
890.13	4816
890.254	4626
890.377	4649
890.501	4504
890.624	4538
890.748	4626
890.871	4500
890.995	4459
891.118	4383
891.241	4519
891.364	4535
891.488	4653
891.611	4512
891.734	4531
891.857	4626
891.98	4531
892.103	4641
892.226	4565
892.349	4550
892.471	4386
892.594	4504
892.717	4607
892.839	4542
892.962	4634
893.085	4668
893.207	4584
893.33	4478
893.452	4519
893.575	4679
893.697	4550
893.819	4782
893.941	4786
894.064	4736
894.186	4546
894.308	4596
894.43	4752
894.552	4835
894.674	4771
894.796	4550
894.918	4569
895.04	4531
895.161	4698
895.283	4626
895.405	4603
895.526	4637
895.648	4687
895.769	4694
895.891	4714
896.012	4755
896.134	4702
896.255	4641
896.376	4634
896.498	4603
896.619	4729
896.74	4592
896.861	4656
896.982	4930
897.103	5064
897.224	4797
897.345	4721
897.466	4717
897.587	4725
897.708	4866
897.828	4835
897.949	4698
898.07	4565
898.19	4615
898.311	4778
898.431	4664
898.552	4725
898.672	4797
898.792	4786
898.913	4755
899.033	4660
899.153	4500
899.273	4447
899.393	4504
899.513	4531
899.633	4523
899.753	4508
899.873	4470
899.993	4611
900.113	4535
900.232	4580
900.352	4546
900.472	4447
900.591	4413
900.711	4462
900.83	4421
900.95	4611
901.069	4637
901.189	4523
901.308	4344
901.427	4390
901.546	4390
901.665	4459
901.784	4516
901.904	4363
902.023	4306
902.141	4158
902.26	4139
902.379	4306
902.498	4230
902.617	4230
902.735	4341
902.854	4341
902.973	4367
903.091	4135
903.21	4207
903.328	4287
903.446	4261
903.565	4249
903.683	4367
903.801	4276
903.919	4363
904.038	4413
904.156	4329
904.274	4447
904.392	4383
904.51	4466
904.627	4417
904.745	4607
904.863	4634
904.981	4375
905.098	4284
905.216	4383
905.334	4405
905.451	4413
905.569	4500
905.686	4519
905.803	4538
905.921	4455
906.038	4565
906.155	4481
906.272	4413
906.389	4462
906.506	4394
906.623	4356
906.74	4344
906.857	4322
906.974	4363
907.091	4546
907.208	4683
907.324	4569
907.441	4493
907.557	4325
907.674	4352
907.79	4295
907.907	4379
908.023	4478
908.139	4485
908.256	4390
908.372	4485
908.488	4421
908.604	4333
908.72	4322
908.836	4394
908.952	4318
909.068	4428
909.184	4573
909.3	4493
909.415	4573
909.531	4512
909.647	4375
909.762	4356
909.878	4344
909.993	4440
910.108	4402
910.224	4390
910.339	4478
910.454	4356
910.57	4322
910.685	4284
910.8	4656
910.915	4618
911.03	4504
911.145	4295
911.259	4314
911.374	4375
911.489	4329
911.604	4268
911.718	4135
911.833	4215
911.947	4078
912.062	4029
912.176	4177
912.291	4223
912.405	4223
912.519	4474
912.633	4504
912.748	4386
912.862	4265
912.976	4227
913.09	4112
913.204	4169
913.318	4227
913.431	4322
913.545	4367
913.659	4390
913.772	4375
913.886	4196
914	4249
914.113	4379
914.226	4451
914.34	4356
914.453	4257
914.566	4402
914.68	4268
914.793	4329
914.906	4188
915.019	4112
915.132	4055
915.245	4169
915.358	4188
915.47	4192
915.583	4314
915.696	4272
915.809	4436
915.921	4402
916.034	4268
916.146	4234
916.259	4188
916.371	4390
916.483	4363
916.595	4268
916.708	4295
916.82	4310
916.932	4360
917.044	4344
917.156	4333
917.268	4192
917.38	4249
917.491	4234
917.603	4341
917.715	4394
917.826	4474
917.938	4318
918.049	4268
918.161	4363
918.272	4512
918.384	4516
918.495	4432
918.606	4295
918.717	4261
918.828	4329
918.939	4322
919.05	4238
919.161	4276
919.272	4150
919.383	4196
919.494	4360
919.604	4611
919.715	4383
919.826	4322
919.936	4360
920.047	4500
920.157	4493
920.267	4702
920.378	4523
920.488	4462
920.598	4672
920.708	4927
920.818	4729
920.928	4759
921.038	4968
921.148	4889
921.258	4645
921.368	4538
921.477	4493
921.587	4478
921.697	4356
921.806	4497
921.916	4417
922.025	4284
922.134	4238
922.244	4238
922.353	4360
922.462	4173
922.571	4082
922.68	3987
922.789	3941
922.898	3998
923.007	3975
923.116	4105
923.224	4032
923.333	4040
923.442	3930
923.55	3949
923.659	4010
923.767	4105
923.876	4006
923.984	4090
924.092	3956
924.201	4071
924.309	4090
924.417	4124
924.525	4040
924.633	4090
924.741	5052
924.849	3918
924.956	4131
925.064	3899
925.172	3907
925.279	4013
925.387	4059
925.494	4017
925.602	4162
925.709	4158
925.816	4040
925.924	4116
926.031	4177
926.138	4173
926.245	4211
926.352	4090
926.459	4272
926.566	4337
926.673	4177
926.779	4086
926.886	4044
926.993	4006
927.099	3960
927.206	3911
927.312	3937
927.419	4051
927.525	4017
927.631	4105
927.737	4040
927.843	3972
927.95	3812
928.056	3964
928.162	4010
928.267	4036
928.373	4706
928.479	4090
928.585	3896
928.69	3983
928.796	4071
928.901	3956
929.007	3831
929.112	3991
929.218	3949
929.323	3937
929.428	3903
929.533	4139
929.638	3918
929.743	3975
929.848	4021
929.953	3979
930.058	3896
930.163	3747
930.267	3823
930.372	3953
930.477	3800
930.581	4051
930.685	3956
930.79	3781
930.894	3850
930.998	3842
931.103	4029
931.207	3720
931.311	3686
931.415	3648
931.519	3515
931.623	3557
