Data from test_V78500241_2674.txt Node
Date: Fri Mar 25 17:07:35 CST 2022
User: usil
Spectrometer: V785-0024
Trigger mode: 0
Integration Time (sec): 4.000000E-1
Scans to average: 1
Nonlinearity correction enabled: false
Boxcar width: 0
Storing dark spectrum: false
XAxis mode: Wavelengths
Number of Pixels in Spectrum: 1024
>>>>>Begin Spectral Data<<<<<
801.071	8035
801.214	8008
801.356	7951
801.499	7921
801.641	7879
801.783	7871
801.926	7986
802.068	7989
802.211	8027
802.353	8024
802.496	7955
802.638	7955
802.78	7898
802.923	8005
803.065	7936
803.208	7868
803.35	8035
803.492	8130
803.635	8214
803.777	8107
803.919	8183
804.061	8446
804.204	8157
804.346	8096
804.488	7986
804.63	8115
804.773	8043
804.915	8084
805.057	8305
805.199	8206
805.341	8298
805.483	8225
805.626	8248
805.768	8180
805.91	8259
806.052	8199
806.194	8130
806.336	8275
806.478	8062
806.62	8050
806.762	8202
806.904	8221
807.046	8465
807.188	8370
807.33	8336
807.472	8366
807.614	8161
807.756	8145
807.898	8005
808.04	7890
808.182	7898
808.324	7841
808.465	7936
808.607	8123
808.749	8092
808.891	8271
809.033	8286
809.174	8229
809.316	8046
809.458	8115
809.6	8035
809.741	8024
809.883	8043
810.025	8134
810.166	8130
810.308	7993
810.45	8031
810.591	7894
810.733	7685
810.875	7689
811.016	7563
811.158	7575
811.299	7651
811.441	7746
811.582	7693
811.724	7628
811.865	7601
812.007	7609
812.148	7601
812.29	7590
812.431	7753
812.573	7986
812.714	8005
812.855	8115
812.997	8229
813.138	8267
813.279	8176
813.421	8161
813.562	7993
813.703	7902
813.845	7795
813.986	7453
814.127	7289
814.268	7282
814.41	7251
814.551	7103
814.692	7244
814.833	7091
814.974	7110
815.115	7160
815.256	7015
815.397	6989
815.539	6993
815.68	6856
815.821	6844
815.962	6901
816.103	6814
816.244	6696
816.385	6642
816.526	6677
816.666	6525
816.807	6331
816.948	6498
817.089	6479
817.23	6437
817.371	6426
817.512	6353
817.653	6410
817.793	6410
817.934	6429
818.075	6536
818.216	6467
818.356	6391
818.497	6216
818.638	6194
818.778	6155
818.919	6167
819.06	6190
819.2	6369
819.341	6296
819.481	6422
819.622	6517
819.762	6726
819.903	6726
820.043	6681
820.184	6570
820.324	6631
820.465	6681
820.605	6692
820.746	6684
820.886	6536
821.026	6684
821.167	6745
821.307	6764
821.447	6779
821.588	6719
821.728	6563
821.868	6490
822.008	6369
822.149	6384
822.289	6395
822.429	6144
822.569	6114
822.709	6159
822.849	5958
822.99	5954
823.13	5969
823.27	5954
823.41	5824
823.55	5847
823.69	5779
823.83	5805
823.97	5688
824.11	5543
824.25	5486
824.389	5573
824.529	5596
824.669	5474
824.809	5653
824.949	5699
825.089	5627
825.228	5573
825.368	5379
825.508	5307
825.648	5387
825.787	5383
825.927	5406
826.067	5322
826.206	5330
826.346	5368
826.485	5440
826.625	5414
826.765	5577
826.904	5528
827.044	5296
827.183	5231
827.323	5136
827.462	5292
827.601	5223
827.741	5227
827.88	5227
828.02	5143
828.159	5296
828.298	5322
828.437	5387
828.577	5235
828.716	5486
828.855	5326
828.994	5155
829.134	5193
829.273	5246
829.412	5151
829.551	5121
829.69	5204
829.829	5242
829.968	5433
830.107	5284
830.246	5269
830.385	5216
830.524	5162
830.663	5071
830.802	5052
830.941	4934
831.08	4908
831.219	4987
831.357	5033
831.496	5155
831.635	4953
831.774	4900
831.913	4892
832.051	4714
832.19	4782
832.329	4873
832.467	4706
832.606	4656
832.744	4694
832.883	4721
833.022	4748
833.16	4786
833.299	4824
833.437	4839
833.576	4885
833.714	4930
833.852	4885
833.991	4892
834.129	4965
834.267	4968
834.406	4965
834.544	4984
834.682	5010
834.821	5014
834.959	5121
835.097	4995
835.235	5178
835.373	5151
835.511	5094
835.65	5052
835.788	5006
835.926	4934
836.064	4911
836.202	4930
836.34	5204
836.478	5261
836.615	5197
836.753	5265
836.891	5334
837.029	5284
837.167	5193
837.305	5197
837.443	5189
837.58	5052
837.718	5296
837.856	5227
837.993	5220
838.131	5277
838.269	5239
838.406	5197
838.544	5204
838.681	5041
838.819	5041
838.956	4892
839.094	4946
839.231	4953
839.369	5102
839.506	5474
839.643	5318
839.781	5052
839.918	5071
840.055	5102
840.193	5121
840.33	5113
840.467	5189
840.604	5151
840.742	5410
840.879	5102
841.016	5109
841.153	5189
841.29	5421
841.427	5334
841.564	5326
841.701	5379
841.838	5258
841.975	5265
842.112	5284
842.249	5151
842.385	5162
842.522	5345
842.659	5193
842.796	5174
842.933	5254
843.069	5155
843.206	5178
843.343	5265
843.479	5296
843.616	5303
843.752	5102
843.889	4999
844.025	5227
844.162	5083
844.298	5216
844.435	5079
844.571	5079
844.708	5143
844.844	5258
844.98	5311
845.117	5303
845.253	5143
845.389	5090
845.525	5189
845.661	5147
845.798	5086
845.934	5128
846.07	5048
846.206	5250
846.342	5288
846.478	5208
846.614	5052
846.75	5041
846.886	4957
847.022	5155
847.158	5033
847.294	5075
847.429	5147
847.565	5071
847.701	5353
847.837	4866
847.972	4847
848.108	4976
848.244	4934
848.379	4797
848.515	4771
848.65	4736
848.786	4767
848.921	4763
849.057	4866
849.192	4915
849.328	4820
849.463	4828
849.598	4835
849.734	4778
849.869	4698
850.004	4653
850.14	4664
850.275	4630
850.41	4558
850.545	4508
850.68	4626
850.815	4653
850.95	4668
851.085	4896
851.22	4759
851.355	4626
851.49	4618
851.625	4641
851.76	4668
851.895	4565
852.03	4546
852.165	4645
852.299	4782
852.434	4797
852.569	4736
852.703	4805
852.838	4839
852.973	4946
853.107	4904
853.242	4744
853.376	4698
853.511	4599
853.645	4626
853.78	4820
853.914	4683
854.048	4672
854.183	4694
854.317	4736
854.451	4828
854.585	4687
854.72	4626
854.854	4778
854.988	4611
855.122	4641
855.256	4542
855.39	4694
855.524	4763
855.658	4729
855.792	4755
855.926	4717
856.06	4736
856.194	4786
856.327	4698
856.461	4596
856.595	4649
856.729	4637
856.862	4767
856.996	4759
857.13	4755
857.263	4767
857.397	4797
857.53	4664
857.664	4710
857.797	4729
857.931	4786
858.064	4691
858.197	4790
858.331	4668
858.464	4588
858.597	4542
858.731	4630
858.864	4622
858.997	4634
859.13	4672
859.263	4706
859.396	4736
859.529	4577
859.662	4588
859.795	4554
859.928	4630
860.061	4767
860.194	4774
860.327	4622
860.46	4565
860.592	4675
860.725	4744
860.858	4733
860.99	4611
861.123	4592
861.256	4550
861.388	4577
861.521	5444
861.653	4508
861.786	4466
861.918	4440
862.05	4607
862.183	4584
862.315	4611
862.447	4634
862.58	4580
862.712	4383
862.844	4352
862.976	4470
863.108	4459
863.24	4759
863.372	4329
863.504	4451
863.636	4440
863.768	4470
863.9	4489
864.032	4356
864.164	4413
864.296	4455
864.428	4561
864.559	4565
864.691	4550
864.823	4550
864.954	4504
865.086	4550
865.217	4462
865.349	4443
865.48	4523
865.612	4516
865.743	4660
865.875	4478
866.006	4436
866.137	4462
866.269	4455
866.4	4451
866.531	4424
866.662	4413
866.793	4421
866.924	4443
867.055	4474
867.186	4474
867.317	4440
867.448	4375
867.579	4443
867.71	4413
867.841	4424
867.972	4455
868.103	4481
868.233	4481
868.364	4451
868.495	4512
868.625	4733
868.756	4771
868.886	4607
869.017	4634
869.147	4786
869.278	4843
869.408	4660
869.539	4672
869.669	4691
869.799	4653
869.929	4793
870.06	4710
870.19	4900
870.32	4930
870.45	4953
870.58	5033
870.71	5086
870.84	5098
870.97	5006
871.1	4915
871.23	5128
871.36	5136
871.489	5014
871.619	5086
871.749	5098
871.879	5105
872.008	5147
872.138	5102
872.267	5037
872.397	4870
872.526	4771
872.656	4740
872.785	4793
872.915	4991
873.044	4999
873.173	4904
873.303	4953
873.432	4953
873.561	4991
873.69	4889
873.819	4839
873.948	4961
874.077	4801
874.206	4714
874.335	4824
874.464	4957
874.593	5048
874.722	5003
874.851	5109
874.979	5067
875.108	5025
875.237	4946
875.365	4858
875.494	4885
875.623	5029
875.751	4835
875.88	4885
876.008	5056
876.136	5025
876.265	5170
876.393	5326
876.521	5258
876.65	5254
876.778	5151
876.906	5067
877.034	4995
877.162	5067
877.29	5029
877.418	5025
877.546	5041
877.674	5045
877.802	5025
877.93	4980
878.058	4976
878.185	4908
878.313	4961
878.441	4968
878.568	4828
878.696	4824
878.824	4999
878.951	4968
879.079	5147
879.206	5284
879.333	5113
879.461	5037
879.588	5014
879.715	5178
879.842	5261
879.97	5018
880.097	4778
880.224	4755
880.351	4797
880.478	4847
880.605	4790
880.732	4790
880.859	5079
880.986	4870
881.112	4942
881.239	4793
881.366	4683
881.493	4637
881.619	4550
881.746	4656
881.872	4675
881.999	4683
882.125	4717
882.252	4778
882.378	4881
882.505	4995
882.631	4824
882.757	4672
882.883	4755
883.01	4721
883.136	4637
883.262	4561
883.388	4599
883.514	4790
883.64	4927
883.766	4797
883.892	4660
884.018	4759
884.143	4934
884.269	5052
884.395	4668
884.52	4656
884.646	4634
884.772	4596
884.897	4630
885.023	4641
885.148	4793
885.274	4862
885.399	4733
885.524	4733
885.65	4675
885.775	4774
885.9	4710
886.025	4858
886.15	4805
886.275	4755
886.4	4668
886.525	4759
886.65	4672
886.775	4645
886.9	4915
887.025	5041
887.149	4843
887.274	4698
887.399	4615
887.523	4596
887.648	4558
887.773	4618
887.897	4771
888.021	4778
888.146	4645
888.27	4759
888.395	4870
888.519	4858
888.643	4782
888.767	4774
888.891	4641
889.015	4550
889.139	4675
889.263	4561
889.387	4774
889.511	4843
889.635	4831
889.759	4656
889.883	4622
890.006	4740
890.13	4771
890.254	4626
890.377	4714
890.501	4569
890.624	4497
890.748	4626
890.871	4546
890.995	4417
891.118	4394
891.241	4542
891.364	4535
891.488	4637
891.611	4531
891.734	4508
891.857	4611
891.98	4523
892.103	4622
892.226	4519
892.349	4535
892.471	4462
892.594	4554
892.717	4592
892.839	4573
892.962	4592
893.085	4630
893.207	4626
893.33	4459
893.452	4531
893.575	4672
893.697	4573
893.819	4790
893.941	4850
894.064	4729
894.186	4596
894.308	4588
894.43	4744
894.552	4873
894.674	4694
894.796	4577
894.918	4599
895.04	4611
895.161	4710
895.283	4637
895.405	4599
895.526	4649
895.648	4691
895.769	4626
895.891	4706
896.012	4759
896.134	4759
896.255	4634
896.376	4611
896.498	4596
896.619	4660
896.74	4573
896.861	4660
896.982	4938
897.103	5071
897.224	4778
897.345	4763
897.466	4698
897.587	4725
897.708	4885
897.828	4771
897.949	4679
898.07	4599
898.19	4634
898.311	4839
898.431	4714
898.552	4778
898.672	4820
898.792	4793
898.913	4755
899.033	4630
899.153	4550
899.273	4394
899.393	4497
899.513	4538
899.633	4523
899.753	4546
899.873	4519
899.993	4584
900.113	4546
900.232	4577
900.352	4500
900.472	4466
900.591	4402
900.711	4485
900.83	4398
900.95	4599
901.069	4668
901.189	4546
901.308	4363
901.427	4306
901.546	4379
901.665	4485
901.784	4561
901.904	4394
902.023	4348
902.141	4177
902.26	4192
902.379	4329
902.498	4249
902.617	4207
902.735	4379
902.854	4383
902.973	4348
903.091	4234
903.21	4215
903.328	4261
903.446	4280
903.565	4268
903.683	4363
903.801	4219
903.919	4371
904.038	4424
904.156	4333
904.274	4440
904.392	4421
904.51	4455
904.627	4459
904.745	4580
904.863	4634
904.981	4459
905.098	4352
905.216	4413
905.334	4421
905.451	4424
905.569	4417
905.686	4558
905.803	4573
905.921	4402
906.038	4558
906.155	4451
906.272	4383
906.389	4512
906.506	4360
906.623	4337
906.74	4413
906.857	4299
906.974	4383
907.091	4588
907.208	4702
907.324	4565
907.441	4451
907.557	4363
907.674	4360
907.79	4299
907.907	4417
908.023	4497
908.139	4527
908.256	4428
908.372	4436
908.488	4512
908.604	4360
908.72	4348
908.836	4356
908.952	4440
909.068	4440
909.184	4561
909.3	4478
909.415	4558
909.531	4577
909.647	4383
909.762	4379
909.878	4333
909.993	4402
910.108	4402
910.224	4409
910.339	4447
910.454	4363
910.57	4371
910.685	4295
910.8	4603
910.915	4637
911.03	4485
911.145	4379
911.259	4360
911.374	4405
911.489	4261
911.604	4268
911.718	4219
911.833	4196
911.947	4071
912.062	4032
912.176	4227
912.291	4234
912.405	4242
912.519	4455
912.633	4523
912.748	4375
912.862	4322
912.976	4227
913.09	4097
913.204	4196
913.318	4257
913.431	4390
913.545	4356
913.659	4443
913.772	4333
913.886	4234
914	4246
914.113	4379
914.226	4474
914.34	4386
914.453	4261
914.566	4421
914.68	4287
914.793	4348
914.906	4150
915.019	4086
915.132	4120
915.245	4223
915.358	4219
915.47	4272
915.583	4242
915.696	4265
915.809	4394
915.921	4428
916.034	4249
916.146	4223
916.259	4204
916.371	4333
916.483	4329
916.595	4284
916.708	4284
916.82	4333
916.932	4352
917.044	4352
917.156	4360
917.268	4253
917.38	4295
917.491	4272
917.603	4284
917.715	4447
917.826	4440
917.938	4375
918.049	4192
918.161	4348
918.272	4523
918.384	4481
918.495	4451
918.606	4261
918.717	4291
918.828	4314
918.939	4325
919.05	4234
919.161	4306
919.272	4135
919.383	4211
919.494	4470
919.604	4618
919.715	4432
919.826	4322
919.936	4394
920.047	4478
920.157	4497
920.267	4714
920.378	4603
920.488	4504
920.598	4687
920.708	4953
920.818	4755
920.928	4755
921.038	4900
921.148	4927
921.258	4641
921.368	4550
921.477	4466
921.587	4421
921.697	4341
921.806	4550
921.916	4428
922.025	4265
922.134	4234
922.244	4230
922.353	4341
922.462	4147
922.571	4128
922.68	3987
922.789	3998
922.898	4013
923.007	3983
923.116	4128
923.224	4082
923.333	4071
923.442	3960
923.55	3994
923.659	4048
923.767	4067
923.876	4017
923.984	4112
924.092	3987
924.201	4055
924.309	4093
924.417	4154
924.525	4051
924.633	4109
924.741	5029
924.849	3930
924.956	4116
925.064	4006
925.172	3937
925.279	3865
925.387	4051
925.494	4040
925.602	4166
925.709	4181
925.816	4036
925.924	4150
926.031	4211
926.138	4169
926.245	4166
926.352	4105
926.459	4238
926.566	4329
926.673	4162
926.779	4109
926.886	4120
926.993	4036
927.099	3937
927.206	3987
927.312	3937
927.419	4082
927.525	4021
927.631	4097
927.737	3949
927.843	3930
927.95	3827
928.056	3918
928.162	3994
928.267	4040
928.373	4637
928.479	4040
928.585	3846
928.69	4017
928.796	4055
928.901	3945
929.007	3827
929.112	4021
929.218	3968
929.323	3926
929.428	3956
929.533	4051
929.638	3907
929.743	3956
929.848	3983
929.953	3975
930.058	3911
930.163	3800
930.267	3835
930.372	3968
930.477	3808
930.581	4112
930.685	4010
930.79	3797
930.894	3907
930.998	3850
931.103	4044
931.207	3717
931.311	3675
931.415	3713
931.519	3519
931.623	3580
