Data from test_V78500241_611.txt Node
Date: Fri Mar 25 16:53:15 CST 2022
User: usil
Spectrometer: V785-0024
Trigger mode: 0
Integration Time (sec): 4.000000E-1
Scans to average: 1
Nonlinearity correction enabled: false
Boxcar width: 0
Storing dark spectrum: false
XAxis mode: Wavelengths
Number of Pixels in Spectrum: 1024
>>>>>Begin Spectral Data<<<<<
801.071	8039
801.214	8077
801.356	7841
801.499	7807
801.641	7757
801.783	7818
801.926	8054
802.068	8001
802.211	8005
802.353	8020
802.496	7887
802.638	7917
802.78	8001
802.923	7944
803.065	7769
803.208	7856
803.35	7955
803.492	8119
803.635	8164
803.777	8043
803.919	8084
804.061	8457
804.204	8092
804.346	7986
804.488	7978
804.63	8088
804.773	8005
804.915	8149
805.057	8237
805.199	8123
805.341	8199
805.483	8305
805.626	8256
805.768	8119
805.91	8191
806.052	8210
806.194	8210
806.336	8233
806.478	8138
806.62	8103
806.762	8138
806.904	8366
807.046	8545
807.188	8339
807.33	8332
807.472	8324
807.614	8164
807.756	8142
807.898	7986
808.04	7936
808.182	7944
808.324	7833
808.465	7909
808.607	8100
808.749	8172
808.891	8286
809.033	8309
809.174	8202
809.316	8043
809.458	8103
809.6	8043
809.741	8069
809.883	8058
810.025	8111
810.166	8016
810.308	8046
810.45	8043
810.591	7830
810.733	7772
810.875	7685
811.016	7510
811.158	7491
811.299	7613
811.441	7655
811.582	7719
811.724	7521
811.865	7552
812.007	7559
812.148	7567
812.29	7582
812.431	7708
812.573	7860
812.714	7936
812.855	8183
812.997	8248
813.138	8351
813.279	8237
813.421	8103
813.562	8096
813.703	7902
813.845	7856
813.986	7476
814.127	7388
814.268	7278
814.41	7183
814.551	7137
814.692	7206
814.833	7095
814.974	7141
815.115	7152
815.256	6882
815.397	6943
815.539	6932
815.68	6867
815.821	6810
815.962	6856
816.103	6829
816.244	6696
816.385	6612
816.526	6601
816.666	6467
816.807	6266
816.948	6441
817.089	6433
817.23	6486
817.371	6361
817.512	6376
817.653	6384
817.793	6388
817.934	6410
818.075	6448
818.216	6448
818.356	6384
818.497	6197
818.638	6114
818.778	6098
818.919	6083
819.06	6121
819.2	6311
819.341	6346
819.481	6308
819.622	6494
819.762	6700
819.903	6696
820.043	6551
820.184	6555
820.324	6582
820.465	6681
820.605	6608
820.746	6574
820.886	6433
821.026	6639
821.167	6692
821.307	6787
821.447	6726
821.588	6642
821.728	6517
821.868	6517
822.008	6361
822.149	6376
822.289	6365
822.429	6182
822.569	6034
822.709	6034
822.849	5908
822.99	5950
823.13	5923
823.27	5889
823.41	5767
823.55	5722
823.69	5737
823.83	5813
823.97	5638
824.11	5547
824.25	5512
824.389	5566
824.529	5592
824.669	5505
824.809	5615
824.949	5653
825.089	5604
825.228	5554
825.368	5360
825.508	5322
825.648	5337
825.787	5383
825.927	5357
826.067	5349
826.206	5299
826.346	5334
826.485	5360
826.625	5360
826.765	5516
826.904	5467
827.044	5239
827.183	5166
827.323	5098
827.462	5280
827.601	5132
827.741	5174
827.88	5178
828.02	5086
828.159	5193
828.298	5280
828.437	5311
828.577	5288
828.716	5463
828.855	5318
828.994	5181
829.134	5151
829.273	5231
829.412	5136
829.551	5128
829.69	5166
829.829	5258
829.968	5368
830.107	5227
830.246	5246
830.385	5216
830.524	5102
830.663	5098
830.802	4953
830.941	4911
831.08	4892
831.219	4972
831.357	5014
831.496	5181
831.635	4953
831.774	4885
831.913	4835
832.051	4725
832.19	4733
832.329	4812
832.467	4679
832.606	4649
832.744	4691
832.883	4733
833.022	4717
833.16	4843
833.299	4786
833.437	4831
833.576	4850
833.714	4877
833.852	4812
833.991	4866
834.129	4953
834.267	4930
834.406	4908
834.544	4984
834.682	5014
834.821	4980
834.959	5136
835.097	5010
835.235	5159
835.373	5064
835.511	5102
835.65	5048
835.788	4999
835.926	4873
836.064	4900
836.202	4866
836.34	5140
836.478	5189
836.615	5113
836.753	5261
836.891	5303
837.029	5239
837.167	5201
837.305	5166
837.443	5159
837.58	5052
837.718	5250
837.856	5132
837.993	5124
838.131	5227
838.269	5185
838.406	5178
838.544	5162
838.681	5003
838.819	5029
838.956	4919
839.094	4923
839.231	4976
839.369	5060
839.506	5444
839.643	5265
839.781	5075
839.918	5003
840.055	5094
840.193	5071
840.33	5117
840.467	5109
840.604	5204
840.742	5395
840.879	4995
841.016	5067
841.153	5155
841.29	5364
841.427	5368
841.564	5273
841.701	5326
841.838	5299
841.975	5197
842.112	5303
842.249	5132
842.385	5132
842.522	5277
842.659	5201
842.796	5117
842.933	5197
843.069	5147
843.206	5162
843.343	5227
843.479	5227
843.616	5239
843.752	5018
843.889	4984
844.025	5235
844.162	4980
844.298	5197
844.435	5064
844.571	5025
844.708	5208
844.844	5277
844.98	5315
845.117	5269
845.253	5159
845.389	5105
845.525	5140
845.661	5151
845.798	5079
845.934	5075
846.07	5029
846.206	5174
846.342	5265
846.478	5166
846.614	4980
846.75	4957
846.886	4991
847.022	5143
847.158	5014
847.294	5094
847.429	5086
847.565	4991
847.701	5334
847.837	4873
847.972	4786
848.108	4873
848.244	4999
848.379	4736
848.515	4714
848.65	4710
848.786	4740
848.921	4812
849.057	4896
849.192	4892
849.328	4797
849.463	4801
849.598	4778
849.734	4782
849.869	4672
850.004	4656
850.14	4630
850.275	4603
850.41	4550
850.545	4580
850.68	4580
850.815	4618
850.95	4599
851.085	4892
851.22	4763
851.355	4679
851.49	4603
851.625	4630
851.76	4596
851.895	4561
852.03	4508
852.165	4656
852.299	4691
852.434	4782
852.569	4744
852.703	4793
852.838	4831
852.973	4873
853.107	4946
853.242	4755
853.376	4664
853.511	4542
853.645	4603
853.78	4767
853.914	4672
854.048	4645
854.183	4653
854.317	4706
854.451	4850
854.585	4637
854.72	4649
854.854	4774
854.988	4618
855.122	4626
855.256	4546
855.39	4626
855.524	4752
855.658	4717
855.792	4645
855.926	4736
856.06	4774
856.194	4748
856.327	4717
856.461	4611
856.595	4653
856.729	4630
856.862	4771
856.996	4729
857.13	4694
857.263	4710
857.397	4854
857.53	4672
857.664	4710
857.797	4740
857.931	4809
858.064	4660
858.197	4740
858.331	4645
858.464	4626
858.597	4538
858.731	4618
858.864	4645
858.997	4603
859.13	4637
859.263	4645
859.396	4698
859.529	4565
859.662	4577
859.795	4527
859.928	4645
860.061	4797
860.194	4740
860.327	4603
860.46	4554
860.592	4649
860.725	4725
860.858	4683
860.99	4588
861.123	4512
861.256	4531
861.388	4599
861.521	5436
861.653	4497
861.786	4402
861.918	4421
862.05	4512
862.183	4542
862.315	4573
862.447	4607
862.58	4558
862.712	4405
862.844	4268
862.976	4466
863.108	4443
863.24	4927
863.372	4325
863.504	4462
863.636	4413
863.768	4485
863.9	4462
864.032	4348
864.164	4375
864.296	4466
864.428	4542
864.559	4561
864.691	4542
864.823	4500
864.954	4481
865.086	4508
865.217	4417
865.349	4398
865.48	4459
865.612	4500
865.743	4607
865.875	4481
866.006	4466
866.137	4447
866.269	4440
866.4	4390
866.531	4413
866.662	4417
866.793	4432
866.924	4409
867.055	4466
867.186	4481
867.317	4417
867.448	4352
867.579	4405
867.71	4318
867.841	4379
867.972	4443
868.103	4466
868.233	4462
868.364	4474
868.495	4504
868.625	4634
868.756	4729
868.886	4561
869.017	4618
869.147	4733
869.278	4767
869.408	4649
869.539	4679
869.669	4702
869.799	4683
869.929	4786
870.06	4755
870.19	4889
870.32	4896
870.45	4919
870.58	5037
870.71	5109
870.84	5045
870.97	4923
871.1	4930
871.23	5155
871.36	5174
871.489	5052
871.619	5071
871.749	5090
871.879	5109
872.008	5143
872.138	5045
872.267	4938
872.397	4801
872.526	4778
872.656	4649
872.785	4824
872.915	4980
873.044	5045
873.173	4957
873.303	4942
873.432	4927
873.561	4953
873.69	4889
873.819	4919
873.948	4919
874.077	4816
874.206	4721
874.335	4850
874.464	4968
874.593	5075
874.722	5003
874.851	5102
874.979	5029
875.108	5029
875.237	4934
875.365	4862
875.494	4919
875.623	4927
875.751	4835
875.88	4858
876.008	5010
876.136	4984
876.265	5162
876.393	5326
876.521	5288
876.65	5273
876.778	5117
876.906	5056
877.034	4961
877.162	5037
877.29	4972
877.418	5052
877.546	5056
877.674	4991
877.802	5018
877.93	5022
878.058	4904
878.185	4862
878.313	4915
878.441	4976
878.568	4812
878.696	4816
878.824	4915
878.951	5010
879.079	5136
879.206	5315
879.333	5086
879.461	5018
879.588	4991
879.715	5143
879.842	5280
879.97	4968
880.097	4782
880.224	4748
880.351	4828
880.478	4812
880.605	4809
880.732	4866
880.859	5102
880.986	4850
881.112	4915
881.239	4801
881.366	4694
881.493	4668
881.619	4580
881.746	4664
881.872	4641
881.999	4668
882.125	4717
882.252	4767
882.378	4892
882.505	4961
882.631	4870
882.757	4656
882.883	4717
883.01	4672
883.136	4641
883.262	4573
883.388	4573
883.514	4854
883.64	4858
883.766	4847
883.892	4656
884.018	4714
884.143	4923
884.269	5010
884.395	4668
884.52	4679
884.646	4668
884.772	4580
884.897	4565
885.023	4679
885.148	4809
885.274	4839
885.399	4801
885.524	4706
885.65	4660
885.775	4725
885.9	4714
886.025	4835
886.15	4797
886.275	4721
886.4	4664
886.525	4683
886.65	4691
886.775	4744
886.9	4980
887.025	5025
887.149	4809
887.274	4660
887.399	4599
887.523	4596
887.648	4577
887.773	4538
887.897	4721
888.021	4774
888.146	4687
888.27	4805
888.395	4896
888.519	4797
888.643	4835
888.767	4820
888.891	4668
889.015	4599
889.139	4626
889.263	4637
889.387	4797
889.511	4877
889.635	4790
889.759	4649
889.883	4660
890.006	4710
890.13	4816
890.254	4641
890.377	4672
890.501	4542
890.624	4523
890.748	4626
890.871	4527
890.995	4440
891.118	4413
891.241	4512
891.364	4535
891.488	4656
891.611	4542
891.734	4538
891.857	4637
891.98	4569
892.103	4649
892.226	4569
892.349	4542
892.471	4440
892.594	4584
892.717	4569
892.839	4573
892.962	4592
893.085	4645
893.207	4615
893.33	4398
893.452	4466
893.575	4641
893.697	4577
893.819	4801
893.941	4839
894.064	4778
894.186	4599
894.308	4550
894.43	4691
894.552	4824
894.674	4744
894.796	4550
894.918	4626
895.04	4596
895.161	4634
895.283	4618
895.405	4573
895.526	4660
895.648	4714
895.769	4714
895.891	4660
896.012	4736
896.134	4702
896.255	4599
896.376	4634
896.498	4603
896.619	4653
896.74	4584
896.861	4634
896.982	4949
897.103	5121
897.224	4835
897.345	4748
897.466	4660
897.587	4694
897.708	4793
897.828	4736
897.949	4649
898.07	4558
898.19	4672
898.311	4839
898.431	4687
898.552	4714
898.672	4828
898.792	4797
898.913	4687
899.033	4637
899.153	4554
899.273	4405
899.393	4542
899.513	4535
899.633	4538
899.753	4565
899.873	4489
899.993	4577
900.113	4512
900.232	4569
900.352	4519
900.472	4504
900.591	4383
900.711	4497
900.83	4440
900.95	4592
901.069	4649
901.189	4554
901.308	4390
901.427	4329
901.546	4341
901.665	4478
901.784	4573
901.904	4379
902.023	4257
902.141	4169
902.26	4185
902.379	4314
902.498	4238
902.617	4227
902.735	4375
902.854	4356
902.973	4363
903.091	4200
903.21	4223
903.328	4287
903.446	4322
903.565	4242
903.683	4333
903.801	4280
903.919	4432
904.038	4398
904.156	4314
904.274	4455
904.392	4383
904.51	4470
904.627	4459
904.745	4611
904.863	4626
904.981	4344
905.098	4306
905.216	4375
905.334	4398
905.451	4409
905.569	4470
905.686	4599
905.803	4516
905.921	4417
906.038	4538
906.155	4512
906.272	4421
906.389	4481
906.506	4367
906.623	4352
906.74	4394
906.857	4306
906.974	4367
907.091	4558
907.208	4630
907.324	4592
907.441	4535
907.557	4337
907.674	4322
907.79	4325
907.907	4344
908.023	4485
908.139	4485
908.256	4455
908.372	4428
908.488	4443
908.604	4383
908.72	4318
908.836	4363
908.952	4299
909.068	4428
909.184	4580
909.3	4546
909.415	4569
909.531	4527
909.647	4363
909.762	4371
909.878	4306
909.993	4443
910.108	4409
910.224	4405
910.339	4512
910.454	4367
910.57	4390
910.685	4333
910.8	4637
910.915	4588
911.03	4554
911.145	4356
911.259	4322
911.374	4367
911.489	4325
911.604	4223
911.718	4162
911.833	4234
911.947	4055
912.062	4036
912.176	4268
912.291	4249
912.405	4325
912.519	4478
912.633	4504
912.748	4428
912.862	4337
912.976	4204
913.09	4078
913.204	4181
913.318	4295
913.431	4322
913.545	4367
913.659	4402
913.772	4394
913.886	4230
914	4223
914.113	4348
914.226	4432
914.34	4409
914.453	4227
914.566	4470
914.68	4306
914.793	4360
914.906	4124
915.019	4074
915.132	4082
915.245	4177
915.358	4257
915.47	4261
915.583	4268
915.696	4272
915.809	4421
915.921	4398
916.034	4253
916.146	4299
916.259	4246
916.371	4367
916.483	4363
916.595	4223
916.708	4341
916.82	4306
916.932	4318
917.044	4348
917.156	4360
917.268	4238
917.38	4299
917.491	4227
917.603	4325
917.715	4421
917.826	4436
917.938	4344
918.049	4196
918.161	4371
918.272	4531
918.384	4554
918.495	4455
918.606	4295
918.717	4268
918.828	4299
918.939	4360
919.05	4295
919.161	4348
919.272	4120
919.383	4249
919.494	4455
919.604	4664
919.715	4455
919.826	4409
919.936	4402
920.047	4535
920.157	4443
920.267	4679
920.378	4516
920.488	4497
920.598	4698
920.708	4885
920.818	4733
920.928	4809
921.038	4927
921.148	4923
921.258	4622
921.368	4519
921.477	4504
921.587	4443
921.697	4363
921.806	4550
921.916	4440
922.025	4265
922.134	4280
922.244	4177
922.353	4333
922.462	4188
922.571	4101
922.68	4032
922.789	4029
922.898	3998
923.007	4010
923.116	4139
923.224	4051
923.333	4082
923.442	3972
923.55	3975
923.659	4074
923.767	4082
923.876	4055
923.984	4120
924.092	3983
924.201	4063
924.309	4040
924.417	4131
924.525	4059
924.633	4097
924.741	5041
924.849	3941
924.956	4143
925.064	3968
925.172	3892
925.279	3972
925.387	4059
925.494	4048
925.602	4265
925.709	4162
925.816	4059
925.924	4147
926.031	4238
926.138	4173
926.245	4249
926.352	4074
926.459	4249
926.566	4272
926.673	4093
926.779	4105
926.886	4040
926.993	4006
927.099	3979
927.206	3918
927.312	3960
927.419	4120
927.525	4021
927.631	4067
927.737	3953
927.843	3960
927.95	3800
928.056	3949
928.162	3964
928.267	4055
928.373	4736
928.479	4101
928.585	3892
928.69	4036
928.796	4063
928.901	3968
929.007	3850
929.112	4006
929.218	4029
929.323	3945
929.428	3956
929.533	4124
929.638	3907
929.743	3972
929.848	3979
929.953	4010
930.058	3968
930.163	3800
930.267	3823
930.372	3983
930.477	3816
930.581	4109
930.685	3922
930.79	3850
930.894	3888
930.998	3850
931.103	4048
931.207	3709
931.311	3667
931.415	3637
931.519	3515
931.623	3599
