Data from test_V78500241_249.txt Node
Date: Fri Mar 25 16:50:44 CST 2022
User: usil
Spectrometer: V785-0024
Trigger mode: 0
Integration Time (sec): 4.000000E-1
Scans to average: 1
Nonlinearity correction enabled: false
Boxcar width: 0
Storing dark spectrum: false
XAxis mode: Wavelengths
Number of Pixels in Spectrum: 1024
>>>>>Begin Spectral Data<<<<<
801.071	7974
801.214	8020
801.356	7917
801.499	7837
801.641	7780
801.783	7864
801.926	7944
802.068	7967
802.211	7997
802.353	8005
802.496	7811
802.638	7925
802.78	7963
802.923	7928
803.065	7871
803.208	7845
803.35	8001
803.492	8084
803.635	8187
803.777	8058
803.919	8092
804.061	8442
804.204	8191
804.346	8027
804.488	7955
804.63	8145
804.773	7982
804.915	8134
805.057	8358
805.199	8123
805.341	8202
805.483	8199
805.626	8240
805.768	8126
805.91	8096
806.052	8180
806.194	8092
806.336	8263
806.478	8126
806.62	8046
806.762	8092
806.904	8282
807.046	8427
807.188	8328
807.33	8248
807.472	8256
807.614	8107
807.756	8062
807.898	8008
808.04	7849
808.182	7875
808.324	7894
808.465	7940
808.607	8100
808.749	8103
808.891	8210
809.033	8290
809.174	8123
809.316	8050
809.458	8043
809.6	7997
809.741	8035
809.883	8043
810.025	8092
810.166	8084
810.308	8035
810.45	7989
810.591	7868
810.733	7818
810.875	7674
811.016	7491
811.158	7518
811.299	7666
811.441	7746
811.582	7662
811.724	7590
811.865	7525
812.007	7597
812.148	7605
812.29	7689
812.431	7753
812.573	7921
812.714	7982
812.855	8176
812.997	8180
813.138	8313
813.279	8210
813.421	8145
813.562	7974
813.703	7830
813.845	7731
813.986	7381
814.127	7236
814.268	7198
814.41	7240
814.551	7156
814.692	7179
814.833	7114
814.974	7209
815.115	7114
815.256	6958
815.397	6852
815.539	6897
815.68	6810
815.821	6795
815.962	6886
816.103	6802
816.244	6711
816.385	6612
816.526	6612
816.666	6517
816.807	6460
816.948	6456
817.089	6410
817.23	6369
817.371	6414
817.512	6414
817.653	6391
817.793	6361
817.934	6426
818.075	6483
818.216	6460
818.356	6327
818.497	6239
818.638	6072
818.778	6178
818.919	6083
819.06	6163
819.2	6300
819.341	6292
819.481	6327
819.622	6513
819.762	6700
819.903	6623
820.043	6551
820.184	6635
820.324	6551
820.465	6623
820.605	6604
820.746	6616
820.886	6490
821.026	6669
821.167	6662
821.307	6726
821.447	6700
821.588	6684
821.728	6585
821.868	6452
822.008	6258
822.149	6342
822.289	6361
822.429	6110
822.569	6038
822.709	6140
822.849	5908
822.99	5927
823.13	5916
823.27	5939
823.41	5821
823.55	5813
823.69	5737
823.83	5767
823.97	5619
824.11	5562
824.25	5528
824.389	5615
824.529	5566
824.669	5528
824.809	5668
824.949	5638
825.089	5634
825.228	5604
825.368	5402
825.508	5364
825.648	5322
825.787	5391
825.927	5429
826.067	5315
826.206	5261
826.346	5421
826.485	5395
826.625	5425
826.765	5577
826.904	5448
827.044	5246
827.183	5250
827.323	5178
827.462	5197
827.601	5102
827.741	5185
827.88	5220
828.02	5113
828.159	5220
828.298	5280
828.437	5337
828.577	5322
828.716	5512
828.855	5353
828.994	5159
829.134	5147
829.273	5185
829.412	5124
829.551	5140
829.69	5143
829.829	5284
829.968	5376
830.107	5239
830.246	5254
830.385	5185
830.524	5143
830.663	5094
830.802	5010
830.941	4938
831.08	4828
831.219	5003
831.357	5003
831.496	5159
831.635	4961
831.774	4835
831.913	4850
832.051	4740
832.19	4755
832.329	4790
832.467	4698
832.606	4649
832.744	4729
832.883	4725
833.022	4706
833.16	4843
833.299	4782
833.437	4771
833.576	4839
833.714	4915
833.852	4839
833.991	4927
834.129	4946
834.267	5003
834.406	4911
834.544	4984
834.682	4938
834.821	4919
834.959	5174
835.097	5052
835.235	5151
835.373	5067
835.511	5124
835.65	5048
835.788	5010
835.926	4873
836.064	4892
836.202	4957
836.34	5185
836.478	5239
836.615	5132
836.753	5201
836.891	5277
837.029	5242
837.167	5185
837.305	5178
837.443	5124
837.58	5060
837.718	5246
837.856	5189
837.993	5174
838.131	5227
838.269	5170
838.406	5220
838.544	5174
838.681	5048
838.819	4999
838.956	4927
839.094	4995
839.231	4976
839.369	5083
839.506	5463
839.643	5261
839.781	5052
839.918	4995
840.055	5098
840.193	5128
840.33	5124
840.467	5159
840.604	5189
840.742	5410
840.879	5121
841.016	5045
841.153	5147
841.29	5410
841.427	5303
841.564	5273
841.701	5337
841.838	5212
841.975	5189
842.112	5280
842.249	5193
842.385	5067
842.522	5303
842.659	5174
842.796	5143
842.933	5220
843.069	5185
843.206	5136
843.343	5307
843.479	5307
843.616	5254
843.752	5033
843.889	4976
844.025	5227
844.162	5033
844.298	5178
844.435	5159
844.571	5033
844.708	5235
844.844	5292
844.98	5349
845.117	5284
845.253	5143
845.389	5090
845.525	5178
845.661	5079
845.798	5045
845.934	5147
846.07	5075
846.206	5189
846.342	5318
846.478	5216
846.614	5056
846.75	4915
846.886	4915
847.022	5178
847.158	5060
847.294	5048
847.429	5090
847.565	5090
847.701	5345
847.837	4839
847.972	4767
848.108	4976
848.244	4877
848.379	4797
848.515	4755
848.65	4744
848.786	4767
848.921	4786
849.057	4866
849.192	4877
849.328	4889
849.463	4828
849.598	4805
849.734	4793
849.869	4683
850.004	4637
850.14	4630
850.275	4577
850.41	4535
850.545	4569
850.68	4626
850.815	4573
850.95	4637
851.085	4847
851.22	4740
851.355	4672
851.49	4592
851.625	4622
851.76	4675
851.895	4569
852.03	4512
852.165	4584
852.299	4717
852.434	4793
852.569	4710
852.703	4748
852.838	4831
852.973	4911
853.107	4946
853.242	4717
853.376	4641
853.511	4561
853.645	4615
853.78	4767
853.914	4672
854.048	4653
854.183	4626
854.317	4714
854.451	4866
854.585	4694
854.72	4596
854.854	4721
854.988	4569
855.122	4660
855.256	4538
855.39	4672
855.524	4763
855.658	4725
855.792	4717
855.926	4729
856.06	4740
856.194	4816
856.327	4717
856.461	4615
856.595	4649
856.729	4630
856.862	4710
856.996	4698
857.13	4725
857.263	4793
857.397	4835
857.53	4668
857.664	4710
857.797	4748
857.931	4767
858.064	4664
858.197	4725
858.331	4691
858.464	4626
858.597	4504
858.731	4622
858.864	4637
858.997	4561
859.13	4691
859.263	4710
859.396	4717
859.529	4611
859.662	4554
859.795	4535
859.928	4592
860.061	4778
860.194	4755
860.327	4580
860.46	4565
860.592	4721
860.725	4660
860.858	4759
860.99	4603
861.123	4542
861.256	4527
861.388	4603
861.521	5452
861.653	4489
861.786	4455
861.918	4428
862.05	4481
862.183	4626
862.315	4630
862.447	4702
862.58	4508
862.712	4424
862.844	4299
862.976	4470
863.108	4497
863.24	4843
863.372	4306
863.504	4432
863.636	4405
863.768	4462
863.9	4462
864.032	4360
864.164	4394
864.296	4455
864.428	4558
864.559	4554
864.691	4565
864.823	4512
864.954	4493
865.086	4512
865.217	4428
865.349	4383
865.48	4478
865.612	4542
865.743	4599
865.875	4459
866.006	4443
866.137	4455
866.269	4398
866.4	4383
866.531	4398
866.662	4421
866.793	4428
866.924	4428
867.055	4474
867.186	4432
867.317	4367
867.448	4405
867.579	4402
867.71	4390
867.841	4363
867.972	4413
868.103	4451
868.233	4436
868.364	4459
868.495	4455
868.625	4702
868.756	4782
868.886	4569
869.017	4630
869.147	4771
869.278	4774
869.408	4660
869.539	4664
869.669	4736
869.799	4668
869.929	4759
870.06	4763
870.19	4946
870.32	4938
870.45	4980
870.58	5014
870.71	5121
870.84	5102
870.97	4953
871.1	4938
871.23	5162
871.36	5189
871.489	5003
871.619	5117
871.749	5105
871.879	5208
872.008	5136
872.138	5056
872.267	4942
872.397	4831
872.526	4831
872.656	4717
872.785	4805
872.915	4957
873.044	5025
873.173	4930
873.303	4968
873.432	4984
873.561	4915
873.69	4892
873.819	4854
873.948	4896
874.077	4873
874.206	4729
874.335	4793
874.464	4930
874.593	5014
874.722	4930
874.851	5090
874.979	5064
875.108	5056
875.237	4892
875.365	4877
875.494	4889
875.623	4957
875.751	4835
875.88	4904
876.008	4999
876.136	5048
876.265	5181
876.393	5311
876.521	5208
876.65	5246
876.778	5185
876.906	5105
877.034	5006
877.162	5067
877.29	5018
877.418	5014
877.546	5083
877.674	5075
877.802	5014
877.93	5029
878.058	4957
878.185	4854
878.313	4919
878.441	4946
878.568	4812
878.696	4850
878.824	4972
878.951	5018
879.079	5155
879.206	5273
879.333	5098
879.461	4987
879.588	5037
879.715	5147
879.842	5212
879.97	5037
880.097	4774
880.224	4774
880.351	4816
880.478	4870
880.605	4805
880.732	4786
880.859	5064
880.986	4850
881.112	4927
881.239	4809
881.366	4660
881.493	4607
881.619	4626
881.746	4656
881.872	4615
881.999	4660
882.125	4698
882.252	4786
882.378	4809
882.505	4949
882.631	4805
882.757	4668
882.883	4683
883.01	4702
883.136	4706
883.262	4588
883.388	4656
883.514	4828
883.64	4858
883.766	4816
883.892	4706
884.018	4714
884.143	4919
884.269	5029
884.395	4668
884.52	4596
884.646	4622
884.772	4618
884.897	4569
885.023	4653
885.148	4755
885.274	4900
885.399	4793
885.524	4736
885.65	4626
885.775	4767
885.9	4725
886.025	4824
886.15	4809
886.275	4710
886.4	4691
886.525	4679
886.65	4683
886.775	4694
886.9	4915
887.025	5029
887.149	4816
887.274	4634
887.399	4577
887.523	4611
887.648	4538
887.773	4641
887.897	4778
888.021	4790
888.146	4714
888.27	4805
888.395	4915
888.519	4801
888.643	4809
888.767	4812
888.891	4683
889.015	4607
889.139	4672
889.263	4584
889.387	4805
889.511	4904
889.635	4839
889.759	4645
889.883	4691
890.006	4725
890.13	4828
890.254	4607
890.377	4740
890.501	4535
890.624	4542
890.748	4615
890.871	4497
890.995	4508
891.118	4413
891.241	4478
891.364	4512
891.488	4611
891.611	4527
891.734	4527
891.857	4558
891.98	4527
892.103	4611
892.226	4653
892.349	4546
892.471	4394
892.594	4558
892.717	4637
892.839	4561
892.962	4558
893.085	4634
893.207	4592
893.33	4466
893.452	4592
893.575	4710
893.697	4577
893.819	4782
893.941	4786
894.064	4748
894.186	4584
894.308	4615
894.43	4729
894.552	4828
894.674	4729
894.796	4542
894.918	4592
895.04	4577
895.161	4675
895.283	4702
895.405	4565
895.526	4622
895.648	4687
895.769	4675
895.891	4717
896.012	4717
896.134	4710
896.255	4702
896.376	4611
896.498	4596
896.619	4683
896.74	4615
896.861	4645
896.982	4881
897.103	5094
897.224	4835
897.345	4752
897.466	4637
897.587	4714
897.708	4843
897.828	4778
897.949	4630
898.07	4565
898.19	4615
898.311	4843
898.431	4687
898.552	4694
898.672	4831
898.792	4752
898.913	4755
899.033	4622
899.153	4527
899.273	4405
899.393	4497
899.513	4500
899.633	4535
899.753	4512
899.873	4508
899.993	4611
900.113	4489
900.232	4546
900.352	4523
900.472	4485
900.591	4417
900.711	4497
900.83	4500
900.95	4611
901.069	4672
901.189	4527
901.308	4325
901.427	4325
901.546	4432
901.665	4504
901.784	4546
901.904	4417
902.023	4310
902.141	4192
902.26	4131
902.379	4295
902.498	4223
902.617	4227
902.735	4367
902.854	4413
902.973	4379
903.091	4196
903.21	4246
903.328	4329
903.446	4276
903.565	4238
903.683	4356
903.801	4265
903.919	4428
904.038	4500
904.156	4344
904.274	4504
904.392	4405
904.51	4451
904.627	4481
904.745	4653
904.863	4649
904.981	4394
905.098	4337
905.216	4440
905.334	4478
905.451	4447
905.569	4455
905.686	4565
905.803	4622
905.921	4447
906.038	4561
906.155	4512
906.272	4421
906.389	4527
906.506	4417
906.623	4428
906.74	4417
906.857	4337
906.974	4432
907.091	4596
907.208	4691
907.324	4683
907.441	4538
907.557	4424
907.674	4405
907.79	4371
907.907	4390
908.023	4508
908.139	4504
908.256	4500
908.372	4455
908.488	4531
908.604	4424
908.72	4348
908.836	4459
908.952	4421
909.068	4493
909.184	4592
909.3	4535
909.415	4660
909.531	4577
909.647	4424
909.762	4417
909.878	4409
909.993	4443
910.108	4424
910.224	4466
910.339	4489
910.454	4443
910.57	4348
910.685	4417
910.8	4729
910.915	4626
911.03	4523
911.145	4352
911.259	4337
911.374	4405
911.489	4344
911.604	4322
911.718	4215
911.833	4280
911.947	4147
912.062	4059
912.176	4280
912.291	4291
912.405	4261
912.519	4474
912.633	4508
912.748	4383
912.862	4386
912.976	4215
913.09	4143
913.204	4166
913.318	4242
913.431	4440
913.545	4390
913.659	4500
913.772	4398
913.886	4287
914	4265
914.113	4409
914.226	4466
914.34	4409
914.453	4268
914.566	4459
914.68	4348
914.793	4424
914.906	4204
915.019	4158
915.132	4086
915.245	4234
915.358	4257
915.47	4276
915.583	4310
915.696	4318
915.809	4413
915.921	4443
916.034	4299
916.146	4284
916.259	4272
916.371	4409
916.483	4348
916.595	4337
916.708	4306
916.82	4409
916.932	4333
917.044	4356
917.156	4371
917.268	4299
917.38	4367
917.491	4272
917.603	4405
917.715	4447
917.826	4459
917.938	4443
918.049	4268
918.161	4436
918.272	4569
918.384	4565
918.495	4440
918.606	4352
918.717	4299
918.828	4371
918.939	4367
919.05	4310
919.161	4318
919.272	4192
919.383	4284
919.494	4508
919.604	4694
919.715	4455
919.826	4386
919.936	4466
920.047	4558
920.157	4508
920.267	4725
920.378	4542
920.488	4577
920.598	4706
920.708	4942
920.818	4774
920.928	4797
921.038	4984
921.148	4919
921.258	4687
921.368	4588
921.477	4538
921.587	4459
921.697	4424
921.806	4569
921.916	4489
922.025	4295
922.134	4383
922.244	4268
922.353	4371
922.462	4219
922.571	4147
922.68	4036
922.789	4059
922.898	4082
923.007	4013
923.116	4169
923.224	4036
923.333	4112
923.442	4036
923.55	4025
923.659	4067
923.767	4166
923.876	4006
923.984	4169
924.092	4036
924.201	4116
924.309	4150
924.417	4192
924.525	4067
924.633	4090
924.741	5124
924.849	3968
924.956	4128
925.064	3949
925.172	3979
925.279	3983
925.387	4086
925.494	4063
925.602	4272
925.709	4234
925.816	4109
925.924	4143
926.031	4318
926.138	4192
926.245	4249
926.352	4128
926.459	4314
926.566	4367
926.673	4166
926.779	4109
926.886	4147
926.993	3987
927.099	4021
927.206	3960
927.312	3972
927.419	4082
927.525	4078
927.631	4097
927.737	3998
927.843	4040
927.95	3884
928.056	3998
928.162	4036
928.267	4105
928.373	4615
928.479	4200
928.585	3884
928.69	4013
928.796	4105
928.901	4029
929.007	3876
929.112	4040
929.218	4029
929.323	3968
929.428	3975
929.533	4135
929.638	3983
929.743	4010
929.848	4124
929.953	4032
930.058	3983
930.163	3838
930.267	3873
930.372	4017
930.477	3842
930.581	4131
930.685	4006
930.79	3846
930.894	3922
930.998	3884
931.103	4139
931.207	3698
931.311	3717
931.415	3694
931.519	3561
931.623	3610
