Data from test_V78500241_2455.txt Node
Date: Fri Mar 25 17:06:04 CST 2022
User: usil
Spectrometer: V785-0024
Trigger mode: 0
Integration Time (sec): 4.000000E-1
Scans to average: 1
Nonlinearity correction enabled: false
Boxcar width: 0
Storing dark spectrum: false
XAxis mode: Wavelengths
Number of Pixels in Spectrum: 1024
>>>>>Begin Spectral Data<<<<<
801.071	8012
801.214	8012
801.356	7879
801.499	7909
801.641	7780
801.783	7852
801.926	7932
802.068	7913
802.211	8005
802.353	7970
802.496	7883
802.638	7852
802.78	7921
802.923	7913
803.065	7833
803.208	7883
803.35	8005
803.492	8046
803.635	8138
803.777	8073
803.919	8153
804.061	8457
804.204	8164
804.346	8111
804.488	7944
804.63	8134
804.773	7989
804.915	8119
805.057	8237
805.199	8069
805.341	8126
805.483	8282
805.626	8240
805.768	8134
805.91	8282
806.052	8229
806.194	8107
806.336	8305
806.478	8073
806.62	8065
806.762	8168
806.904	8221
807.046	8461
807.188	8362
807.33	8332
807.472	8355
807.614	8111
807.756	8168
807.898	8027
808.04	7909
808.182	7879
808.324	7845
808.465	7947
808.607	8092
808.749	8130
808.891	8290
809.033	8290
809.174	8218
809.316	8081
809.458	8077
809.6	8024
809.741	8077
809.883	7997
810.025	8096
810.166	8062
810.308	8001
810.45	8065
810.591	7837
810.733	7757
810.875	7674
811.016	7548
811.158	7422
811.299	7567
811.441	7693
811.582	7613
811.724	7590
811.865	7559
812.007	7601
812.148	7628
812.29	7647
812.431	7655
812.573	7860
812.714	7955
812.855	8168
812.997	8206
813.138	8317
813.279	8149
813.421	8073
813.562	8043
813.703	7879
813.845	7727
813.986	7460
814.127	7259
814.268	7209
814.41	7202
814.551	7122
814.692	7221
814.833	7065
814.974	7084
815.115	7110
815.256	6970
815.397	6878
815.539	6970
815.68	6867
815.821	6814
815.962	6844
816.103	6829
816.244	6776
816.385	6635
816.526	6635
816.666	6483
816.807	6292
816.948	6445
817.089	6445
817.23	6437
817.371	6410
817.512	6399
817.653	6407
817.793	6369
817.934	6437
818.075	6437
818.216	6506
818.356	6388
818.497	6213
818.638	6110
818.778	6175
818.919	6163
819.06	6140
819.2	6319
819.341	6319
819.481	6323
819.622	6563
819.762	6795
819.903	6753
820.043	6662
820.184	6601
820.324	6582
820.465	6738
820.605	6703
820.746	6741
820.886	6521
821.026	6662
821.167	6707
821.307	6764
821.447	6776
821.588	6688
821.728	6604
821.868	6494
822.008	6334
822.149	6372
822.289	6395
822.429	6216
822.569	6140
822.709	6136
822.849	5931
822.99	5912
823.13	5946
823.27	5969
823.41	5885
823.55	5817
823.69	5779
823.83	5752
823.97	5695
824.11	5573
824.25	5501
824.389	5604
824.529	5623
824.669	5566
824.809	5680
824.949	5714
825.089	5665
825.228	5615
825.368	5436
825.508	5376
825.648	5364
825.787	5440
825.927	5433
826.067	5372
826.206	5357
826.346	5383
826.485	5497
826.625	5459
826.765	5554
826.904	5543
827.044	5284
827.183	5288
827.323	5220
827.462	5288
827.601	5212
827.741	5212
827.88	5273
828.02	5086
828.159	5284
828.298	5330
828.437	5387
828.577	5315
828.716	5554
828.855	5353
828.994	5250
829.134	5193
829.273	5269
829.412	5189
829.551	5159
829.69	5280
829.829	5284
829.968	5452
830.107	5296
830.246	5322
830.385	5239
830.524	5162
830.663	5083
830.802	5018
830.941	4900
831.08	4896
831.219	5010
831.357	5025
831.496	5166
831.635	4961
831.774	4881
831.913	4892
832.051	4782
832.19	4771
832.329	4889
832.467	4736
832.606	4660
832.744	4847
832.883	4721
833.022	4793
833.16	4816
833.299	4847
833.437	4862
833.576	4911
833.714	4927
833.852	4892
833.991	4927
834.129	4999
834.267	4968
834.406	4915
834.544	5037
834.682	4995
834.821	5003
834.959	5189
835.097	5025
835.235	5193
835.373	5140
835.511	5121
835.65	5105
835.788	5052
835.926	4904
836.064	4885
836.202	4980
836.34	5208
836.478	5280
836.615	5117
836.753	5261
836.891	5330
837.029	5284
837.167	5254
837.305	5208
837.443	5140
837.58	5124
837.718	5296
837.856	5216
837.993	5193
838.131	5284
838.269	5265
838.406	5212
838.544	5189
838.681	5071
838.819	5067
838.956	4942
839.094	4923
839.231	4980
839.369	5083
839.506	5455
839.643	5345
839.781	5060
839.918	5006
840.055	5102
840.193	5151
840.33	5124
840.467	5181
840.604	5201
840.742	5471
840.879	5105
841.016	5174
841.153	5220
841.29	5425
841.427	5383
841.564	5341
841.701	5433
841.838	5303
841.975	5292
842.112	5303
842.249	5162
842.385	5166
842.522	5368
842.659	5208
842.796	5155
842.933	5174
843.069	5151
843.206	5231
843.343	5372
843.479	5239
843.616	5322
843.752	5048
843.889	5014
844.025	5227
844.162	5079
844.298	5239
844.435	5098
844.571	5117
844.708	5208
844.844	5318
844.98	5372
845.117	5322
845.253	5170
845.389	5083
845.525	5178
845.661	5109
845.798	5098
845.934	5143
846.07	5083
846.206	5204
846.342	5258
846.478	5197
846.614	5056
846.75	4980
846.886	4968
847.022	5193
847.158	5060
847.294	5102
847.429	5143
847.565	5105
847.701	5315
847.837	4900
847.972	4824
848.108	5018
848.244	4972
848.379	4850
848.515	4755
848.65	4786
848.786	4831
848.921	4809
849.057	4923
849.192	4991
849.328	4850
849.463	4892
849.598	4831
849.734	4816
849.869	4679
850.004	4694
850.14	4645
850.275	4683
850.41	4580
850.545	4603
850.68	4599
850.815	4668
850.95	4714
851.085	4866
851.22	4755
851.355	4702
851.49	4653
851.625	4721
851.76	4668
851.895	4615
852.03	4599
852.165	4729
852.299	4702
852.434	4774
852.569	4774
852.703	4816
852.838	4889
852.973	4965
853.107	4919
853.242	4771
853.376	4702
853.511	4569
853.645	4645
853.78	4854
853.914	4702
854.048	4748
854.183	4691
854.317	4710
854.451	4904
854.585	4744
854.72	4679
854.854	4748
854.988	4622
855.122	4683
855.256	4535
855.39	4664
855.524	4793
855.658	4721
855.792	4733
855.926	4740
856.06	4755
856.194	4812
856.327	4740
856.461	4698
856.595	4603
856.729	4691
856.862	4790
856.996	4660
857.13	4759
857.263	4812
857.397	4820
857.53	4706
857.664	4801
857.797	4744
857.931	4835
858.064	4694
858.197	4736
858.331	4675
858.464	4573
858.597	4565
858.731	4694
858.864	4668
858.997	4664
859.13	4683
859.263	4736
859.396	4706
859.529	4611
859.662	4531
859.795	4565
859.928	4611
860.061	4801
860.194	4763
860.327	4611
860.46	4558
860.592	4733
860.725	4736
860.858	4790
860.99	4584
861.123	4596
861.256	4584
861.388	4630
861.521	5311
861.653	4546
861.786	4478
861.918	4500
862.05	4599
862.183	4558
862.315	4618
862.447	4626
862.58	4592
862.712	4413
862.844	4329
862.976	4466
863.108	4485
863.24	4801
863.372	4398
863.504	4443
863.636	4417
863.768	4500
863.9	4455
864.032	4383
864.164	4447
864.296	4558
864.428	4569
864.559	4569
864.691	4580
864.823	4561
864.954	4554
865.086	4558
865.217	4474
865.349	4451
865.48	4500
865.612	4546
865.743	4649
865.875	4535
866.006	4462
866.137	4481
866.269	4504
866.4	4497
866.531	4466
866.662	4386
866.793	4424
866.924	4459
867.055	4523
867.186	4573
867.317	4436
867.448	4375
867.579	4375
867.71	4375
867.841	4348
867.972	4481
868.103	4500
868.233	4451
868.364	4500
868.495	4485
868.625	4755
868.756	4748
868.886	4622
869.017	4622
869.147	4793
869.278	4774
869.408	4702
869.539	4656
869.669	4733
869.799	4694
869.929	4812
870.06	4774
870.19	5010
870.32	4961
870.45	4961
870.58	5056
870.71	5090
870.84	5109
870.97	5014
871.1	4942
871.23	5204
871.36	5113
871.489	5060
871.619	5086
871.749	5090
871.879	5166
872.008	5174
872.138	5090
872.267	5022
872.397	4866
872.526	4790
872.656	4797
872.785	4858
872.915	4923
873.044	5037
873.173	4965
873.303	4995
873.432	4987
873.561	5006
873.69	4908
873.819	4911
873.948	4896
874.077	4839
874.206	4752
874.335	4790
874.464	4961
874.593	5060
874.722	4896
874.851	5151
874.979	5102
875.108	5094
875.237	4930
875.365	4847
875.494	4862
875.623	4972
875.751	4805
875.88	4885
876.008	5052
876.136	5018
876.265	5258
876.393	5372
876.521	5307
876.65	5265
876.778	5166
876.906	5094
877.034	5045
877.162	5048
877.29	5075
877.418	5037
877.546	5025
877.674	5102
877.802	5056
877.93	5025
878.058	4953
878.185	4873
878.313	4957
878.441	4919
878.568	4801
878.696	4908
878.824	4949
878.951	5006
879.079	5102
879.206	5341
879.333	5159
879.461	4953
879.588	5025
879.715	5162
879.842	5254
879.97	5045
880.097	4790
880.224	4812
880.351	4786
880.478	4873
880.605	4831
880.732	4801
880.859	5090
880.986	4904
881.112	4900
881.239	4786
881.366	4660
881.493	4611
881.619	4584
881.746	4664
881.872	4683
881.999	4660
882.125	4717
882.252	4778
882.378	4866
882.505	4972
882.631	4801
882.757	4641
882.883	4752
883.01	4752
883.136	4679
883.262	4584
883.388	4630
883.514	4828
883.64	4919
883.766	4790
883.892	4683
884.018	4733
884.143	4870
884.269	5022
884.395	4702
884.52	4675
884.646	4626
884.772	4596
884.897	4561
885.023	4653
885.148	4805
885.274	4854
885.399	4790
885.524	4748
885.65	4755
885.775	4786
885.9	4736
886.025	4862
886.15	4801
886.275	4752
886.4	4660
886.525	4752
886.65	4702
886.775	4698
886.9	4930
887.025	5045
887.149	4847
887.274	4679
887.399	4596
887.523	4611
887.648	4599
887.773	4565
887.897	4812
888.021	4797
888.146	4710
888.27	4774
888.395	4949
888.519	4858
888.643	4824
888.767	4850
888.891	4641
889.015	4668
889.139	4691
889.263	4653
889.387	4759
889.511	4843
889.635	4790
889.759	4603
889.883	4668
890.006	4771
890.13	4854
890.254	4599
890.377	4710
890.501	4573
890.624	4542
890.748	4634
890.871	4508
890.995	4481
891.118	4386
891.241	4535
891.364	4550
891.488	4622
891.611	4512
891.734	4500
891.857	4611
891.98	4554
892.103	4733
892.226	4649
892.349	4489
892.471	4447
892.594	4603
892.717	4626
892.839	4569
892.962	4615
893.085	4683
893.207	4599
893.33	4489
893.452	4519
893.575	4683
893.697	4611
893.819	4801
893.941	4828
894.064	4801
894.186	4569
894.308	4577
894.43	4763
894.552	4774
894.674	4767
894.796	4527
894.918	4656
895.04	4599
895.161	4725
895.283	4637
895.405	4577
895.526	4683
895.648	4714
895.769	4637
895.891	4691
896.012	4721
896.134	4748
896.255	4721
896.376	4622
896.498	4603
896.619	4683
896.74	4630
896.861	4660
896.982	4938
897.103	5067
897.224	4843
897.345	4767
897.466	4691
897.587	4771
897.708	4858
897.828	4790
897.949	4698
898.07	4584
898.19	4679
898.311	4839
898.431	4710
898.552	4809
898.672	4812
898.792	4778
898.913	4801
899.033	4622
899.153	4546
899.273	4432
899.393	4538
899.513	4542
899.633	4523
899.753	4561
899.873	4538
899.993	4569
900.113	4500
900.232	4588
900.352	4615
900.472	4519
900.591	4417
900.711	4481
900.83	4493
900.95	4584
901.069	4687
901.189	4554
901.308	4333
901.427	4325
901.546	4390
901.665	4478
901.784	4504
901.904	4417
902.023	4348
902.141	4192
902.26	4188
902.379	4295
902.498	4238
902.617	4238
902.735	4363
902.854	4413
902.973	4352
903.091	4200
903.21	4242
903.328	4291
903.446	4242
903.565	4257
903.683	4367
903.801	4329
903.919	4371
904.038	4421
904.156	4303
904.274	4481
904.392	4394
904.51	4421
904.627	4451
904.745	4599
904.863	4626
904.981	4409
905.098	4314
905.216	4402
905.334	4421
905.451	4447
905.569	4413
905.686	4603
905.803	4618
905.921	4424
906.038	4588
906.155	4478
906.272	4386
906.389	4443
906.506	4394
906.623	4379
906.74	4398
906.857	4360
906.974	4398
907.091	4577
907.208	4626
907.324	4618
907.441	4485
907.557	4360
907.674	4337
907.79	4337
907.907	4371
908.023	4519
908.139	4447
908.256	4428
908.372	4481
908.488	4443
908.604	4348
908.72	4310
908.836	4398
908.952	4390
909.068	4451
909.184	4569
909.3	4504
909.415	4599
909.531	4561
909.647	4383
909.762	4436
909.878	4291
909.993	4470
910.108	4386
910.224	4462
910.339	4497
910.454	4421
910.57	4383
910.685	4306
910.8	4630
910.915	4584
911.03	4500
911.145	4303
911.259	4375
911.374	4413
911.489	4344
911.604	4310
911.718	4150
911.833	4207
911.947	4082
912.062	4002
912.176	4188
912.291	4265
912.405	4284
912.519	4478
912.633	4504
912.748	4394
912.862	4306
912.976	4188
913.09	4086
913.204	4158
913.318	4287
913.431	4398
913.545	4432
913.659	4459
913.772	4386
913.886	4261
914	4276
914.113	4360
914.226	4413
914.34	4390
914.453	4268
914.566	4394
914.68	4329
914.793	4303
914.906	4173
915.019	4139
915.132	4086
915.245	4169
915.358	4173
915.47	4242
915.583	4257
915.696	4295
915.809	4394
915.921	4424
916.034	4234
916.146	4268
916.259	4177
916.371	4379
916.483	4341
916.595	4295
916.708	4367
916.82	4356
916.932	4329
917.044	4375
917.156	4299
917.268	4242
917.38	4272
917.491	4276
917.603	4337
917.715	4398
917.826	4497
917.938	4337
918.049	4265
918.161	4375
918.272	4611
918.384	4554
918.495	4436
918.606	4280
918.717	4242
918.828	4337
918.939	4363
919.05	4265
919.161	4356
919.272	4147
919.383	4268
919.494	4413
919.604	4675
919.715	4405
919.826	4348
919.936	4421
920.047	4542
920.157	4478
920.267	4656
920.378	4508
920.488	4474
920.598	4672
920.708	4873
920.818	4714
920.928	4771
921.038	4968
921.148	4889
921.258	4672
921.368	4538
921.477	4512
921.587	4440
921.697	4322
921.806	4554
921.916	4497
922.025	4272
922.134	4246
922.244	4215
922.353	4375
922.462	4150
922.571	4120
922.68	4006
922.789	3975
922.898	4025
923.007	4025
923.116	4082
923.224	4071
923.333	4059
923.442	3968
923.55	3972
923.659	4021
923.767	4109
923.876	3987
923.984	4109
924.092	3975
924.201	4051
924.309	4090
924.417	4177
924.525	4055
924.633	4082
924.741	5060
924.849	3884
924.956	4128
925.064	3949
925.172	3926
925.279	3945
925.387	4044
925.494	4051
925.602	4192
925.709	4192
925.816	4036
925.924	4109
926.031	4242
926.138	4192
926.245	4200
926.352	4074
926.459	4268
926.566	4318
926.673	4124
926.779	4090
926.886	4082
926.993	3968
927.099	3945
927.206	3956
927.312	3941
927.419	4105
927.525	4067
927.631	4059
927.737	3979
927.843	3972
927.95	3896
928.056	3922
928.162	3983
928.267	4097
928.373	4694
928.479	4120
928.585	3865
928.69	4048
928.796	4078
928.901	3937
929.007	3846
929.112	3956
929.218	4006
929.323	3926
929.428	3937
929.533	4101
929.638	3937
929.743	3983
929.848	4051
929.953	4048
930.058	3888
930.163	3819
930.267	3800
930.372	3994
930.477	3797
930.581	4059
930.685	3930
930.79	3819
930.894	3896
930.998	3911
931.103	4051
931.207	3717
931.311	3724
931.415	3652
931.519	3538
931.623	3530
