Data from test_V78500241_125.txt Node
Date: Fri Mar 25 16:49:52 CST 2022
User: usil
Spectrometer: V785-0024
Trigger mode: 0
Integration Time (sec): 4.000000E-1
Scans to average: 1
Nonlinearity correction enabled: false
Boxcar width: 0
Storing dark spectrum: false
XAxis mode: Wavelengths
Number of Pixels in Spectrum: 1024
>>>>>Begin Spectral Data<<<<<
801.071	8069
801.214	8024
801.356	7852
801.499	7902
801.641	7879
801.783	7913
801.926	7997
802.068	8001
802.211	8043
802.353	7986
802.496	7875
802.638	7944
802.78	7940
802.923	7978
803.065	7856
803.208	7902
803.35	7993
803.492	8058
803.635	8111
803.777	8069
803.919	8035
804.061	8431
804.204	8153
804.346	7970
804.488	7955
804.63	8065
804.773	7970
804.915	8054
805.057	8218
805.199	8145
805.341	8180
805.483	8271
805.626	8161
805.768	8039
805.91	8119
806.052	8206
806.194	8138
806.336	8317
806.478	8073
806.62	8107
806.762	8229
806.904	8336
807.046	8404
807.188	8362
807.33	8294
807.472	8362
807.614	8149
807.756	8153
807.898	8035
808.04	7978
808.182	7917
808.324	7947
808.465	7902
808.607	8043
808.749	8043
808.891	8244
809.033	8279
809.174	8210
809.316	7978
809.458	8134
809.6	7940
809.741	8073
809.883	8161
810.025	8142
810.166	8142
810.308	8111
810.45	8073
810.591	7940
810.733	7769
810.875	7689
811.016	7556
811.158	7518
811.299	7643
811.441	7757
811.582	7757
811.724	7578
811.865	7586
812.007	7666
812.148	7651
812.29	7712
812.431	7772
812.573	7959
812.714	8058
812.855	8229
812.997	8339
813.138	8396
813.279	8271
813.421	8157
813.562	8035
813.703	7928
813.845	7837
813.986	7445
814.127	7346
814.268	7263
814.41	7259
814.551	7183
814.692	7232
814.833	7137
814.974	7141
815.115	7266
815.256	7050
815.397	6977
815.539	7008
815.68	6821
815.821	6837
815.962	6878
816.103	6905
816.244	6730
816.385	6585
816.526	6631
816.666	6551
816.807	6384
816.948	6494
817.089	6502
817.23	6494
817.371	6380
817.512	6311
817.653	6429
817.793	6399
817.934	6426
818.075	6456
818.216	6506
818.356	6407
818.497	6254
818.638	6159
818.778	6224
818.919	6186
819.06	6197
819.2	6395
819.341	6380
819.481	6414
819.622	6582
819.762	6814
819.903	6753
820.043	6646
820.184	6616
820.324	6627
820.465	6722
820.605	6688
820.746	6646
820.886	6597
821.026	6719
821.167	6753
821.307	6840
821.447	6833
821.588	6715
821.728	6616
821.868	6521
822.008	6380
822.149	6441
822.289	6376
822.429	6197
822.569	6114
822.709	6144
822.849	5950
822.99	5942
823.13	5977
823.27	5965
823.41	5832
823.55	5805
823.69	5779
823.83	5790
823.97	5699
824.11	5611
824.25	5524
824.389	5646
824.529	5627
824.669	5524
824.809	5627
824.949	5646
825.089	5691
825.228	5551
825.368	5417
825.508	5376
825.648	5376
825.787	5455
825.927	5410
826.067	5353
826.206	5322
826.346	5410
826.485	5402
826.625	5429
826.765	5516
826.904	5478
827.044	5269
827.183	5246
827.323	5109
827.462	5330
827.601	5265
827.741	5223
827.88	5250
828.02	5105
828.159	5242
828.298	5364
828.437	5433
828.577	5265
828.716	5516
828.855	5334
828.994	5185
829.134	5159
829.273	5288
829.412	5155
829.551	5159
829.69	5204
829.829	5315
829.968	5337
830.107	5292
830.246	5326
830.385	5204
830.524	5162
830.663	5117
830.802	5003
830.941	4885
831.08	4896
831.219	5029
831.357	5037
831.496	5197
831.635	4927
831.774	4839
831.913	4892
832.051	4752
832.19	4774
832.329	4915
832.467	4748
832.606	4687
832.744	4759
832.883	4729
833.022	4763
833.16	4854
833.299	4843
833.437	4862
833.576	4858
833.714	4889
833.852	4881
833.991	4923
834.129	4957
834.267	4927
834.406	4896
834.544	4953
834.682	4972
834.821	4919
834.959	5189
835.097	4968
835.235	5178
835.373	5128
835.511	5117
835.65	5060
835.788	5075
835.926	4892
836.064	4904
836.202	4953
836.34	5189
836.478	5265
836.615	5166
836.753	5235
836.891	5292
837.029	5288
837.167	5277
837.305	5178
837.443	5170
837.58	5102
837.718	5246
837.856	5261
837.993	5155
838.131	5242
838.269	5277
838.406	5284
838.544	5185
838.681	5045
838.819	5086
838.956	4976
839.094	4961
839.231	4984
839.369	5105
839.506	5490
839.643	5258
839.781	5090
839.918	5025
840.055	5151
840.193	5109
840.33	5143
840.467	5147
840.604	5208
840.742	5444
840.879	5071
841.016	5022
841.153	5155
841.29	5383
841.427	5376
841.564	5258
841.701	5376
841.838	5277
841.975	5242
842.112	5334
842.249	5140
842.385	5105
842.522	5318
842.659	5201
842.796	5178
842.933	5204
843.069	5174
843.206	5170
843.343	5318
843.479	5231
843.616	5250
843.752	5033
843.889	5018
844.025	5296
844.162	5048
844.298	5273
844.435	5067
844.571	5071
844.708	5223
844.844	5303
844.98	5410
845.117	5299
845.253	5166
845.389	5140
845.525	5147
845.661	5185
845.798	5094
845.934	5143
846.07	5102
846.206	5197
846.342	5265
846.478	5212
846.614	5052
846.75	5006
846.886	4980
847.022	5181
847.158	5060
847.294	5067
847.429	5140
847.565	5075
847.701	5353
847.837	4896
847.972	4850
848.108	4968
848.244	4927
848.379	4839
848.515	4744
848.65	4694
848.786	4774
848.921	4816
849.057	4892
849.192	4896
849.328	4850
849.463	4828
849.598	4797
849.734	4828
849.869	4656
850.004	4622
850.14	4683
850.275	4641
850.41	4565
850.545	4679
850.68	4599
850.815	4675
850.95	4626
851.085	4839
851.22	4755
851.355	4691
851.49	4649
851.625	4691
851.76	4653
851.895	4565
852.03	4542
852.165	4588
852.299	4763
852.434	4809
852.569	4790
852.703	4797
852.838	4850
852.973	4930
853.107	4885
853.242	4710
853.376	4675
853.511	4607
853.645	4653
853.78	4809
853.914	4755
854.048	4687
854.183	4622
854.317	4767
854.451	4850
854.585	4694
854.72	4672
854.854	4744
854.988	4622
855.122	4660
855.256	4599
855.39	4679
855.524	4774
855.658	4774
855.792	4725
855.926	4725
856.06	4767
856.194	4820
856.327	4702
856.461	4698
856.595	4641
856.729	4626
856.862	4748
856.996	4683
857.13	4752
857.263	4778
857.397	4767
857.53	4637
857.664	4748
857.797	4782
857.931	4782
858.064	4721
858.197	4740
858.331	4672
858.464	4622
858.597	4527
858.731	4710
858.864	4645
858.997	4569
859.13	4679
859.263	4725
859.396	4725
859.529	4596
859.662	4584
859.795	4538
859.928	4649
860.061	4771
860.194	4824
860.327	4634
860.46	4599
860.592	4759
860.725	4755
860.858	4710
860.99	4607
861.123	4500
861.256	4527
861.388	4634
861.521	5421
861.653	4481
861.786	4440
861.918	4481
862.05	4531
862.183	4573
862.315	4645
862.447	4653
862.58	4535
862.712	4409
862.844	4341
862.976	4470
863.108	4519
863.24	4881
863.372	4352
863.504	4459
863.636	4402
863.768	4497
863.9	4508
864.032	4360
864.164	4478
864.296	4504
864.428	4554
864.559	4573
864.691	4523
864.823	4546
864.954	4500
865.086	4535
865.217	4424
865.349	4455
865.48	4436
865.612	4516
865.743	4660
865.875	4523
866.006	4402
866.137	4466
866.269	4432
866.4	4459
866.531	4432
866.662	4436
866.793	4409
866.924	4436
867.055	4443
867.186	4432
867.317	4421
867.448	4432
867.579	4383
867.71	4424
867.841	4451
867.972	4474
868.103	4485
868.233	4455
868.364	4451
868.495	4500
868.625	4725
868.756	4854
868.886	4596
869.017	4618
869.147	4801
869.278	4771
869.408	4729
869.539	4656
869.669	4736
869.799	4687
869.929	4714
870.06	4698
870.19	4987
870.32	4889
870.45	4984
870.58	5018
870.71	5140
870.84	5121
870.97	4934
871.1	4911
871.23	5197
871.36	5117
871.489	5033
871.619	5064
871.749	5105
871.879	5071
872.008	5216
872.138	5102
872.267	5006
872.397	4953
872.526	4820
872.656	4717
872.785	4850
872.915	4968
873.044	5029
873.173	4965
873.303	5033
873.432	4984
873.561	4987
873.69	4946
873.819	4892
873.948	4957
874.077	4862
874.206	4793
874.335	4801
874.464	4949
874.593	5041
874.722	4968
874.851	5128
874.979	5117
875.108	5121
875.237	5014
875.365	4889
875.494	4911
875.623	5010
875.751	4843
875.88	4873
876.008	5014
876.136	5045
876.265	5227
876.393	5372
876.521	5239
876.65	5299
876.778	5212
876.906	5060
877.034	5071
877.162	5041
877.29	5006
877.418	5079
877.546	5075
877.674	5041
877.802	5045
877.93	5006
878.058	4919
878.185	4801
878.313	4991
878.441	4892
878.568	4809
878.696	4839
878.824	4942
878.951	5018
879.079	5166
879.206	5265
879.333	5121
879.461	5033
879.588	5064
879.715	5132
879.842	5216
879.97	4999
880.097	4801
880.224	4778
880.351	4828
880.478	4824
880.605	4809
880.732	4790
880.859	5083
880.986	4930
881.112	4923
881.239	4771
881.366	4664
881.493	4607
881.619	4554
881.746	4694
881.872	4637
881.999	4672
882.125	4736
882.252	4782
882.378	4877
882.505	4957
882.631	4858
882.757	4653
882.883	4790
883.01	4740
883.136	4710
883.262	4634
883.388	4649
883.514	4759
883.64	4896
883.766	4774
883.892	4725
884.018	4736
884.143	4927
884.269	4995
884.395	4675
884.52	4603
884.646	4668
884.772	4622
884.897	4577
885.023	4710
885.148	4812
885.274	4892
885.399	4824
885.524	4733
885.65	4698
885.775	4790
885.9	4679
886.025	4843
886.15	4786
886.275	4740
886.4	4630
886.525	4721
886.65	4706
886.775	4710
886.9	4919
887.025	5109
887.149	4824
887.274	4668
887.399	4596
887.523	4675
887.648	4592
887.773	4577
887.897	4797
888.021	4778
888.146	4645
888.27	4843
888.395	4942
888.519	4824
888.643	4812
888.767	4850
888.891	4740
889.015	4645
889.139	4634
889.263	4641
889.387	4763
889.511	4881
889.635	4767
889.759	4637
889.883	4618
890.006	4729
890.13	4877
890.254	4653
890.377	4664
890.501	4561
890.624	4523
890.748	4641
890.871	4489
890.995	4459
891.118	4398
891.241	4565
891.364	4569
891.488	4596
891.611	4493
891.734	4592
891.857	4599
891.98	4561
892.103	4622
892.226	4607
892.349	4542
892.471	4428
892.594	4626
892.717	4645
892.839	4607
892.962	4569
893.085	4698
893.207	4603
893.33	4481
893.452	4565
893.575	4691
893.697	4626
893.819	4812
893.941	4866
894.064	4809
894.186	4603
894.308	4588
894.43	4729
894.552	4843
894.674	4786
894.796	4577
894.918	4599
895.04	4599
895.161	4721
895.283	4729
895.405	4573
895.526	4706
895.648	4710
895.769	4664
895.891	4725
896.012	4729
896.134	4729
896.255	4660
896.376	4687
896.498	4637
896.619	4679
896.74	4641
896.861	4660
896.982	4896
897.103	5079
897.224	4847
897.345	4752
897.466	4675
897.587	4786
897.708	4854
897.828	4839
897.949	4710
898.07	4603
898.19	4656
898.311	4854
898.431	4668
898.552	4710
898.672	4801
898.792	4858
898.913	4763
899.033	4626
899.153	4531
899.273	4508
899.393	4523
899.513	4561
899.633	4531
899.753	4558
899.873	4535
899.993	4599
900.113	4596
900.232	4577
900.352	4516
900.472	4535
900.591	4421
900.711	4561
900.83	4447
900.95	4626
901.069	4691
901.189	4554
901.308	4383
901.427	4363
901.546	4386
901.665	4500
901.784	4561
901.904	4398
902.023	4341
902.141	4188
902.26	4204
902.379	4310
902.498	4207
902.617	4261
902.735	4386
902.854	4440
902.973	4379
903.091	4249
903.21	4299
903.328	4295
903.446	4314
903.565	4295
903.683	4375
903.801	4291
903.919	4478
904.038	4440
904.156	4367
904.274	4421
904.392	4405
904.51	4500
904.627	4481
904.745	4664
904.863	4675
904.981	4447
905.098	4329
905.216	4398
905.334	4470
905.451	4478
905.569	4436
905.686	4580
905.803	4569
905.921	4447
906.038	4569
906.155	4470
906.272	4413
906.389	4504
906.506	4344
906.623	4352
906.74	4478
906.857	4341
906.974	4383
907.091	4618
907.208	4675
907.324	4611
907.441	4508
907.557	4363
907.674	4348
907.79	4383
907.907	4440
908.023	4489
908.139	4561
908.256	4436
908.372	4497
908.488	4413
908.604	4322
908.72	4291
908.836	4379
908.952	4383
909.068	4443
909.184	4577
909.3	4497
909.415	4645
909.531	4558
909.647	4417
909.762	4409
909.878	4344
909.993	4443
910.108	4447
910.224	4402
910.339	4512
910.454	4409
910.57	4394
910.685	4375
910.8	4664
910.915	4630
911.03	4554
911.145	4367
911.259	4341
911.374	4360
911.489	4310
911.604	4295
911.718	4192
911.833	4234
911.947	4071
912.062	4029
912.176	4192
912.291	4276
912.405	4276
912.519	4516
912.633	4516
912.748	4383
912.862	4329
912.976	4238
913.09	4124
913.204	4215
913.318	4295
913.431	4409
913.545	4367
913.659	4443
913.772	4443
913.886	4280
914	4249
914.113	4390
914.226	4436
914.34	4398
914.453	4272
914.566	4436
914.68	4329
914.793	4360
914.906	4200
915.019	4120
915.132	4112
915.245	4200
915.358	4192
915.47	4200
915.583	4295
915.696	4291
915.809	4443
915.921	4409
916.034	4291
916.146	4261
916.259	4246
916.371	4417
916.483	4383
916.595	4329
916.708	4329
916.82	4276
916.932	4379
917.044	4344
917.156	4337
917.268	4257
917.38	4295
917.491	4314
917.603	4383
917.715	4440
917.826	4432
917.938	4386
918.049	4242
918.161	4402
918.272	4550
918.384	4592
918.495	4447
918.606	4363
918.717	4310
918.828	4329
918.939	4360
919.05	4310
919.161	4371
919.272	4158
919.383	4242
919.494	4443
919.604	4660
919.715	4459
919.826	4367
919.936	4474
920.047	4584
920.157	4523
920.267	4771
920.378	4615
920.488	4542
920.598	4740
920.708	4885
920.818	4752
920.928	4816
921.038	4984
921.148	4972
921.258	4634
921.368	4546
921.477	4516
921.587	4504
921.697	4405
921.806	4546
921.916	4474
922.025	4272
922.134	4280
922.244	4238
922.353	4356
922.462	4185
922.571	4185
922.68	4040
922.789	3972
922.898	4051
923.007	4017
923.116	4120
923.224	4105
923.333	4097
923.442	4029
923.55	4017
923.659	4074
923.767	4131
923.876	4051
923.984	4120
924.092	4021
924.201	4150
924.309	4112
924.417	4147
924.525	4109
924.633	4139
924.741	4934
924.849	3945
924.956	4169
925.064	3975
925.172	3930
925.279	3964
925.387	4074
925.494	4048
925.602	4211
925.709	4219
925.816	4048
925.924	4188
926.031	4227
926.138	4173
926.245	4265
926.352	4143
926.459	4276
926.566	4360
926.673	4166
926.779	4063
926.886	4067
926.993	4017
927.099	3960
927.206	3949
927.312	3922
927.419	4086
927.525	4021
927.631	4109
927.737	3998
927.843	3953
927.95	3876
928.056	3975
928.162	4021
928.267	4090
928.373	4649
928.479	4150
928.585	3918
928.69	4021
928.796	4143
928.901	4006
929.007	3865
929.112	4025
929.218	4002
929.323	3956
929.428	3994
929.533	4116
929.638	3934
929.743	3960
929.848	4048
929.953	4025
930.058	3922
930.163	3838
930.267	3816
930.372	4006
930.477	3831
930.581	4154
930.685	3972
930.79	3816
930.894	3960
930.998	3899
931.103	4124
931.207	3770
931.311	3671
931.415	3656
931.519	3542
931.623	3576
