Data from test_V78500241_2246.txt Node
Date: Fri Mar 25 17:04:37 CST 2022
User: usil
Spectrometer: V785-0024
Trigger mode: 0
Integration Time (sec): 4.000000E-1
Scans to average: 1
Nonlinearity correction enabled: false
Boxcar width: 0
Storing dark spectrum: false
XAxis mode: Wavelengths
Number of Pixels in Spectrum: 1024
>>>>>Begin Spectral Data<<<<<
801.071	8035
801.214	7963
801.356	7830
801.499	7909
801.641	7753
801.783	7852
801.926	8050
802.068	7906
802.211	7993
802.353	8065
802.496	7894
802.638	7849
802.78	7921
802.923	7902
803.065	7871
803.208	7772
803.35	7993
803.492	8077
803.635	8191
803.777	8043
803.919	8145
804.061	8434
804.204	8157
804.346	8035
804.488	7974
804.63	8084
804.773	8035
804.915	8081
805.057	8282
805.199	8168
805.341	8176
805.483	8263
805.626	8191
805.768	8107
805.91	8180
806.052	8202
806.194	8081
806.336	8275
806.478	8103
806.62	8065
806.762	8164
806.904	8298
807.046	8484
807.188	8404
807.33	8282
807.472	8282
807.614	8149
807.756	8100
807.898	8012
808.04	7772
808.182	7856
808.324	7890
808.465	7837
808.607	8016
808.749	8081
808.891	8225
809.033	8290
809.174	8149
809.316	8043
809.458	8054
809.6	7982
809.741	8069
809.883	8008
810.025	8084
810.166	8027
810.308	8046
810.45	7970
810.591	7784
810.733	7738
810.875	7677
811.016	7521
811.158	7384
811.299	7521
811.441	7727
811.582	7670
811.724	7571
811.865	7468
812.007	7510
812.148	7578
812.29	7655
812.431	7708
812.573	7894
812.714	7974
812.855	8161
812.997	8199
813.138	8267
813.279	8134
813.421	8077
813.562	7894
813.703	7890
813.845	7753
813.986	7365
814.127	7308
814.268	7244
814.41	7149
814.551	7160
814.692	7198
814.833	7114
814.974	7084
815.115	7126
815.256	6947
815.397	6916
815.539	6996
815.68	6802
815.821	6700
815.962	6863
816.103	6795
816.244	6658
816.385	6551
816.526	6544
816.666	6448
816.807	6315
816.948	6475
817.089	6448
817.23	6422
817.371	6395
817.512	6391
817.653	6365
817.793	6380
817.934	6460
818.075	6414
818.216	6437
818.356	6437
818.497	6273
818.638	6114
818.778	6114
818.919	6110
819.06	6186
819.2	6327
819.341	6285
819.481	6331
819.622	6532
819.762	6741
819.903	6673
820.043	6601
820.184	6601
820.324	6536
820.465	6658
820.605	6665
820.746	6574
820.886	6528
821.026	6646
821.167	6719
821.307	6722
821.447	6707
821.588	6608
821.728	6547
821.868	6509
822.008	6353
822.149	6338
822.289	6342
822.429	6133
822.569	6091
822.709	6057
822.849	5893
822.99	5847
823.13	5931
823.27	5908
823.41	5775
823.55	5752
823.69	5756
823.83	5714
823.97	5630
824.11	5505
824.25	5497
824.389	5535
824.529	5608
824.669	5528
824.809	5592
824.949	5573
825.089	5619
825.228	5532
825.368	5311
825.508	5345
825.648	5292
825.787	5357
825.927	5391
826.067	5299
826.206	5258
826.346	5357
826.485	5379
826.625	5414
826.765	5501
826.904	5448
827.044	5296
827.183	5220
827.323	5109
827.462	5261
827.601	5185
827.741	5189
827.88	5227
828.02	5147
828.159	5258
828.298	5280
828.437	5349
828.577	5364
828.716	5509
828.855	5334
828.994	5143
829.134	5201
829.273	5204
829.412	5102
829.551	5075
829.69	5159
829.829	5261
829.968	5417
830.107	5273
830.246	5330
830.385	5174
830.524	5121
830.663	5159
830.802	5014
830.941	4923
831.08	4911
831.219	5029
831.357	5010
831.496	5246
831.635	4968
831.774	4881
831.913	4873
832.051	4774
832.19	4790
832.329	4862
832.467	4714
832.606	4626
832.744	4771
832.883	4706
833.022	4729
833.16	4835
833.299	4881
833.437	4870
833.576	4889
833.714	4885
833.852	4900
833.991	4946
834.129	5033
834.267	4972
834.406	4938
834.544	5014
834.682	5010
834.821	5041
834.959	5204
835.097	5048
835.235	5181
835.373	5128
835.511	5159
835.65	5128
835.788	5102
835.926	4870
836.064	4934
836.202	4987
836.34	5185
836.478	5269
836.615	5220
836.753	5239
836.891	5326
837.029	5303
837.167	5261
837.305	5254
837.443	5136
837.58	5128
837.718	5273
837.856	5235
837.993	5201
838.131	5258
838.269	5239
838.406	5258
838.544	5239
838.681	5071
838.819	5086
838.956	4870
839.094	4961
839.231	5064
839.369	5094
839.506	5493
839.643	5261
839.781	5086
839.918	5060
840.055	5075
840.193	5189
840.33	5147
840.467	5197
840.604	5208
840.742	5509
840.879	5109
841.016	5094
841.153	5235
841.29	5376
841.427	5349
841.564	5307
841.701	5402
841.838	5288
841.975	5288
842.112	5322
842.249	5208
842.385	5094
842.522	5364
842.659	5227
842.796	5147
842.933	5220
843.069	5174
843.206	5193
843.343	5334
843.479	5246
843.616	5303
843.752	5033
843.889	5029
844.025	5246
844.162	5037
844.298	5269
844.435	5132
844.571	5086
844.708	5189
844.844	5311
844.98	5360
845.117	5303
845.253	5132
845.389	5079
845.525	5189
845.661	5174
845.798	5117
845.934	5159
846.07	5075
846.206	5212
846.342	5303
846.478	5201
846.614	5067
846.75	4999
846.886	4961
847.022	5193
847.158	5022
847.294	5109
847.429	5105
847.565	5029
847.701	5334
847.837	4892
847.972	4847
848.108	4927
848.244	4984
848.379	4771
848.515	4717
848.65	4748
848.786	4755
848.921	4820
849.057	4938
849.192	4919
849.328	4835
849.463	4877
849.598	4797
849.734	4801
849.869	4714
850.004	4706
850.14	4767
850.275	4664
850.41	4558
850.545	4611
850.68	4607
850.815	4672
850.95	4649
851.085	4858
851.22	4820
851.355	4702
851.49	4641
851.625	4645
851.76	4714
851.895	4599
852.03	4592
852.165	4714
852.299	4755
852.434	4847
852.569	4786
852.703	4816
852.838	4881
852.973	4938
853.107	4908
853.242	4767
853.376	4717
853.511	4615
853.645	4668
853.78	4839
853.914	4668
854.048	4645
854.183	4675
854.317	4740
854.451	4885
854.585	4706
854.72	4683
854.854	4824
854.988	4683
855.122	4656
855.256	4584
855.39	4675
855.524	4843
855.658	4771
855.792	4721
855.926	4729
856.06	4771
856.194	4870
856.327	4736
856.461	4622
856.595	4637
856.729	4668
856.862	4778
856.996	4706
857.13	4759
857.263	4816
857.397	4812
857.53	4683
857.664	4740
857.797	4816
857.931	4831
858.064	4733
858.197	4816
858.331	4706
858.464	4599
858.597	4569
858.731	4656
858.864	4645
858.997	4584
859.13	4649
859.263	4702
859.396	4702
859.529	4637
859.662	4588
859.795	4538
859.928	4634
860.061	4771
860.194	4816
860.327	4649
860.46	4569
860.592	4733
860.725	4778
860.858	4706
860.99	4603
861.123	4527
861.256	4535
861.388	4611
861.521	5330
861.653	4508
861.786	4443
861.918	4466
862.05	4558
862.183	4573
862.315	4637
862.447	4687
862.58	4554
862.712	4428
862.844	4363
862.976	4459
863.108	4470
863.24	4927
863.372	4337
863.504	4440
863.636	4428
863.768	4478
863.9	4489
864.032	4398
864.164	4421
864.296	4485
864.428	4565
864.559	4588
864.691	4599
864.823	4584
864.954	4489
865.086	4485
865.217	4504
865.349	4428
865.48	4474
865.612	4535
865.743	4596
865.875	4527
866.006	4375
866.137	4474
866.269	4443
866.4	4459
866.531	4440
866.662	4386
866.793	4443
866.924	4470
867.055	4478
867.186	4500
867.317	4466
867.448	4402
867.579	4436
867.71	4455
867.841	4417
867.972	4478
868.103	4508
868.233	4459
868.364	4462
868.495	4573
868.625	4721
868.756	4729
868.886	4630
869.017	4645
869.147	4805
869.278	4797
869.408	4691
869.539	4672
869.669	4740
869.799	4649
869.929	4774
870.06	4733
870.19	4995
870.32	4930
870.45	4949
870.58	5025
870.71	5083
870.84	5151
870.97	4976
871.1	4915
871.23	5166
871.36	5136
871.489	5033
871.619	5102
871.749	5143
871.879	5170
872.008	5265
872.138	5083
872.267	5010
872.397	4904
872.526	4816
872.656	4774
872.785	4809
872.915	4923
873.044	5098
873.173	4892
873.303	5014
873.432	4968
873.561	4949
873.69	4930
873.819	4881
873.948	4896
874.077	4847
874.206	4721
874.335	4835
874.464	4968
874.593	5064
874.722	4942
874.851	5147
874.979	5071
875.108	5041
875.237	4923
875.365	4889
875.494	4923
875.623	5010
875.751	4866
875.88	4873
876.008	5018
876.136	5056
876.265	5261
876.393	5307
876.521	5273
876.65	5261
876.778	5162
876.906	5124
877.034	5067
877.162	5109
877.29	5018
877.418	5083
877.546	5075
877.674	5052
877.802	5079
877.93	5029
878.058	4923
878.185	4915
878.313	4946
878.441	4968
878.568	4809
878.696	4911
878.824	4946
878.951	5045
879.079	5155
879.206	5330
879.333	5143
879.461	4984
879.588	5056
879.715	5143
879.842	5204
879.97	5006
880.097	4824
880.224	4763
880.351	4812
880.478	4805
880.605	4850
880.732	4820
880.859	5132
880.986	4904
881.112	4938
881.239	4778
881.366	4664
881.493	4634
881.619	4664
881.746	4672
881.872	4615
881.999	4672
882.125	4694
882.252	4748
882.378	4824
882.505	4980
882.631	4870
882.757	4694
882.883	4774
883.01	4729
883.136	4668
883.262	4561
883.388	4660
883.514	4824
883.64	4877
883.766	4786
883.892	4694
884.018	4714
884.143	4923
884.269	5025
884.395	4668
884.52	4656
884.646	4664
884.772	4611
884.897	4542
885.023	4683
885.148	4778
885.274	4923
885.399	4835
885.524	4778
885.65	4687
885.775	4736
885.9	4721
886.025	4854
886.15	4835
886.275	4748
886.4	4664
886.525	4744
886.65	4698
886.775	4733
886.9	4972
887.025	5018
887.149	4793
887.274	4672
887.399	4615
887.523	4634
887.648	4599
887.773	4626
887.897	4725
888.021	4812
888.146	4664
888.27	4774
888.395	4968
888.519	4805
888.643	4778
888.767	4870
888.891	4698
889.015	4607
889.139	4649
889.263	4618
889.387	4714
889.511	4889
889.635	4839
889.759	4710
889.883	4656
890.006	4725
890.13	4782
890.254	4615
890.377	4691
890.501	4565
890.624	4519
890.748	4603
890.871	4527
890.995	4462
891.118	4363
891.241	4550
891.364	4565
891.488	4615
891.611	4500
891.734	4538
891.857	4580
891.98	4538
892.103	4656
892.226	4569
892.349	4531
892.471	4440
892.594	4561
892.717	4584
892.839	4569
892.962	4599
893.085	4702
893.207	4592
893.33	4500
893.452	4554
893.575	4664
893.697	4592
893.819	4816
893.941	4850
894.064	4744
894.186	4542
894.308	4569
894.43	4729
894.552	4752
894.674	4729
894.796	4535
894.918	4569
895.04	4596
895.161	4725
895.283	4641
895.405	4580
895.526	4649
895.648	4706
895.769	4679
895.891	4694
896.012	4687
896.134	4725
896.255	4630
896.376	4656
896.498	4641
896.619	4710
896.74	4588
896.861	4656
896.982	4957
897.103	5067
897.224	4850
897.345	4733
897.466	4687
897.587	4752
897.708	4908
897.828	4801
897.949	4645
898.07	4558
898.19	4649
898.311	4862
898.431	4653
898.552	4767
898.672	4771
898.792	4767
898.913	4656
899.033	4645
899.153	4516
899.273	4436
899.393	4474
899.513	4569
899.633	4497
899.753	4512
899.873	4558
899.993	4580
900.113	4527
900.232	4584
900.352	4523
900.472	4459
900.591	4432
900.711	4443
900.83	4489
900.95	4607
901.069	4714
901.189	4573
901.308	4421
901.427	4310
901.546	4417
901.665	4455
901.784	4508
901.904	4436
902.023	4284
902.141	4230
902.26	4158
902.379	4314
902.498	4234
902.617	4192
902.735	4379
902.854	4379
902.973	4356
903.091	4211
903.21	4227
903.328	4261
903.446	4299
903.565	4227
903.683	4386
903.801	4280
903.919	4405
904.038	4432
904.156	4276
904.274	4447
904.392	4421
904.51	4455
904.627	4512
904.745	4535
904.863	4596
904.981	4421
905.098	4325
905.216	4329
905.334	4436
905.451	4409
905.569	4436
905.686	4565
905.803	4577
905.921	4413
906.038	4542
906.155	4470
906.272	4428
906.389	4443
906.506	4375
906.623	4375
906.74	4329
906.857	4306
906.974	4417
907.091	4565
907.208	4660
907.324	4569
907.441	4527
907.557	4367
907.674	4329
907.79	4322
907.907	4390
908.023	4485
908.139	4443
908.256	4428
908.372	4523
908.488	4462
908.604	4333
908.72	4314
908.836	4383
908.952	4398
909.068	4455
909.184	4599
909.3	4481
909.415	4592
909.531	4535
909.647	4363
909.762	4379
909.878	4325
909.993	4489
910.108	4398
910.224	4356
910.339	4512
910.454	4405
910.57	4344
910.685	4333
910.8	4626
910.915	4630
911.03	4527
911.145	4337
911.259	4325
911.374	4360
911.489	4318
911.604	4287
911.718	4181
911.833	4223
911.947	4063
912.062	4032
912.176	4215
912.291	4219
912.405	4227
912.519	4462
912.633	4516
912.748	4375
912.862	4310
912.976	4223
913.09	4112
913.204	4215
913.318	4253
913.431	4371
913.545	4360
913.659	4485
913.772	4383
913.886	4207
914	4219
914.113	4402
914.226	4413
914.34	4386
914.453	4215
914.566	4379
914.68	4303
914.793	4284
914.906	4173
915.019	4143
915.132	4071
915.245	4211
915.358	4219
915.47	4261
915.583	4253
915.696	4272
915.809	4402
915.921	4413
916.034	4257
916.146	4246
916.259	4223
916.371	4375
916.483	4341
916.595	4268
916.708	4303
916.82	4337
916.932	4295
917.044	4329
917.156	4318
917.268	4246
917.38	4257
917.491	4284
917.603	4333
917.715	4440
917.826	4459
917.938	4371
918.049	4227
918.161	4409
918.272	4508
918.384	4527
918.495	4447
918.606	4303
918.717	4234
918.828	4341
918.939	4386
919.05	4268
919.161	4325
919.272	4185
919.383	4253
919.494	4455
919.604	4668
919.715	4440
919.826	4295
919.936	4402
920.047	4512
920.157	4466
920.267	4679
920.378	4561
920.488	4478
920.598	4691
920.708	4873
920.818	4752
920.928	4740
921.038	4938
921.148	4900
921.258	4683
921.368	4577
921.477	4527
921.587	4489
921.697	4398
921.806	4554
921.916	4417
922.025	4284
922.134	4272
922.244	4219
922.353	4322
922.462	4188
922.571	4154
922.68	4025
922.789	3972
922.898	4044
923.007	4010
923.116	4131
923.224	4131
923.333	4112
923.442	4010
923.55	3956
923.659	4017
923.767	4150
923.876	4006
923.984	4143
924.092	3991
924.201	4029
924.309	4090
924.417	4143
924.525	4021
924.633	4143
924.741	5060
924.849	3903
924.956	4128
925.064	4006
925.172	3907
925.279	4017
925.387	4086
925.494	4105
925.602	4207
925.709	4147
925.816	4010
925.924	4124
926.031	4234
926.138	4166
926.245	4227
926.352	4120
926.459	4295
926.566	4291
926.673	4112
926.779	4029
926.886	4048
926.993	3983
927.099	3956
927.206	3956
927.312	3926
927.419	4074
927.525	4032
927.631	4120
927.737	3960
927.843	3941
927.95	3816
928.056	3918
928.162	3983
928.267	3998
928.373	4641
928.479	4135
928.585	3918
928.69	4029
928.796	4090
928.901	3922
929.007	3857
929.112	4051
929.218	3983
929.323	3956
929.428	3922
929.533	4120
929.638	3907
929.743	3987
929.848	4051
929.953	4002
930.058	3922
930.163	3770
930.267	3854
930.372	3987
930.477	3789
930.581	4086
930.685	3934
930.79	3804
930.894	3899
930.998	3876
931.103	3979
931.207	3713
931.311	3698
931.415	3656
931.519	3511
931.623	3580
