Data from test_V78500241_2818.txt Node
Date: Fri Mar 25 17:08:35 CST 2022
User: usil
Spectrometer: V785-0024
Trigger mode: 0
Integration Time (sec): 4.000000E-1
Scans to average: 1
Nonlinearity correction enabled: false
Boxcar width: 0
Storing dark spectrum: false
XAxis mode: Wavelengths
Number of Pixels in Spectrum: 1024
>>>>>Begin Spectral Data<<<<<
801.071	8062
801.214	8050
801.356	7864
801.499	7841
801.641	7826
801.783	7803
801.926	8020
802.068	8008
802.211	7936
802.353	7978
802.496	7902
802.638	7856
802.78	7860
802.923	7970
803.065	7894
803.208	7799
803.35	8001
803.492	8145
803.635	8161
803.777	8058
803.919	8229
804.061	8495
804.204	8115
804.346	7967
804.488	8046
804.63	8096
804.773	8043
804.915	8054
805.057	8298
805.199	8161
805.341	8206
805.483	8301
805.626	8225
805.768	8119
805.91	8214
806.052	8195
806.194	8142
806.336	8259
806.478	8130
806.62	8111
806.762	8126
806.904	8244
807.046	8488
807.188	8385
807.33	8328
807.472	8362
807.614	8210
807.756	8199
807.898	8024
808.04	7875
808.182	7879
808.324	7875
808.465	7871
808.607	8111
808.749	8149
808.891	8252
809.033	8343
809.174	8206
809.316	8054
809.458	8103
809.6	8005
809.741	8005
809.883	8069
810.025	8153
810.166	8050
810.308	8020
810.45	8005
810.591	7928
810.733	7784
810.875	7685
811.016	7597
811.158	7464
811.299	7632
811.441	7734
811.582	7761
811.724	7605
811.865	7533
812.007	7605
812.148	7628
812.29	7677
812.431	7746
812.573	7856
812.714	8001
812.855	8145
812.997	8233
813.138	8275
813.279	8176
813.421	8119
813.562	8073
813.703	7906
813.845	7792
813.986	7518
814.127	7266
814.268	7259
814.41	7221
814.551	7137
814.692	7168
814.833	7084
814.974	7126
815.115	7114
815.256	6981
815.397	6916
815.539	6977
815.68	6798
815.821	6810
815.962	6920
816.103	6905
816.244	6719
816.385	6654
816.526	6589
816.666	6494
816.807	6315
816.948	6475
817.089	6464
817.23	6384
817.371	6372
817.512	6410
817.653	6418
817.793	6304
817.934	6395
818.075	6498
818.216	6429
818.356	6467
818.497	6224
818.638	6114
818.778	6125
818.919	6152
819.06	6201
819.2	6350
819.341	6323
819.481	6372
819.622	6578
819.762	6692
819.903	6741
820.043	6627
820.184	6563
820.324	6620
820.465	6700
820.605	6726
820.746	6650
820.886	6551
821.026	6688
821.167	6726
821.307	6760
821.447	6738
821.588	6578
821.728	6551
821.868	6471
822.008	6327
822.149	6350
822.289	6380
822.429	6102
822.569	6106
822.709	6125
822.849	5958
822.99	5920
823.13	5916
823.27	5882
823.41	5756
823.55	5824
823.69	5790
823.83	5790
823.97	5703
824.11	5505
824.25	5539
824.389	5528
824.529	5634
824.669	5482
824.809	5649
824.949	5661
825.089	5623
825.228	5547
825.368	5440
825.508	5353
825.648	5292
825.787	5334
825.927	5410
826.067	5296
826.206	5258
826.346	5406
826.485	5429
826.625	5417
826.765	5554
826.904	5516
827.044	5235
827.183	5227
827.323	5151
827.462	5273
827.601	5227
827.741	5189
827.88	5193
828.02	5124
828.159	5261
828.298	5318
828.437	5311
828.577	5269
828.716	5436
828.855	5265
828.994	5174
829.134	5166
829.273	5212
829.412	5132
829.551	5170
829.69	5155
829.829	5258
829.968	5345
830.107	5296
830.246	5261
830.385	5212
830.524	5128
830.663	5067
830.802	4930
830.941	4915
831.08	4858
831.219	5003
831.357	4968
831.496	5132
831.635	4911
831.774	4778
831.913	4896
832.051	4702
832.19	4736
832.329	4862
832.467	4710
832.606	4645
832.744	4767
832.883	4714
833.022	4736
833.16	4812
833.299	4816
833.437	4828
833.576	4862
833.714	4824
833.852	4892
833.991	4862
834.129	4915
834.267	4942
834.406	4927
834.544	4942
834.682	4965
834.821	4949
834.959	5147
835.097	4968
835.235	5075
835.373	5090
835.511	5056
835.65	5029
835.788	5060
835.926	4889
836.064	4850
836.202	4923
836.34	5166
836.478	5227
836.615	5060
836.753	5239
836.891	5318
837.029	5280
837.167	5189
837.305	5208
837.443	5155
837.58	5029
837.718	5246
837.856	5174
837.993	5208
838.131	5231
838.269	5201
838.406	5185
838.544	5136
838.681	5041
838.819	4999
838.956	4870
839.094	4919
839.231	5010
839.369	5071
839.506	5387
839.643	5250
839.781	5071
839.918	4991
840.055	5083
840.193	5086
840.33	5102
840.467	5143
840.604	5143
840.742	5444
840.879	5060
841.016	5117
841.153	5223
841.29	5387
841.427	5318
841.564	5307
841.701	5368
841.838	5261
841.975	5212
842.112	5273
842.249	5151
842.385	5128
842.522	5303
842.659	5166
842.796	5147
842.933	5140
843.069	5155
843.206	5185
843.343	5280
843.479	5250
843.616	5277
843.752	5014
843.889	5006
844.025	5231
844.162	5060
844.298	5212
844.435	5033
844.571	5056
844.708	5208
844.844	5303
844.98	5334
845.117	5220
845.253	5105
845.389	5075
845.525	5113
845.661	5113
845.798	5041
845.934	5162
846.07	5041
846.206	5181
846.342	5299
846.478	5170
846.614	5041
846.75	4995
846.886	4927
847.022	5174
847.158	4995
847.294	5075
847.429	5083
847.565	5086
847.701	5349
847.837	4881
847.972	4809
848.108	4968
848.244	4934
848.379	4790
848.515	4729
848.65	4729
848.786	4774
848.921	4767
849.057	4862
849.192	4892
849.328	4881
849.463	4858
849.598	4782
849.734	4797
849.869	4679
850.004	4596
850.14	4694
850.275	4592
850.41	4451
850.545	4519
850.68	4637
850.815	4645
850.95	4645
851.085	4877
851.22	4706
851.355	4672
851.49	4596
851.625	4599
851.76	4630
851.895	4561
852.03	4516
852.165	4660
852.299	4694
852.434	4771
852.569	4736
852.703	4759
852.838	4850
852.973	4934
853.107	4915
853.242	4748
853.376	4618
853.511	4531
853.645	4596
853.78	4828
853.914	4672
854.048	4653
854.183	4653
854.317	4691
854.451	4866
854.585	4630
854.72	4653
854.854	4778
854.988	4599
855.122	4656
855.256	4531
855.39	4672
855.524	4752
855.658	4721
855.792	4706
855.926	4691
856.06	4714
856.194	4767
856.327	4675
856.461	4637
856.595	4607
856.729	4573
856.862	4763
856.996	4717
857.13	4733
857.263	4691
857.397	4774
857.53	4588
857.664	4733
857.797	4714
857.931	4793
858.064	4641
858.197	4714
858.331	4596
858.464	4637
858.597	4542
858.731	4588
858.864	4588
858.997	4542
859.13	4626
859.263	4653
859.396	4683
859.529	4599
859.662	4573
859.795	4550
859.928	4565
860.061	4752
860.194	4774
860.327	4596
860.46	4546
860.592	4729
860.725	4740
860.858	4717
860.99	4577
861.123	4500
861.256	4565
861.388	4577
861.521	5303
861.653	4497
861.786	4436
861.918	4466
862.05	4523
862.183	4527
862.315	4569
862.447	4645
862.58	4584
862.712	4390
862.844	4352
862.976	4440
863.108	4470
863.24	4744
863.372	4367
863.504	4481
863.636	4409
863.768	4512
863.9	4447
864.032	4390
864.164	4447
864.296	4455
864.428	4538
864.559	4550
864.691	4554
864.823	4516
864.954	4527
865.086	4485
865.217	4447
865.349	4451
865.48	4455
865.612	4504
865.743	4653
865.875	4493
866.006	4390
866.137	4481
866.269	4451
866.4	4474
866.531	4413
866.662	4383
866.793	4386
866.924	4375
867.055	4462
867.186	4478
867.317	4455
867.448	4394
867.579	4390
867.71	4394
867.841	4383
867.972	4508
868.103	4504
868.233	4436
868.364	4421
868.495	4443
868.625	4698
868.756	4721
868.886	4577
869.017	4626
869.147	4850
869.278	4790
869.408	4603
869.539	4630
869.669	4740
869.799	4649
869.929	4706
870.06	4733
870.19	4938
870.32	4938
870.45	4927
870.58	5029
870.71	5090
870.84	5124
870.97	4957
871.1	4908
871.23	5121
871.36	5109
871.489	4965
871.619	5064
871.749	5086
871.879	5117
872.008	5113
872.138	5033
872.267	4972
872.397	4828
872.526	4778
872.656	4706
872.785	4782
872.915	4942
873.044	5045
873.173	4942
873.303	4961
873.432	4934
873.561	4927
873.69	4892
873.819	4824
873.948	4946
874.077	4809
874.206	4797
874.335	4847
874.464	4949
874.593	5090
874.722	4961
874.851	5067
874.979	5060
875.108	5022
875.237	4908
875.365	4942
875.494	4854
875.623	4953
875.751	4801
875.88	4946
876.008	4999
876.136	5014
876.265	5178
876.393	5303
876.521	5299
876.65	5166
876.778	5143
876.906	5037
877.034	5006
877.162	5060
877.29	4972
877.418	5048
877.546	5041
877.674	5045
877.802	5041
877.93	4991
878.058	4904
878.185	4835
878.313	4961
878.441	4942
878.568	4816
878.696	4889
878.824	4976
878.951	4972
879.079	5109
879.206	5299
879.333	5151
879.461	4968
879.588	4946
879.715	5132
879.842	5204
879.97	5003
880.097	4763
880.224	4740
880.351	4843
880.478	4835
880.605	4786
880.732	4767
880.859	5067
880.986	4915
881.112	4946
881.239	4759
881.366	4687
881.493	4637
881.619	4573
881.746	4622
881.872	4675
881.999	4641
882.125	4721
882.252	4782
882.378	4866
882.505	4938
882.631	4801
882.757	4691
882.883	4721
883.01	4752
883.136	4649
883.262	4588
883.388	4607
883.514	4809
883.64	4858
883.766	4759
883.892	4649
884.018	4767
884.143	4908
884.269	4976
884.395	4752
884.52	4634
884.646	4626
884.772	4565
884.897	4569
885.023	4698
885.148	4816
885.274	4889
885.399	4805
885.524	4729
885.65	4691
885.775	4721
885.9	4634
886.025	4885
886.15	4790
886.275	4721
886.4	4694
886.525	4755
886.65	4634
886.775	4725
886.9	4908
887.025	5018
887.149	4896
887.274	4675
887.399	4573
887.523	4592
887.648	4580
887.773	4649
887.897	4797
888.021	4767
888.146	4694
888.27	4812
888.395	4930
888.519	4778
888.643	4900
888.767	4854
888.891	4634
889.015	4611
889.139	4668
889.263	4603
889.387	4736
889.511	4885
889.635	4778
889.759	4702
889.883	4630
890.006	4706
890.13	4786
890.254	4592
890.377	4710
890.501	4569
890.624	4519
890.748	4656
890.871	4584
890.995	4462
891.118	4447
891.241	4516
891.364	4554
891.488	4615
891.611	4485
891.734	4523
891.857	4630
891.98	4542
892.103	4656
892.226	4626
892.349	4538
892.471	4432
892.594	4535
892.717	4580
892.839	4569
892.962	4561
893.085	4702
893.207	4577
893.33	4455
893.452	4523
893.575	4691
893.697	4565
893.819	4763
893.941	4843
894.064	4771
894.186	4535
894.308	4561
894.43	4706
894.552	4793
894.674	4755
894.796	4580
894.918	4569
895.04	4611
895.161	4706
895.283	4653
895.405	4580
895.526	4626
895.648	4683
895.769	4679
895.891	4679
896.012	4714
896.134	4748
896.255	4653
896.376	4630
896.498	4645
896.619	4710
896.74	4615
896.861	4637
896.982	4949
897.103	5052
897.224	4854
897.345	4733
897.466	4675
897.587	4752
897.708	4835
897.828	4748
897.949	4653
898.07	4550
898.19	4660
898.311	4812
898.431	4679
898.552	4702
898.672	4812
898.792	4839
898.913	4763
899.033	4653
899.153	4504
899.273	4417
899.393	4500
899.513	4527
899.633	4546
899.753	4542
899.873	4538
899.993	4603
900.113	4516
900.232	4550
900.352	4569
900.472	4493
900.591	4390
900.711	4565
900.83	4474
900.95	4592
901.069	4740
901.189	4550
901.308	4386
901.427	4318
901.546	4379
901.665	4485
901.784	4478
901.904	4398
902.023	4310
902.141	4192
902.26	4150
902.379	4310
902.498	4253
902.617	4238
902.735	4337
902.854	4409
902.973	4363
903.091	4207
903.21	4249
903.328	4295
903.446	4253
903.565	4280
903.683	4383
903.801	4291
903.919	4390
904.038	4485
904.156	4333
904.274	4459
904.392	4405
904.51	4455
904.627	4516
904.745	4546
904.863	4615
904.981	4386
905.098	4303
905.216	4310
905.334	4413
905.451	4481
905.569	4455
905.686	4538
905.803	4596
905.921	4421
906.038	4561
906.155	4466
906.272	4386
906.389	4432
906.506	4352
906.623	4352
906.74	4341
906.857	4314
906.974	4360
907.091	4550
907.208	4653
907.324	4569
907.441	4462
907.557	4303
907.674	4333
907.79	4284
907.907	4379
908.023	4470
908.139	4459
908.256	4413
908.372	4447
908.488	4421
908.604	4352
908.72	4322
908.836	4436
908.952	4402
909.068	4436
909.184	4577
909.3	4466
909.415	4573
909.531	4508
909.647	4379
909.762	4363
909.878	4325
909.993	4451
910.108	4474
910.224	4409
910.339	4535
910.454	4344
910.57	4303
910.685	4284
910.8	4683
910.915	4580
911.03	4462
911.145	4329
911.259	4303
911.374	4375
911.489	4291
911.604	4200
911.718	4150
911.833	4188
911.947	4086
912.062	4025
912.176	4185
912.291	4230
912.405	4234
912.519	4481
912.633	4531
912.748	4386
912.862	4287
912.976	4181
913.09	4128
913.204	4173
913.318	4257
913.431	4344
913.545	4341
913.659	4432
913.772	4409
913.886	4253
914	4242
914.113	4421
914.226	4417
914.34	4394
914.453	4200
914.566	4409
914.68	4303
914.793	4344
914.906	4135
915.019	4101
915.132	4074
915.245	4120
915.358	4234
915.47	4253
915.583	4265
915.696	4291
915.809	4375
915.921	4417
916.034	4287
916.146	4227
916.259	4223
916.371	4394
916.483	4360
916.595	4276
916.708	4303
916.82	4318
916.932	4333
917.044	4348
917.156	4295
917.268	4227
917.38	4280
917.491	4238
917.603	4390
917.715	4432
917.826	4417
917.938	4306
918.049	4314
918.161	4421
918.272	4504
918.384	4527
918.495	4451
918.606	4303
918.717	4272
918.828	4325
918.939	4356
919.05	4253
919.161	4333
919.272	4135
919.383	4234
919.494	4447
919.604	4611
919.715	4421
919.826	4352
919.936	4405
920.047	4478
920.157	4478
920.267	4710
920.378	4558
920.488	4538
920.598	4694
920.708	4892
920.818	4725
920.928	4698
921.038	4942
921.148	4915
921.258	4603
921.368	4523
921.477	4542
921.587	4459
921.697	4405
921.806	4523
921.916	4455
922.025	4276
922.134	4280
922.244	4230
922.353	4303
922.462	4200
922.571	4105
922.68	4017
922.789	3941
922.898	4032
923.007	3975
923.116	4067
923.224	4036
923.333	4048
923.442	3960
923.55	4013
923.659	3998
923.767	4093
923.876	3968
923.984	4090
924.092	3968
924.201	4063
924.309	4029
924.417	4181
924.525	4051
924.633	4135
924.741	4843
924.849	3884
924.956	4181
925.064	3964
925.172	3934
925.279	3979
925.387	4032
925.494	4063
925.602	4223
925.709	4173
925.816	4040
925.924	4120
926.031	4223
926.138	4196
926.245	4238
926.352	4090
926.459	4257
926.566	4299
926.673	4162
926.779	4029
926.886	4101
926.993	4006
927.099	3911
927.206	3960
927.312	3960
927.419	3994
927.525	4086
927.631	4086
927.737	3949
927.843	3926
927.95	3812
928.056	3964
928.162	3975
928.267	4025
928.373	4592
928.479	4112
928.585	3857
928.69	4010
928.796	4044
928.901	3930
929.007	3854
929.112	3983
929.218	3975
929.323	3930
929.428	3968
929.533	4086
929.638	3915
929.743	3930
929.848	4048
929.953	3945
930.058	3953
930.163	3785
930.267	3778
930.372	3949
930.477	3781
930.581	4082
930.685	3960
930.79	3819
930.894	3876
930.998	3838
931.103	4021
931.207	3713
931.311	3698
931.415	3610
931.519	3549
931.623	3549
