Data from test_V78500241_1041.txt Node
Date: Fri Mar 25 16:56:14 CST 2022
User: usil
Spectrometer: V785-0024
Trigger mode: 0
Integration Time (sec): 4.000000E-1
Scans to average: 1
Nonlinearity correction enabled: false
Boxcar width: 0
Storing dark spectrum: false
XAxis mode: Wavelengths
Number of Pixels in Spectrum: 1024
>>>>>Begin Spectral Data<<<<<
801.071	8027
801.214	8065
801.356	7879
801.499	7826
801.641	7788
801.783	7830
801.926	7868
802.068	7936
802.211	7894
802.353	7955
802.496	7860
802.638	7879
802.78	7856
802.923	7890
803.065	7860
803.208	7807
803.35	7986
803.492	8008
803.635	8161
803.777	8027
803.919	8168
804.061	8484
804.204	8077
804.346	8043
804.488	7963
804.63	8130
804.773	8016
804.915	8138
805.057	8221
805.199	8138
805.341	8298
805.483	8237
805.626	8183
805.768	8107
805.91	8164
806.052	8180
806.194	8069
806.336	8282
806.478	8107
806.62	7967
806.762	8134
806.904	8180
807.046	8396
807.188	8279
807.33	8256
807.472	8282
807.614	8092
807.756	8096
807.898	7951
808.04	7944
808.182	7982
808.324	7879
808.465	7925
808.607	8012
808.749	8123
808.891	8145
809.033	8267
809.174	8191
809.316	8054
809.458	8001
809.6	7947
809.741	8027
809.883	7951
810.025	8126
810.166	8062
810.308	7967
810.45	8020
810.591	7932
810.733	7715
810.875	7613
811.016	7502
811.158	7472
811.299	7514
811.441	7715
811.582	7639
811.724	7529
811.865	7483
812.007	7559
812.148	7533
812.29	7582
812.431	7727
812.573	7868
812.714	7928
812.855	8096
812.997	8164
813.138	8301
813.279	8161
813.421	8107
813.562	8005
813.703	7841
813.845	7792
813.986	7441
814.127	7301
814.268	7255
814.41	7149
814.551	7156
814.692	7099
814.833	7057
814.974	7072
815.115	7023
815.256	6954
815.397	6970
815.539	6943
815.68	6810
815.821	6745
815.962	6814
816.103	6806
816.244	6688
816.385	6604
816.526	6650
816.666	6540
816.807	6311
816.948	6426
817.089	6452
817.23	6410
817.371	6426
817.512	6323
817.653	6410
817.793	6327
817.934	6410
818.075	6372
818.216	6407
818.356	6357
818.497	6155
818.638	6155
818.778	6178
818.919	6095
819.06	6136
819.2	6300
819.341	6262
819.481	6384
819.622	6502
819.762	6726
819.903	6730
820.043	6597
820.184	6566
820.324	6559
820.465	6669
820.605	6665
820.746	6574
820.886	6540
821.026	6654
821.167	6730
821.307	6707
821.447	6719
821.588	6639
821.728	6574
821.868	6486
822.008	6342
822.149	6372
822.289	6334
822.429	6190
822.569	6091
822.709	6106
822.849	5946
822.99	5912
823.13	5935
823.27	5889
823.41	5760
823.55	5760
823.69	5741
823.83	5779
823.97	5665
824.11	5535
824.25	5459
824.389	5539
824.529	5577
824.669	5459
824.809	5619
824.949	5653
825.089	5570
825.228	5535
825.368	5372
825.508	5330
825.648	5284
825.787	5322
825.927	5337
826.067	5307
826.206	5296
826.346	5337
826.485	5421
826.625	5436
826.765	5535
826.904	5440
827.044	5216
827.183	5227
827.323	5136
827.462	5269
827.601	5166
827.741	5162
827.88	5136
828.02	5128
828.159	5178
828.298	5318
828.437	5364
828.577	5292
828.716	5459
828.855	5307
828.994	5178
829.134	5113
829.273	5185
829.412	5075
829.551	5075
829.69	5143
829.829	5189
829.968	5398
830.107	5254
830.246	5273
830.385	5121
830.524	5140
830.663	5041
830.802	4995
830.941	4870
831.08	4839
831.219	4953
831.357	4904
831.496	5147
831.635	4892
831.774	4835
831.913	4839
832.051	4691
832.19	4710
832.329	4778
832.467	4714
832.606	4656
832.744	4660
832.883	4694
833.022	4672
833.16	4786
833.299	4809
833.437	4778
833.576	4839
833.714	4870
833.852	4862
833.991	4889
834.129	4972
834.267	4984
834.406	4889
834.544	4961
834.682	4972
834.821	5006
834.959	5147
835.097	4934
835.235	5143
835.373	5045
835.511	5083
835.65	4995
835.788	4987
835.926	4904
836.064	4831
836.202	4915
836.34	5147
836.478	5242
836.615	5083
836.753	5242
836.891	5277
837.029	5246
837.167	5208
837.305	5193
837.443	5109
837.58	5067
837.718	5261
837.856	5162
837.993	5178
838.131	5197
838.269	5216
838.406	5181
838.544	5147
838.681	5022
838.819	5029
838.956	4820
839.094	4881
839.231	4957
839.369	5113
839.506	5436
839.643	5284
839.781	5018
839.918	4999
840.055	5132
840.193	4995
840.33	5067
840.467	5086
840.604	5140
840.742	5425
840.879	5109
841.016	5067
841.153	5208
841.29	5337
841.427	5322
841.564	5265
841.701	5326
841.838	5269
841.975	5193
842.112	5261
842.249	5109
842.385	5090
842.522	5337
842.659	5174
842.796	5132
842.933	5181
843.069	5098
843.206	5102
843.343	5265
843.479	5193
843.616	5239
843.752	5041
843.889	5033
844.025	5204
844.162	5006
844.298	5208
844.435	5052
844.571	5025
844.708	5155
844.844	5277
844.98	5337
845.117	5318
845.253	5083
845.389	5067
845.525	5143
845.661	5140
845.798	5003
845.934	5109
846.07	5014
846.206	5147
846.342	5254
846.478	5189
846.614	4976
846.75	4938
846.886	4946
847.022	5166
847.158	5052
847.294	5105
847.429	5083
847.565	5003
847.701	5345
847.837	4809
847.972	4812
848.108	4927
848.244	4900
848.379	4774
848.515	4733
848.65	4694
848.786	4721
848.921	4767
849.057	4828
849.192	4873
849.328	4862
849.463	4812
849.598	4748
849.734	4721
849.869	4702
850.004	4561
850.14	4634
850.275	4596
850.41	4561
850.545	4573
850.68	4603
850.815	4607
850.95	4618
851.085	4820
851.22	4714
851.355	4653
851.49	4558
851.625	4565
851.76	4634
851.895	4519
852.03	4523
852.165	4622
852.299	4656
852.434	4774
852.569	4714
852.703	4755
852.838	4850
852.973	4911
853.107	4900
853.242	4717
853.376	4649
853.511	4546
853.645	4615
853.78	4755
853.914	4668
854.048	4702
854.183	4615
854.317	4729
854.451	4774
854.585	4687
854.72	4596
854.854	4717
854.988	4561
855.122	4630
855.256	4516
855.39	4653
855.524	4706
855.658	4710
855.792	4706
855.926	4672
856.06	4771
856.194	4782
856.327	4622
856.461	4577
856.595	4653
856.729	4641
856.862	4748
856.996	4683
857.13	4710
857.263	4733
857.397	4805
857.53	4645
857.664	4729
857.797	4691
857.931	4763
858.064	4664
858.197	4729
858.331	4615
858.464	4626
858.597	4478
858.731	4569
858.864	4584
858.997	4580
859.13	4607
859.263	4687
859.396	4645
859.529	4622
859.662	4523
859.795	4508
859.928	4538
860.061	4691
860.194	4721
860.327	4535
860.46	4538
860.592	4683
860.725	4714
860.858	4744
860.99	4596
861.123	4546
861.256	4531
861.388	4584
861.521	5299
861.653	4462
861.786	4500
861.918	4413
862.05	4512
862.183	4523
862.315	4596
862.447	4672
862.58	4508
862.712	4402
862.844	4333
862.976	4455
863.108	4432
863.24	4866
863.372	4306
863.504	4413
863.636	4402
863.768	4470
863.9	4409
864.032	4303
864.164	4383
864.296	4451
864.428	4554
864.559	4561
864.691	4508
864.823	4481
864.954	4470
865.086	4493
865.217	4443
865.349	4409
865.48	4440
865.612	4455
865.743	4611
865.875	4474
866.006	4470
866.137	4504
866.269	4363
866.4	4421
866.531	4413
866.662	4310
866.793	4363
866.924	4375
867.055	4451
867.186	4455
867.317	4363
867.448	4322
867.579	4398
867.71	4344
867.841	4333
867.972	4398
868.103	4436
868.233	4394
868.364	4443
868.495	4451
868.625	4645
868.756	4694
868.886	4550
869.017	4649
869.147	4744
869.278	4767
869.408	4565
869.539	4565
869.669	4710
869.799	4607
869.929	4740
870.06	4721
870.19	4957
870.32	4892
870.45	4892
870.58	4919
870.71	5029
870.84	5121
870.97	4972
871.1	4850
871.23	5090
871.36	5079
871.489	5018
871.619	5060
871.749	5060
871.879	5094
872.008	5166
872.138	5025
872.267	4953
872.397	4820
872.526	4771
872.656	4679
872.785	4801
872.915	4904
873.044	5052
873.173	4919
873.303	4949
873.432	4961
873.561	4949
873.69	4854
873.819	4828
873.948	4938
874.077	4801
874.206	4759
874.335	4767
874.464	4911
874.593	5052
874.722	5003
874.851	5098
874.979	5083
875.108	5109
875.237	4942
875.365	4889
875.494	4889
875.623	4984
875.751	4866
875.88	4862
876.008	5003
876.136	5025
876.265	5162
876.393	5345
876.521	5239
876.65	5208
876.778	5197
876.906	5083
877.034	5052
877.162	5052
877.29	5033
877.418	5086
877.546	5014
877.674	5079
877.802	5052
877.93	5045
878.058	4911
878.185	4946
878.313	5006
878.441	4934
878.568	4877
878.696	4896
878.824	4976
878.951	5045
879.079	5155
879.206	5357
879.333	5109
879.461	4957
879.588	5029
879.715	5121
879.842	5265
879.97	5052
880.097	4797
880.224	4812
880.351	4858
880.478	4812
880.605	4835
880.732	4782
880.859	5102
880.986	4961
881.112	4934
881.239	4812
881.366	4717
881.493	4634
881.619	4592
881.746	4675
881.872	4683
881.999	4725
882.125	4767
882.252	4786
882.378	4847
882.505	5014
882.631	4805
882.757	4740
882.883	4752
883.01	4797
883.136	4721
883.262	4599
883.388	4634
883.514	4873
883.64	4896
883.766	4835
883.892	4717
884.018	4740
884.143	4900
884.269	5041
884.395	4702
884.52	4634
884.646	4668
884.772	4607
884.897	4558
885.023	4679
885.148	4809
885.274	4900
885.399	4858
885.524	4763
885.65	4721
885.775	4694
885.9	4782
886.025	4858
886.15	4843
886.275	4725
886.4	4733
886.525	4721
886.65	4736
886.775	4668
886.9	4911
887.025	5048
887.149	4816
887.274	4603
887.399	4622
887.523	4611
887.648	4569
887.773	4626
887.897	4755
888.021	4831
888.146	4748
888.27	4850
888.395	4949
888.519	4828
888.643	4816
888.767	4809
888.891	4702
889.015	4645
889.139	4668
889.263	4645
889.387	4801
889.511	4843
889.635	4824
889.759	4607
889.883	4691
890.006	4786
890.13	4805
890.254	4664
890.377	4706
890.501	4569
890.624	4542
890.748	4672
890.871	4538
890.995	4447
891.118	4428
891.241	4519
891.364	4592
891.488	4702
891.611	4508
891.734	4550
891.857	4618
891.98	4580
892.103	4641
892.226	4634
892.349	4535
892.471	4436
892.594	4565
892.717	4626
892.839	4565
892.962	4588
893.085	4729
893.207	4596
893.33	4466
893.452	4561
893.575	4691
893.697	4603
893.819	4778
893.941	4847
894.064	4752
894.186	4630
894.308	4588
894.43	4733
894.552	4866
894.674	4774
894.796	4584
894.918	4603
895.04	4565
895.161	4740
895.283	4729
895.405	4649
895.526	4588
895.648	4717
895.769	4721
895.891	4721
896.012	4752
896.134	4706
896.255	4694
896.376	4706
896.498	4611
896.619	4710
896.74	4664
896.861	4664
896.982	4927
897.103	5105
897.224	4896
897.345	4759
897.466	4679
897.587	4717
897.708	4873
897.828	4835
897.949	4725
898.07	4599
898.19	4626
898.311	4862
898.431	4679
898.552	4782
898.672	4793
898.792	4812
898.913	4774
899.033	4641
899.153	4489
899.273	4462
899.393	4527
899.513	4542
899.633	4558
899.753	4580
899.873	4519
899.993	4607
900.113	4561
900.232	4626
900.352	4569
900.472	4558
900.591	4402
900.711	4527
900.83	4470
900.95	4672
901.069	4698
901.189	4573
901.308	4390
901.427	4306
901.546	4424
901.665	4466
901.784	4580
901.904	4398
902.023	4287
902.141	4219
902.26	4177
902.379	4379
902.498	4299
902.617	4261
902.735	4405
902.854	4402
902.973	4360
903.091	4242
903.21	4257
903.328	4310
903.446	4310
903.565	4284
903.683	4356
903.801	4344
903.919	4447
904.038	4413
904.156	4341
904.274	4443
904.392	4371
904.51	4474
904.627	4474
904.745	4611
904.863	4615
904.981	4402
905.098	4310
905.216	4390
905.334	4402
905.451	4455
905.569	4443
905.686	4554
905.803	4596
905.921	4466
906.038	4565
906.155	4489
906.272	4424
906.389	4512
906.506	4409
906.623	4417
906.74	4409
906.857	4310
906.974	4417
907.091	4596
907.208	4721
907.324	4626
907.441	4508
907.557	4405
907.674	4337
907.79	4337
907.907	4383
908.023	4512
908.139	4462
908.256	4443
908.372	4481
908.488	4478
908.604	4375
908.72	4333
908.836	4348
908.952	4375
909.068	4432
909.184	4565
909.3	4535
909.415	4603
909.531	4615
909.647	4363
909.762	4386
909.878	4310
909.993	4493
910.108	4455
910.224	4440
910.339	4474
910.454	4371
910.57	4428
910.685	4360
910.8	4641
910.915	4607
911.03	4512
911.145	4329
911.259	4333
911.374	4371
911.489	4329
911.604	4284
911.718	4181
911.833	4200
911.947	4078
912.062	4055
912.176	4249
912.291	4246
912.405	4246
912.519	4481
912.633	4516
912.748	4390
912.862	4360
912.976	4223
913.09	4154
913.204	4219
913.318	4265
913.431	4402
913.545	4344
913.659	4489
913.772	4383
913.886	4242
914	4272
914.113	4409
914.226	4500
914.34	4379
914.453	4249
914.566	4459
914.68	4322
914.793	4333
914.906	4181
915.019	4116
915.132	4082
915.245	4166
915.358	4265
915.47	4295
915.583	4291
915.696	4280
915.809	4428
915.921	4447
916.034	4246
916.146	4276
916.259	4238
916.371	4402
916.483	4360
916.595	4261
916.708	4390
916.82	4344
916.932	4303
917.044	4356
917.156	4356
917.268	4211
917.38	4249
917.491	4344
917.603	4341
917.715	4421
917.826	4424
917.938	4363
918.049	4261
918.161	4379
918.272	4527
918.384	4527
918.495	4470
918.606	4276
918.717	4223
918.828	4333
918.939	4405
919.05	4265
919.161	4284
919.272	4185
919.383	4242
919.494	4459
919.604	4626
919.715	4447
919.826	4371
919.936	4394
920.047	4550
920.157	4538
920.267	4710
920.378	4542
920.488	4516
920.598	4672
920.708	4923
920.818	4748
920.928	4725
921.038	4915
921.148	4896
921.258	4660
921.368	4565
921.477	4531
921.587	4478
921.697	4375
921.806	4554
921.916	4443
922.025	4287
922.134	4291
922.244	4276
922.353	4291
922.462	4162
922.571	4128
922.68	4029
922.789	4006
922.898	4063
923.007	3987
923.116	4131
923.224	4074
923.333	4071
923.442	3994
923.55	3998
923.659	4071
923.767	4116
923.876	3968
923.984	4109
924.092	4044
924.201	4071
924.309	4078
924.417	4131
924.525	4093
924.633	4131
924.741	5029
924.849	3945
924.956	4128
925.064	3945
925.172	3918
925.279	3991
925.387	4078
925.494	4025
925.602	4238
925.709	4173
925.816	4078
925.924	4105
926.031	4268
926.138	4162
926.245	4204
926.352	4078
926.459	4272
926.566	4333
926.673	4120
926.779	4124
926.886	4078
926.993	4040
927.099	3949
927.206	3949
927.312	3956
927.419	4074
927.525	4048
927.631	4139
927.737	3926
927.843	3960
927.95	3831
928.056	3937
928.162	3960
928.267	4090
928.373	4656
928.479	4135
928.585	3926
928.69	4025
928.796	4078
928.901	3949
929.007	3850
929.112	4051
929.218	4013
929.323	3964
929.428	3953
929.533	4150
929.638	3926
929.743	3964
929.848	4040
929.953	4013
930.058	3987
930.163	3808
930.267	3789
930.372	4017
930.477	3808
930.581	4078
930.685	3934
930.79	3793
930.894	3880
930.998	3857
931.103	4032
931.207	3770
931.311	3698
931.415	3660
931.519	3511
931.623	3576
