Data from test_V78500241_1485.txt Node
Date: Fri Mar 25 16:59:19 CST 2022
User: usil
Spectrometer: V785-0024
Trigger mode: 0
Integration Time (sec): 4.000000E-1
Scans to average: 1
Nonlinearity correction enabled: false
Boxcar width: 0
Storing dark spectrum: false
XAxis mode: Wavelengths
Number of Pixels in Spectrum: 1024
>>>>>Begin Spectral Data<<<<<
801.071	8046
801.214	8020
801.356	7967
801.499	7925
801.641	7837
801.783	7849
801.926	8054
802.068	7959
802.211	7982
802.353	8020
802.496	7883
802.638	7871
802.78	7978
802.923	7959
803.065	7928
803.208	7864
803.35	8043
803.492	8115
803.635	8206
803.777	8111
803.919	8187
804.061	8423
804.204	8183
804.346	8088
804.488	8050
804.63	8115
804.773	8126
804.915	8096
805.057	8298
805.199	8119
805.341	8267
805.483	8282
805.626	8221
805.768	8164
805.91	8206
806.052	8267
806.194	8142
806.336	8313
806.478	8073
806.62	8134
806.762	8119
806.904	8301
807.046	8518
807.188	8370
807.33	8377
807.472	8328
807.614	8221
807.756	8187
807.898	8062
808.04	7913
808.182	7951
808.324	7947
808.465	7974
808.607	8123
808.749	8244
808.891	8183
809.033	8309
809.174	8202
809.316	8130
809.458	8115
809.6	8012
809.741	8043
809.883	8039
810.025	8176
810.166	8065
810.308	8035
810.45	7970
810.591	7845
810.733	7708
810.875	7651
811.016	7540
811.158	7533
811.299	7624
811.441	7738
811.582	7670
811.724	7594
811.865	7582
812.007	7620
812.148	7594
812.29	7597
812.431	7742
812.573	7902
812.714	7982
812.855	8069
812.997	8259
813.138	8309
813.279	8199
813.421	8050
813.562	7982
813.703	7871
813.845	7765
813.986	7392
814.127	7247
814.268	7202
814.41	7194
814.551	7198
814.692	7225
814.833	7076
814.974	7171
815.115	7137
815.256	7042
815.397	6924
815.539	6962
815.68	6867
815.821	6795
815.962	6901
816.103	6791
816.244	6791
816.385	6589
816.526	6582
816.666	6521
816.807	6353
816.948	6498
817.089	6471
817.23	6460
817.371	6357
817.512	6399
817.653	6414
817.793	6319
817.934	6437
818.075	6464
818.216	6506
818.356	6391
818.497	6235
818.638	6106
818.778	6163
818.919	6194
819.06	6159
819.2	6300
819.341	6308
819.481	6452
819.622	6525
819.762	6745
819.903	6741
820.043	6627
820.184	6555
820.324	6601
820.465	6703
820.605	6688
820.746	6639
820.886	6483
821.026	6677
821.167	6722
821.307	6840
821.447	6753
821.588	6681
821.728	6620
821.868	6544
822.008	6403
822.149	6426
822.289	6357
822.429	6190
822.569	6106
822.709	6117
822.849	5939
822.99	5935
823.13	5916
823.27	5927
823.41	5798
823.55	5752
823.69	5809
823.83	5752
823.97	5665
824.11	5592
824.25	5528
824.389	5596
824.529	5554
824.669	5562
824.809	5657
824.949	5688
825.089	5604
825.228	5566
825.368	5398
825.508	5341
825.648	5368
825.787	5421
825.927	5337
826.067	5345
826.206	5292
826.346	5402
826.485	5433
826.625	5368
826.765	5589
826.904	5497
827.044	5223
827.183	5216
827.323	5155
827.462	5239
827.601	5204
827.741	5227
827.88	5216
828.02	5128
828.159	5242
828.298	5307
828.437	5368
828.577	5303
828.716	5532
828.855	5360
828.994	5166
829.134	5136
829.273	5185
829.412	5159
829.551	5166
829.69	5178
829.829	5189
829.968	5406
830.107	5280
830.246	5292
830.385	5197
830.524	5143
830.663	5090
830.802	4949
830.941	4896
831.08	4999
831.219	5010
831.357	4957
831.496	5170
831.635	4961
831.774	4870
831.913	4839
832.051	4778
832.19	4721
832.329	4847
832.467	4721
832.606	4656
832.744	4744
832.883	4694
833.022	4771
833.16	4793
833.299	4752
833.437	4812
833.576	4873
833.714	4866
833.852	4904
833.991	4946
834.129	5014
834.267	4968
834.406	4915
834.544	4984
834.682	4991
834.821	4957
834.959	5162
835.097	4987
835.235	5220
835.373	5037
835.511	5178
835.65	5029
835.788	5033
835.926	4896
836.064	4927
836.202	4908
836.34	5197
836.478	5212
836.615	5147
836.753	5181
836.891	5322
837.029	5277
837.167	5197
837.305	5201
837.443	5159
837.58	5140
837.718	5250
837.856	5220
837.993	5109
838.131	5235
838.269	5254
838.406	5250
838.544	5208
838.681	5060
838.819	5006
838.956	4919
839.094	4915
839.231	4968
839.369	5102
839.506	5376
839.643	5288
839.781	5079
839.918	4999
840.055	5090
840.193	5094
840.33	5090
840.467	5113
840.604	5220
840.742	5452
840.879	5136
841.016	5086
841.153	5140
841.29	5368
841.427	5372
841.564	5322
841.701	5326
841.838	5261
841.975	5216
842.112	5216
842.249	5132
842.385	5105
842.522	5288
842.659	5178
842.796	5155
842.933	5201
843.069	5140
843.206	5094
843.343	5318
843.479	5292
843.616	5284
843.752	5060
843.889	5025
844.025	5277
844.162	4987
844.298	5223
844.435	5079
844.571	5060
844.708	5166
844.844	5307
844.98	5326
845.117	5315
845.253	5174
845.389	5083
845.525	5181
845.661	5128
845.798	5064
845.934	5159
846.07	5067
846.206	5201
846.342	5273
846.478	5189
846.614	5014
846.75	4938
846.886	4961
847.022	5189
847.158	5056
847.294	5060
847.429	5136
847.565	5010
847.701	5296
847.837	4816
847.972	4847
848.108	4953
848.244	4927
848.379	4862
848.515	4702
848.65	4767
848.786	4729
848.921	4805
849.057	4862
849.192	4896
849.328	4809
849.463	4870
849.598	4801
849.734	4786
849.869	4694
850.004	4637
850.14	4740
850.275	4615
850.41	4504
850.545	4607
850.68	4645
850.815	4649
850.95	4645
851.085	4843
851.22	4774
851.355	4683
851.49	4634
851.625	4675
851.76	4687
851.895	4611
852.03	4527
852.165	4649
852.299	4714
852.434	4797
852.569	4706
852.703	4793
852.838	4908
852.973	4919
853.107	4965
853.242	4759
853.376	4675
853.511	4550
853.645	4649
853.78	4809
853.914	4649
854.048	4691
854.183	4672
854.317	4721
854.451	4816
854.585	4664
854.72	4672
854.854	4771
854.988	4653
855.122	4683
855.256	4485
855.39	4634
855.524	4782
855.658	4702
855.792	4656
855.926	4744
856.06	4778
856.194	4847
856.327	4679
856.461	4641
856.595	4599
856.729	4634
856.862	4805
856.996	4649
857.13	4729
857.263	4782
857.397	4812
857.53	4668
857.664	4771
857.797	4721
857.931	4782
858.064	4672
858.197	4759
858.331	4687
858.464	4615
858.597	4535
858.731	4618
858.864	4664
858.997	4656
859.13	4645
859.263	4687
859.396	4714
859.529	4531
859.662	4607
859.795	4535
859.928	4592
860.061	4782
860.194	4763
860.327	4622
860.46	4592
860.592	4748
860.725	4710
860.858	4717
860.99	4542
861.123	4550
861.256	4527
861.388	4577
861.521	5478
861.653	4489
861.786	4451
861.918	4413
862.05	4531
862.183	4550
862.315	4592
862.447	4660
862.58	4607
862.712	4424
862.844	4325
862.976	4470
863.108	4508
863.24	4740
863.372	4341
863.504	4493
863.636	4417
863.768	4447
863.9	4417
864.032	4322
864.164	4421
864.296	4462
864.428	4558
864.559	4558
864.691	4588
864.823	4558
864.954	4459
865.086	4550
865.217	4436
865.349	4451
865.48	4470
865.612	4538
865.743	4634
865.875	4485
866.006	4409
866.137	4443
866.269	4402
866.4	4424
866.531	4424
866.662	4413
866.793	4383
866.924	4390
867.055	4451
867.186	4459
867.317	4417
867.448	4390
867.579	4360
867.71	4386
867.841	4371
867.972	4466
868.103	4481
868.233	4489
868.364	4421
868.495	4493
868.625	4668
868.756	4797
868.886	4611
869.017	4634
869.147	4790
869.278	4759
869.408	4649
869.539	4603
869.669	4706
869.799	4626
869.929	4744
870.06	4744
870.19	4965
870.32	4892
870.45	4980
870.58	5041
870.71	5090
870.84	5090
870.97	4923
871.1	4938
871.23	5151
871.36	5098
871.489	5033
871.619	5071
871.749	5079
871.879	5071
872.008	5136
872.138	5064
872.267	4980
872.397	4873
872.526	4824
872.656	4733
872.785	4816
872.915	4946
873.044	5037
873.173	4919
873.303	4938
873.432	4949
873.561	4930
873.69	4881
873.819	4850
873.948	4919
874.077	4816
874.206	4790
874.335	4774
874.464	4850
874.593	5029
874.722	4961
874.851	5140
874.979	5064
875.108	5003
875.237	4881
875.365	4900
875.494	4900
875.623	4949
875.751	4835
875.88	4896
876.008	4965
876.136	5018
876.265	5155
876.393	5345
876.521	5227
876.65	5220
876.778	5151
876.906	5098
877.034	5025
877.162	5041
877.29	4987
877.418	5083
877.546	5064
877.674	5003
877.802	5098
877.93	5025
878.058	4930
878.185	4885
878.313	4949
878.441	4942
878.568	4793
878.696	4862
878.824	4961
878.951	4972
879.079	5094
879.206	5311
879.333	5052
879.461	4995
879.588	4995
879.715	5086
879.842	5197
879.97	4984
880.097	4778
880.224	4763
880.351	4782
880.478	4828
880.605	4797
880.732	4774
880.859	5098
880.986	4900
881.112	4908
881.239	4797
881.366	4664
881.493	4653
881.619	4599
881.746	4630
881.872	4660
881.999	4622
882.125	4725
882.252	4771
882.378	4748
882.505	4908
882.631	4771
882.757	4634
882.883	4683
883.01	4714
883.136	4656
883.262	4611
883.388	4622
883.514	4763
883.64	4835
883.766	4831
883.892	4668
884.018	4702
884.143	4896
884.269	5010
884.395	4672
884.52	4615
884.646	4637
884.772	4618
884.897	4535
885.023	4656
885.148	4759
885.274	4854
885.399	4782
885.524	4691
885.65	4687
885.775	4736
885.9	4668
886.025	4866
886.15	4786
886.275	4710
886.4	4660
886.525	4733
886.65	4653
886.775	4725
886.9	4908
887.025	5045
887.149	4831
887.274	4660
887.399	4596
887.523	4615
887.648	4542
887.773	4577
887.897	4748
888.021	4778
888.146	4637
888.27	4828
888.395	4968
888.519	4805
888.643	4809
888.767	4870
888.891	4637
889.015	4599
889.139	4660
889.263	4588
889.387	4767
889.511	4866
889.635	4778
889.759	4630
889.883	4622
890.006	4736
890.13	4850
890.254	4611
890.377	4691
890.501	4527
890.624	4531
890.748	4637
890.871	4546
890.995	4398
891.118	4356
891.241	4481
891.364	4561
891.488	4641
891.611	4512
891.734	4512
891.857	4599
891.98	4554
892.103	4683
892.226	4615
892.349	4569
892.471	4443
892.594	4535
892.717	4550
892.839	4558
892.962	4550
893.085	4717
893.207	4561
893.33	4440
893.452	4519
893.575	4637
893.697	4588
893.819	4774
893.941	4835
894.064	4782
894.186	4596
894.308	4550
894.43	4755
894.552	4793
894.674	4786
894.796	4542
894.918	4596
895.04	4580
895.161	4694
895.283	4698
895.405	4611
895.526	4694
895.648	4656
895.769	4653
895.891	4672
896.012	4736
896.134	4721
896.255	4615
896.376	4630
896.498	4626
896.619	4645
896.74	4607
896.861	4675
896.982	4911
897.103	5037
897.224	4790
897.345	4763
897.466	4653
897.587	4721
897.708	4919
897.828	4805
897.949	4603
898.07	4558
898.19	4645
898.311	4774
898.431	4596
898.552	4702
898.672	4801
898.792	4786
898.913	4752
899.033	4615
899.153	4489
899.273	4413
899.393	4485
899.513	4508
899.633	4516
899.753	4550
899.873	4523
899.993	4611
900.113	4512
900.232	4584
900.352	4527
900.472	4512
900.591	4386
900.711	4466
900.83	4500
900.95	4668
901.069	4691
901.189	4493
901.308	4360
901.427	4257
901.546	4352
901.665	4504
901.784	4523
901.904	4360
902.023	4310
902.141	4177
902.26	4177
902.379	4329
902.498	4261
902.617	4238
902.735	4375
902.854	4386
902.973	4386
903.091	4185
903.21	4223
903.328	4329
903.446	4261
903.565	4238
903.683	4386
903.801	4246
903.919	4375
904.038	4451
904.156	4310
904.274	4447
904.392	4428
904.51	4424
904.627	4493
904.745	4592
904.863	4615
904.981	4383
905.098	4280
905.216	4371
905.334	4398
905.451	4402
905.569	4428
905.686	4546
905.803	4573
905.921	4402
906.038	4485
906.155	4497
906.272	4344
906.389	4421
906.506	4356
906.623	4386
906.74	4371
906.857	4295
906.974	4363
907.091	4558
907.208	4698
907.324	4634
907.441	4478
907.557	4329
907.674	4329
907.79	4318
907.907	4363
908.023	4497
908.139	4409
908.256	4421
908.372	4489
908.488	4440
908.604	4299
908.72	4314
908.836	4356
908.952	4348
909.068	4440
909.184	4538
909.3	4500
909.415	4546
909.531	4527
909.647	4390
909.762	4394
909.878	4325
909.993	4409
910.108	4440
910.224	4398
910.339	4493
910.454	4371
910.57	4341
910.685	4333
910.8	4637
910.915	4599
911.03	4478
911.145	4375
911.259	4352
911.374	4383
911.489	4329
911.604	4261
911.718	4135
911.833	4219
911.947	4082
912.062	4010
912.176	4284
912.291	4223
912.405	4265
912.519	4451
912.633	4500
912.748	4352
912.862	4310
912.976	4215
913.09	4071
913.204	4173
913.318	4219
913.431	4314
913.545	4371
913.659	4451
913.772	4337
913.886	4268
914	4219
914.113	4344
914.226	4478
914.34	4390
914.453	4207
914.566	4428
914.68	4284
914.793	4322
914.906	4158
915.019	4086
915.132	4032
915.245	4169
915.358	4177
915.47	4204
915.583	4310
915.696	4268
915.809	4405
915.921	4405
916.034	4276
916.146	4257
916.259	4162
916.371	4398
916.483	4337
916.595	4287
916.708	4314
916.82	4360
916.932	4295
917.044	4310
917.156	4360
917.268	4234
917.38	4322
917.491	4291
917.603	4367
917.715	4394
917.826	4455
917.938	4352
918.049	4230
918.161	4379
918.272	4504
918.384	4519
918.495	4421
918.606	4272
918.717	4219
918.828	4333
918.939	4398
919.05	4306
919.161	4303
919.272	4109
919.383	4219
919.494	4459
919.604	4653
919.715	4398
919.826	4318
919.936	4398
920.047	4535
920.157	4466
920.267	4656
920.378	4565
920.488	4523
920.598	4729
920.708	4908
920.818	4687
920.928	4767
921.038	4976
921.148	4927
921.258	4588
921.368	4561
921.477	4462
921.587	4440
921.697	4375
921.806	4512
921.916	4363
922.025	4246
922.134	4257
922.244	4211
922.353	4325
922.462	4093
922.571	4139
922.68	4025
922.789	4013
922.898	4025
923.007	4055
923.116	4093
923.224	4055
923.333	4055
923.442	4006
923.55	3975
923.659	3994
923.767	4093
923.876	4013
923.984	4101
924.092	3987
924.201	4059
924.309	4078
924.417	4112
924.525	4086
924.633	4105
924.741	5033
924.849	3926
924.956	4139
925.064	3991
925.172	3861
925.279	3945
925.387	4025
925.494	4032
925.602	4200
925.709	4162
925.816	4036
925.924	4116
926.031	4257
926.138	4131
926.245	4192
926.352	4051
926.459	4242
926.566	4306
926.673	4093
926.779	4063
926.886	4109
926.993	3979
927.099	3956
927.206	3960
927.312	3930
927.419	4059
927.525	4025
927.631	4082
927.737	3964
927.843	3934
927.95	3823
928.056	3945
928.162	3987
928.267	4040
928.373	4592
928.479	4143
928.585	3873
928.69	3991
928.796	4063
928.901	3960
929.007	3888
929.112	3968
929.218	3956
929.323	3945
929.428	3922
929.533	4093
929.638	3911
929.743	3907
929.848	3998
929.953	3975
930.058	3934
930.163	3766
930.267	3831
930.372	3960
930.477	3797
930.581	4063
930.685	3926
930.79	3835
930.894	3880
930.998	3846
931.103	4021
931.207	3736
931.311	3679
931.415	3660
931.519	3511
931.623	3568
