Data from test_V78500241_1597.txt Node
Date: Fri Mar 25 17:00:06 CST 2022
User: usil
Spectrometer: V785-0024
Trigger mode: 0
Integration Time (sec): 4.000000E-1
Scans to average: 1
Nonlinearity correction enabled: false
Boxcar width: 0
Storing dark spectrum: false
XAxis mode: Wavelengths
Number of Pixels in Spectrum: 1024
>>>>>Begin Spectral Data<<<<<
801.071	8054
801.214	8058
801.356	7947
801.499	7898
801.641	7822
801.783	7830
801.926	7940
802.068	7989
802.211	7993
802.353	8012
802.496	7936
802.638	7845
802.78	7940
802.923	7959
803.065	7917
803.208	7955
803.35	8024
803.492	8081
803.635	8218
803.777	7997
803.919	8123
804.061	8381
804.204	8199
804.346	8100
804.488	7993
804.63	8142
804.773	8100
804.915	8164
805.057	8328
805.199	8149
805.341	8244
805.483	8263
805.626	8248
805.768	8050
805.91	8214
806.052	8248
806.194	8126
806.336	8263
806.478	8134
806.62	8062
806.762	8111
806.904	8282
807.046	8518
807.188	8374
807.33	8351
807.472	8336
807.614	8172
807.756	8233
807.898	8027
808.04	7879
808.182	7982
808.324	7894
808.465	7913
808.607	8092
808.749	8115
808.891	8214
809.033	8301
809.174	8191
809.316	8088
809.458	8084
809.6	7963
809.741	8069
809.883	8039
810.025	8062
810.166	8096
810.308	8016
810.45	7997
810.591	7860
810.733	7792
810.875	7734
811.016	7556
811.158	7491
811.299	7605
811.441	7681
811.582	7719
811.724	7609
811.865	7601
812.007	7616
812.148	7620
812.29	7655
812.431	7776
812.573	7913
812.714	8008
812.855	8145
812.997	8256
813.138	8309
813.279	8271
813.421	8187
813.562	8043
813.703	7856
813.845	7734
813.986	7472
814.127	7274
814.268	7285
814.41	7213
814.551	7198
814.692	7194
814.833	7168
814.974	7175
815.115	7099
815.256	7004
815.397	6939
815.539	6993
815.68	6844
815.821	6810
815.962	6867
816.103	6852
816.244	6696
816.385	6700
816.526	6620
816.666	6509
816.807	6342
816.948	6467
817.089	6509
817.23	6441
817.371	6384
817.512	6365
817.653	6391
817.793	6331
817.934	6441
818.075	6486
818.216	6418
818.356	6395
818.497	6258
818.638	6125
818.778	6167
818.919	6159
819.06	6205
819.2	6311
819.341	6418
819.481	6331
819.622	6471
819.762	6738
819.903	6722
820.043	6551
820.184	6555
820.324	6597
820.465	6696
820.605	6631
820.746	6627
820.886	6521
821.026	6673
821.167	6715
821.307	6890
821.447	6795
821.588	6711
821.728	6563
821.868	6490
822.008	6399
822.149	6422
822.289	6350
822.429	6194
822.569	6152
822.709	6140
822.849	5912
822.99	5942
823.13	5939
823.27	5840
823.41	5786
823.55	5851
823.69	5767
823.83	5809
823.97	5661
824.11	5520
824.25	5493
824.389	5551
824.529	5596
824.669	5509
824.809	5630
824.949	5672
825.089	5615
825.228	5554
825.368	5417
825.508	5318
825.648	5349
825.787	5398
825.927	5474
826.067	5307
826.206	5326
826.346	5421
826.485	5357
826.625	5448
826.765	5509
826.904	5505
827.044	5246
827.183	5239
827.323	5151
827.462	5280
827.601	5201
827.741	5201
827.88	5246
828.02	5052
828.159	5231
828.298	5357
828.437	5398
828.577	5318
828.716	5501
828.855	5372
828.994	5181
829.134	5143
829.273	5220
829.412	5159
829.551	5143
829.69	5162
829.829	5318
829.968	5383
830.107	5318
830.246	5227
830.385	5178
830.524	5166
830.663	5086
830.802	5014
830.941	4904
831.08	4889
831.219	4968
831.357	4984
831.496	5166
831.635	4934
831.774	4877
831.913	4873
832.051	4736
832.19	4736
832.329	4873
832.467	4748
832.606	4706
832.744	4733
832.883	4744
833.022	4733
833.16	4809
833.299	4797
833.437	4847
833.576	4843
833.714	4824
833.852	4877
833.991	4881
834.129	5018
834.267	4968
834.406	4889
834.544	4980
834.682	4908
834.821	4999
834.959	5143
835.097	4957
835.235	5121
835.373	5128
835.511	5064
835.65	5045
835.788	5060
835.926	4881
836.064	4877
836.202	4908
836.34	5151
836.478	5208
836.615	5128
836.753	5216
836.891	5303
837.029	5269
837.167	5189
837.305	5181
837.443	5140
837.58	5102
837.718	5239
837.856	5242
837.993	5197
838.131	5250
838.269	5235
838.406	5204
838.544	5174
838.681	5022
838.819	4984
838.956	4866
839.094	4889
839.231	4999
839.369	5090
839.506	5402
839.643	5261
839.781	5083
839.918	5067
840.055	5121
840.193	5041
840.33	5083
840.467	5132
840.604	5204
840.742	5520
840.879	5121
841.016	5098
841.153	5117
841.29	5417
841.427	5353
841.564	5372
841.701	5357
841.838	5330
841.975	5261
842.112	5307
842.249	5121
842.385	5143
842.522	5387
842.659	5227
842.796	5151
842.933	5185
843.069	5117
843.206	5174
843.343	5265
843.479	5261
843.616	5246
843.752	5067
843.889	4980
844.025	5208
844.162	5041
844.298	5239
844.435	5128
844.571	5060
844.708	5178
844.844	5299
844.98	5395
845.117	5296
845.253	5155
845.389	5102
845.525	5147
845.661	5162
845.798	5037
845.934	5124
846.07	5060
846.206	5151
846.342	5299
846.478	5147
846.614	5025
846.75	5033
846.886	5006
847.022	5174
847.158	5048
847.294	5090
847.429	5048
847.565	5067
847.701	5357
847.837	4889
847.972	4820
848.108	4927
848.244	4938
848.379	4759
848.515	4778
848.65	4714
848.786	4694
848.921	4782
849.057	4900
849.192	4915
849.328	4831
849.463	4843
849.598	4877
849.734	4793
849.869	4649
850.004	4592
850.14	4698
850.275	4626
850.41	4531
850.545	4592
850.68	4603
850.815	4637
850.95	4596
851.085	4885
851.22	4752
851.355	4668
851.49	4626
851.625	4653
851.76	4653
851.895	4538
852.03	4542
852.165	4717
852.299	4755
852.434	4755
852.569	4763
852.703	4771
852.838	4885
852.973	4923
853.107	4968
853.242	4725
853.376	4694
853.511	4634
853.645	4679
853.78	4847
853.914	4687
854.048	4687
854.183	4656
854.317	4736
854.451	4862
854.585	4656
854.72	4603
854.854	4771
854.988	4596
855.122	4630
855.256	4558
855.39	4675
855.524	4778
855.658	4717
855.792	4656
855.926	4702
856.06	4763
856.194	4850
856.327	4694
856.461	4664
856.595	4675
856.729	4691
856.862	4748
856.996	4736
857.13	4778
857.263	4725
857.397	4816
857.53	4649
857.664	4660
857.797	4782
857.931	4725
858.064	4694
858.197	4801
858.331	4599
858.464	4649
858.597	4558
858.731	4637
858.864	4630
858.997	4577
859.13	4694
859.263	4710
859.396	4698
859.529	4634
859.662	4561
859.795	4546
859.928	4615
860.061	4755
860.194	4729
860.327	4615
860.46	4584
860.592	4736
860.725	4748
860.858	4717
860.99	4615
861.123	4519
861.256	4516
861.388	4656
861.521	5242
861.653	4497
861.786	4478
861.918	4481
862.05	4542
862.183	4516
862.315	4611
862.447	4675
862.58	4588
862.712	4363
862.844	4356
862.976	4459
863.108	4462
863.24	4786
863.372	4318
863.504	4424
863.636	4421
863.768	4497
863.9	4432
864.032	4371
864.164	4424
864.296	4451
864.428	4519
864.559	4573
864.691	4531
864.823	4516
864.954	4500
865.086	4516
865.217	4459
865.349	4417
865.48	4440
865.612	4489
865.743	4656
865.875	4504
866.006	4440
866.137	4428
866.269	4413
866.4	4421
866.531	4451
866.662	4405
866.793	4386
866.924	4462
867.055	4493
867.186	4462
867.317	4386
867.448	4363
867.579	4417
867.71	4379
867.841	4390
867.972	4504
868.103	4508
868.233	4500
868.364	4405
868.495	4508
868.625	4660
868.756	4721
868.886	4535
869.017	4622
869.147	4774
869.278	4786
869.408	4649
869.539	4656
869.669	4683
869.799	4645
869.929	4782
870.06	4736
870.19	4961
870.32	4934
870.45	4972
870.58	4995
870.71	5128
870.84	5136
870.97	4999
871.1	4881
871.23	5155
871.36	5147
871.489	5010
871.619	5083
871.749	5094
871.879	5132
872.008	5178
872.138	5048
872.267	4953
872.397	4862
872.526	4805
872.656	4748
872.785	4782
872.915	4961
873.044	5045
873.173	4965
873.303	4968
873.432	4991
873.561	4938
873.69	4881
873.819	4889
873.948	4923
874.077	4801
874.206	4801
874.335	4786
874.464	4904
874.593	5041
874.722	4999
874.851	5037
874.979	5018
875.108	5006
875.237	4911
875.365	4850
875.494	4934
875.623	4987
875.751	4839
875.88	4862
876.008	4991
876.136	5018
876.265	5166
876.393	5337
876.521	5204
876.65	5227
876.778	5159
876.906	5109
877.034	5022
877.162	5041
877.29	4908
877.418	5056
877.546	5022
877.674	5029
877.802	4961
877.93	5041
878.058	4957
878.185	4908
878.313	4976
878.441	4953
878.568	4831
878.696	4858
878.824	4968
878.951	5029
879.079	5109
879.206	5261
879.333	5102
879.461	4995
879.588	4980
879.715	5136
879.842	5250
879.97	4995
880.097	4831
880.224	4790
880.351	4793
880.478	4866
880.605	4767
880.732	4797
880.859	5045
880.986	4919
881.112	4873
881.239	4774
881.366	4668
881.493	4675
881.619	4626
881.746	4660
881.872	4683
881.999	4637
882.125	4668
882.252	4801
882.378	4809
882.505	4938
882.631	4801
882.757	4698
882.883	4744
883.01	4755
883.136	4679
883.262	4592
883.388	4618
883.514	4835
883.64	4866
883.766	4824
883.892	4637
884.018	4721
884.143	4946
884.269	5060
884.395	4641
884.52	4607
884.646	4668
884.772	4592
884.897	4523
885.023	4649
885.148	4782
885.274	4847
885.399	4839
885.524	4717
885.65	4683
885.775	4725
885.9	4687
886.025	4820
886.15	4755
886.275	4710
886.4	4637
886.525	4721
886.65	4683
886.775	4691
886.9	4892
887.025	5056
887.149	4755
887.274	4668
887.399	4577
887.523	4607
887.648	4523
887.773	4584
887.897	4721
888.021	4752
888.146	4683
888.27	4778
888.395	4896
888.519	4790
888.643	4759
888.767	4885
888.891	4702
889.015	4626
889.139	4630
889.263	4603
889.387	4752
889.511	4889
889.635	4778
889.759	4626
889.883	4607
890.006	4702
890.13	4820
890.254	4630
890.377	4645
890.501	4519
890.624	4493
890.748	4630
890.871	4500
890.995	4459
891.118	4402
891.241	4542
891.364	4565
891.488	4630
891.611	4478
891.734	4550
891.857	4645
891.98	4565
892.103	4675
892.226	4580
892.349	4546
892.471	4443
892.594	4542
892.717	4584
892.839	4546
892.962	4607
893.085	4672
893.207	4584
893.33	4417
893.452	4542
893.575	4653
893.697	4573
893.819	4828
893.941	4816
894.064	4805
894.186	4554
894.308	4558
894.43	4721
894.552	4809
894.674	4782
894.796	4535
894.918	4615
895.04	4577
895.161	4691
895.283	4664
895.405	4607
895.526	4630
895.648	4664
895.769	4683
895.891	4721
896.012	4702
896.134	4717
896.255	4637
896.376	4599
896.498	4615
896.619	4683
896.74	4615
896.861	4687
896.982	4934
897.103	5136
897.224	4820
897.345	4736
897.466	4702
897.587	4759
897.708	4873
897.828	4786
897.949	4691
898.07	4577
898.19	4649
898.311	4809
898.431	4710
898.552	4691
898.672	4748
898.792	4733
898.913	4714
899.033	4611
899.153	4462
899.273	4443
899.393	4542
899.513	4497
899.633	4489
899.753	4542
899.873	4523
899.993	4535
900.113	4538
900.232	4573
900.352	4504
900.472	4481
900.591	4405
900.711	4500
900.83	4436
900.95	4603
901.069	4725
901.189	4565
901.308	4390
901.427	4352
901.546	4356
901.665	4459
901.784	4523
901.904	4424
902.023	4337
902.141	4223
902.26	4143
902.379	4295
902.498	4261
902.617	4249
902.735	4386
902.854	4413
902.973	4344
903.091	4211
903.21	4185
903.328	4306
903.446	4280
903.565	4215
903.683	4383
903.801	4291
903.919	4367
904.038	4466
904.156	4295
904.274	4421
904.392	4413
904.51	4417
904.627	4497
904.745	4519
904.863	4645
904.981	4367
905.098	4310
905.216	4325
905.334	4386
905.451	4436
905.569	4409
905.686	4527
905.803	4497
905.921	4405
906.038	4512
906.155	4485
906.272	4390
906.389	4440
906.506	4303
906.623	4371
906.74	4383
906.857	4276
906.974	4348
907.091	4538
907.208	4706
907.324	4592
907.441	4440
907.557	4329
907.674	4314
907.79	4329
907.907	4386
908.023	4474
908.139	4443
908.256	4424
908.372	4455
908.488	4481
908.604	4352
908.72	4291
908.836	4367
908.952	4363
909.068	4424
909.184	4550
909.3	4531
909.415	4611
909.531	4523
909.647	4352
909.762	4413
909.878	4310
909.993	4459
910.108	4413
910.224	4363
910.339	4436
910.454	4409
910.57	4367
910.685	4299
910.8	4656
910.915	4577
911.03	4504
911.145	4291
911.259	4341
911.374	4333
911.489	4314
911.604	4253
911.718	4124
911.833	4166
911.947	4124
912.062	4086
912.176	4169
912.291	4268
912.405	4291
912.519	4451
912.633	4485
912.748	4367
912.862	4306
912.976	4249
913.09	4097
913.204	4150
913.318	4257
913.431	4371
913.545	4360
913.659	4432
913.772	4322
913.886	4238
914	4207
914.113	4367
914.226	4451
914.34	4371
914.453	4238
914.566	4443
914.68	4284
914.793	4280
914.906	4143
915.019	4135
915.132	4074
915.245	4173
915.358	4200
915.47	4246
915.583	4249
915.696	4341
915.809	4398
915.921	4417
916.034	4261
916.146	4265
916.259	4192
916.371	4379
916.483	4344
916.595	4242
916.708	4341
916.82	4306
916.932	4314
917.044	4276
917.156	4310
917.268	4238
917.38	4295
917.491	4265
917.603	4348
917.715	4371
917.826	4443
917.938	4306
918.049	4230
918.161	4383
918.272	4493
918.384	4508
918.495	4474
918.606	4310
918.717	4268
918.828	4325
918.939	4367
919.05	4265
919.161	4295
919.272	4090
919.383	4234
919.494	4413
919.604	4615
919.715	4375
919.826	4360
919.936	4402
920.047	4489
920.157	4504
920.267	4660
920.378	4580
920.488	4485
920.598	4717
920.708	4866
920.818	4782
920.928	4797
921.038	4953
921.148	4889
921.258	4611
921.368	4561
921.477	4485
921.587	4413
921.697	4352
921.806	4561
921.916	4447
922.025	4268
922.134	4265
922.244	4204
922.353	4360
922.462	4234
922.571	4105
922.68	3964
922.789	3960
922.898	4059
923.007	4013
923.116	4059
923.224	4074
923.333	4090
923.442	3998
923.55	3975
923.659	3991
923.767	4086
923.876	3979
923.984	4109
924.092	3975
924.201	4067
924.309	4074
924.417	4086
924.525	4017
924.633	4090
924.741	4870
924.849	3922
924.956	4139
925.064	3926
925.172	3884
925.279	3956
925.387	4082
925.494	3994
925.602	4230
925.709	4207
925.816	4025
925.924	4082
926.031	4188
926.138	4200
926.245	4249
926.352	4097
926.459	4215
926.566	4261
926.673	4154
926.779	4082
926.886	4082
926.993	3949
927.099	3911
927.206	3987
927.312	3956
927.419	4021
927.525	4017
927.631	4071
927.737	3975
927.843	3922
927.95	3842
928.056	3926
928.162	3983
928.267	4105
928.373	4645
928.479	4154
928.585	3884
928.69	4002
928.796	4090
928.901	3998
929.007	3884
929.112	3994
929.218	3953
929.323	3907
929.428	3949
929.533	4071
929.638	3953
929.743	3953
929.848	4006
929.953	4017
930.058	3926
930.163	3766
930.267	3755
930.372	3979
930.477	3804
930.581	4059
930.685	3922
930.79	3778
930.894	3941
930.998	3846
931.103	4032
931.207	3720
931.311	3728
931.415	3671
931.519	3526
931.623	3515
