Data from test_V78500241_1130.txt Node
Date: Fri Mar 25 16:56:51 CST 2022
User: usil
Spectrometer: V785-0024
Trigger mode: 0
Integration Time (sec): 4.000000E-1
Scans to average: 1
Nonlinearity correction enabled: false
Boxcar width: 0
Storing dark spectrum: false
XAxis mode: Wavelengths
Number of Pixels in Spectrum: 1024
>>>>>Begin Spectral Data<<<<<
801.071	8058
801.214	8031
801.356	7811
801.499	7833
801.641	7837
801.783	7807
801.926	8005
802.068	7887
802.211	7970
802.353	7974
802.496	7811
802.638	7856
802.78	7894
802.923	7902
803.065	7856
803.208	7887
803.35	7940
803.492	8035
803.635	8191
803.777	8081
803.919	8142
804.061	8385
804.204	8107
804.346	8027
804.488	7970
804.63	8069
804.773	8027
804.915	8084
805.057	8301
805.199	8103
805.341	8195
805.483	8214
805.626	8157
805.768	8103
805.91	8191
806.052	8202
806.194	8035
806.336	8252
806.478	8077
806.62	8065
806.762	8103
806.904	8271
807.046	8427
807.188	8275
807.33	8206
807.472	8282
807.614	8138
807.756	8062
807.898	7989
808.04	7875
808.182	7890
808.324	7875
808.465	7928
808.607	8024
808.749	8115
808.891	8191
809.033	8263
809.174	8153
809.316	8024
809.458	8027
809.6	8005
809.741	8024
809.883	8016
810.025	8088
810.166	7986
810.308	8035
810.45	7947
810.591	7871
810.733	7723
810.875	7643
811.016	7540
811.158	7495
811.299	7559
811.441	7738
811.582	7658
811.724	7537
811.865	7460
812.007	7601
812.148	7578
812.29	7639
812.431	7746
812.573	7875
812.714	7917
812.855	8107
812.997	8149
813.138	8305
813.279	8187
813.421	8103
813.562	7982
813.703	7833
813.845	7731
813.986	7415
814.127	7206
814.268	7251
814.41	7236
814.551	7122
814.692	7160
814.833	7084
814.974	7095
815.115	7034
815.256	6924
815.397	6871
815.539	6951
815.68	6802
815.821	6818
815.962	6890
816.103	6745
816.244	6700
816.385	6593
816.526	6559
816.666	6479
816.807	6346
816.948	6410
817.089	6467
817.23	6391
817.371	6350
817.512	6418
817.653	6414
817.793	6338
817.934	6426
818.075	6418
818.216	6410
818.356	6407
818.497	6235
818.638	6144
818.778	6163
818.919	6140
819.06	6110
819.2	6311
819.341	6289
819.481	6395
819.622	6475
819.762	6722
819.903	6715
820.043	6585
820.184	6578
820.324	6536
820.465	6681
820.605	6654
820.746	6608
820.886	6506
821.026	6582
821.167	6627
821.307	6703
821.447	6741
821.588	6669
821.728	6467
821.868	6498
822.008	6353
822.149	6410
822.289	6350
822.429	6148
822.569	6114
822.709	6045
822.849	5836
822.99	5931
823.13	5847
823.27	5885
823.41	5760
823.55	5745
823.69	5710
823.83	5710
823.97	5649
824.11	5471
824.25	5448
824.389	5592
824.529	5592
824.669	5493
824.809	5619
824.949	5642
825.089	5532
825.228	5490
825.368	5395
825.508	5288
825.648	5303
825.787	5417
825.927	5391
826.067	5303
826.206	5292
826.346	5357
826.485	5387
826.625	5406
826.765	5535
826.904	5493
827.044	5242
827.183	5208
827.323	5136
827.462	5303
827.601	5185
827.741	5185
827.88	5216
828.02	5136
828.159	5261
828.298	5250
828.437	5345
828.577	5269
828.716	5524
828.855	5277
828.994	5162
829.134	5204
829.273	5189
829.412	5113
829.551	5098
829.69	5189
829.829	5227
829.968	5391
830.107	5220
830.246	5280
830.385	5197
830.524	5113
830.663	5121
830.802	4987
830.941	4923
831.08	4885
831.219	5041
831.357	5033
831.496	5159
831.635	4995
831.774	4873
831.913	4892
832.051	4752
832.19	4733
832.329	4927
832.467	4694
832.606	4630
832.744	4744
832.883	4778
833.022	4774
833.16	4858
833.299	4843
833.437	4831
833.576	4820
833.714	4892
833.852	4847
833.991	4923
834.129	4961
834.267	4999
834.406	4923
834.544	4972
834.682	4984
834.821	4976
834.959	5193
835.097	5006
835.235	5147
835.373	5124
835.511	5132
835.65	5140
835.788	5060
835.926	4885
836.064	4889
836.202	4972
836.34	5189
836.478	5216
836.615	5181
836.753	5212
836.891	5334
837.029	5242
837.167	5223
837.305	5220
837.443	5223
837.58	5098
837.718	5235
837.856	5220
837.993	5231
838.131	5231
838.269	5246
838.406	5242
838.544	5242
838.681	5037
838.819	4999
838.956	4915
839.094	4927
839.231	4987
839.369	5075
839.506	5440
839.643	5273
839.781	5113
839.918	5056
840.055	5147
840.193	5140
840.33	5132
840.467	5147
840.604	5227
840.742	5455
840.879	5094
841.016	5143
841.153	5086
841.29	5417
841.427	5364
841.564	5387
841.701	5341
841.838	5292
841.975	5254
842.112	5273
842.249	5170
842.385	5143
842.522	5379
842.659	5185
842.796	5132
842.933	5227
843.069	5208
843.206	5155
843.343	5307
843.479	5273
843.616	5265
843.752	5109
843.889	5056
844.025	5273
844.162	5094
844.298	5208
844.435	5079
844.571	5067
844.708	5223
844.844	5299
844.98	5368
845.117	5296
845.253	5151
845.389	5079
845.525	5174
845.661	5155
845.798	4991
845.934	5109
846.07	5075
846.206	5178
846.342	5284
846.478	5223
846.614	5094
846.75	4968
846.886	4942
847.022	5140
847.158	5045
847.294	5090
847.429	5117
847.565	5109
847.701	5345
847.837	4881
847.972	4767
848.108	4946
848.244	4942
848.379	4809
848.515	4797
848.65	4778
848.786	4752
848.921	4812
849.057	4915
849.192	4881
849.328	4816
849.463	4850
849.598	4790
849.734	4809
849.869	4694
850.004	4618
850.14	4691
850.275	4561
850.41	4550
850.545	4588
850.68	4687
850.815	4653
850.95	4634
851.085	4866
851.22	4763
851.355	4637
851.49	4630
851.625	4626
851.76	4698
851.895	4599
852.03	4569
852.165	4683
852.299	4725
852.434	4793
852.569	4778
852.703	4763
852.838	4835
852.973	4930
853.107	4919
853.242	4698
853.376	4664
853.511	4531
853.645	4649
853.78	4820
853.914	4691
854.048	4679
854.183	4679
854.317	4725
854.451	4843
854.585	4702
854.72	4675
854.854	4801
854.988	4611
855.122	4675
855.256	4538
855.39	4679
855.524	4736
855.658	4759
855.792	4748
855.926	4702
856.06	4759
856.194	4843
856.327	4687
856.461	4687
856.595	4653
856.729	4694
856.862	4782
856.996	4714
857.13	4771
857.263	4797
857.397	4812
857.53	4698
857.664	4744
857.797	4793
857.931	4820
858.064	4717
858.197	4744
858.331	4641
858.464	4603
858.597	4538
858.731	4641
858.864	4687
858.997	4596
859.13	4649
859.263	4710
859.396	4755
859.529	4558
859.662	4538
859.795	4527
859.928	4649
860.061	4774
860.194	4748
860.327	4603
860.46	4577
860.592	4759
860.725	4763
860.858	4736
860.99	4611
861.123	4618
861.256	4558
861.388	4603
861.521	5315
861.653	4527
861.786	4447
861.918	4512
862.05	4538
862.183	4611
862.315	4645
862.447	4645
862.58	4607
862.712	4390
862.844	4371
862.976	4500
863.108	4443
863.24	4896
863.372	4398
863.504	4455
863.636	4413
863.768	4512
863.9	4455
864.032	4390
864.164	4333
864.296	4535
864.428	4542
864.559	4577
864.691	4592
864.823	4607
864.954	4531
865.086	4558
865.217	4493
865.349	4462
865.48	4474
865.612	4508
865.743	4664
865.875	4485
866.006	4455
866.137	4489
866.269	4440
866.4	4432
866.531	4462
866.662	4436
866.793	4417
866.924	4451
867.055	4493
867.186	4478
867.317	4424
867.448	4383
867.579	4440
867.71	4436
867.841	4405
867.972	4485
868.103	4443
868.233	4451
868.364	4447
868.495	4497
868.625	4660
868.756	4755
868.886	4596
869.017	4656
869.147	4763
869.278	4752
869.408	4664
869.539	4706
869.669	4759
869.799	4717
869.929	4725
870.06	4721
870.19	5041
870.32	4919
870.45	4930
870.58	4968
870.71	5056
870.84	5094
870.97	4949
871.1	4908
871.23	5121
871.36	5140
871.489	5048
871.619	5075
871.749	5083
871.879	5102
872.008	5197
872.138	5102
872.267	4961
872.397	4839
872.526	4797
872.656	4752
872.785	4835
872.915	4965
873.044	5025
873.173	4927
873.303	4987
873.432	4965
873.561	4991
873.69	4904
873.819	4873
873.948	4919
874.077	4816
874.206	4767
874.335	4820
874.464	4980
874.593	5117
874.722	4984
874.851	5098
874.979	5048
875.108	4999
875.237	4961
875.365	4892
875.494	4896
875.623	4991
875.751	4885
875.88	4919
876.008	4999
876.136	4980
876.265	5155
876.393	5341
876.521	5299
876.65	5258
876.778	5170
876.906	5121
877.034	5052
877.162	5102
877.29	5010
877.418	5128
877.546	5033
877.674	5071
877.802	4972
877.93	5018
878.058	4915
878.185	4896
878.313	4919
878.441	4968
878.568	4824
878.696	4942
878.824	5010
878.951	5022
879.079	5155
879.206	5292
879.333	5075
879.461	4991
879.588	5025
879.715	5071
879.842	5246
879.97	5006
880.097	4816
880.224	4755
880.351	4812
880.478	4854
880.605	4790
880.732	4824
880.859	5117
880.986	4911
881.112	4987
881.239	4790
881.366	4698
881.493	4649
881.619	4569
881.746	4618
881.872	4649
881.999	4683
882.125	4752
882.252	4835
882.378	4801
882.505	4965
882.631	4812
882.757	4679
882.883	4733
883.01	4717
883.136	4710
883.262	4599
883.388	4641
883.514	4790
883.64	4873
883.766	4824
883.892	4656
884.018	4717
884.143	4900
884.269	5075
884.395	4675
884.52	4660
884.646	4599
884.772	4599
884.897	4554
885.023	4702
885.148	4793
885.274	4824
885.399	4805
885.524	4691
885.65	4698
885.775	4740
885.9	4748
886.025	4854
886.15	4835
886.275	4736
886.4	4656
886.525	4706
886.65	4679
886.775	4771
886.9	4934
887.025	5006
887.149	4816
887.274	4679
887.399	4599
887.523	4615
887.648	4592
887.773	4569
887.897	4790
888.021	4778
888.146	4649
888.27	4801
888.395	4927
888.519	4782
888.643	4809
888.767	4812
888.891	4748
889.015	4634
889.139	4691
889.263	4599
889.387	4767
889.511	4870
889.635	4835
889.759	4607
889.883	4637
890.006	4744
890.13	4824
890.254	4596
890.377	4694
890.501	4588
890.624	4558
890.748	4683
890.871	4493
890.995	4394
891.118	4398
891.241	4489
891.364	4550
891.488	4611
891.611	4504
891.734	4615
891.857	4637
891.98	4542
892.103	4630
892.226	4611
892.349	4554
892.471	4424
892.594	4565
892.717	4607
892.839	4561
892.962	4603
893.085	4683
893.207	4603
893.33	4440
893.452	4565
893.575	4645
893.697	4634
893.819	4793
893.941	4847
894.064	4793
894.186	4596
894.308	4580
894.43	4725
894.552	4824
894.674	4790
894.796	4603
894.918	4630
895.04	4527
895.161	4687
895.283	4656
895.405	4603
895.526	4668
895.648	4672
895.769	4706
895.891	4687
896.012	4729
896.134	4702
896.255	4725
896.376	4653
896.498	4653
896.619	4660
896.74	4607
896.861	4702
896.982	4949
897.103	5041
897.224	4847
897.345	4714
897.466	4691
897.587	4755
897.708	4847
897.828	4748
897.949	4710
898.07	4523
898.19	4634
898.311	4847
898.431	4702
898.552	4733
898.672	4805
898.792	4835
898.913	4698
899.033	4687
899.153	4470
899.273	4466
899.393	4531
899.513	4485
899.633	4565
899.753	4558
899.873	4508
899.993	4592
900.113	4573
900.232	4596
900.352	4561
900.472	4519
900.591	4398
900.711	4535
900.83	4436
900.95	4626
901.069	4675
901.189	4554
901.308	4390
901.427	4261
901.546	4375
901.665	4493
901.784	4554
901.904	4436
902.023	4322
902.141	4135
902.26	4143
902.379	4268
902.498	4207
902.617	4287
902.735	4383
902.854	4409
902.973	4356
903.091	4219
903.21	4246
903.328	4314
903.446	4314
903.565	4265
903.683	4371
903.801	4253
903.919	4386
904.038	4455
904.156	4314
904.274	4462
904.392	4409
904.51	4421
904.627	4527
904.745	4573
904.863	4622
904.981	4443
905.098	4284
905.216	4375
905.334	4455
905.451	4470
905.569	4466
905.686	4531
905.803	4542
905.921	4421
906.038	4569
906.155	4493
906.272	4386
906.389	4436
906.506	4310
906.623	4398
906.74	4360
906.857	4318
906.974	4402
907.091	4565
907.208	4672
907.324	4611
907.441	4497
907.557	4371
907.674	4409
907.79	4280
907.907	4447
908.023	4512
908.139	4474
908.256	4481
908.372	4481
908.488	4451
908.604	4341
908.72	4348
908.836	4402
908.952	4413
909.068	4447
909.184	4554
909.3	4523
909.415	4634
909.531	4554
909.647	4341
909.762	4348
909.878	4363
909.993	4428
910.108	4440
910.224	4398
910.339	4489
910.454	4440
910.57	4329
910.685	4314
910.8	4668
910.915	4618
911.03	4455
911.145	4337
911.259	4322
911.374	4383
911.489	4322
911.604	4310
911.718	4154
911.833	4207
911.947	4112
912.062	3987
912.176	4162
912.291	4207
912.405	4276
912.519	4466
912.633	4466
912.748	4348
912.862	4314
912.976	4223
913.09	4124
913.204	4158
913.318	4306
913.431	4363
913.545	4398
913.659	4443
913.772	4333
913.886	4276
914	4234
914.113	4402
914.226	4386
914.34	4383
914.453	4196
914.566	4413
914.68	4322
914.793	4379
914.906	4158
915.019	4154
915.132	4067
915.245	4188
915.358	4215
915.47	4219
915.583	4303
915.696	4322
915.809	4417
915.921	4436
916.034	4249
916.146	4261
916.259	4230
916.371	4367
916.483	4371
916.595	4246
916.708	4352
916.82	4341
916.932	4299
917.044	4344
917.156	4291
917.268	4215
917.38	4291
917.491	4287
917.603	4299
917.715	4417
917.826	4432
917.938	4348
918.049	4318
918.161	4413
918.272	4561
918.384	4535
918.495	4459
918.606	4314
918.717	4219
918.828	4322
918.939	4379
919.05	4223
919.161	4333
919.272	4150
919.383	4261
919.494	4428
919.604	4645
919.715	4421
919.826	4344
919.936	4417
920.047	4497
920.157	4493
920.267	4672
920.378	4531
920.488	4504
920.598	4767
920.708	4927
920.818	4774
920.928	4736
921.038	4923
921.148	4934
921.258	4653
921.368	4523
921.477	4489
921.587	4443
921.697	4398
921.806	4451
921.916	4402
922.025	4272
922.134	4291
922.244	4204
922.353	4314
922.462	4227
922.571	4162
922.68	3945
922.789	3964
922.898	4029
923.007	4021
923.116	4105
923.224	4032
923.333	4071
923.442	3968
923.55	4017
923.659	4006
923.767	4128
923.876	3991
923.984	4105
924.092	4002
924.201	4090
924.309	4097
924.417	4074
924.525	4097
924.633	4128
924.741	5014
924.849	3918
924.956	4097
925.064	3945
925.172	3861
925.279	3934
925.387	4029
925.494	4044
925.602	4200
925.709	4173
925.816	4010
925.924	4143
926.031	4192
926.138	4162
926.245	4215
926.352	4093
926.459	4242
926.566	4295
926.673	4162
926.779	4074
926.886	4082
926.993	3968
927.099	3953
927.206	3956
927.312	3964
927.419	4063
927.525	3994
927.631	4040
927.737	3953
927.843	3994
927.95	3823
928.056	3941
928.162	3964
928.267	4051
928.373	4672
928.479	4093
928.585	3865
928.69	4032
928.796	4109
928.901	3964
929.007	3838
929.112	3983
929.218	3987
929.323	3926
929.428	3926
929.533	4124
929.638	3941
929.743	3987
929.848	3987
929.953	3964
930.058	3918
930.163	3793
930.267	3865
930.372	3991
930.477	3812
930.581	4063
930.685	3945
930.79	3804
930.894	3857
930.998	3869
931.103	4002
931.207	3690
931.311	3720
931.415	3694
931.519	3485
931.623	3549
