Data from test_V78500241_1470.txt Node
Date: Fri Mar 25 16:59:13 CST 2022
User: usil
Spectrometer: V785-0024
Trigger mode: 0
Integration Time (sec): 4.000000E-1
Scans to average: 1
Nonlinearity correction enabled: false
Boxcar width: 0
Storing dark spectrum: false
XAxis mode: Wavelengths
Number of Pixels in Spectrum: 1024
>>>>>Begin Spectral Data<<<<<
801.071	8046
801.214	7986
801.356	7955
801.499	7830
801.641	7852
801.783	7814
801.926	7917
802.068	7951
802.211	7978
802.353	8005
802.496	7871
802.638	7830
802.78	7883
802.923	7871
803.065	7871
803.208	7906
803.35	8005
803.492	8100
803.635	8172
803.777	8077
803.919	8134
804.061	8507
804.204	8149
804.346	8035
804.488	8062
804.63	8126
804.773	8027
804.915	8210
805.057	8370
805.199	8221
805.341	8233
805.483	8309
805.626	8210
805.768	8138
805.91	8233
806.052	8225
806.194	8119
806.336	8305
806.478	8157
806.62	8096
806.762	8149
806.904	8271
807.046	8530
807.188	8427
807.33	8271
807.472	8358
807.614	8199
807.756	8191
807.898	8005
808.04	7913
808.182	7913
808.324	7902
808.465	7989
808.607	8069
808.749	8176
808.891	8187
809.033	8282
809.174	8233
809.316	8111
809.458	8134
809.6	8001
809.741	8043
809.883	8073
810.025	8088
810.166	8046
810.308	8039
810.45	8027
810.591	7887
810.733	7727
810.875	7670
811.016	7559
811.158	7495
811.299	7639
811.441	7757
811.582	7628
811.724	7605
811.865	7578
812.007	7662
812.148	7609
812.29	7681
812.431	7822
812.573	7925
812.714	8012
812.855	8100
812.997	8225
813.138	8381
813.279	8214
813.421	8145
813.562	8001
813.703	7921
813.845	7761
813.986	7460
814.127	7282
814.268	7213
814.41	7187
814.551	7190
814.692	7213
814.833	7107
814.974	7171
815.115	7179
815.256	6989
815.397	6966
815.539	6939
815.68	6871
815.821	6772
815.962	6886
816.103	6871
816.244	6795
816.385	6730
816.526	6620
816.666	6509
816.807	6353
816.948	6429
817.089	6456
817.23	6433
817.371	6369
817.512	6395
817.653	6418
817.793	6384
817.934	6414
818.075	6475
818.216	6509
818.356	6441
818.497	6247
818.638	6129
818.778	6133
818.919	6163
819.06	6178
819.2	6365
819.341	6296
819.481	6395
819.622	6521
819.762	6730
819.903	6662
820.043	6639
820.184	6601
820.324	6635
820.465	6715
820.605	6692
820.746	6654
820.886	6517
821.026	6662
821.167	6669
821.307	6814
821.447	6806
821.588	6707
821.728	6574
821.868	6509
822.008	6331
822.149	6357
822.289	6350
822.429	6159
822.569	6045
822.709	6121
822.849	5950
822.99	5927
823.13	5996
823.27	5961
823.41	5805
823.55	5859
823.69	5821
823.83	5752
823.97	5638
824.11	5524
824.25	5535
824.389	5551
824.529	5608
824.669	5577
824.809	5665
824.949	5657
825.089	5619
825.228	5551
825.368	5440
825.508	5353
825.648	5357
825.787	5387
825.927	5410
826.067	5280
826.206	5280
826.346	5406
826.485	5425
826.625	5444
826.765	5608
826.904	5509
827.044	5258
827.183	5246
827.323	5174
827.462	5284
827.601	5208
827.741	5208
827.88	5265
828.02	5147
828.159	5231
828.298	5345
828.437	5417
828.577	5258
828.716	5478
828.855	5410
828.994	5212
829.134	5132
829.273	5166
829.412	5231
829.551	5121
829.69	5208
829.829	5201
829.968	5395
830.107	5284
830.246	5334
830.385	5284
830.524	5151
830.663	5090
830.802	4972
830.941	4915
831.08	4911
831.219	5010
831.357	4965
831.496	5170
831.635	4957
831.774	4889
831.913	4831
832.051	4774
832.19	4748
832.329	4843
832.467	4675
832.606	4660
832.744	4717
832.883	4721
833.022	4759
833.16	4778
833.299	4866
833.437	4820
833.576	4820
833.714	4850
833.852	4911
833.991	4961
834.129	4942
834.267	4961
834.406	4923
834.544	4930
834.682	4995
834.821	4991
834.959	5208
835.097	5048
835.235	5216
835.373	5201
835.511	5090
835.65	5060
835.788	5041
835.926	4919
836.064	4919
836.202	4919
836.34	5185
836.478	5258
836.615	5143
836.753	5246
836.891	5273
837.029	5220
837.167	5162
837.305	5185
837.443	5178
837.58	5090
837.718	5273
837.856	5216
837.993	5147
838.131	5216
838.269	5254
838.406	5189
838.544	5208
838.681	5083
838.819	5003
838.956	4915
839.094	4923
839.231	5022
839.369	5132
839.506	5429
839.643	5280
839.781	5117
839.918	5025
840.055	5067
840.193	5109
840.33	5121
840.467	5140
840.604	5223
840.742	5436
840.879	5086
841.016	5067
841.153	5159
841.29	5436
841.427	5387
841.564	5315
841.701	5398
841.838	5296
841.975	5201
842.112	5269
842.249	5155
842.385	5151
842.522	5353
842.659	5159
842.796	5147
842.933	5201
843.069	5189
843.206	5208
843.343	5307
843.479	5223
843.616	5258
843.752	5037
843.889	5037
844.025	5231
844.162	5025
844.298	5204
844.435	5052
844.571	5079
844.708	5204
844.844	5318
844.98	5330
845.117	5296
845.253	5178
845.389	5098
845.525	5178
845.661	5170
845.798	5010
845.934	5124
846.07	5037
846.206	5181
846.342	5280
846.478	5197
846.614	5041
846.75	4980
846.886	4942
847.022	5147
847.158	5048
847.294	5064
847.429	5132
847.565	5056
847.701	5345
847.837	4866
847.972	4843
848.108	4972
848.244	4927
848.379	4805
848.515	4759
848.65	4702
848.786	4755
848.921	4790
849.057	4881
849.192	4919
849.328	4767
849.463	4862
849.598	4839
849.734	4763
849.869	4729
850.004	4664
850.14	4694
850.275	4656
850.41	4554
850.545	4584
850.68	4607
850.815	4615
850.95	4626
851.085	4824
851.22	4721
851.355	4675
851.49	4630
851.625	4611
851.76	4637
851.895	4542
852.03	4508
852.165	4717
852.299	4763
852.434	4816
852.569	4721
852.703	4801
852.838	4847
852.973	4927
853.107	4930
853.242	4721
853.376	4698
853.511	4554
853.645	4675
853.78	4854
853.914	4721
854.048	4660
854.183	4649
854.317	4710
854.451	4858
854.585	4687
854.72	4641
854.854	4744
854.988	4626
855.122	4656
855.256	4508
855.39	4660
855.524	4866
855.658	4717
855.792	4721
855.926	4725
856.06	4767
856.194	4771
856.327	4683
856.461	4649
856.595	4645
856.729	4706
856.862	4778
856.996	4736
857.13	4729
857.263	4736
857.397	4778
857.53	4691
857.664	4755
857.797	4755
857.931	4786
858.064	4706
858.197	4748
858.331	4630
858.464	4615
858.597	4531
858.731	4637
858.864	4683
858.997	4561
859.13	4656
859.263	4694
859.396	4683
859.529	4573
859.662	4611
859.795	4569
859.928	4668
860.061	4740
860.194	4790
860.327	4615
860.46	4588
860.592	4694
860.725	4683
860.858	4675
860.99	4603
861.123	4558
861.256	4565
861.388	4637
861.521	5471
861.653	4485
861.786	4470
861.918	4417
862.05	4535
862.183	4584
862.315	4622
862.447	4603
862.58	4561
862.712	4432
862.844	4360
862.976	4466
863.108	4481
863.24	4744
863.372	4360
863.504	4398
863.636	4379
863.768	4489
863.9	4428
864.032	4386
864.164	4451
864.296	4500
864.428	4558
864.559	4554
864.691	4569
864.823	4512
864.954	4519
865.086	4523
865.217	4424
865.349	4455
865.48	4500
865.612	4485
865.743	4603
865.875	4462
866.006	4455
866.137	4451
866.269	4474
866.4	4421
866.531	4459
866.662	4405
866.793	4394
866.924	4432
867.055	4508
867.186	4424
867.317	4424
867.448	4379
867.579	4402
867.71	4371
867.841	4409
867.972	4424
868.103	4432
868.233	4466
868.364	4443
868.495	4531
868.625	4668
868.756	4763
868.886	4592
869.017	4672
869.147	4805
869.278	4714
869.408	4668
869.539	4668
869.669	4710
869.799	4672
869.929	4752
870.06	4683
870.19	4961
870.32	4896
870.45	4930
870.58	5018
870.71	5083
870.84	5045
870.97	4904
871.1	4949
871.23	5136
871.36	5143
871.489	5006
871.619	5105
871.749	5102
871.879	5117
872.008	5140
872.138	5052
872.267	4991
872.397	4858
872.526	4824
872.656	4721
872.785	4767
872.915	4984
873.044	5060
873.173	4961
873.303	4919
873.432	4927
873.561	4911
873.69	4889
873.819	4923
873.948	4900
874.077	4858
874.206	4748
874.335	4850
874.464	4927
874.593	5067
874.722	4987
874.851	5102
874.979	5105
875.108	5045
875.237	4930
875.365	4870
875.494	4885
875.623	4980
875.751	4885
875.88	4942
876.008	5014
876.136	5041
876.265	5216
876.393	5357
876.521	5212
876.65	5265
876.778	5140
876.906	5067
877.034	4991
877.162	5014
877.29	4968
877.418	5022
877.546	4995
877.674	5022
877.802	5025
877.93	5041
878.058	4896
878.185	4881
878.313	4976
878.441	4946
878.568	4812
878.696	4877
878.824	4972
878.951	4984
879.079	5155
879.206	5250
879.333	5102
879.461	5022
879.588	4938
879.715	5117
879.842	5227
879.97	4976
880.097	4790
880.224	4733
880.351	4767
880.478	4816
880.605	4809
880.732	4736
880.859	5060
880.986	4858
881.112	4866
881.239	4801
881.366	4641
881.493	4584
881.619	4538
881.746	4679
881.872	4668
881.999	4615
882.125	4691
882.252	4793
882.378	4831
882.505	4930
882.631	4778
882.757	4687
882.883	4717
883.01	4706
883.136	4679
883.262	4607
883.388	4630
883.514	4816
883.64	4866
883.766	4767
883.892	4653
884.018	4683
884.143	4881
884.269	4984
884.395	4714
884.52	4580
884.646	4641
884.772	4607
884.897	4592
885.023	4672
885.148	4809
885.274	4835
885.399	4820
885.524	4706
885.65	4687
885.775	4706
885.9	4687
886.025	4858
886.15	4782
886.275	4725
886.4	4672
886.525	4755
886.65	4721
886.775	4683
886.9	4843
887.025	5022
887.149	4824
887.274	4660
887.399	4634
887.523	4618
887.648	4596
887.773	4580
887.897	4733
888.021	4801
888.146	4675
888.27	4828
888.395	4877
888.519	4843
888.643	4816
888.767	4820
888.891	4668
889.015	4596
889.139	4660
889.263	4573
889.387	4759
889.511	4850
889.635	4809
889.759	4626
889.883	4615
890.006	4733
890.13	4831
890.254	4622
890.377	4641
890.501	4538
890.624	4489
890.748	4596
890.871	4489
890.995	4440
891.118	4390
891.241	4500
891.364	4527
891.488	4641
891.611	4512
891.734	4596
891.857	4611
891.98	4508
892.103	4615
892.226	4634
892.349	4500
892.471	4394
892.594	4546
892.717	4611
892.839	4512
892.962	4611
893.085	4660
893.207	4626
893.33	4489
893.452	4512
893.575	4626
893.697	4569
893.819	4790
893.941	4824
894.064	4748
894.186	4580
894.308	4519
894.43	4748
894.552	4774
894.674	4698
894.796	4531
894.918	4592
895.04	4588
895.161	4675
895.283	4683
895.405	4588
895.526	4622
895.648	4710
895.769	4729
895.891	4710
896.012	4717
896.134	4725
896.255	4664
896.376	4611
896.498	4630
896.619	4618
896.74	4611
896.861	4679
896.982	4915
897.103	5033
897.224	4858
897.345	4736
897.466	4656
897.587	4717
897.708	4812
897.828	4763
897.949	4675
898.07	4550
898.19	4626
898.311	4839
898.431	4656
898.552	4759
898.672	4828
898.792	4778
898.913	4729
899.033	4653
899.153	4516
899.273	4447
899.393	4459
899.513	4489
899.633	4481
899.753	4550
899.873	4508
899.993	4596
900.113	4542
900.232	4535
900.352	4508
900.472	4462
900.591	4409
900.711	4493
900.83	4413
900.95	4573
901.069	4641
901.189	4569
901.308	4344
901.427	4348
901.546	4371
901.665	4459
901.784	4504
901.904	4360
902.023	4306
902.141	4211
902.26	4101
902.379	4333
902.498	4234
902.617	4207
902.735	4386
902.854	4386
902.973	4333
903.091	4204
903.21	4238
903.328	4272
903.446	4295
903.565	4291
903.683	4363
903.801	4272
903.919	4371
904.038	4447
904.156	4287
904.274	4424
904.392	4363
904.51	4459
904.627	4462
904.745	4573
904.863	4630
904.981	4424
905.098	4287
905.216	4360
905.334	4451
905.451	4405
905.569	4367
905.686	4580
905.803	4512
905.921	4398
906.038	4538
906.155	4481
906.272	4405
906.389	4413
906.506	4253
906.623	4394
906.74	4394
906.857	4268
906.974	4322
907.091	4527
907.208	4615
907.324	4550
907.441	4531
907.557	4360
907.674	4356
907.79	4318
907.907	4386
908.023	4478
908.139	4462
908.256	4432
908.372	4470
908.488	4481
908.604	4322
908.72	4265
908.836	4390
908.952	4375
909.068	4443
909.184	4607
909.3	4504
909.415	4542
909.531	4523
909.647	4383
909.762	4398
909.878	4341
909.993	4451
910.108	4375
910.224	4421
910.339	4466
910.454	4390
910.57	4333
910.685	4272
910.8	4618
910.915	4588
911.03	4466
911.145	4291
911.259	4314
911.374	4306
911.489	4257
911.604	4268
911.718	4166
911.833	4188
911.947	4074
912.062	4010
912.176	4223
912.291	4257
912.405	4261
912.519	4462
912.633	4523
912.748	4379
912.862	4306
912.976	4211
913.09	4090
913.204	4158
913.318	4261
913.431	4341
913.545	4371
913.659	4474
913.772	4348
913.886	4238
914	4223
914.113	4337
914.226	4443
914.34	4386
914.453	4242
914.566	4371
914.68	4291
914.793	4341
914.906	4147
915.019	4093
915.132	4059
915.245	4169
915.358	4242
915.47	4246
915.583	4280
915.696	4322
915.809	4356
915.921	4402
916.034	4246
916.146	4287
916.259	4166
916.371	4379
916.483	4348
916.595	4249
916.708	4352
916.82	4356
916.932	4265
917.044	4322
917.156	4371
917.268	4234
917.38	4276
917.491	4242
917.603	4352
917.715	4390
917.826	4421
917.938	4341
918.049	4242
918.161	4375
918.272	4561
918.384	4489
918.495	4428
918.606	4287
918.717	4234
918.828	4341
918.939	4356
919.05	4246
919.161	4337
919.272	4116
919.383	4215
919.494	4398
919.604	4618
919.715	4398
919.826	4348
919.936	4424
920.047	4489
920.157	4508
920.267	4691
920.378	4527
920.488	4493
920.598	4683
920.708	4809
920.818	4736
920.928	4763
921.038	4938
921.148	4881
921.258	4611
921.368	4554
921.477	4485
921.587	4413
921.697	4360
921.806	4554
921.916	4440
922.025	4249
922.134	4227
922.244	4196
922.353	4322
922.462	4131
922.571	4082
922.68	4025
922.789	3964
922.898	4036
923.007	4032
923.116	4112
923.224	4032
923.333	4120
923.442	3972
923.55	3922
923.659	3972
923.767	4067
923.876	4006
923.984	4112
924.092	3998
924.201	4090
924.309	4071
924.417	4150
924.525	4032
924.633	4074
924.741	5018
924.849	3880
924.956	4139
925.064	3972
925.172	3876
925.279	3968
925.387	4006
925.494	4078
925.602	4196
925.709	4150
925.816	4063
925.924	4101
926.031	4204
926.138	4150
926.245	4162
926.352	4093
926.459	4211
926.566	4261
926.673	4143
926.779	4074
926.886	4090
926.993	3991
927.099	3941
927.206	3934
927.312	3987
927.419	4067
927.525	4025
927.631	4101
927.737	3983
927.843	3975
927.95	3842
928.056	3968
928.162	3983
928.267	4067
928.373	4599
928.479	4093
928.585	3842
928.69	4017
928.796	4059
928.901	3979
929.007	3861
929.112	3991
929.218	3979
929.323	3941
929.428	3865
929.533	4063
929.638	3911
929.743	3922
929.848	4051
929.953	3964
930.058	3896
930.163	3762
930.267	3808
930.372	3991
930.477	3793
930.581	4086
930.685	3941
930.79	3831
930.894	3888
930.998	3850
931.103	4032
931.207	3694
931.311	3671
931.415	3656
931.519	3504
931.623	3523
