Data from test_V78500241_189.txt Node
Date: Fri Mar 25 16:50:19 CST 2022
User: usil
Spectrometer: V785-0024
Trigger mode: 0
Integration Time (sec): 4.000000E-1
Scans to average: 1
Nonlinearity correction enabled: false
Boxcar width: 0
Storing dark spectrum: false
XAxis mode: Wavelengths
Number of Pixels in Spectrum: 1024
>>>>>Begin Spectral Data<<<<<
801.071	8043
801.214	8020
801.356	7879
801.499	7860
801.641	7841
801.783	7772
801.926	7909
802.068	7936
802.211	8062
802.353	8024
802.496	7883
802.638	7811
802.78	7868
802.923	7928
803.065	7837
803.208	7875
803.35	7951
803.492	8020
803.635	8126
803.777	8020
803.919	8046
804.061	8442
804.204	8157
804.346	8031
804.488	7928
804.63	8081
804.773	7982
804.915	8134
805.057	8271
805.199	8107
805.341	8142
805.483	8240
805.626	8176
805.768	8062
805.91	8138
806.052	8149
806.194	7993
806.336	8282
806.478	8145
806.62	8016
806.762	8092
806.904	8210
807.046	8355
807.188	8374
807.33	8305
807.472	8275
807.614	8130
807.756	8145
807.898	8058
808.04	7799
808.182	7917
808.324	7906
808.465	7932
808.607	8031
808.749	8065
808.891	8157
809.033	8313
809.174	8157
809.316	8054
809.458	8012
809.6	7997
809.741	7974
809.883	8077
810.025	7978
810.166	8058
810.308	8024
810.45	7944
810.591	7864
810.733	7807
810.875	7674
811.016	7457
811.158	7453
811.299	7590
811.441	7742
811.582	7674
811.724	7544
811.865	7552
812.007	7651
812.148	7666
812.29	7639
812.431	7776
812.573	7875
812.714	8069
812.855	8218
812.997	8256
813.138	8366
813.279	8168
813.421	8073
813.562	8043
813.703	7818
813.845	7780
813.986	7491
814.127	7285
814.268	7285
814.41	7206
814.551	7232
814.692	7198
814.833	7076
814.974	7152
815.115	7107
815.256	6958
815.397	6863
815.539	6985
815.68	6859
815.821	6760
815.962	6829
816.103	6757
816.244	6787
816.385	6654
816.526	6616
816.666	6525
816.807	6399
816.948	6414
817.089	6517
817.23	6429
817.371	6376
817.512	6399
817.653	6357
817.793	6407
817.934	6448
818.075	6490
818.216	6441
818.356	6338
818.497	6201
818.638	6095
818.778	6106
818.919	6098
819.06	6106
819.2	6319
819.341	6315
819.481	6300
819.622	6544
819.762	6639
819.903	6639
820.043	6551
820.184	6574
820.324	6582
820.465	6738
820.605	6677
820.746	6673
820.886	6502
821.026	6681
821.167	6662
821.307	6764
821.447	6787
821.588	6646
821.728	6551
821.868	6494
822.008	6346
822.149	6346
822.289	6296
822.429	6110
822.569	6049
822.709	6121
822.849	5893
822.99	5927
823.13	5882
823.27	5912
823.41	5771
823.55	5794
823.69	5756
823.83	5771
823.97	5703
824.11	5547
824.25	5520
824.389	5592
824.529	5535
824.669	5497
824.809	5642
824.949	5661
825.089	5627
825.228	5573
825.368	5417
825.508	5315
825.648	5330
825.787	5357
825.927	5318
826.067	5337
826.206	5307
826.346	5376
826.485	5379
826.625	5417
826.765	5554
826.904	5429
827.044	5258
827.183	5197
827.323	5140
827.462	5269
827.601	5189
827.741	5223
827.88	5258
828.02	5098
828.159	5269
828.298	5288
828.437	5345
828.577	5277
828.716	5497
828.855	5372
828.994	5204
829.134	5140
829.273	5181
829.412	5193
829.551	5159
829.69	5151
829.829	5280
829.968	5391
830.107	5227
830.246	5284
830.385	5208
830.524	5155
830.663	5098
830.802	4980
830.941	4866
831.08	4930
831.219	5025
831.357	5014
831.496	5132
831.635	4923
831.774	4896
831.913	4873
832.051	4805
832.19	4763
832.329	4820
832.467	4763
832.606	4653
832.744	4755
832.883	4752
833.022	4835
833.16	4801
833.299	4835
833.437	4877
833.576	4873
833.714	4885
833.852	4911
833.991	4896
834.129	4999
834.267	5018
834.406	4942
834.544	5056
834.682	5014
834.821	5022
834.959	5174
835.097	5014
835.235	5189
835.373	5140
835.511	5147
835.65	5056
835.788	5102
835.926	4949
836.064	4900
836.202	4949
836.34	5193
836.478	5322
836.615	5143
836.753	5265
836.891	5341
837.029	5326
837.167	5231
837.305	5193
837.443	5132
837.58	5128
837.718	5292
837.856	5231
837.993	5185
838.131	5292
838.269	5280
838.406	5231
838.544	5261
838.681	5094
838.819	5060
838.956	4968
839.094	4915
839.231	5003
839.369	5178
839.506	5471
839.643	5307
839.781	5083
839.918	5029
840.055	5105
840.193	5147
840.33	5140
840.467	5178
840.604	5242
840.742	5486
840.879	5166
841.016	5140
841.153	5189
841.29	5406
841.427	5379
841.564	5376
841.701	5425
841.838	5372
841.975	5277
842.112	5326
842.249	5170
842.385	5147
842.522	5467
842.659	5273
842.796	5185
842.933	5296
843.069	5227
843.206	5185
843.343	5391
843.479	5292
843.616	5315
843.752	5071
843.889	5048
844.025	5239
844.162	5079
844.298	5273
844.435	5155
844.571	5067
844.708	5223
844.844	5326
844.98	5341
845.117	5326
845.253	5197
845.389	5083
845.525	5242
845.661	5208
845.798	5060
845.934	5174
846.07	5124
846.206	5235
846.342	5288
846.478	5265
846.614	5056
846.75	4995
846.886	5010
847.022	5185
847.158	5056
847.294	5166
847.429	5159
847.565	5151
847.701	5345
847.837	4919
847.972	4854
848.108	4995
848.244	5003
848.379	4812
848.515	4755
848.65	4755
848.786	4767
848.921	4858
849.057	4949
849.192	4961
849.328	4885
849.463	4885
849.598	4820
849.734	4725
849.869	4748
850.004	4698
850.14	4736
850.275	4660
850.41	4615
850.545	4577
850.68	4672
850.815	4691
850.95	4691
851.085	4904
851.22	4831
851.355	4710
851.49	4634
851.625	4664
851.76	4714
851.895	4622
852.03	4558
852.165	4683
852.299	4752
852.434	4831
852.569	4759
852.703	4843
852.838	4862
852.973	4946
853.107	4976
853.242	4805
853.376	4706
853.511	4599
853.645	4656
853.78	4911
853.914	4729
854.048	4729
854.183	4637
854.317	4752
854.451	4904
854.585	4717
854.72	4656
854.854	4820
854.988	4710
855.122	4656
855.256	4535
855.39	4698
855.524	4858
855.658	4744
855.792	4782
855.926	4809
856.06	4790
856.194	4847
856.327	4729
856.461	4645
856.595	4672
856.729	4694
856.862	4797
856.996	4767
857.13	4767
857.263	4790
857.397	4828
857.53	4694
857.664	4774
857.797	4809
857.931	4801
858.064	4721
858.197	4801
858.331	4714
858.464	4649
858.597	4584
858.731	4653
858.864	4649
858.997	4649
859.13	4714
859.263	4744
859.396	4782
859.529	4634
859.662	4580
859.795	4626
859.928	4649
860.061	4820
860.194	4816
860.327	4687
860.46	4645
860.592	4710
860.725	4778
860.858	4755
860.99	4622
861.123	4588
861.256	4558
861.388	4668
861.521	5391
861.653	4542
861.786	4432
861.918	4573
862.05	4580
862.183	4538
862.315	4653
862.447	4687
862.58	4588
862.712	4421
862.844	4398
862.976	4508
863.108	4508
863.24	4881
863.372	4360
863.504	4497
863.636	4409
863.768	4527
863.9	4451
864.032	4386
864.164	4447
864.296	4504
864.428	4603
864.559	4630
864.691	4592
864.823	4569
864.954	4527
865.086	4558
865.217	4493
865.349	4398
865.48	4497
865.612	4554
865.743	4634
865.875	4504
866.006	4462
866.137	4481
866.269	4436
866.4	4474
866.531	4455
866.662	4474
866.793	4440
866.924	4459
867.055	4550
867.186	4519
867.317	4421
867.448	4390
867.579	4459
867.71	4459
867.841	4432
867.972	4493
868.103	4523
868.233	4478
868.364	4459
868.495	4531
868.625	4679
868.756	4816
868.886	4599
869.017	4683
869.147	4782
869.278	4828
869.408	4691
869.539	4653
869.669	4740
869.799	4630
869.929	4786
870.06	4782
870.19	4968
870.32	4949
870.45	4972
870.58	5083
870.71	5113
870.84	5143
870.97	4942
871.1	4934
871.23	5197
871.36	5174
871.489	5094
871.619	5124
871.749	5105
871.879	5174
872.008	5181
872.138	5128
872.267	5010
872.397	4911
872.526	4835
872.656	4748
872.785	4843
872.915	4995
873.044	5086
873.173	4984
873.303	5025
873.432	4957
873.561	4976
873.69	4877
873.819	4923
873.948	4911
874.077	4866
874.206	4790
874.335	4877
874.464	4930
874.593	5067
874.722	5056
874.851	5098
874.979	5083
875.108	5105
875.237	4957
875.365	4904
875.494	4923
875.623	4976
875.751	4862
875.88	4831
876.008	5037
876.136	5056
876.265	5296
876.393	5391
876.521	5239
876.65	5254
876.778	5220
876.906	5094
877.034	5045
877.162	5094
877.29	5018
877.418	5098
877.546	5128
877.674	5094
877.802	5029
877.93	5067
878.058	4953
878.185	4930
878.313	5006
878.441	4965
878.568	4870
878.696	4923
878.824	4991
878.951	5037
879.079	5162
879.206	5303
879.333	5124
879.461	5006
879.588	5010
879.715	5143
879.842	5246
879.97	5075
880.097	4843
880.224	4790
880.351	4793
880.478	4870
880.605	4778
880.732	4820
880.859	5071
880.986	4919
881.112	4961
881.239	4778
881.366	4687
881.493	4630
881.619	4611
881.746	4656
881.872	4691
881.999	4675
882.125	4733
882.252	4820
882.378	4843
882.505	5029
882.631	4824
882.757	4675
882.883	4740
883.01	4752
883.136	4710
883.262	4641
883.388	4656
883.514	4824
883.64	4885
883.766	4820
883.892	4687
884.018	4725
884.143	4900
884.269	5048
884.395	4687
884.52	4702
884.646	4691
884.772	4596
884.897	4603
885.023	4736
885.148	4831
885.274	4923
885.399	4866
885.524	4805
885.65	4714
885.775	4793
885.9	4714
886.025	4889
886.15	4839
886.275	4774
886.4	4698
886.525	4759
886.65	4694
886.775	4729
886.9	4965
887.025	5105
887.149	4809
887.274	4714
887.399	4634
887.523	4641
887.648	4611
887.773	4622
887.897	4824
888.021	4797
888.146	4729
888.27	4809
888.395	4942
888.519	4801
888.643	4877
888.767	4847
888.891	4725
889.015	4634
889.139	4706
889.263	4584
889.387	4763
889.511	4915
889.635	4877
889.759	4717
889.883	4672
890.006	4744
890.13	4854
890.254	4645
890.377	4725
890.501	4565
890.624	4489
890.748	4637
890.871	4558
890.995	4478
891.118	4417
891.241	4538
891.364	4577
891.488	4653
891.611	4516
891.734	4569
891.857	4668
891.98	4603
892.103	4668
892.226	4656
892.349	4577
892.471	4500
892.594	4573
892.717	4630
892.839	4626
892.962	4653
893.085	4717
893.207	4634
893.33	4466
893.452	4512
893.575	4714
893.697	4641
893.819	4843
893.941	4870
894.064	4801
894.186	4649
894.308	4546
894.43	4778
894.552	4858
894.674	4778
894.796	4561
894.918	4641
895.04	4611
895.161	4736
895.283	4687
895.405	4596
895.526	4637
895.648	4706
895.769	4691
895.891	4759
896.012	4702
896.134	4782
896.255	4694
896.376	4668
896.498	4622
896.619	4706
896.74	4698
896.861	4622
896.982	4987
897.103	5128
897.224	4843
897.345	4812
897.466	4691
897.587	4748
897.708	4896
897.828	4736
897.949	4725
898.07	4588
898.19	4679
898.311	4889
898.431	4679
898.552	4748
898.672	4835
898.792	4828
898.913	4733
899.033	4615
899.153	4531
899.273	4424
899.393	4558
899.513	4607
899.633	4542
899.753	4546
899.873	4542
899.993	4584
900.113	4550
900.232	4603
900.352	4573
900.472	4558
900.591	4432
900.711	4516
900.83	4428
900.95	4588
901.069	4740
901.189	4580
901.308	4402
901.427	4322
901.546	4402
901.665	4535
901.784	4470
901.904	4356
902.023	4337
902.141	4207
902.26	4200
902.379	4348
902.498	4265
902.617	4249
902.735	4344
902.854	4436
902.973	4360
903.091	4207
903.21	4227
903.328	4306
903.446	4306
903.565	4246
903.683	4352
903.801	4299
903.919	4443
904.038	4436
904.156	4363
904.274	4455
904.392	4413
904.51	4421
904.627	4512
904.745	4588
904.863	4694
904.981	4409
905.098	4329
905.216	4428
905.334	4424
905.451	4497
905.569	4443
905.686	4561
905.803	4584
905.921	4466
906.038	4569
906.155	4497
906.272	4459
906.389	4440
906.506	4337
906.623	4383
906.74	4390
906.857	4360
906.974	4443
907.091	4550
907.208	4710
907.324	4607
907.441	4554
907.557	4341
907.674	4371
907.79	4383
907.907	4398
908.023	4508
908.139	4504
908.256	4447
908.372	4485
908.488	4478
908.604	4337
908.72	4348
908.836	4447
908.952	4386
909.068	4432
909.184	4634
909.3	4512
909.415	4618
909.531	4580
909.647	4367
909.762	4413
909.878	4379
909.993	4466
910.108	4443
910.224	4493
910.339	4485
910.454	4405
910.57	4379
910.685	4356
910.8	4721
910.915	4611
911.03	4546
911.145	4348
911.259	4325
911.374	4360
911.489	4322
911.604	4337
911.718	4181
911.833	4192
911.947	4051
912.062	4090
912.176	4276
912.291	4287
912.405	4284
912.519	4485
912.633	4519
912.748	4394
912.862	4268
912.976	4249
913.09	4150
913.204	4204
913.318	4253
913.431	4352
913.545	4375
913.659	4470
913.772	4394
913.886	4287
914	4253
914.113	4371
914.226	4455
914.34	4436
914.453	4192
914.566	4485
914.68	4299
914.793	4352
914.906	4150
915.019	4090
915.132	4086
915.245	4173
915.358	4230
915.47	4257
915.583	4318
915.696	4344
915.809	4363
915.921	4432
916.034	4257
916.146	4276
916.259	4230
916.371	4371
916.483	4375
916.595	4268
916.708	4337
916.82	4318
916.932	4325
917.044	4383
917.156	4363
917.268	4287
917.38	4306
917.491	4234
917.603	4325
917.715	4428
917.826	4466
917.938	4360
918.049	4276
918.161	4428
918.272	4531
918.384	4519
918.495	4462
918.606	4348
918.717	4249
918.828	4341
918.939	4421
919.05	4234
919.161	4310
919.272	4181
919.383	4276
919.494	4402
919.604	4664
919.715	4462
919.826	4360
919.936	4421
920.047	4561
920.157	4493
920.267	4733
920.378	4546
920.488	4481
920.598	4755
920.708	4915
920.818	4812
920.928	4824
921.038	4908
921.148	4946
921.258	4672
921.368	4512
921.477	4493
921.587	4474
921.697	4424
921.806	4615
921.916	4428
922.025	4344
922.134	4322
922.244	4207
922.353	4375
922.462	4177
922.571	4116
922.68	4025
922.789	4002
922.898	4006
923.007	3968
923.116	4131
923.224	4082
923.333	4059
923.442	4010
923.55	3998
923.659	4097
923.767	4101
923.876	4017
923.984	4128
924.092	3983
924.201	4090
924.309	4078
924.417	4101
924.525	4086
924.633	4128
924.741	4892
924.849	3915
924.956	4139
925.064	3968
925.172	3926
925.279	3991
925.387	4055
925.494	4074
925.602	4223
925.709	4204
925.816	4078
925.924	4116
926.031	4234
926.138	4185
926.245	4238
926.352	4086
926.459	4253
926.566	4337
926.673	4196
926.779	4082
926.886	4097
926.993	3991
927.099	3983
927.206	3987
927.312	3998
927.419	4074
927.525	4036
927.631	4139
927.737	3972
927.843	3964
927.95	3926
928.056	3987
928.162	4036
928.267	4063
928.373	4649
928.479	4139
928.585	3892
928.69	4036
928.796	4105
928.901	3991
929.007	3838
929.112	4017
929.218	3956
929.323	3918
929.428	3922
929.533	4128
929.638	3892
929.743	3975
929.848	4093
929.953	3979
930.058	3922
930.163	3793
930.267	3857
930.372	3987
930.477	3823
930.581	4124
930.685	3926
930.79	3873
930.894	3880
930.998	3873
931.103	4074
931.207	3797
931.311	3743
931.415	3682
931.519	3519
931.623	3587
