Data from test_V78500241_1889.txt Node
Date: Fri Mar 25 17:02:08 CST 2022
User: usil
Spectrometer: V785-0024
Trigger mode: 0
Integration Time (sec): 4.000000E-1
Scans to average: 1
Nonlinearity correction enabled: false
Boxcar width: 0
Storing dark spectrum: false
XAxis mode: Wavelengths
Number of Pixels in Spectrum: 1024
>>>>>Begin Spectral Data<<<<<
801.071	7944
801.214	7993
801.356	7849
801.499	7871
801.641	7734
801.783	7761
801.926	7906
802.068	7932
802.211	8001
802.353	8016
802.496	7864
802.638	7822
802.78	7906
802.923	7837
803.065	7852
803.208	7921
803.35	7967
803.492	8081
803.635	8138
803.777	8115
803.919	8138
804.061	8457
804.204	8153
804.346	8016
804.488	8012
804.63	8062
804.773	8005
804.915	8111
805.057	8294
805.199	8153
805.341	8103
805.483	8248
805.626	8214
805.768	8123
805.91	8237
806.052	8187
806.194	8115
806.336	8244
806.478	8107
806.62	8027
806.762	8180
806.904	8237
807.046	8469
807.188	8336
807.33	8301
807.472	8336
807.614	8134
807.756	8100
807.898	8062
808.04	7818
808.182	7936
808.324	7894
808.465	7883
808.607	8027
808.749	8092
808.891	8225
809.033	8324
809.174	8168
809.316	8115
809.458	8138
809.6	7967
809.741	8031
809.883	8043
810.025	8107
810.166	8126
810.308	7978
810.45	7978
810.591	7803
810.733	7738
810.875	7609
811.016	7453
811.158	7460
811.299	7616
811.441	7727
811.582	7651
811.724	7567
811.865	7594
812.007	7590
812.148	7578
812.29	7628
812.431	7792
812.573	7913
812.714	7967
812.855	8149
812.997	8237
813.138	8301
813.279	8123
813.421	8119
813.562	8005
813.703	7852
813.845	7727
813.986	7411
814.127	7263
814.268	7202
814.41	7141
814.551	7175
814.692	7247
814.833	7114
814.974	7137
815.115	7110
815.256	6970
815.397	6913
815.539	6924
815.68	6745
815.821	6802
815.962	6814
816.103	6806
816.244	6665
816.385	6601
816.526	6593
816.666	6460
816.807	6304
816.948	6422
817.089	6426
817.23	6407
817.371	6361
817.512	6388
817.653	6410
817.793	6350
817.934	6388
818.075	6452
818.216	6464
818.356	6422
818.497	6258
818.638	6106
818.778	6220
818.919	6121
819.06	6140
819.2	6285
819.341	6338
819.481	6369
819.622	6544
819.762	6722
819.903	6711
820.043	6631
820.184	6483
820.324	6563
820.465	6681
820.605	6673
820.746	6662
820.886	6506
821.026	6669
821.167	6665
821.307	6856
821.447	6768
821.588	6688
821.728	6528
821.868	6475
822.008	6304
822.149	6388
822.289	6376
822.429	6175
822.569	6136
822.709	6114
822.849	5923
822.99	5927
823.13	5908
823.27	5916
823.41	5798
823.55	5767
823.69	5737
823.83	5783
823.97	5630
824.11	5520
824.25	5524
824.389	5573
824.529	5627
824.669	5463
824.809	5570
824.949	5653
825.089	5592
825.228	5539
825.368	5398
825.508	5330
825.648	5395
825.787	5360
825.927	5398
826.067	5307
826.206	5265
826.346	5345
826.485	5429
826.625	5391
826.765	5551
826.904	5467
827.044	5242
827.183	5197
827.323	5147
827.462	5223
827.601	5166
827.741	5220
827.88	5212
828.02	5147
828.159	5220
828.298	5307
828.437	5364
828.577	5277
828.716	5471
828.855	5315
828.994	5143
829.134	5166
829.273	5178
829.412	5140
829.551	5147
829.69	5151
829.829	5246
829.968	5364
830.107	5227
830.246	5242
830.385	5201
830.524	5147
830.663	5037
830.802	4972
830.941	4900
831.08	4858
831.219	4946
831.357	4972
831.496	5128
831.635	4961
831.774	4896
831.913	4835
832.051	4702
832.19	4698
832.329	4797
832.467	4672
832.606	4618
832.744	4755
832.883	4733
833.022	4687
833.16	4729
833.299	4824
833.437	4843
833.576	4870
833.714	4908
833.852	4866
833.991	4881
834.129	4972
834.267	4972
834.406	4904
834.544	4965
834.682	4938
834.821	4976
834.959	5109
835.097	5025
835.235	5121
835.373	5064
835.511	5056
835.65	5041
835.788	5006
835.926	4858
836.064	4938
836.202	4927
836.34	5136
836.478	5178
836.615	5083
836.753	5189
836.891	5208
837.029	5258
837.167	5204
837.305	5178
837.443	5151
837.58	5045
837.718	5223
837.856	5181
837.993	5132
838.131	5174
838.269	5231
838.406	5155
838.544	5181
838.681	4972
838.819	4946
838.956	4866
839.094	4904
839.231	4995
839.369	5029
839.506	5387
839.643	5250
839.781	5037
839.918	5056
840.055	5075
840.193	5045
840.33	5121
840.467	5140
840.604	5193
840.742	5429
840.879	5079
841.016	5075
841.153	5117
841.29	5406
841.427	5299
841.564	5318
841.701	5277
841.838	5318
841.975	5235
842.112	5242
842.249	5170
842.385	5155
842.522	5307
842.659	5147
842.796	5113
842.933	5166
843.069	5128
843.206	5121
843.343	5311
843.479	5235
843.616	5231
843.752	5014
843.889	5029
844.025	5235
844.162	5025
844.298	5265
844.435	5094
844.571	5037
844.708	5201
844.844	5345
844.98	5341
845.117	5277
845.253	5090
845.389	5064
845.525	5143
845.661	5189
845.798	5033
845.934	5083
846.07	5113
846.206	5216
846.342	5258
846.478	5201
846.614	5060
846.75	4946
846.886	4908
847.022	5086
847.158	5010
847.294	5056
847.429	5143
847.565	5083
847.701	5311
847.837	4835
847.972	4774
848.108	4953
848.244	4908
848.379	4816
848.515	4717
848.65	4733
848.786	4717
848.921	4793
849.057	4831
849.192	4904
849.328	4812
849.463	4805
849.598	4763
849.734	4748
849.869	4672
850.004	4641
850.14	4653
850.275	4653
850.41	4554
850.545	4523
850.68	4615
850.815	4611
850.95	4584
851.085	4889
851.22	4744
851.355	4656
851.49	4607
851.625	4626
851.76	4630
851.895	4561
852.03	4500
852.165	4668
852.299	4679
852.434	4786
852.569	4752
852.703	4729
852.838	4881
852.973	4938
853.107	4911
853.242	4721
853.376	4656
853.511	4535
853.645	4656
853.78	4805
853.914	4668
854.048	4637
854.183	4641
854.317	4698
854.451	4858
854.585	4710
854.72	4656
854.854	4759
854.988	4611
855.122	4656
855.256	4538
855.39	4611
855.524	4733
855.658	4698
855.792	4729
855.926	4694
856.06	4748
856.194	4763
856.327	4710
856.461	4615
856.595	4630
856.729	4664
856.862	4755
856.996	4675
857.13	4725
857.263	4759
857.397	4786
857.53	4683
857.664	4698
857.797	4706
857.931	4748
858.064	4714
858.197	4736
858.331	4603
858.464	4622
858.597	4512
858.731	4618
858.864	4634
858.997	4550
859.13	4664
859.263	4615
859.396	4710
859.529	4512
859.662	4561
859.795	4558
859.928	4634
860.061	4736
860.194	4725
860.327	4626
860.46	4550
860.592	4679
860.725	4729
860.858	4744
860.99	4561
861.123	4558
861.256	4516
861.388	4603
861.521	5372
861.653	4504
861.786	4459
861.918	4481
862.05	4516
862.183	4516
862.315	4607
862.447	4653
862.58	4580
862.712	4371
862.844	4310
862.976	4485
863.108	4428
863.24	4904
863.372	4314
863.504	4440
863.636	4356
863.768	4470
863.9	4440
864.032	4348
864.164	4394
864.296	4436
864.428	4550
864.559	4542
864.691	4497
864.823	4523
864.954	4542
865.086	4508
865.217	4443
865.349	4432
865.48	4417
865.612	4493
865.743	4622
865.875	4428
866.006	4470
866.137	4512
866.269	4432
866.4	4424
866.531	4432
866.662	4398
866.793	4379
866.924	4398
867.055	4519
867.186	4405
867.317	4402
867.448	4390
867.579	4383
867.71	4390
867.841	4348
867.972	4432
868.103	4478
868.233	4436
868.364	4493
868.495	4478
868.625	4653
868.756	4710
868.886	4561
869.017	4668
869.147	4714
869.278	4778
869.408	4649
869.539	4607
869.669	4672
869.799	4634
869.929	4774
870.06	4752
870.19	4999
870.32	4862
870.45	4949
870.58	4957
870.71	5075
870.84	5094
870.97	4896
871.1	4949
871.23	5132
871.36	5121
871.489	5018
871.619	5090
871.749	5083
871.879	5124
872.008	5159
872.138	5052
872.267	4976
872.397	4831
872.526	4793
872.656	4744
872.785	4771
872.915	4889
873.044	4984
873.173	4934
873.303	4987
873.432	4961
873.561	4991
873.69	4831
873.819	4892
873.948	4927
874.077	4805
874.206	4748
874.335	4816
874.464	4915
874.593	4976
874.722	4999
874.851	5064
874.979	5048
875.108	5006
875.237	4915
875.365	4885
875.494	4881
875.623	4976
875.751	4812
875.88	4908
876.008	5006
876.136	5006
876.265	5155
876.393	5288
876.521	5254
876.65	5216
876.778	5162
876.906	5128
877.034	5014
877.162	5014
877.29	5025
877.418	5064
877.546	5071
877.674	5048
877.802	4999
877.93	5064
878.058	4904
878.185	4866
878.313	4930
878.441	4934
878.568	4782
878.696	4824
878.824	4900
878.951	4968
879.079	5067
879.206	5277
879.333	5079
879.461	4968
879.588	4972
879.715	5052
879.842	5242
879.97	4968
880.097	4763
880.224	4702
880.351	4759
880.478	4828
880.605	4835
880.732	4786
880.859	5083
880.986	4885
881.112	4934
881.239	4774
881.366	4634
881.493	4569
881.619	4584
881.746	4630
881.872	4653
881.999	4660
882.125	4691
882.252	4748
882.378	4843
882.505	4957
882.631	4805
882.757	4656
882.883	4740
883.01	4717
883.136	4649
883.262	4569
883.388	4607
883.514	4793
883.64	4809
883.766	4771
883.892	4672
884.018	4725
884.143	4866
884.269	5003
884.395	4649
884.52	4607
884.646	4637
884.772	4607
884.897	4519
885.023	4664
885.148	4797
885.274	4915
885.399	4805
885.524	4687
885.65	4694
885.775	4733
885.9	4710
886.025	4839
886.15	4786
886.275	4733
886.4	4668
886.525	4725
886.65	4714
886.775	4687
886.9	4896
887.025	5045
887.149	4771
887.274	4656
887.399	4516
887.523	4675
887.648	4561
887.773	4599
887.897	4748
888.021	4755
888.146	4634
888.27	4896
888.395	4835
888.519	4763
888.643	4790
888.767	4782
888.891	4626
889.015	4615
889.139	4615
889.263	4637
889.387	4736
889.511	4831
889.635	4771
889.759	4637
889.883	4615
890.006	4694
890.13	4812
890.254	4607
890.377	4630
890.501	4565
890.624	4558
890.748	4626
890.871	4535
890.995	4417
891.118	4383
891.241	4478
891.364	4535
891.488	4637
891.611	4474
891.734	4592
891.857	4596
891.98	4538
892.103	4660
892.226	4558
892.349	4489
892.471	4436
892.594	4577
892.717	4554
892.839	4599
892.962	4550
893.085	4645
893.207	4584
893.33	4478
893.452	4493
893.575	4668
893.697	4584
893.819	4816
893.941	4839
894.064	4752
894.186	4603
894.308	4546
894.43	4675
894.552	4812
894.674	4740
894.796	4550
894.918	4607
895.04	4577
895.161	4679
895.283	4668
895.405	4538
895.526	4634
895.648	4721
895.769	4668
895.891	4645
896.012	4729
896.134	4698
896.255	4637
896.376	4660
896.498	4622
896.619	4660
896.74	4618
896.861	4660
896.982	4923
897.103	5041
897.224	4812
897.345	4774
897.466	4698
897.587	4717
897.708	4873
897.828	4748
897.949	4660
898.07	4523
898.19	4622
898.311	4793
898.431	4691
898.552	4694
898.672	4805
898.792	4797
898.913	4736
899.033	4607
899.153	4466
899.273	4421
899.393	4504
899.513	4527
899.633	4527
899.753	4519
899.873	4542
899.993	4569
900.113	4542
900.232	4577
900.352	4561
900.472	4493
900.591	4413
900.711	4470
900.83	4436
900.95	4622
901.069	4717
901.189	4493
901.308	4383
901.427	4318
901.546	4402
901.665	4455
901.784	4550
901.904	4295
902.023	4341
902.141	4188
902.26	4135
902.379	4306
902.498	4215
902.617	4181
902.735	4360
902.854	4375
902.973	4352
903.091	4223
903.21	4246
903.328	4284
903.446	4257
903.565	4230
903.683	4318
903.801	4257
903.919	4363
904.038	4432
904.156	4287
904.274	4432
904.392	4394
904.51	4417
904.627	4485
904.745	4596
904.863	4649
904.981	4432
905.098	4344
905.216	4398
905.334	4402
905.451	4447
905.569	4398
905.686	4561
905.803	4599
905.921	4417
906.038	4584
906.155	4447
906.272	4402
906.389	4481
906.506	4348
906.623	4363
906.74	4447
906.857	4295
906.974	4344
907.091	4558
907.208	4694
907.324	4603
907.441	4447
907.557	4352
907.674	4379
907.79	4325
907.907	4375
908.023	4481
908.139	4497
908.256	4447
908.372	4497
908.488	4436
908.604	4329
908.72	4299
908.836	4341
908.952	4352
909.068	4443
909.184	4577
909.3	4462
909.415	4569
909.531	4550
909.647	4337
909.762	4383
909.878	4333
909.993	4462
910.108	4424
910.224	4383
910.339	4474
910.454	4424
910.57	4371
910.685	4356
910.8	4641
910.915	4577
911.03	4500
911.145	4325
911.259	4318
911.374	4360
911.489	4299
911.604	4276
911.718	4139
911.833	4181
911.947	4067
912.062	4051
912.176	4207
912.291	4242
912.405	4246
912.519	4455
912.633	4500
912.748	4360
912.862	4280
912.976	4196
913.09	4090
913.204	4135
913.318	4234
913.431	4394
913.545	4337
913.659	4440
913.772	4344
913.886	4234
914	4215
914.113	4390
914.226	4398
914.34	4360
914.453	4257
914.566	4409
914.68	4318
914.793	4329
914.906	4162
915.019	4128
915.132	4086
915.245	4147
915.358	4162
915.47	4227
915.583	4265
915.696	4268
915.809	4417
915.921	4443
916.034	4249
916.146	4196
916.259	4192
916.371	4291
916.483	4306
916.595	4299
916.708	4375
916.82	4337
916.932	4257
917.044	4310
917.156	4310
917.268	4219
917.38	4227
917.491	4287
917.603	4280
917.715	4375
917.826	4375
917.938	4352
918.049	4215
918.161	4367
918.272	4500
918.384	4542
918.495	4470
918.606	4253
918.717	4207
918.828	4341
918.939	4322
919.05	4261
919.161	4341
919.272	4128
919.383	4188
919.494	4405
919.604	4569
919.715	4394
919.826	4333
919.936	4386
920.047	4546
920.157	4481
920.267	4668
920.378	4504
920.488	4462
920.598	4694
920.708	4828
920.818	4759
920.928	4725
921.038	4984
921.148	4915
921.258	4645
921.368	4512
921.477	4466
921.587	4462
921.697	4375
921.806	4478
921.916	4424
922.025	4299
922.134	4291
922.244	4207
922.353	4314
922.462	4166
922.571	4101
922.68	4029
922.789	3979
922.898	4010
923.007	4006
923.116	4093
923.224	4074
923.333	4105
923.442	3991
923.55	3960
923.659	4002
923.767	4086
923.876	4006
923.984	4112
924.092	3949
924.201	4097
924.309	4059
924.417	4131
924.525	4082
924.633	4082
924.741	5071
924.849	3873
924.956	4116
925.064	3968
925.172	3911
925.279	3964
925.387	4051
925.494	4055
925.602	4219
925.709	4154
925.816	4021
925.924	4135
926.031	4185
926.138	4135
926.245	4154
926.352	4097
926.459	4204
926.566	4325
926.673	4112
926.779	4059
926.886	4097
926.993	3945
927.099	3926
927.206	3880
927.312	3937
927.419	4029
927.525	4055
927.631	4055
927.737	3968
927.843	3960
927.95	3838
928.056	3991
928.162	3975
928.267	4082
928.373	4542
928.479	4101
928.585	3876
928.69	4006
928.796	4055
928.901	3964
929.007	3842
929.112	3983
929.218	3934
929.323	3907
929.428	3899
929.533	4093
929.638	3896
929.743	3964
929.848	4021
929.953	3979
930.058	3903
930.163	3755
930.267	3831
930.372	3968
930.477	3785
930.581	4063
930.685	3884
930.79	3800
930.894	3911
930.998	3804
931.103	4063
931.207	3675
931.311	3675
931.415	3679
931.519	3523
931.623	3530
