Data from test_V78500241_970.txt Node
Date: Fri Mar 25 16:55:44 CST 2022
User: usil
Spectrometer: V785-0024
Trigger mode: 0
Integration Time (sec): 4.000000E-1
Scans to average: 1
Nonlinearity correction enabled: false
Boxcar width: 0
Storing dark spectrum: false
XAxis mode: Wavelengths
Number of Pixels in Spectrum: 1024
>>>>>Begin Spectral Data<<<<<
801.071	8035
801.214	8058
801.356	7906
801.499	7883
801.641	7776
801.783	7776
801.926	7959
802.068	7852
802.211	7894
802.353	7967
802.496	7841
802.638	7833
802.78	7970
802.923	7944
803.065	7898
803.208	7883
803.35	8058
803.492	8096
803.635	8134
803.777	8020
803.919	8149
804.061	8461
804.204	8123
804.346	8065
804.488	7932
804.63	8107
804.773	8001
804.915	8145
805.057	8328
805.199	8107
805.341	8180
805.483	8282
805.626	8183
805.768	8088
805.91	8187
806.052	8168
806.194	8103
806.336	8199
806.478	8069
806.62	8054
806.762	8054
806.904	8206
807.046	8465
807.188	8351
807.33	8324
807.472	8313
807.614	8081
807.756	8130
807.898	8027
808.04	7906
808.182	7864
808.324	7871
808.465	7871
808.607	8088
808.749	8050
808.891	8183
809.033	8225
809.174	8149
809.316	8069
809.458	8123
809.6	7970
809.741	8054
809.883	8008
810.025	8077
810.166	8027
810.308	7997
810.45	8005
810.591	7902
810.733	7727
810.875	7632
811.016	7521
811.158	7495
811.299	7605
811.441	7662
811.582	7681
811.724	7582
811.865	7540
812.007	7567
812.148	7548
812.29	7636
812.431	7655
812.573	7830
812.714	8020
812.855	8065
812.997	8187
813.138	8225
813.279	8138
813.421	8050
813.562	8005
813.703	7860
813.845	7746
813.986	7464
814.127	7331
814.268	7263
814.41	7240
814.551	7095
814.692	7149
814.833	7057
814.974	7034
815.115	7057
815.256	6951
815.397	6901
815.539	6943
815.68	6833
815.821	6760
815.962	6848
816.103	6848
816.244	6669
816.385	6612
816.526	6623
816.666	6513
816.807	6311
816.948	6399
817.089	6448
817.23	6414
817.371	6395
817.512	6433
817.653	6380
817.793	6395
817.934	6407
818.075	6388
818.216	6429
818.356	6384
818.497	6216
818.638	6114
818.778	6106
818.919	6144
819.06	6117
819.2	6346
819.341	6369
819.481	6350
819.622	6467
819.762	6711
819.903	6692
820.043	6616
820.184	6582
820.324	6540
820.465	6711
820.605	6639
820.746	6642
820.886	6532
821.026	6673
821.167	6760
821.307	6802
821.447	6749
821.588	6673
821.728	6616
821.868	6494
822.008	6338
822.149	6380
822.289	6357
822.429	6117
822.569	6053
822.709	6144
822.849	5923
822.99	5908
823.13	5882
823.27	5908
823.41	5802
823.55	5809
823.69	5783
823.83	5710
823.97	5623
824.11	5524
824.25	5493
824.389	5562
824.529	5596
824.669	5520
824.809	5630
824.949	5619
825.089	5589
825.228	5524
825.368	5402
825.508	5307
825.648	5379
825.787	5387
825.927	5387
826.067	5269
826.206	5227
826.346	5379
826.485	5379
826.625	5391
826.765	5589
826.904	5417
827.044	5254
827.183	5189
827.323	5083
827.462	5231
827.601	5151
827.741	5147
827.88	5231
828.02	5083
828.159	5185
828.298	5307
828.437	5341
828.577	5261
828.716	5482
828.855	5364
828.994	5181
829.134	5124
829.273	5208
829.412	5098
829.551	5102
829.69	5170
829.829	5258
829.968	5334
830.107	5231
830.246	5277
830.385	5109
830.524	5132
830.663	5094
830.802	4999
830.941	4934
831.08	4843
831.219	4995
831.357	4923
831.496	5185
831.635	4930
831.774	4816
831.913	4831
832.051	4725
832.19	4714
832.329	4835
832.467	4698
832.606	4603
832.744	4717
832.883	4702
833.022	4725
833.16	4771
833.299	4809
833.437	4805
833.576	4847
833.714	4843
833.852	4877
833.991	4862
834.129	4980
834.267	4946
834.406	4896
834.544	4965
834.682	4991
834.821	4942
834.959	5140
835.097	4991
835.235	5174
835.373	5056
835.511	5155
835.65	5022
835.788	4972
835.926	4881
836.064	4831
836.202	4927
836.34	5170
836.478	5212
836.615	5105
836.753	5181
836.891	5227
837.029	5227
837.167	5193
837.305	5166
837.443	5159
837.58	5048
837.718	5220
837.856	5174
837.993	5143
838.131	5223
838.269	5162
838.406	5109
838.544	5170
838.681	5025
838.819	5029
838.956	4877
839.094	4927
839.231	4946
839.369	5056
839.506	5372
839.643	5280
839.781	4987
839.918	5003
840.055	5113
840.193	5083
840.33	5132
840.467	5140
840.604	5189
840.742	5376
840.879	5094
841.016	5064
841.153	5121
841.29	5318
841.427	5330
841.564	5239
841.701	5368
841.838	5254
841.975	5201
842.112	5265
842.249	5121
842.385	5094
842.522	5265
842.659	5174
842.796	5155
842.933	5166
843.069	5079
843.206	5140
843.343	5242
843.479	5208
843.616	5231
843.752	5033
843.889	5006
844.025	5201
844.162	4995
844.298	5185
844.435	5067
844.571	5006
844.708	5223
844.844	5261
844.98	5372
845.117	5303
845.253	5174
845.389	5071
845.525	5151
845.661	5159
845.798	5048
845.934	5151
846.07	5045
846.206	5151
846.342	5288
846.478	5178
846.614	5018
846.75	4930
846.886	4915
847.022	5132
847.158	5037
847.294	5083
847.429	5102
847.565	5025
847.701	5303
847.837	4820
847.972	4782
848.108	4946
848.244	4915
848.379	4797
848.515	4744
848.65	4736
848.786	4683
848.921	4771
849.057	4892
849.192	4858
849.328	4820
849.463	4847
849.598	4801
849.734	4759
849.869	4668
850.004	4607
850.14	4630
850.275	4588
850.41	4516
850.545	4519
850.68	4550
850.815	4584
850.95	4596
851.085	4831
851.22	4755
851.355	4664
851.49	4611
851.625	4649
851.76	4649
851.895	4561
852.03	4497
852.165	4664
852.299	4694
852.434	4790
852.569	4733
852.703	4763
852.838	4843
852.973	4923
853.107	4892
853.242	4702
853.376	4615
853.511	4546
853.645	4596
853.78	4812
853.914	4668
854.048	4672
854.183	4634
854.317	4660
854.451	4828
854.585	4649
854.72	4573
854.854	4733
854.988	4584
855.122	4588
855.256	4504
855.39	4672
855.524	4752
855.658	4687
855.792	4653
855.926	4729
856.06	4748
856.194	4793
856.327	4691
856.461	4630
856.595	4603
856.729	4596
856.862	4702
856.996	4672
857.13	4755
857.263	4759
857.397	4752
857.53	4630
857.664	4702
857.797	4782
857.931	4771
858.064	4569
858.197	4729
858.331	4592
858.464	4569
858.597	4508
858.731	4622
858.864	4603
858.997	4584
859.13	4656
859.263	4710
859.396	4679
859.529	4580
859.662	4508
859.795	4523
859.928	4660
860.061	4771
860.194	4763
860.327	4603
860.46	4523
860.592	4748
860.725	4694
860.858	4717
860.99	4565
861.123	4538
861.256	4485
861.388	4649
861.521	5227
861.653	4462
861.786	4440
861.918	4451
862.05	4474
862.183	4508
862.315	4565
862.447	4630
862.58	4580
862.712	4383
862.844	4314
862.976	4455
863.108	4436
863.24	4850
863.372	4333
863.504	4424
863.636	4405
863.768	4481
863.9	4443
864.032	4325
864.164	4352
864.296	4478
864.428	4516
864.559	4550
864.691	4538
864.823	4497
864.954	4481
865.086	4493
865.217	4447
865.349	4383
865.48	4417
865.612	4466
865.743	4630
865.875	4409
866.006	4436
866.137	4451
866.269	4451
866.4	4474
866.531	4421
866.662	4402
866.793	4402
866.924	4398
867.055	4466
867.186	4466
867.317	4424
867.448	4356
867.579	4371
867.71	4352
867.841	4348
867.972	4443
868.103	4398
868.233	4451
868.364	4455
868.495	4459
868.625	4664
868.756	4733
868.886	4519
869.017	4622
869.147	4805
869.278	4740
869.408	4641
869.539	4618
869.669	4672
869.799	4714
869.929	4771
870.06	4725
870.19	5003
870.32	4877
870.45	4904
870.58	4991
870.71	5052
870.84	5075
870.97	4908
871.1	4889
871.23	5193
871.36	5117
871.489	5037
871.619	5086
871.749	5083
871.879	5121
872.008	5185
872.138	5052
872.267	4953
872.397	4809
872.526	4778
872.656	4702
872.785	4812
872.915	4953
873.044	5048
873.173	4934
873.303	4896
873.432	4961
873.561	4946
873.69	4919
873.819	4843
873.948	4866
874.077	4774
874.206	4702
874.335	4763
874.464	4904
874.593	5075
874.722	4968
874.851	5083
874.979	5025
875.108	5010
875.237	4870
875.365	4824
875.494	4809
875.623	4972
875.751	4786
875.88	4866
876.008	4965
876.136	5018
876.265	5201
876.393	5254
876.521	5216
876.65	5197
876.778	5147
876.906	5045
877.034	4995
877.162	5041
877.29	4953
877.418	5037
877.546	5071
877.674	5041
877.802	5025
877.93	4961
878.058	4904
878.185	4866
878.313	4946
878.441	4927
878.568	4850
878.696	4892
878.824	4904
878.951	4987
879.079	5105
879.206	5265
879.333	5056
879.461	4934
879.588	4965
879.715	5102
879.842	5216
879.97	5025
880.097	4786
880.224	4721
880.351	4774
880.478	4824
880.605	4782
880.732	4797
880.859	5098
880.986	4911
881.112	4927
881.239	4790
881.366	4672
881.493	4573
881.619	4584
881.746	4641
881.872	4645
881.999	4622
882.125	4694
882.252	4812
882.378	4805
882.505	4961
882.631	4755
882.757	4679
882.883	4679
883.01	4752
883.136	4687
883.262	4634
883.388	4630
883.514	4771
883.64	4835
883.766	4744
883.892	4615
884.018	4664
884.143	4881
884.269	5014
884.395	4691
884.52	4588
884.646	4649
884.772	4558
884.897	4546
885.023	4660
885.148	4786
885.274	4908
885.399	4740
885.524	4740
885.65	4656
885.775	4744
885.9	4748
886.025	4858
886.15	4740
886.275	4679
886.4	4653
886.525	4698
886.65	4656
886.775	4717
886.9	4885
887.025	5033
887.149	4816
887.274	4672
887.399	4519
887.523	4580
887.648	4519
887.773	4550
887.897	4736
888.021	4755
888.146	4656
888.27	4839
888.395	4889
888.519	4771
888.643	4782
888.767	4831
888.891	4656
889.015	4607
889.139	4611
889.263	4554
889.387	4774
889.511	4824
889.635	4748
889.759	4664
889.883	4592
890.006	4733
890.13	4835
890.254	4611
890.377	4687
890.501	4542
890.624	4474
890.748	4645
890.871	4554
890.995	4405
891.118	4348
891.241	4485
891.364	4554
891.488	4611
891.611	4451
891.734	4512
891.857	4584
891.98	4569
892.103	4679
892.226	4546
892.349	4523
892.471	4379
892.594	4512
892.717	4569
892.839	4611
892.962	4588
893.085	4691
893.207	4637
893.33	4459
893.452	4504
893.575	4588
893.697	4569
893.819	4782
893.941	4801
894.064	4820
894.186	4565
894.308	4542
894.43	4714
894.552	4824
894.674	4755
894.796	4538
894.918	4573
895.04	4542
895.161	4736
895.283	4649
895.405	4554
895.526	4615
895.648	4687
895.769	4721
895.891	4679
896.012	4736
896.134	4736
896.255	4660
896.376	4630
896.498	4580
896.619	4687
896.74	4615
896.861	4645
896.982	4904
897.103	5041
897.224	4782
897.345	4778
897.466	4622
897.587	4634
897.708	4850
897.828	4767
897.949	4653
898.07	4584
898.19	4618
898.311	4839
898.431	4618
898.552	4748
898.672	4759
898.792	4816
898.913	4744
899.033	4611
899.153	4504
899.273	4409
899.393	4497
899.513	4489
899.633	4497
899.753	4542
899.873	4474
899.993	4554
900.113	4561
900.232	4561
900.352	4512
900.472	4470
900.591	4348
900.711	4455
900.83	4379
900.95	4592
901.069	4656
901.189	4550
901.308	4386
901.427	4348
901.546	4390
901.665	4417
901.784	4527
901.904	4344
902.023	4314
902.141	4169
902.26	4162
902.379	4268
902.498	4204
902.617	4272
902.735	4390
902.854	4398
902.973	4333
903.091	4147
903.21	4204
903.328	4272
903.446	4268
903.565	4265
903.683	4356
903.801	4238
903.919	4402
904.038	4428
904.156	4306
904.274	4367
904.392	4409
904.51	4440
904.627	4481
904.745	4531
904.863	4653
904.981	4398
905.098	4325
905.216	4356
905.334	4440
905.451	4398
905.569	4436
905.686	4481
905.803	4599
905.921	4405
906.038	4558
906.155	4478
906.272	4360
906.389	4398
906.506	4341
906.623	4375
906.74	4417
906.857	4272
906.974	4367
907.091	4523
907.208	4672
907.324	4569
907.441	4489
907.557	4333
907.674	4341
907.79	4314
907.907	4352
908.023	4451
908.139	4489
908.256	4440
908.372	4455
908.488	4470
908.604	4344
908.72	4325
908.836	4344
908.952	4352
909.068	4421
909.184	4527
909.3	4481
909.415	4603
909.531	4584
909.647	4318
909.762	4363
909.878	4303
909.993	4451
910.108	4386
910.224	4383
910.339	4489
910.454	4363
910.57	4352
910.685	4295
910.8	4607
910.915	4611
911.03	4459
911.145	4329
911.259	4306
911.374	4363
911.489	4291
911.604	4303
911.718	4219
911.833	4204
911.947	4059
912.062	4002
912.176	4200
912.291	4223
912.405	4265
912.519	4424
912.633	4512
912.748	4348
912.862	4291
912.976	4173
913.09	4097
913.204	4227
913.318	4295
913.431	4398
913.545	4329
913.659	4440
913.772	4375
913.886	4249
914	4200
914.113	4390
914.226	4459
914.34	4386
914.453	4238
914.566	4436
914.68	4314
914.793	4303
914.906	4200
915.019	4078
915.132	4063
915.245	4162
915.358	4219
915.47	4249
915.583	4246
915.696	4265
915.809	4383
915.921	4394
916.034	4268
916.146	4257
916.259	4207
916.371	4352
916.483	4363
916.595	4257
916.708	4325
916.82	4310
916.932	4333
917.044	4303
917.156	4322
917.268	4211
917.38	4249
917.491	4246
917.603	4322
917.715	4443
917.826	4394
917.938	4348
918.049	4253
918.161	4363
918.272	4538
918.384	4527
918.495	4481
918.606	4272
918.717	4188
918.828	4314
918.939	4352
919.05	4207
919.161	4360
919.272	4147
919.383	4223
919.494	4424
919.604	4626
919.715	4440
919.826	4333
919.936	4409
920.047	4470
920.157	4474
920.267	4653
920.378	4535
920.488	4531
920.598	4691
920.708	4934
920.818	4763
920.928	4752
921.038	4911
921.148	4896
921.258	4588
921.368	4538
921.477	4470
921.587	4421
921.697	4383
921.806	4573
921.916	4409
922.025	4257
922.134	4215
922.244	4246
922.353	4348
922.462	4166
922.571	4147
922.68	4017
922.789	3926
922.898	4021
923.007	3964
923.116	4097
923.224	4055
923.333	4044
923.442	3998
923.55	3994
923.659	4017
923.767	4105
923.876	3994
923.984	4074
924.092	3964
924.201	4044
924.309	4101
924.417	4150
924.525	4017
924.633	4154
924.741	5014
924.849	3941
924.956	4181
925.064	3941
925.172	3850
925.279	3930
925.387	4044
925.494	4071
925.602	4166
925.709	4188
925.816	4017
925.924	4112
926.031	4257
926.138	4177
926.245	4169
926.352	4017
926.459	4246
926.566	4333
926.673	4139
926.779	4059
926.886	4051
926.993	3956
927.099	3937
927.206	3926
927.312	3926
927.419	4010
927.525	4002
927.631	4116
927.737	3979
927.843	3915
927.95	3812
928.056	3956
928.162	3972
928.267	4093
928.373	4687
928.479	4120
928.585	3880
928.69	4029
928.796	4071
928.901	4002
929.007	3816
929.112	4032
929.218	3972
929.323	3911
929.428	3930
929.533	4063
929.638	3842
929.743	3953
929.848	4032
929.953	3998
930.058	3945
930.163	3781
930.267	3823
930.372	3960
930.477	3827
930.581	4059
930.685	3937
930.79	3857
930.894	3873
930.998	3808
931.103	4013
931.207	3705
931.311	3690
931.415	3675
931.519	3481
931.623	3568
