Data from test_V78500241_246.txt Node
Date: Fri Mar 25 16:50:42 CST 2022
User: usil
Spectrometer: V785-0024
Trigger mode: 0
Integration Time (sec): 4.000000E-1
Scans to average: 1
Nonlinearity correction enabled: false
Boxcar width: 0
Storing dark spectrum: false
XAxis mode: Wavelengths
Number of Pixels in Spectrum: 1024
>>>>>Begin Spectral Data<<<<<
801.071	7982
801.214	8058
801.356	7879
801.499	7879
801.641	7811
801.783	7879
801.926	8046
802.068	7982
802.211	8008
802.353	7989
802.496	7906
802.638	7913
802.78	7925
802.923	7970
803.065	7860
803.208	7799
803.35	7906
803.492	8016
803.635	8126
803.777	7970
803.919	8138
804.061	8480
804.204	8172
804.346	8088
804.488	7982
804.63	8142
804.773	8005
804.915	8046
805.057	8210
805.199	8134
805.341	8233
805.483	8180
805.626	8180
805.768	8111
805.91	8202
806.052	8210
806.194	8168
806.336	8229
806.478	8126
806.62	8027
806.762	8073
806.904	8240
807.046	8442
807.188	8343
807.33	8263
807.472	8320
807.614	8172
807.756	8142
807.898	7986
808.04	7860
808.182	7894
808.324	7883
808.465	7856
808.607	8043
808.749	8115
808.891	8237
809.033	8324
809.174	8271
809.316	8016
809.458	8081
809.6	7940
809.741	7963
809.883	8012
810.025	8027
810.166	8081
810.308	8020
810.45	7959
810.591	7830
810.733	7757
810.875	7734
811.016	7472
811.158	7468
811.299	7613
811.441	7655
811.582	7647
811.724	7495
811.865	7483
812.007	7666
812.148	7594
812.29	7685
812.431	7761
812.573	7818
812.714	7982
812.855	8073
812.997	8214
813.138	8374
813.279	8157
813.421	8039
813.562	8043
813.703	7860
813.845	7776
813.986	7453
814.127	7247
814.268	7247
814.41	7232
814.551	7168
814.692	7160
814.833	7080
814.974	7095
815.115	7110
815.256	6920
815.397	6856
815.539	7008
815.68	6806
815.821	6749
815.962	6818
816.103	6810
816.244	6757
816.385	6616
816.526	6589
816.666	6578
816.807	6350
816.948	6426
817.089	6502
817.23	6460
817.371	6323
817.512	6357
817.653	6327
817.793	6399
817.934	6407
818.075	6445
818.216	6418
818.356	6338
818.497	6197
818.638	6087
818.778	6095
818.919	6098
819.06	6098
819.2	6273
819.341	6331
819.481	6353
819.622	6498
819.762	6688
819.903	6662
820.043	6601
820.184	6559
820.324	6525
820.465	6639
820.605	6597
820.746	6566
820.886	6551
821.026	6627
821.167	6650
821.307	6730
821.447	6768
821.588	6673
821.728	6578
821.868	6509
822.008	6372
822.149	6350
822.289	6372
822.429	6163
822.569	6155
822.709	6129
822.849	5935
822.99	5897
823.13	5992
823.27	5980
823.41	5828
823.55	5828
823.69	5802
823.83	5798
823.97	5699
824.11	5608
824.25	5535
824.389	5619
824.529	5577
824.669	5558
824.809	5722
824.949	5707
825.089	5676
825.228	5623
825.368	5459
825.508	5410
825.648	5410
825.787	5383
825.927	5433
826.067	5364
826.206	5296
826.346	5448
826.485	5459
826.625	5524
826.765	5623
826.904	5532
827.044	5288
827.183	5197
827.323	5170
827.462	5261
827.601	5239
827.741	5216
827.88	5258
828.02	5181
828.159	5315
828.298	5326
828.437	5414
828.577	5353
828.716	5528
828.855	5345
828.994	5212
829.134	5220
829.273	5261
829.412	5208
829.551	5201
829.69	5189
829.829	5280
829.968	5417
830.107	5307
830.246	5341
830.385	5197
830.524	5181
830.663	5117
830.802	5033
830.941	4892
831.08	4946
831.219	5033
831.357	5022
831.496	5235
831.635	4991
831.774	4839
831.913	4881
832.051	4782
832.19	4774
832.329	4896
832.467	4691
832.606	4729
832.744	4786
832.883	4755
833.022	4778
833.16	4812
833.299	4900
833.437	4816
833.576	4847
833.714	4866
833.852	4904
833.991	4923
834.129	4976
834.267	4968
834.406	4927
834.544	5003
834.682	5022
834.821	5033
834.959	5166
835.097	5006
835.235	5227
835.373	5041
835.511	5079
835.65	5102
835.788	5064
835.926	4908
836.064	4923
836.202	4942
836.34	5197
836.478	5265
836.615	5136
836.753	5201
836.891	5345
837.029	5265
837.167	5239
837.305	5193
837.443	5212
837.58	5124
837.718	5254
837.856	5280
837.993	5174
838.131	5265
838.269	5223
838.406	5280
838.544	5159
838.681	5060
838.819	5018
838.956	4908
839.094	4908
839.231	4999
839.369	5113
839.506	5414
839.643	5288
839.781	5033
839.918	5025
840.055	5174
840.193	5136
840.33	5162
840.467	5162
840.604	5235
840.742	5532
840.879	5124
841.016	5102
841.153	5159
841.29	5372
841.427	5334
841.564	5364
841.701	5417
841.838	5265
841.975	5269
842.112	5303
842.249	5151
842.385	5105
842.522	5360
842.659	5201
842.796	5181
842.933	5204
843.069	5174
843.206	5140
843.343	5307
843.479	5258
843.616	5307
843.752	5052
843.889	4987
844.025	5288
844.162	5025
844.298	5265
844.435	5136
844.571	5102
844.708	5208
844.844	5322
844.98	5387
845.117	5307
845.253	5166
845.389	5117
845.525	5128
845.661	5197
845.798	5064
845.934	5174
846.07	5128
846.206	5239
846.342	5299
846.478	5223
846.614	5025
846.75	4987
846.886	5025
847.022	5204
847.158	5064
847.294	5090
847.429	5140
847.565	5102
847.701	5345
847.837	4881
847.972	4828
848.108	4987
848.244	4987
848.379	4790
848.515	4717
848.65	4748
848.786	4816
848.921	4786
849.057	4896
849.192	4900
849.328	4778
849.463	4896
849.598	4774
849.734	4824
849.869	4714
850.004	4683
850.14	4714
850.275	4622
850.41	4573
850.545	4622
850.68	4626
850.815	4694
850.95	4649
851.085	4805
851.22	4797
851.355	4653
851.49	4653
851.625	4687
851.76	4679
851.895	4550
852.03	4569
852.165	4706
852.299	4733
852.434	4774
852.569	4752
852.703	4797
852.838	4953
852.973	4934
853.107	4957
853.242	4786
853.376	4725
853.511	4599
853.645	4637
853.78	4831
853.914	4755
854.048	4729
854.183	4656
854.317	4752
854.451	4915
854.585	4706
854.72	4668
854.854	4736
854.988	4641
855.122	4691
855.256	4561
855.39	4653
855.524	4774
855.658	4744
855.792	4733
855.926	4790
856.06	4774
856.194	4793
856.327	4733
856.461	4645
856.595	4672
856.729	4634
856.862	4744
856.996	4717
857.13	4755
857.263	4809
857.397	4854
857.53	4664
857.664	4717
857.797	4698
857.931	4797
858.064	4721
858.197	4767
858.331	4683
858.464	4645
858.597	4558
858.731	4683
858.864	4660
858.997	4569
859.13	4634
859.263	4706
859.396	4733
859.529	4641
859.662	4577
859.795	4622
859.928	4683
860.061	4774
860.194	4809
860.327	4599
860.46	4603
860.592	4759
860.725	4805
860.858	4778
860.99	4618
861.123	4573
861.256	4558
861.388	4607
861.521	5452
861.653	4497
861.786	4455
861.918	4489
862.05	4565
862.183	4565
862.315	4615
862.447	4660
862.58	4546
862.712	4417
862.844	4371
862.976	4519
863.108	4447
863.24	4908
863.372	4409
863.504	4478
863.636	4428
863.768	4493
863.9	4474
864.032	4363
864.164	4443
864.296	4519
864.428	4558
864.559	4577
864.691	4588
864.823	4565
864.954	4523
865.086	4554
865.217	4500
865.349	4462
865.48	4447
865.612	4527
865.743	4615
865.875	4497
866.006	4493
866.137	4489
866.269	4504
866.4	4443
866.531	4440
866.662	4455
866.793	4390
866.924	4455
867.055	4489
867.186	4470
867.317	4440
867.448	4424
867.579	4413
867.71	4413
867.841	4375
867.972	4428
868.103	4497
868.233	4478
868.364	4459
868.495	4478
868.625	4679
868.756	4797
868.886	4580
869.017	4630
869.147	4786
869.278	4847
869.408	4691
869.539	4706
869.669	4694
869.799	4656
869.929	4793
870.06	4763
870.19	4976
870.32	4946
870.45	4934
870.58	5006
870.71	5181
870.84	5071
870.97	4919
871.1	4870
871.23	5231
871.36	5143
871.489	5052
871.619	5105
871.749	5143
871.879	5117
872.008	5223
872.138	5083
872.267	5052
872.397	4866
872.526	4824
872.656	4729
872.785	4831
872.915	4980
873.044	5022
873.173	4957
873.303	5029
873.432	5003
873.561	4946
873.69	4889
873.819	4873
873.948	4991
874.077	4828
874.206	4790
874.335	4847
874.464	4934
874.593	5117
874.722	4980
874.851	5109
874.979	5079
875.108	5067
875.237	4881
875.365	4915
875.494	4911
875.623	5029
875.751	4862
875.88	4877
876.008	5022
876.136	5052
876.265	5212
876.393	5379
876.521	5280
876.65	5258
876.778	5162
876.906	5056
877.034	5025
877.162	5098
877.29	5006
877.418	5067
877.546	5071
877.674	5060
877.802	5045
877.93	5052
878.058	4984
878.185	4911
878.313	4968
878.441	4984
878.568	4805
878.696	4896
878.824	4946
878.951	5048
879.079	5098
879.206	5303
879.333	5079
879.461	5006
879.588	5010
879.715	5155
879.842	5204
879.97	5003
880.097	4755
880.224	4793
880.351	4862
880.478	4824
880.605	4854
880.732	4831
880.859	5113
880.986	4942
881.112	4927
881.239	4831
881.366	4664
881.493	4653
881.619	4596
881.746	4668
881.872	4679
881.999	4649
882.125	4694
882.252	4767
882.378	4820
882.505	4995
882.631	4820
882.757	4706
882.883	4755
883.01	4725
883.136	4694
883.262	4637
883.388	4626
883.514	4801
883.64	4858
883.766	4816
883.892	4710
884.018	4748
884.143	4904
884.269	5003
884.395	4641
884.52	4634
884.646	4672
884.772	4611
884.897	4580
885.023	4637
885.148	4774
885.274	4877
885.399	4824
885.524	4725
885.65	4729
885.775	4694
885.9	4744
886.025	4911
886.15	4725
886.275	4755
886.4	4725
886.525	4729
886.65	4675
886.775	4736
886.9	4938
887.025	5083
887.149	4831
887.274	4653
887.399	4554
887.523	4672
887.648	4558
887.773	4599
887.897	4774
888.021	4805
888.146	4664
888.27	4835
888.395	4949
888.519	4812
888.643	4820
888.767	4854
888.891	4725
889.015	4622
889.139	4679
889.263	4584
889.387	4797
889.511	4908
889.635	4812
889.759	4679
889.883	4637
890.006	4717
890.13	4812
890.254	4634
890.377	4691
890.501	4573
890.624	4500
890.748	4660
890.871	4489
890.995	4519
891.118	4455
891.241	4519
891.364	4569
891.488	4630
891.611	4542
891.734	4580
891.857	4637
891.98	4561
892.103	4679
892.226	4618
892.349	4599
892.471	4424
892.594	4592
892.717	4611
892.839	4611
892.962	4599
893.085	4672
893.207	4630
893.33	4512
893.452	4523
893.575	4694
893.697	4596
893.819	4790
893.941	4873
894.064	4793
894.186	4618
894.308	4588
894.43	4675
894.552	4850
894.674	4835
894.796	4577
894.918	4630
895.04	4596
895.161	4733
895.283	4679
895.405	4618
895.526	4691
895.648	4721
895.769	4706
895.891	4725
896.012	4733
896.134	4744
896.255	4710
896.376	4691
896.498	4649
896.619	4691
896.74	4637
896.861	4634
896.982	4953
897.103	5094
897.224	4896
897.345	4812
897.466	4630
897.587	4706
897.708	4870
897.828	4828
897.949	4733
898.07	4573
898.19	4660
898.311	4812
898.431	4736
898.552	4786
898.672	4831
898.792	4866
898.913	4755
899.033	4653
899.153	4489
899.273	4485
899.393	4516
899.513	4554
899.633	4523
899.753	4546
899.873	4588
899.993	4596
900.113	4527
900.232	4588
900.352	4527
900.472	4500
900.591	4394
900.711	4504
900.83	4489
900.95	4603
901.069	4698
901.189	4573
901.308	4402
901.427	4329
901.546	4383
901.665	4493
901.784	4497
901.904	4443
902.023	4367
902.141	4215
902.26	4166
902.379	4344
902.498	4261
902.617	4249
902.735	4356
902.854	4421
902.973	4375
903.091	4204
903.21	4242
903.328	4306
903.446	4291
903.565	4265
903.683	4394
903.801	4265
903.919	4428
904.038	4440
904.156	4322
904.274	4474
904.392	4390
904.51	4504
904.627	4466
904.745	4580
904.863	4584
904.981	4432
905.098	4341
905.216	4398
905.334	4447
905.451	4447
905.569	4481
905.686	4565
905.803	4645
905.921	4436
906.038	4561
906.155	4481
906.272	4447
906.389	4512
906.506	4318
906.623	4417
906.74	4428
906.857	4291
906.974	4375
907.091	4535
907.208	4767
907.324	4641
907.441	4497
907.557	4375
907.674	4348
907.79	4367
907.907	4360
908.023	4516
908.139	4523
908.256	4417
908.372	4519
908.488	4474
908.604	4379
908.72	4360
908.836	4363
908.952	4352
909.068	4447
909.184	4580
909.3	4478
909.415	4573
909.531	4599
909.647	4386
909.762	4413
909.878	4371
909.993	4489
910.108	4428
910.224	4459
910.339	4497
910.454	4402
910.57	4360
910.685	4299
910.8	4645
910.915	4596
911.03	4516
911.145	4417
911.259	4371
911.374	4386
911.489	4291
911.604	4303
911.718	4181
911.833	4238
911.947	4051
912.062	4002
912.176	4207
912.291	4287
912.405	4257
912.519	4447
912.633	4512
912.748	4394
912.862	4310
912.976	4242
913.09	4078
913.204	4181
913.318	4306
913.431	4405
913.545	4371
913.659	4455
913.772	4390
913.886	4295
914	4265
914.113	4375
914.226	4413
914.34	4413
914.453	4227
914.566	4428
914.68	4348
914.793	4333
914.906	4166
915.019	4166
915.132	4101
915.245	4188
915.358	4257
915.47	4227
915.583	4242
915.696	4325
915.809	4466
915.921	4462
916.034	4223
916.146	4261
916.259	4227
916.371	4405
916.483	4363
916.595	4276
916.708	4356
916.82	4360
916.932	4356
917.044	4367
917.156	4322
917.268	4284
917.38	4318
917.491	4276
917.603	4333
917.715	4390
917.826	4470
917.938	4360
918.049	4268
918.161	4421
918.272	4519
918.384	4596
918.495	4500
918.606	4284
918.717	4200
918.828	4318
918.939	4413
919.05	4268
919.161	4306
919.272	4120
919.383	4287
919.494	4474
919.604	4626
919.715	4443
919.826	4398
919.936	4440
920.047	4516
920.157	4443
920.267	4687
920.378	4542
920.488	4493
920.598	4782
920.708	4892
920.818	4755
920.928	4805
921.038	4923
921.148	4942
921.258	4569
921.368	4569
921.477	4523
921.587	4451
921.697	4405
921.806	4527
921.916	4424
922.025	4303
922.134	4295
922.244	4185
922.353	4314
922.462	4204
922.571	4158
922.68	4025
922.789	3991
922.898	4074
923.007	4029
923.116	4124
923.224	4093
923.333	4124
923.442	4002
923.55	3987
923.659	3994
923.767	4101
923.876	4017
923.984	4150
924.092	4029
924.201	4097
924.309	4116
924.417	4150
924.525	4082
924.633	4105
924.741	5018
924.849	3930
924.956	4139
925.064	3998
925.172	3892
925.279	3945
925.387	4040
925.494	4112
925.602	4204
925.709	4204
925.816	4071
925.924	4097
926.031	4261
926.138	4200
926.245	4223
926.352	4116
926.459	4268
926.566	4352
926.673	4162
926.779	4124
926.886	4082
926.993	3991
927.099	3956
927.206	3972
927.312	3926
927.419	4082
927.525	4086
927.631	4139
927.737	3979
927.843	3941
927.95	3903
928.056	3960
928.162	3975
928.267	4029
928.373	4584
928.479	4109
928.585	3896
928.69	4048
928.796	4074
928.901	3915
929.007	3880
929.112	3994
929.218	3960
929.323	3945
929.428	3975
929.533	4131
929.638	3934
929.743	3960
929.848	4059
929.953	4010
930.058	3926
930.163	3819
930.267	3861
930.372	3983
930.477	3812
930.581	4071
930.685	3987
930.79	3793
930.894	3880
930.998	3880
931.103	4025
931.207	3701
931.311	3705
931.415	3682
931.519	3530
931.623	3534
