Data from test_V78500241_2307.txt Node
Date: Fri Mar 25 17:05:02 CST 2022
User: usil
Spectrometer: V785-0024
Trigger mode: 0
Integration Time (sec): 4.000000E-1
Scans to average: 1
Nonlinearity correction enabled: false
Boxcar width: 0
Storing dark spectrum: false
XAxis mode: Wavelengths
Number of Pixels in Spectrum: 1024
>>>>>Begin Spectral Data<<<<<
801.071	7997
801.214	8050
801.356	7792
801.499	7772
801.641	7807
801.783	7845
801.926	7913
802.068	7951
802.211	8001
802.353	8039
802.496	7871
802.638	7890
802.78	7818
802.923	7852
803.065	7875
803.208	7909
803.35	7944
803.492	8043
803.635	8229
803.777	8024
803.919	8119
804.061	8495
804.204	8210
804.346	8046
804.488	8001
804.63	8050
804.773	8012
804.915	8111
805.057	8214
805.199	8180
805.341	8172
805.483	8275
805.626	8202
805.768	8138
805.91	8271
806.052	8183
806.194	8084
806.336	8210
806.478	8046
806.62	8081
806.762	8176
806.904	8237
807.046	8404
807.188	8317
807.33	8237
807.472	8313
807.614	8130
807.756	8073
807.898	7989
808.04	7928
808.182	7879
808.324	7913
808.465	7921
808.607	8115
808.749	8100
808.891	8279
809.033	8290
809.174	8218
809.316	8077
809.458	8103
809.6	7928
809.741	8062
809.883	8039
810.025	8134
810.166	8107
810.308	7989
810.45	8016
810.591	7864
810.733	7780
810.875	7742
811.016	7540
811.158	7457
811.299	7514
811.441	7689
811.582	7632
811.724	7582
811.865	7544
812.007	7571
812.148	7548
812.29	7605
812.431	7746
812.573	7849
812.714	7936
812.855	8153
812.997	8202
813.138	8267
813.279	8161
813.421	8020
813.562	7978
813.703	7765
813.845	7788
813.986	7354
814.127	7270
814.268	7194
814.41	7171
814.551	7156
814.692	7228
814.833	7076
814.974	7076
815.115	7114
815.256	6966
815.397	6954
815.539	6947
815.68	6818
815.821	6741
815.962	6875
816.103	6787
816.244	6730
816.385	6608
816.526	6604
816.666	6467
816.807	6380
816.948	6494
817.089	6547
817.23	6479
817.371	6372
817.512	6426
817.653	6380
817.793	6342
817.934	6410
818.075	6437
818.216	6369
818.356	6490
818.497	6258
818.638	6152
818.778	6220
818.919	6152
819.06	6163
819.2	6315
819.341	6361
819.481	6357
819.622	6547
819.762	6734
819.903	6703
820.043	6627
820.184	6589
820.324	6623
820.465	6745
820.605	6627
820.746	6597
820.886	6540
821.026	6658
821.167	6719
821.307	6764
821.447	6791
821.588	6650
821.728	6551
821.868	6517
822.008	6346
822.149	6418
822.289	6407
822.429	6197
822.569	6098
822.709	6106
822.849	5904
822.99	5942
823.13	5973
823.27	5992
823.41	5752
823.55	5813
823.69	5805
823.83	5805
823.97	5680
824.11	5551
824.25	5493
824.389	5535
824.529	5619
824.669	5562
824.809	5649
824.949	5634
825.089	5581
825.228	5573
825.368	5414
825.508	5368
825.648	5349
825.787	5391
825.927	5368
826.067	5299
826.206	5334
826.346	5398
826.485	5402
826.625	5372
826.765	5524
826.904	5486
827.044	5269
827.183	5174
827.323	5075
827.462	5231
827.601	5147
827.741	5216
827.88	5227
828.02	5094
828.159	5231
828.298	5250
828.437	5357
828.577	5288
828.716	5463
828.855	5299
828.994	5147
829.134	5124
829.273	5204
829.412	5113
829.551	5124
829.69	5174
829.829	5254
829.968	5368
830.107	5265
830.246	5326
830.385	5185
830.524	5151
830.663	5029
830.802	4991
830.941	4881
831.08	4881
831.219	4987
831.357	4980
831.496	5128
831.635	4984
831.774	4812
831.913	4831
832.051	4740
832.19	4763
832.329	4835
832.467	4679
832.606	4675
832.744	4683
832.883	4702
833.022	4679
833.16	4809
833.299	4774
833.437	4831
833.576	4843
833.714	4850
833.852	4828
833.991	4892
834.129	4927
834.267	4980
834.406	4923
834.544	4980
834.682	4953
834.821	4976
834.959	5170
835.097	4942
835.235	5140
835.373	5105
835.511	5109
835.65	5060
835.788	5022
835.926	4911
836.064	4873
836.202	4927
836.34	5166
836.478	5223
836.615	5109
836.753	5220
836.891	5299
837.029	5235
837.167	5185
837.305	5147
837.443	5102
837.58	5083
837.718	5265
837.856	5128
837.993	5109
838.131	5258
838.269	5201
838.406	5212
838.544	5193
838.681	4991
838.819	5022
838.956	4889
839.094	4896
839.231	4968
839.369	5052
839.506	5444
839.643	5273
839.781	5056
839.918	5029
840.055	5071
840.193	5102
840.33	5041
840.467	5136
840.604	5140
840.742	5429
840.879	5041
841.016	5060
841.153	5132
841.29	5414
841.427	5318
841.564	5311
841.701	5330
841.838	5292
841.975	5265
842.112	5231
842.249	5132
842.385	5121
842.522	5277
842.659	5174
842.796	5147
842.933	5201
843.069	5147
843.206	5170
843.343	5307
843.479	5269
843.616	5239
843.752	4999
843.889	4980
844.025	5155
844.162	5003
844.298	5220
844.435	5067
844.571	5113
844.708	5159
844.844	5265
844.98	5379
845.117	5299
845.253	5162
845.389	5060
845.525	5193
845.661	5140
845.798	5064
845.934	5113
846.07	5064
846.206	5151
846.342	5277
846.478	5189
846.614	5045
846.75	4972
846.886	4934
847.022	5170
847.158	5006
847.294	5071
847.429	5128
847.565	5060
847.701	5280
847.837	4858
847.972	4744
848.108	4976
848.244	4942
848.379	4778
848.515	4717
848.65	4717
848.786	4725
848.921	4774
849.057	4816
849.192	4854
849.328	4782
849.463	4828
849.598	4774
849.734	4714
849.869	4694
850.004	4618
850.14	4653
850.275	4611
850.41	4538
850.545	4569
850.68	4580
850.815	4607
850.95	4637
851.085	4816
851.22	4744
851.355	4637
851.49	4607
851.625	4580
851.76	4698
851.895	4558
852.03	4516
852.165	4649
852.299	4702
852.434	4733
852.569	4755
852.703	4786
852.838	4793
852.973	4892
853.107	4953
853.242	4767
853.376	4710
853.511	4565
853.645	4622
853.78	4816
853.914	4710
854.048	4660
854.183	4668
854.317	4698
854.451	4892
854.585	4672
854.72	4668
854.854	4725
854.988	4592
855.122	4615
855.256	4550
855.39	4675
855.524	4786
855.658	4729
855.792	4729
855.926	4744
856.06	4755
856.194	4759
856.327	4637
856.461	4618
856.595	4668
856.729	4626
856.862	4710
856.996	4687
857.13	4706
857.263	4710
857.397	4793
857.53	4641
857.664	4706
857.797	4763
857.931	4778
858.064	4710
858.197	4748
858.331	4603
858.464	4611
858.597	4538
858.731	4607
858.864	4634
858.997	4588
859.13	4630
859.263	4664
859.396	4645
859.529	4565
859.662	4569
859.795	4538
859.928	4634
860.061	4774
860.194	4733
860.327	4607
860.46	4550
860.592	4733
860.725	4721
860.858	4706
860.99	4584
861.123	4561
861.256	4535
861.388	4630
861.521	5231
861.653	4470
861.786	4451
861.918	4493
862.05	4519
862.183	4554
862.315	4599
862.447	4660
862.58	4550
862.712	4405
862.844	4390
862.976	4466
863.108	4466
863.24	4889
863.372	4314
863.504	4421
863.636	4447
863.768	4481
863.9	4447
864.032	4394
864.164	4405
864.296	4466
864.428	4546
864.559	4577
864.691	4489
864.823	4470
864.954	4527
865.086	4512
865.217	4432
865.349	4394
865.48	4417
865.612	4470
865.743	4607
865.875	4459
866.006	4447
866.137	4447
866.269	4428
866.4	4478
866.531	4417
866.662	4360
866.793	4413
866.924	4432
867.055	4478
867.186	4443
867.317	4379
867.448	4390
867.579	4367
867.71	4375
867.841	4383
867.972	4466
868.103	4504
868.233	4443
868.364	4443
868.495	4531
868.625	4634
868.756	4755
868.886	4535
869.017	4615
869.147	4748
869.278	4786
869.408	4672
869.539	4584
869.669	4774
869.799	4664
869.929	4717
870.06	4771
870.19	4953
870.32	4892
870.45	4930
870.58	4980
870.71	5045
870.84	5155
870.97	4938
871.1	4877
871.23	5140
871.36	5117
871.489	5022
871.619	5064
871.749	5064
871.879	5105
872.008	5121
872.138	5045
872.267	4972
872.397	4877
872.526	4790
872.656	4710
872.785	4801
872.915	4957
873.044	5029
873.173	4946
873.303	4984
873.432	4976
873.561	4892
873.69	4870
873.819	4885
873.948	4930
874.077	4835
874.206	4812
874.335	4812
874.464	4934
874.593	5071
874.722	4911
874.851	5113
874.979	5064
875.108	5033
875.237	4889
875.365	4870
875.494	4881
875.623	4980
875.751	4786
875.88	4816
876.008	4965
876.136	5060
876.265	5223
876.393	5311
876.521	5216
876.65	5178
876.778	5128
876.906	5086
877.034	5052
877.162	5079
877.29	4980
877.418	5029
877.546	5086
877.674	5090
877.802	5079
877.93	5025
878.058	4930
878.185	4889
878.313	4927
878.441	4896
878.568	4824
878.696	4873
878.824	4968
878.951	5010
879.079	5117
879.206	5280
879.333	5048
879.461	4984
879.588	4984
879.715	5105
879.842	5185
879.97	5006
880.097	4778
880.224	4740
880.351	4797
880.478	4816
880.605	4801
880.732	4805
880.859	5060
880.986	4885
881.112	4889
881.239	4774
881.366	4679
881.493	4653
881.619	4592
881.746	4634
881.872	4569
881.999	4649
882.125	4611
882.252	4759
882.378	4778
882.505	4965
882.631	4809
882.757	4675
882.883	4828
883.01	4767
883.136	4668
883.262	4615
883.388	4645
883.514	4824
883.64	4904
883.766	4812
883.892	4641
884.018	4706
884.143	4915
884.269	5003
884.395	4679
884.52	4592
884.646	4656
884.772	4596
884.897	4527
885.023	4687
885.148	4786
885.274	4896
885.399	4816
885.524	4679
885.65	4687
885.775	4710
885.9	4687
886.025	4870
886.15	4793
886.275	4725
886.4	4645
886.525	4698
886.65	4653
886.775	4672
886.9	4930
887.025	5041
887.149	4782
887.274	4649
887.399	4577
887.523	4615
887.648	4573
887.773	4527
887.897	4725
888.021	4767
888.146	4649
888.27	4820
888.395	4923
888.519	4778
888.643	4809
888.767	4828
888.891	4656
889.015	4611
889.139	4626
889.263	4630
889.387	4801
889.511	4873
889.635	4805
889.759	4611
889.883	4626
890.006	4721
890.13	4812
890.254	4607
890.377	4656
890.501	4508
890.624	4538
890.748	4603
890.871	4527
890.995	4421
891.118	4432
891.241	4531
891.364	4527
891.488	4656
891.611	4466
891.734	4508
891.857	4615
891.98	4542
892.103	4649
892.226	4569
892.349	4512
892.471	4421
892.594	4546
892.717	4538
892.839	4573
892.962	4596
893.085	4675
893.207	4603
893.33	4421
893.452	4508
893.575	4672
893.697	4558
893.819	4797
893.941	4839
894.064	4805
894.186	4565
894.308	4538
894.43	4702
894.552	4782
894.674	4691
894.796	4512
894.918	4565
895.04	4535
895.161	4687
895.283	4664
895.405	4611
895.526	4618
895.648	4672
895.769	4702
895.891	4755
896.012	4729
896.134	4778
896.255	4656
896.376	4622
896.498	4580
896.619	4683
896.74	4626
896.861	4645
896.982	4930
897.103	5056
897.224	4831
897.345	4771
897.466	4656
897.587	4725
897.708	4881
897.828	4744
897.949	4630
898.07	4523
898.19	4683
898.311	4809
898.431	4679
898.552	4702
898.672	4778
898.792	4805
898.913	4736
899.033	4664
899.153	4474
899.273	4462
899.393	4516
899.513	4527
899.633	4512
899.753	4599
899.873	4447
899.993	4588
900.113	4527
900.232	4584
900.352	4519
900.472	4497
900.591	4424
900.711	4485
900.83	4424
900.95	4592
901.069	4675
901.189	4546
901.308	4333
901.427	4329
901.546	4394
901.665	4443
901.784	4519
901.904	4379
902.023	4295
902.141	4196
902.26	4185
902.379	4318
902.498	4242
902.617	4227
902.735	4363
902.854	4413
902.973	4371
903.091	4230
903.21	4192
903.328	4287
903.446	4230
903.565	4257
903.683	4363
903.801	4249
903.919	4371
904.038	4451
904.156	4299
904.274	4478
904.392	4363
904.51	4405
904.627	4451
904.745	4607
904.863	4615
904.981	4386
905.098	4299
905.216	4360
905.334	4386
905.451	4409
905.569	4466
905.686	4546
905.803	4554
905.921	4413
906.038	4588
906.155	4447
906.272	4375
906.389	4474
906.506	4352
906.623	4390
906.74	4398
906.857	4287
906.974	4356
907.091	4558
907.208	4630
907.324	4569
907.441	4516
907.557	4356
907.674	4318
907.79	4333
907.907	4348
908.023	4512
908.139	4417
908.256	4451
908.372	4440
908.488	4421
908.604	4341
908.72	4318
908.836	4371
908.952	4398
909.068	4424
909.184	4584
909.3	4489
909.415	4569
909.531	4573
909.647	4341
909.762	4310
909.878	4337
909.993	4432
910.108	4428
910.224	4451
910.339	4500
910.454	4402
910.57	4322
910.685	4322
910.8	4679
910.915	4561
911.03	4527
911.145	4310
911.259	4299
911.374	4363
911.489	4284
911.604	4284
911.718	4139
911.833	4227
911.947	4082
912.062	4017
912.176	4234
912.291	4257
912.405	4280
912.519	4413
912.633	4527
912.748	4367
912.862	4333
912.976	4219
913.09	4086
913.204	4192
913.318	4272
913.431	4356
913.545	4379
913.659	4390
913.772	4337
913.886	4246
914	4238
914.113	4417
914.226	4447
914.34	4390
914.453	4257
914.566	4455
914.68	4295
914.793	4360
914.906	4150
915.019	4097
915.132	4093
915.245	4162
915.358	4223
915.47	4223
915.583	4276
915.696	4329
915.809	4447
915.921	4405
916.034	4238
916.146	4272
916.259	4230
916.371	4386
916.483	4360
916.595	4299
916.708	4318
916.82	4295
916.932	4318
917.044	4306
917.156	4322
917.268	4207
917.38	4299
917.491	4238
917.603	4352
917.715	4390
917.826	4436
917.938	4284
918.049	4223
918.161	4379
918.272	4508
918.384	4561
918.495	4451
918.606	4253
918.717	4253
918.828	4356
918.939	4383
919.05	4246
919.161	4322
919.272	4143
919.383	4238
919.494	4459
919.604	4634
919.715	4455
919.826	4379
919.936	4413
920.047	4504
920.157	4489
920.267	4725
920.378	4512
920.488	4493
920.598	4691
920.708	4831
920.818	4748
920.928	4793
921.038	4934
921.148	4896
921.258	4592
921.368	4523
921.477	4466
921.587	4485
921.697	4383
921.806	4569
921.916	4398
922.025	4253
922.134	4276
922.244	4207
922.353	4257
922.462	4173
922.571	4147
922.68	3987
922.789	4002
922.898	3994
923.007	3972
923.116	4086
923.224	4074
923.333	4093
923.442	4006
923.55	3991
923.659	3998
923.767	4093
923.876	4017
923.984	4116
924.092	4010
924.201	4063
924.309	4063
924.417	4128
924.525	4048
924.633	4105
924.741	5018
924.849	3918
924.956	4101
925.064	3941
925.172	3918
925.279	3968
925.387	4032
925.494	4040
925.602	4215
925.709	4181
925.816	4017
925.924	4139
926.031	4261
926.138	4154
926.245	4196
926.352	4128
926.459	4249
926.566	4348
926.673	4120
926.779	4036
926.886	4093
926.993	3987
927.099	3945
927.206	3960
927.312	3903
927.419	4067
927.525	4006
927.631	4074
927.737	3945
927.843	3922
927.95	3819
928.056	3960
928.162	3972
928.267	4051
928.373	4714
928.479	4093
928.585	3861
928.69	3987
928.796	4063
928.901	3945
929.007	3869
929.112	3983
929.218	3926
929.323	3934
929.428	3953
929.533	4097
929.638	3888
929.743	3979
929.848	4013
929.953	3987
930.058	3964
930.163	3797
930.267	3812
930.372	3983
930.477	3819
930.581	4078
930.685	3934
930.79	3804
930.894	3888
930.998	3842
931.103	4051
931.207	3724
931.311	3667
931.415	3682
931.519	3515
931.623	3504
