Data from test_V78500241_898.txt Node
Date: Fri Mar 25 16:55:14 CST 2022
User: usil
Spectrometer: V785-0024
Trigger mode: 0
Integration Time (sec): 4.000000E-1
Scans to average: 1
Nonlinearity correction enabled: false
Boxcar width: 0
Storing dark spectrum: false
XAxis mode: Wavelengths
Number of Pixels in Spectrum: 1024
>>>>>Begin Spectral Data<<<<<
801.071	7997
801.214	8016
801.356	7856
801.499	7852
801.641	7822
801.783	7830
801.926	8012
802.068	7925
802.211	7928
802.353	7932
802.496	7841
802.638	7822
802.78	7875
802.923	7928
803.065	7822
803.208	7902
803.35	8016
803.492	8142
803.635	8142
803.777	7967
803.919	8084
804.061	8389
804.204	8176
804.346	8062
804.488	7963
804.63	8058
804.773	8020
804.915	8054
805.057	8221
805.199	8065
805.341	8218
805.483	8271
805.626	8195
805.768	8100
805.91	8187
806.052	8172
806.194	8092
806.336	8233
806.478	8096
806.62	8062
806.762	8195
806.904	8267
807.046	8450
807.188	8320
807.33	8180
807.472	8263
807.614	8115
807.756	8088
807.898	8031
808.04	7963
808.182	7917
808.324	7902
808.465	7921
808.607	8039
808.749	8142
808.891	8191
809.033	8267
809.174	8168
809.316	8043
809.458	8016
809.6	7932
809.741	8005
809.883	8027
810.025	8073
810.166	8027
810.308	8054
810.45	7955
810.591	7868
810.733	7727
810.875	7674
811.016	7510
811.158	7445
811.299	7601
811.441	7677
811.582	7693
811.724	7582
811.865	7476
812.007	7495
812.148	7632
812.29	7613
812.431	7700
812.573	7772
812.714	7917
812.855	8115
812.997	8191
813.138	8286
813.279	8187
813.421	8073
813.562	7967
813.703	7921
813.845	7776
813.986	7483
814.127	7236
814.268	7236
814.41	7122
814.551	7095
814.692	7133
814.833	7023
814.974	7118
815.115	7072
815.256	7004
815.397	6818
815.539	6996
815.68	6844
815.821	6814
815.962	6886
816.103	6692
816.244	6658
816.385	6612
816.526	6582
816.666	6467
816.807	6270
816.948	6357
817.089	6479
817.23	6422
817.371	6391
817.512	6350
817.653	6376
817.793	6350
817.934	6372
818.075	6418
818.216	6391
818.356	6414
818.497	6194
818.638	6068
818.778	6136
818.919	6098
819.06	6117
819.2	6289
819.341	6292
819.481	6391
819.622	6502
819.762	6734
819.903	6642
820.043	6544
820.184	6555
820.324	6532
820.465	6681
820.605	6654
820.746	6612
820.886	6464
821.026	6681
821.167	6639
821.307	6787
821.447	6738
821.588	6597
821.728	6604
821.868	6460
822.008	6292
822.149	6323
822.289	6281
822.429	6148
822.569	6072
822.709	6106
822.849	5931
822.99	5859
823.13	5935
823.27	5920
823.41	5752
823.55	5790
823.69	5684
823.83	5733
823.97	5608
824.11	5516
824.25	5471
824.389	5501
824.529	5554
824.669	5486
824.809	5581
824.949	5634
825.089	5570
825.228	5535
825.368	5383
825.508	5326
825.648	5330
825.787	5330
825.927	5326
826.067	5258
826.206	5258
826.346	5383
826.485	5337
826.625	5402
826.765	5520
826.904	5490
827.044	5269
827.183	5181
827.323	5105
827.462	5201
827.601	5197
827.741	5170
827.88	5174
828.02	5105
828.159	5231
828.298	5265
828.437	5391
828.577	5197
828.716	5493
828.855	5284
828.994	5204
829.134	5147
829.273	5231
829.412	5147
829.551	5117
829.69	5193
829.829	5189
829.968	5398
830.107	5250
830.246	5227
830.385	5159
830.524	5170
830.663	5090
830.802	4961
830.941	4911
831.08	4889
831.219	5025
831.357	4976
831.496	5162
831.635	4953
831.774	4835
831.913	4843
832.051	4698
832.19	4801
832.329	4824
832.467	4733
832.606	4630
832.744	4710
832.883	4774
833.022	4740
833.16	4786
833.299	4793
833.437	4824
833.576	4831
833.714	4862
833.852	4927
833.991	4961
834.129	4980
834.267	4972
834.406	4965
834.544	5048
834.682	5048
834.821	5014
834.959	5162
835.097	5003
835.235	5174
835.373	5102
835.511	5094
835.65	5067
835.788	5064
835.926	4961
836.064	4938
836.202	4934
836.34	5193
836.478	5181
836.615	5181
836.753	5269
836.891	5265
837.029	5296
837.167	5189
837.305	5147
837.443	5140
837.58	5094
837.718	5311
837.856	5216
837.993	5220
838.131	5235
838.269	5261
838.406	5246
838.544	5174
838.681	5064
838.819	5048
838.956	4946
839.094	4927
839.231	4999
839.369	5060
839.506	5493
839.643	5269
839.781	5048
839.918	5064
840.055	5094
840.193	5143
840.33	5128
840.467	5197
840.604	5204
840.742	5463
840.879	5113
841.016	5037
841.153	5193
841.29	5414
841.427	5379
841.564	5326
841.701	5387
841.838	5292
841.975	5299
842.112	5269
842.249	5155
842.385	5155
842.522	5387
842.659	5185
842.796	5201
842.933	5250
843.069	5208
843.206	5193
843.343	5326
843.479	5208
843.616	5303
843.752	5109
843.889	5045
844.025	5235
844.162	5025
844.298	5220
844.435	5094
844.571	5079
844.708	5220
844.844	5311
844.98	5414
845.117	5357
845.253	5174
845.389	5098
845.525	5159
845.661	5159
845.798	5102
845.934	5181
846.07	5079
846.206	5220
846.342	5349
846.478	5208
846.614	5022
846.75	4999
846.886	4976
847.022	5132
847.158	5022
847.294	5083
847.429	5086
847.565	5124
847.701	5334
847.837	4858
847.972	4850
848.108	4957
848.244	4968
848.379	4786
848.515	4763
848.65	4733
848.786	4755
848.921	4797
849.057	4870
849.192	4927
849.328	4790
849.463	4892
849.598	4786
849.734	4805
849.869	4683
850.004	4656
850.14	4664
850.275	4626
850.41	4542
850.545	4577
850.68	4630
850.815	4588
850.95	4584
851.085	4854
851.22	4744
851.355	4740
851.49	4641
851.625	4664
851.76	4672
851.895	4584
852.03	4546
852.165	4710
852.299	4736
852.434	4881
852.569	4748
852.703	4835
852.838	4892
852.973	4965
853.107	4892
853.242	4797
853.376	4725
853.511	4550
853.645	4641
853.78	4828
853.914	4714
854.048	4683
854.183	4675
854.317	4729
854.451	4877
854.585	4687
854.72	4641
854.854	4748
854.988	4641
855.122	4656
855.256	4561
855.39	4717
855.524	4809
855.658	4759
855.792	4687
855.926	4698
856.06	4778
856.194	4782
856.327	4691
856.461	4645
856.595	4679
856.729	4630
856.862	4733
856.996	4763
857.13	4771
857.263	4801
857.397	4820
857.53	4607
857.664	4733
857.797	4809
857.931	4820
858.064	4698
858.197	4797
858.331	4710
858.464	4607
858.597	4516
858.731	4675
858.864	4637
858.997	4615
859.13	4717
859.263	4694
859.396	4717
859.529	4645
859.662	4577
859.795	4565
859.928	4634
860.061	4801
860.194	4782
860.327	4653
860.46	4573
860.592	4687
860.725	4710
860.858	4736
860.99	4596
861.123	4531
861.256	4561
861.388	4618
861.521	5170
861.653	4478
861.786	4474
861.918	4455
862.05	4443
862.183	4607
862.315	4630
862.447	4637
862.58	4569
862.712	4413
862.844	4367
862.976	4504
863.108	4523
863.24	4782
863.372	4352
863.504	4424
863.636	4417
863.768	4497
863.9	4466
864.032	4360
864.164	4447
864.296	4474
864.428	4577
864.559	4573
864.691	4573
864.823	4577
864.954	4516
865.086	4508
865.217	4485
865.349	4428
865.48	4436
865.612	4519
865.743	4645
865.875	4508
866.006	4474
866.137	4500
866.269	4459
866.4	4462
866.531	4462
866.662	4440
866.793	4455
866.924	4440
867.055	4516
867.186	4424
867.317	4413
867.448	4421
867.579	4409
867.71	4428
867.841	4383
867.972	4459
868.103	4443
868.233	4478
868.364	4485
868.495	4546
868.625	4656
868.756	4771
868.886	4611
869.017	4584
869.147	4778
869.278	4801
869.408	4714
869.539	4668
869.669	4748
869.799	4664
869.929	4736
870.06	4759
870.19	4923
870.32	4946
870.45	4953
870.58	5029
870.71	5094
870.84	5166
870.97	4930
871.1	4934
871.23	5204
871.36	5094
871.489	5052
871.619	5109
871.749	5132
871.879	5105
872.008	5235
872.138	5037
872.267	4972
872.397	4843
872.526	4858
872.656	4725
872.785	4801
872.915	4946
873.044	5037
873.173	4980
873.303	4938
873.432	4930
873.561	5025
873.69	4885
873.819	4839
873.948	4904
874.077	4873
874.206	4774
874.335	4835
874.464	4953
874.593	5105
874.722	4999
874.851	5098
874.979	5132
875.108	5105
875.237	4934
875.365	4873
875.494	4873
875.623	4942
875.751	4805
875.88	4877
876.008	5010
876.136	5045
876.265	5181
876.393	5349
876.521	5223
876.65	5212
876.778	5181
876.906	5117
877.034	5056
877.162	5079
877.29	4987
877.418	5048
877.546	5064
877.674	5094
877.802	5006
877.93	5014
878.058	4995
878.185	4847
878.313	5014
878.441	4957
878.568	4824
878.696	4854
878.824	4972
878.951	5041
879.079	5132
879.206	5284
879.333	5147
879.461	5022
879.588	4987
879.715	5147
879.842	5159
879.97	5010
880.097	4812
880.224	4793
880.351	4809
880.478	4870
880.605	4763
880.732	4790
880.859	5132
880.986	4908
881.112	4965
881.239	4793
881.366	4672
881.493	4577
881.619	4618
881.746	4672
881.872	4679
881.999	4691
882.125	4656
882.252	4801
882.378	4862
882.505	4946
882.631	4820
882.757	4687
882.883	4774
883.01	4748
883.136	4717
883.262	4649
883.388	4618
883.514	4828
883.64	4870
883.766	4801
883.892	4679
884.018	4687
884.143	4850
884.269	4961
884.395	4694
884.52	4653
884.646	4626
884.772	4618
884.897	4561
885.023	4660
885.148	4816
885.274	4850
885.399	4843
885.524	4744
885.65	4679
885.775	4752
885.9	4759
886.025	4850
886.15	4793
886.275	4729
886.4	4630
886.525	4736
886.65	4683
886.775	4626
886.9	4942
887.025	5045
887.149	4828
887.274	4645
887.399	4622
887.523	4584
887.648	4615
887.773	4611
887.897	4755
888.021	4778
888.146	4653
888.27	4816
888.395	4934
888.519	4812
888.643	4831
888.767	4816
888.891	4679
889.015	4634
889.139	4653
889.263	4607
889.387	4771
889.511	4889
889.635	4835
889.759	4641
889.883	4645
890.006	4668
890.13	4843
890.254	4607
890.377	4706
890.501	4542
890.624	4512
890.748	4645
890.871	4489
890.995	4440
891.118	4409
891.241	4512
891.364	4546
891.488	4626
891.611	4508
891.734	4542
891.857	4626
891.98	4569
892.103	4683
892.226	4584
892.349	4531
892.471	4417
892.594	4527
892.717	4622
892.839	4542
892.962	4626
893.085	4634
893.207	4611
893.33	4451
893.452	4516
893.575	4634
893.697	4588
893.819	4778
893.941	4805
894.064	4835
894.186	4596
894.308	4630
894.43	4733
894.552	4812
894.674	4740
894.796	4561
894.918	4630
895.04	4603
895.161	4714
895.283	4656
895.405	4561
895.526	4615
895.648	4691
895.769	4675
895.891	4660
896.012	4744
896.134	4725
896.255	4706
896.376	4641
896.498	4561
896.619	4721
896.74	4584
896.861	4675
896.982	4942
897.103	5071
897.224	4885
897.345	4725
897.466	4702
897.587	4721
897.708	4820
897.828	4828
897.949	4687
898.07	4554
898.19	4691
898.311	4820
898.431	4649
898.552	4729
898.672	4831
898.792	4778
898.913	4733
899.033	4668
899.153	4535
899.273	4394
899.393	4519
899.513	4523
899.633	4497
899.753	4497
899.873	4550
899.993	4588
900.113	4523
900.232	4535
900.352	4504
900.472	4470
900.591	4363
900.711	4478
900.83	4485
900.95	4599
901.069	4736
901.189	4569
901.308	4363
901.427	4295
901.546	4348
901.665	4512
901.784	4516
901.904	4363
902.023	4314
902.141	4162
902.26	4131
902.379	4287
902.498	4219
902.617	4196
902.735	4390
902.854	4402
902.973	4390
903.091	4238
903.21	4215
903.328	4322
903.446	4253
903.565	4230
903.683	4360
903.801	4299
903.919	4367
904.038	4402
904.156	4322
904.274	4478
904.392	4348
904.51	4478
904.627	4500
904.745	4618
904.863	4668
904.981	4390
905.098	4287
905.216	4390
905.334	4508
905.451	4436
905.569	4489
905.686	4573
905.803	4622
905.921	4512
906.038	4596
906.155	4493
906.272	4440
906.389	4542
906.506	4367
906.623	4428
906.74	4455
906.857	4371
906.974	4402
907.091	4615
907.208	4687
907.324	4630
907.441	4542
907.557	4390
907.674	4394
907.79	4383
907.907	4413
908.023	4493
908.139	4470
908.256	4497
908.372	4531
908.488	4493
908.604	4363
908.72	4299
908.836	4390
908.952	4432
909.068	4462
909.184	4588
909.3	4519
909.415	4622
909.531	4611
909.647	4371
909.762	4386
909.878	4329
909.993	4485
910.108	4462
910.224	4470
910.339	4508
910.454	4443
910.57	4383
910.685	4413
910.8	4706
910.915	4645
911.03	4535
911.145	4379
911.259	4398
911.374	4428
911.489	4295
911.604	4341
911.718	4204
911.833	4192
911.947	4143
912.062	4074
912.176	4268
912.291	4303
912.405	4314
912.519	4519
912.633	4508
912.748	4421
912.862	4367
912.976	4234
913.09	4177
913.204	4227
913.318	4303
913.431	4440
913.545	4417
913.659	4500
913.772	4379
913.886	4303
914	4215
914.113	4394
914.226	4466
914.34	4436
914.453	4242
914.566	4470
914.68	4333
914.793	4318
914.906	4230
915.019	4181
915.132	4093
915.245	4227
915.358	4287
915.47	4303
915.583	4249
915.696	4322
915.809	4447
915.921	4481
916.034	4314
916.146	4314
916.259	4249
916.371	4402
916.483	4394
916.595	4276
916.708	4356
916.82	4341
916.932	4322
917.044	4352
917.156	4322
917.268	4276
917.38	4303
917.491	4341
917.603	4383
917.715	4493
917.826	4440
917.938	4367
918.049	4284
918.161	4421
918.272	4580
918.384	4550
918.495	4493
918.606	4352
918.717	4272
918.828	4383
918.939	4337
919.05	4272
919.161	4314
919.272	4177
919.383	4284
919.494	4523
919.604	4645
919.715	4462
919.826	4428
919.936	4440
920.047	4512
920.157	4508
920.267	4683
920.378	4569
920.488	4592
920.598	4675
920.708	4911
920.818	4736
920.928	4782
921.038	4946
921.148	4980
921.258	4687
921.368	4577
921.477	4504
921.587	4504
921.697	4394
921.806	4622
921.916	4512
922.025	4322
922.134	4337
922.244	4234
922.353	4405
922.462	4234
922.571	4150
922.68	4021
922.789	3972
922.898	4082
923.007	4025
923.116	4124
923.224	4082
923.333	4120
923.442	4002
923.55	3994
923.659	4048
923.767	4093
923.876	4040
923.984	4147
924.092	4021
924.201	4093
924.309	4124
924.417	4147
924.525	4101
924.633	4055
924.741	4904
924.849	3975
924.956	4128
925.064	3979
925.172	3903
925.279	4013
925.387	4063
925.494	4086
925.602	4234
925.709	4215
925.816	4074
925.924	4181
926.031	4261
926.138	4181
926.245	4257
926.352	4120
926.459	4261
926.566	4325
926.673	4158
926.779	4082
926.886	4071
926.993	3964
927.099	3953
927.206	3968
927.312	3975
927.419	4040
927.525	4044
927.631	4192
927.737	3975
927.843	3975
927.95	3857
928.056	3983
928.162	4021
928.267	4143
928.373	4637
928.479	4143
928.585	3915
928.69	4032
928.796	4124
928.901	3994
929.007	3873
929.112	4025
929.218	4017
929.323	3930
929.428	3983
929.533	4112
929.638	3945
929.743	3956
929.848	4055
929.953	4013
930.058	3960
930.163	3812
930.267	3880
930.372	3975
930.477	3861
930.581	4105
930.685	3953
930.79	3865
930.894	3922
930.998	3911
931.103	4074
931.207	3732
931.311	3732
931.415	3736
931.519	3530
931.623	3584
