Data from test_V78500241_366.txt Node
Date: Fri Mar 25 16:51:32 CST 2022
User: usil
Spectrometer: V785-0024
Trigger mode: 0
Integration Time (sec): 4.000000E-1
Scans to average: 1
Nonlinearity correction enabled: false
Boxcar width: 0
Storing dark spectrum: false
XAxis mode: Wavelengths
Number of Pixels in Spectrum: 1024
>>>>>Begin Spectral Data<<<<<
801.071	8077
801.214	7989
801.356	7921
801.499	7936
801.641	7875
801.783	7845
801.926	7970
802.068	8024
802.211	8031
802.353	8035
802.496	7875
802.638	7890
802.78	7928
802.923	7955
803.065	7883
803.208	7906
803.35	7978
803.492	8024
803.635	8119
803.777	7967
803.919	8123
804.061	8404
804.204	8256
804.346	8039
804.488	7947
804.63	8119
804.773	7963
804.915	8081
805.057	8336
805.199	8214
805.341	8195
805.483	8233
805.626	8153
805.768	8050
805.91	8100
806.052	8214
806.194	8096
806.336	8355
806.478	8077
806.62	8187
806.762	8138
806.904	8244
807.046	8484
807.188	8332
807.33	8244
807.472	8317
807.614	8237
807.756	8176
807.898	8024
808.04	7902
808.182	7871
808.324	7928
808.465	7993
808.607	8115
808.749	8161
808.891	8259
809.033	8263
809.174	8164
809.316	8035
809.458	8069
809.6	8027
809.741	8024
809.883	7982
810.025	8130
810.166	8069
810.308	8130
810.45	8115
810.591	7837
810.733	7761
810.875	7639
811.016	7567
811.158	7472
811.299	7628
811.441	7757
811.582	7780
811.724	7674
811.865	7609
812.007	7658
812.148	7666
812.29	7685
812.431	7875
812.573	7925
812.714	7955
812.855	8187
812.997	8202
813.138	8336
813.279	8191
813.421	8157
813.562	8027
813.703	7894
813.845	7807
813.986	7518
814.127	7373
814.268	7247
814.41	7247
814.551	7209
814.692	7187
814.833	7149
814.974	7084
815.115	7141
815.256	6996
815.397	6939
815.539	6939
815.68	6798
815.821	6821
815.962	6913
816.103	6875
816.244	6783
816.385	6631
816.526	6703
816.666	6540
816.807	6334
816.948	6464
817.089	6490
817.23	6445
817.371	6445
817.512	6384
817.653	6418
817.793	6418
817.934	6403
818.075	6521
818.216	6410
818.356	6429
818.497	6292
818.638	6190
818.778	6175
818.919	6194
819.06	6144
819.2	6262
819.341	6372
819.481	6346
819.622	6574
819.762	6722
819.903	6715
820.043	6551
820.184	6616
820.324	6547
820.465	6703
820.605	6684
820.746	6696
820.886	6547
821.026	6684
821.167	6684
821.307	6856
821.447	6776
821.588	6684
821.728	6623
821.868	6521
822.008	6338
822.149	6403
822.289	6384
822.429	6140
822.569	6095
822.709	6133
822.849	5912
822.99	5912
823.13	5904
823.27	5882
823.41	5779
823.55	5775
823.69	5775
823.83	5824
823.97	5680
824.11	5585
824.25	5528
824.389	5570
824.529	5596
824.669	5467
824.809	5623
824.949	5661
825.089	5623
825.228	5577
825.368	5425
825.508	5372
825.648	5330
825.787	5318
825.927	5372
826.067	5269
826.206	5322
826.346	5353
826.485	5417
826.625	5421
826.765	5520
826.904	5455
827.044	5208
827.183	5178
827.323	5143
827.462	5212
827.601	5155
827.741	5208
827.88	5201
828.02	5136
828.159	5216
828.298	5227
828.437	5326
828.577	5246
828.716	5444
828.855	5330
828.994	5162
829.134	5147
829.273	5189
829.412	5140
829.551	5136
829.69	5121
829.829	5296
829.968	5414
830.107	5239
830.246	5303
830.385	5174
830.524	5174
830.663	5079
830.802	4976
830.941	4934
831.08	4927
831.219	5025
831.357	4980
831.496	5178
831.635	4953
831.774	4892
831.913	4850
832.051	4736
832.19	4752
832.329	4801
832.467	4729
832.606	4649
832.744	4733
832.883	4675
833.022	4698
833.16	4752
833.299	4809
833.437	4858
833.576	4820
833.714	4881
833.852	4839
833.991	4904
834.129	4965
834.267	4949
834.406	4957
834.544	4972
834.682	4961
834.821	4938
834.959	5143
835.097	5018
835.235	5147
835.373	5094
835.511	5128
835.65	5003
835.788	5067
835.926	4919
836.064	4915
836.202	4961
836.34	5235
836.478	5239
836.615	5151
836.753	5216
836.891	5296
837.029	5246
837.167	5208
837.305	5166
837.443	5208
837.58	5060
837.718	5250
837.856	5250
837.993	5159
838.131	5227
838.269	5216
838.406	5261
838.544	5185
838.681	5064
838.819	5006
838.956	4942
839.094	4915
839.231	4984
839.369	5060
839.506	5478
839.643	5250
839.781	5060
839.918	5014
840.055	5086
840.193	5083
840.33	5155
840.467	5109
840.604	5201
840.742	5501
840.879	5090
841.016	5090
841.153	5170
841.29	5421
841.427	5349
841.564	5250
841.701	5368
841.838	5296
841.975	5181
842.112	5239
842.249	5216
842.385	5155
842.522	5315
842.659	5155
842.796	5162
842.933	5181
843.069	5174
843.206	5124
843.343	5326
843.479	5216
843.616	5242
843.752	5033
843.889	5060
844.025	5220
844.162	5025
844.298	5235
844.435	5098
844.571	5090
844.708	5204
844.844	5284
844.98	5357
845.117	5296
845.253	5166
845.389	5029
845.525	5178
845.661	5155
845.798	5132
845.934	5155
846.07	5037
846.206	5212
846.342	5318
846.478	5231
846.614	4984
846.75	4968
846.886	4953
847.022	5159
847.158	5052
847.294	5064
847.429	5098
847.565	5006
847.701	5246
847.837	4915
847.972	4824
848.108	5029
848.244	4957
848.379	4820
848.515	4755
848.65	4714
848.786	4744
848.921	4782
849.057	4862
849.192	4896
849.328	4870
849.463	4828
849.598	4809
849.734	4778
849.869	4683
850.004	4592
850.14	4675
850.275	4645
850.41	4481
850.545	4554
850.68	4584
850.815	4634
850.95	4645
851.085	4805
851.22	4744
851.355	4679
851.49	4615
851.625	4603
851.76	4672
851.895	4554
852.03	4542
852.165	4641
852.299	4729
852.434	4820
852.569	4702
852.703	4748
852.838	4812
852.973	4942
853.107	4908
853.242	4679
853.376	4679
853.511	4546
853.645	4637
853.78	4805
853.914	4710
854.048	4645
854.183	4653
854.317	4702
854.451	4892
854.585	4649
854.72	4664
854.854	4778
854.988	4672
855.122	4649
855.256	4531
855.39	4687
855.524	4824
855.658	4721
855.792	4702
855.926	4687
856.06	4771
856.194	4786
856.327	4702
856.461	4599
856.595	4618
856.729	4580
856.862	4763
856.996	4679
857.13	4736
857.263	4797
857.397	4824
857.53	4649
857.664	4721
857.797	4828
857.931	4744
858.064	4683
858.197	4774
858.331	4630
858.464	4592
858.597	4497
858.731	4607
858.864	4668
858.997	4653
859.13	4622
859.263	4660
859.396	4668
859.529	4607
859.662	4615
859.795	4558
859.928	4656
860.061	4767
860.194	4816
860.327	4607
860.46	4603
860.592	4725
860.725	4767
860.858	4748
860.99	4558
861.123	4500
861.256	4474
861.388	4637
861.521	5318
861.653	4481
861.786	4462
861.918	4474
862.05	4596
862.183	4538
862.315	4599
862.447	4645
862.58	4565
862.712	4470
862.844	4367
862.976	4478
863.108	4508
863.24	4771
863.372	4333
863.504	4367
863.636	4428
863.768	4443
863.9	4428
864.032	4367
864.164	4383
864.296	4512
864.428	4538
864.559	4565
864.691	4500
864.823	4550
864.954	4436
865.086	4523
865.217	4440
865.349	4424
865.48	4405
865.612	4489
865.743	4615
865.875	4470
866.006	4409
866.137	4447
866.269	4443
866.4	4440
866.531	4363
866.662	4421
866.793	4367
866.924	4474
867.055	4493
867.186	4451
867.317	4459
867.448	4356
867.579	4367
867.71	4451
867.841	4405
867.972	4489
868.103	4436
868.233	4466
868.364	4405
868.495	4474
868.625	4660
868.756	4752
868.886	4580
869.017	4618
869.147	4793
869.278	4733
869.408	4626
869.539	4672
869.669	4717
869.799	4664
869.929	4744
870.06	4774
870.19	4946
870.32	4892
870.45	4930
870.58	5010
870.71	5147
870.84	5060
870.97	4984
871.1	4873
871.23	5124
871.36	5128
871.489	5041
871.619	5018
871.749	5105
871.879	5128
872.008	5155
872.138	5060
872.267	4980
872.397	4843
872.526	4797
872.656	4744
872.785	4820
872.915	4953
873.044	5041
873.173	4930
873.303	4927
873.432	4949
873.561	4965
873.69	4892
873.819	4870
873.948	4927
874.077	4809
874.206	4816
874.335	4816
874.464	4934
874.593	5052
874.722	4953
874.851	5102
874.979	5083
875.108	5083
875.237	4953
875.365	4877
875.494	4904
875.623	4980
875.751	4858
875.88	4892
876.008	5010
876.136	5029
876.265	5117
876.393	5376
876.521	5220
876.65	5197
876.778	5204
876.906	5102
877.034	4995
877.162	5037
877.29	4976
877.418	5079
877.546	5014
877.674	5010
877.802	5067
877.93	5006
878.058	4904
878.185	4866
878.313	4953
878.441	4908
878.568	4816
878.696	4896
878.824	4930
878.951	4995
879.079	5098
879.206	5284
879.333	5121
879.461	4980
879.588	5018
879.715	5090
879.842	5174
879.97	4968
880.097	4793
880.224	4755
880.351	4763
880.478	4793
880.605	4752
880.732	4820
880.859	5052
880.986	4923
881.112	4980
881.239	4778
881.366	4714
881.493	4607
881.619	4596
881.746	4660
881.872	4664
881.999	4653
882.125	4660
882.252	4771
882.378	4816
882.505	5006
882.631	4835
882.757	4691
882.883	4721
883.01	4721
883.136	4687
883.262	4618
883.388	4596
883.514	4778
883.64	4850
883.766	4763
883.892	4683
884.018	4729
884.143	4904
884.269	4995
884.395	4702
884.52	4596
884.646	4675
884.772	4645
884.897	4535
885.023	4714
885.148	4790
885.274	4835
885.399	4847
885.524	4733
885.65	4702
885.775	4755
885.9	4740
886.025	4881
886.15	4786
886.275	4714
886.4	4698
886.525	4714
886.65	4702
886.775	4706
886.9	4911
887.025	5056
887.149	4752
887.274	4698
887.399	4596
887.523	4618
887.648	4561
887.773	4622
887.897	4767
888.021	4763
888.146	4687
888.27	4805
888.395	4927
888.519	4824
888.643	4820
888.767	4843
888.891	4649
889.015	4656
889.139	4668
889.263	4645
889.387	4721
889.511	4854
889.635	4824
889.759	4645
889.883	4649
890.006	4759
890.13	4850
890.254	4622
890.377	4748
890.501	4596
890.624	4508
890.748	4630
890.871	4531
890.995	4466
891.118	4462
891.241	4580
891.364	4546
891.488	4683
891.611	4527
891.734	4561
891.857	4626
891.98	4592
892.103	4698
892.226	4679
892.349	4569
892.471	4417
892.594	4607
892.717	4630
892.839	4565
892.962	4672
893.085	4698
893.207	4622
893.33	4489
893.452	4596
893.575	4672
893.697	4588
893.819	4835
893.941	4930
894.064	4828
894.186	4668
894.308	4592
894.43	4809
894.552	4839
894.674	4755
894.796	4615
894.918	4626
895.04	4637
895.161	4725
895.283	4736
895.405	4580
895.526	4729
895.648	4721
895.769	4759
895.891	4755
896.012	4839
896.134	4801
896.255	4679
896.376	4694
896.498	4668
896.619	4763
896.74	4675
896.861	4691
896.982	4984
897.103	5185
897.224	4927
897.345	4809
897.466	4714
897.587	4778
897.708	4889
897.828	4858
897.949	4691
898.07	4580
898.19	4656
898.311	4877
898.431	4725
898.552	4767
898.672	4835
898.792	4839
898.913	4778
899.033	4679
899.153	4535
899.273	4440
899.393	4546
899.513	4573
899.633	4592
899.753	4615
899.873	4577
899.993	4634
900.113	4561
900.232	4611
900.352	4558
900.472	4542
900.591	4440
900.711	4565
900.83	4489
900.95	4668
901.069	4721
901.189	4577
901.308	4379
901.427	4424
901.546	4455
901.665	4546
901.784	4561
901.904	4432
902.023	4367
902.141	4287
902.26	4223
902.379	4360
902.498	4276
902.617	4227
902.735	4356
902.854	4440
902.973	4402
903.091	4280
903.21	4219
903.328	4344
903.446	4341
903.565	4272
903.683	4417
903.801	4333
903.919	4424
904.038	4523
904.156	4352
904.274	4440
904.392	4394
904.51	4478
904.627	4527
904.745	4637
904.863	4653
904.981	4493
905.098	4303
905.216	4409
905.334	4455
905.451	4462
905.569	4451
905.686	4603
905.803	4558
905.921	4455
906.038	4561
906.155	4500
906.272	4443
906.389	4516
906.506	4398
906.623	4466
906.74	4417
906.857	4303
906.974	4443
907.091	4577
907.208	4710
907.324	4630
907.441	4535
907.557	4383
907.674	4367
907.79	4352
907.907	4436
908.023	4531
908.139	4531
908.256	4500
908.372	4523
908.488	4455
908.604	4383
908.72	4379
908.836	4409
908.952	4383
909.068	4459
909.184	4561
909.3	4512
909.415	4637
909.531	4573
909.647	4394
909.762	4383
909.878	4371
909.993	4459
910.108	4447
910.224	4428
910.339	4531
910.454	4447
910.57	4421
910.685	4333
910.8	4683
910.915	4672
911.03	4504
911.145	4371
911.259	4386
911.374	4405
911.489	4367
911.604	4352
911.718	4188
911.833	4246
911.947	4158
912.062	4078
912.176	4242
912.291	4265
912.405	4257
912.519	4500
912.633	4527
912.748	4428
912.862	4348
912.976	4230
913.09	4116
913.204	4196
913.318	4310
913.431	4417
913.545	4432
913.659	4478
913.772	4379
913.886	4249
914	4291
914.113	4466
914.226	4504
914.34	4432
914.453	4280
914.566	4436
914.68	4322
914.793	4383
914.906	4200
915.019	4177
915.132	4128
915.245	4284
915.358	4295
915.47	4257
915.583	4314
915.696	4375
915.809	4466
915.921	4474
916.034	4261
916.146	4314
916.259	4249
916.371	4386
916.483	4424
916.595	4238
916.708	4337
916.82	4329
916.932	4318
917.044	4424
917.156	4375
917.268	4344
917.38	4352
917.491	4306
917.603	4398
917.715	4455
917.826	4481
917.938	4371
918.049	4325
918.161	4451
918.272	4573
918.384	4577
918.495	4424
918.606	4344
918.717	4261
918.828	4360
918.939	4371
919.05	4234
919.161	4337
919.272	4131
919.383	4265
919.494	4481
919.604	4611
919.715	4485
919.826	4379
919.936	4413
920.047	4561
920.157	4527
920.267	4755
920.378	4580
920.488	4554
920.598	4755
920.708	4923
920.818	4778
920.928	4782
921.038	4953
921.148	4938
921.258	4725
921.368	4584
921.477	4565
921.587	4527
921.697	4402
921.806	4611
921.916	4440
922.025	4310
922.134	4318
922.244	4284
922.353	4394
922.462	4200
922.571	4150
922.68	4040
922.789	4032
922.898	4055
923.007	4051
923.116	4109
923.224	4162
923.333	4116
923.442	4017
923.55	3975
923.659	4082
923.767	4169
923.876	4055
923.984	4150
924.092	3994
924.201	4071
924.309	4139
924.417	4204
924.525	4120
924.633	4116
924.741	4900
924.849	3937
924.956	4154
925.064	4006
925.172	3937
925.279	4013
925.387	4105
925.494	4120
925.602	4219
925.709	4204
925.816	4097
925.924	4150
926.031	4238
926.138	4177
926.245	4219
926.352	4139
926.459	4280
926.566	4352
926.673	4143
926.779	4090
926.886	4086
926.993	4006
927.099	3987
927.206	3998
927.312	3964
927.419	4093
927.525	4063
927.631	4116
927.737	3983
927.843	3941
927.95	3911
928.056	3991
928.162	4029
928.267	4109
928.373	4706
928.479	4128
928.585	3896
928.69	4051
928.796	4109
928.901	4002
929.007	3907
929.112	4021
929.218	4006
929.323	3964
929.428	3991
929.533	4131
929.638	3956
929.743	3975
929.848	4044
929.953	4017
930.058	3930
930.163	3808
930.267	3865
930.372	4025
930.477	3857
930.581	4135
930.685	3983
930.79	3873
930.894	3911
930.998	3869
931.103	4036
931.207	3804
931.311	3717
931.415	3709
931.519	3568
931.623	3584
