Data from test_V78500241_1981.txt Node
Date: Fri Mar 25 17:02:46 CST 2022
User: usil
Spectrometer: V785-0024
Trigger mode: 0
Integration Time (sec): 4.000000E-1
Scans to average: 1
Nonlinearity correction enabled: false
Boxcar width: 0
Storing dark spectrum: false
XAxis mode: Wavelengths
Number of Pixels in Spectrum: 1024
>>>>>Begin Spectral Data<<<<<
801.071	7925
801.214	7928
801.356	7822
801.499	7833
801.641	7750
801.783	7849
801.926	7909
802.068	7902
802.211	7959
802.353	7959
802.496	7803
802.638	7841
802.78	7860
802.923	7902
803.065	7799
803.208	7868
803.35	7902
803.492	8073
803.635	8172
803.777	7978
803.919	8084
804.061	8438
804.204	8138
804.346	8035
804.488	7917
804.63	8115
804.773	7993
804.915	8005
805.057	8267
805.199	8145
805.341	8164
805.483	8202
805.626	8126
805.768	8054
805.91	8202
806.052	8172
806.194	8084
806.336	8267
806.478	8077
806.62	8062
806.762	8164
806.904	8240
807.046	8480
807.188	8351
807.33	8305
807.472	8377
807.614	8142
807.756	8149
807.898	7982
808.04	7826
808.182	7909
808.324	7944
808.465	7890
808.607	8046
808.749	8065
808.891	8130
809.033	8294
809.174	8149
809.316	8027
809.458	8081
809.6	8031
809.741	8001
809.883	7986
810.025	8081
810.166	8077
810.308	8024
810.45	7993
810.591	7852
810.733	7757
810.875	7620
811.016	7540
811.158	7514
811.299	7567
811.441	7693
811.582	7636
811.724	7529
811.865	7552
812.007	7537
812.148	7548
812.29	7609
812.431	7734
812.573	7906
812.714	7932
812.855	8081
812.997	8187
813.138	8298
813.279	8115
813.421	8138
813.562	7849
813.703	7837
813.845	7715
813.986	7468
814.127	7240
814.268	7206
814.41	7198
814.551	7099
814.692	7236
814.833	7084
814.974	7107
815.115	7114
815.256	7042
815.397	6935
815.539	7000
815.68	6833
815.821	6768
815.962	6890
816.103	6772
816.244	6658
816.385	6631
816.526	6608
816.666	6426
816.807	6292
816.948	6486
817.089	6464
817.23	6380
817.371	6365
817.512	6391
817.653	6350
817.793	6342
817.934	6357
818.075	6490
818.216	6369
818.356	6429
818.497	6254
818.638	6136
818.778	6148
818.919	6114
819.06	6175
819.2	6369
819.341	6292
819.481	6365
819.622	6525
819.762	6760
819.903	6696
820.043	6650
820.184	6540
820.324	6566
820.465	6722
820.605	6608
820.746	6662
820.886	6467
821.026	6620
821.167	6673
821.307	6821
821.447	6768
821.588	6608
821.728	6547
821.868	6509
822.008	6292
822.149	6410
822.289	6338
822.429	6182
822.569	6053
822.709	6159
822.849	5931
822.99	5885
823.13	5893
823.27	5942
823.41	5783
823.55	5756
823.69	5752
823.83	5756
823.97	5604
824.11	5493
824.25	5512
824.389	5596
824.529	5581
824.669	5528
824.809	5608
824.949	5680
825.089	5600
825.228	5577
825.368	5402
825.508	5334
825.648	5337
825.787	5357
825.927	5341
826.067	5307
826.206	5280
826.346	5425
826.485	5364
826.625	5414
826.765	5524
826.904	5490
827.044	5216
827.183	5166
827.323	5124
827.462	5246
827.601	5159
827.741	5132
827.88	5227
828.02	5147
828.159	5193
828.298	5334
828.437	5326
828.577	5235
828.716	5425
828.855	5360
828.994	5208
829.134	5136
829.273	5189
829.412	5185
829.551	5132
829.69	5159
829.829	5261
829.968	5387
830.107	5288
830.246	5277
830.385	5174
830.524	5098
830.663	5033
830.802	4984
830.941	4927
831.08	4908
831.219	5003
831.357	4957
831.496	5117
831.635	4904
831.774	4854
831.913	4847
832.051	4717
832.19	4740
832.329	4790
832.467	4706
832.606	4615
832.744	4729
832.883	4714
833.022	4706
833.16	4759
833.299	4797
833.437	4839
833.576	4843
833.714	4847
833.852	4877
833.991	4881
834.129	4915
834.267	4946
834.406	4915
834.544	4957
834.682	4965
834.821	4976
834.959	5113
835.097	4949
835.235	5185
835.373	5045
835.511	5140
835.65	5018
835.788	5025
835.926	4850
836.064	4930
836.202	4904
836.34	5124
836.478	5235
836.615	5098
836.753	5189
836.891	5273
837.029	5296
837.167	5178
837.305	5159
837.443	5037
837.58	5067
837.718	5250
837.856	5208
837.993	5174
838.131	5231
838.269	5166
838.406	5189
838.544	5178
838.681	5018
838.819	4995
838.956	4892
839.094	4900
839.231	4980
839.369	5067
839.506	5383
839.643	5242
839.781	5029
839.918	4976
840.055	5098
840.193	5094
840.33	5045
840.467	5178
840.604	5170
840.742	5440
840.879	5090
841.016	5090
841.153	5170
841.29	5372
841.427	5379
841.564	5280
841.701	5364
841.838	5235
841.975	5216
842.112	5208
842.249	5113
842.385	5075
842.522	5326
842.659	5216
842.796	5140
842.933	5189
843.069	5086
843.206	5136
843.343	5288
843.479	5239
843.616	5220
843.752	5075
843.889	5006
844.025	5201
844.162	5048
844.298	5189
844.435	5083
844.571	5029
844.708	5147
844.844	5265
844.98	5277
845.117	5322
845.253	5174
845.389	5117
845.525	5124
845.661	5109
845.798	5006
845.934	5181
846.07	5003
846.206	5220
846.342	5299
846.478	5178
846.614	5067
846.75	4987
846.886	4919
847.022	5113
847.158	5067
847.294	5041
847.429	5022
847.565	5098
847.701	5277
847.837	4881
847.972	4816
848.108	4915
848.244	4919
848.379	4797
848.515	4706
848.65	4706
848.786	4672
848.921	4759
849.057	4873
849.192	4919
849.328	4786
849.463	4873
849.598	4740
849.734	4786
849.869	4710
850.004	4637
850.14	4679
850.275	4603
850.41	4531
850.545	4561
850.68	4611
850.815	4622
850.95	4622
851.085	4828
851.22	4755
851.355	4664
851.49	4641
851.625	4634
851.76	4599
851.895	4561
852.03	4523
852.165	4641
852.299	4736
852.434	4805
852.569	4733
852.703	4809
852.838	4797
852.973	4934
853.107	4934
853.242	4744
853.376	4641
853.511	4596
853.645	4611
853.78	4790
853.914	4683
854.048	4679
854.183	4599
854.317	4656
854.451	4835
854.585	4687
854.72	4615
854.854	4736
854.988	4626
855.122	4698
855.256	4481
855.39	4622
855.524	4752
855.658	4759
855.792	4717
855.926	4736
856.06	4748
856.194	4786
856.327	4687
856.461	4596
856.595	4630
856.729	4634
856.862	4763
856.996	4691
857.13	4694
857.263	4744
857.397	4839
857.53	4611
857.664	4748
857.797	4748
857.931	4759
858.064	4714
858.197	4698
858.331	4653
858.464	4580
858.597	4558
858.731	4599
858.864	4596
858.997	4611
859.13	4675
859.263	4630
859.396	4694
859.529	4565
859.662	4523
859.795	4516
859.928	4603
860.061	4759
860.194	4782
860.327	4603
860.46	4523
860.592	4694
860.725	4694
860.858	4664
860.99	4622
861.123	4519
861.256	4531
861.388	4580
861.521	5155
861.653	4489
861.786	4428
861.918	4432
862.05	4497
862.183	4466
862.315	4561
862.447	4649
862.58	4565
862.712	4394
862.844	4348
862.976	4497
863.108	4481
863.24	4771
863.372	4284
863.504	4432
863.636	4455
863.768	4478
863.9	4466
864.032	4352
864.164	4451
864.296	4459
864.428	4531
864.559	4546
864.691	4527
864.823	4523
864.954	4485
865.086	4451
865.217	4447
865.349	4413
865.48	4478
865.612	4470
865.743	4607
865.875	4489
866.006	4432
866.137	4455
866.269	4398
866.4	4424
866.531	4443
866.662	4398
866.793	4394
866.924	4455
867.055	4512
867.186	4428
867.317	4413
867.448	4318
867.579	4428
867.71	4424
867.841	4333
867.972	4504
868.103	4455
868.233	4451
868.364	4470
868.495	4538
868.625	4656
868.756	4793
868.886	4580
869.017	4668
869.147	4767
869.278	4740
869.408	4653
869.539	4653
869.669	4706
869.799	4672
869.929	4721
870.06	4710
870.19	4949
870.32	4968
870.45	4934
870.58	5003
870.71	5109
870.84	5136
870.97	4919
871.1	4835
871.23	5178
871.36	5128
871.489	5022
871.619	5037
871.749	5132
871.879	5102
872.008	5151
872.138	5064
872.267	4995
872.397	4870
872.526	4854
872.656	4752
872.785	4820
872.915	4957
873.044	5029
873.173	4904
873.303	4968
873.432	4965
873.561	5029
873.69	4843
873.819	4896
873.948	4885
874.077	4812
874.206	4767
874.335	4752
874.464	4919
874.593	5071
874.722	4953
874.851	5105
874.979	5022
875.108	5048
875.237	4930
875.365	4866
875.494	4892
875.623	4957
875.751	4820
875.88	4843
876.008	4953
876.136	5037
876.265	5223
876.393	5315
876.521	5284
876.65	5223
876.778	5170
876.906	5094
877.034	5010
877.162	4995
877.29	4938
877.418	5041
877.546	5003
877.674	5052
877.802	5052
877.93	5010
878.058	4957
878.185	4809
878.313	4965
878.441	4946
878.568	4835
878.696	4850
878.824	4965
878.951	4980
879.079	5105
879.206	5296
879.333	5098
879.461	4999
879.588	4942
879.715	5105
879.842	5265
879.97	5041
880.097	4759
880.224	4755
880.351	4797
880.478	4816
880.605	4801
880.732	4725
880.859	5124
880.986	4919
881.112	4908
881.239	4805
881.366	4702
881.493	4603
881.619	4622
881.746	4554
881.872	4637
881.999	4584
882.125	4687
882.252	4733
882.378	4816
882.505	4972
882.631	4801
882.757	4630
882.883	4706
883.01	4752
883.136	4664
883.262	4558
883.388	4641
883.514	4793
883.64	4839
883.766	4759
883.892	4649
884.018	4729
884.143	4911
884.269	4961
884.395	4679
884.52	4584
884.646	4599
884.772	4565
884.897	4599
885.023	4668
885.148	4767
885.274	4847
885.399	4850
885.524	4721
885.65	4664
885.775	4767
885.9	4710
886.025	4835
886.15	4797
886.275	4679
886.4	4615
886.525	4683
886.65	4679
886.775	4664
886.9	4942
887.025	5014
887.149	4809
887.274	4691
887.399	4497
887.523	4599
887.648	4569
887.773	4615
887.897	4778
888.021	4782
888.146	4691
888.27	4793
888.395	4828
888.519	4850
888.643	4816
888.767	4854
888.891	4675
889.015	4569
889.139	4584
889.263	4569
889.387	4793
889.511	4870
889.635	4786
889.759	4615
889.883	4641
890.006	4710
890.13	4839
890.254	4641
890.377	4622
890.501	4527
890.624	4538
890.748	4664
890.871	4504
890.995	4466
891.118	4413
891.241	4497
891.364	4603
891.488	4584
891.611	4519
891.734	4527
891.857	4599
891.98	4546
892.103	4626
892.226	4599
892.349	4584
892.471	4386
892.594	4538
892.717	4596
892.839	4531
892.962	4580
893.085	4618
893.207	4607
893.33	4462
893.452	4519
893.575	4641
893.697	4538
893.819	4786
893.941	4816
894.064	4748
894.186	4603
894.308	4527
894.43	4721
894.552	4839
894.674	4771
894.796	4561
894.918	4592
895.04	4546
895.161	4645
895.283	4683
895.405	4527
895.526	4634
895.648	4653
895.769	4687
895.891	4733
896.012	4729
896.134	4706
896.255	4584
896.376	4634
896.498	4641
896.619	4653
896.74	4584
896.861	4645
896.982	4976
897.103	5079
897.224	4843
897.345	4759
897.466	4683
897.587	4702
897.708	4915
897.828	4748
897.949	4679
898.07	4554
898.19	4626
898.311	4801
898.431	4675
898.552	4748
898.672	4790
898.792	4820
898.913	4752
899.033	4558
899.153	4516
899.273	4424
899.393	4527
899.513	4542
899.633	4546
899.753	4500
899.873	4558
899.993	4588
900.113	4504
900.232	4588
900.352	4527
900.472	4500
900.591	4390
900.711	4512
900.83	4348
900.95	4580
901.069	4641
901.189	4550
901.308	4322
901.427	4310
901.546	4344
901.665	4455
901.784	4580
901.904	4398
902.023	4322
902.141	4204
902.26	4181
902.379	4318
902.498	4272
902.617	4188
902.735	4360
902.854	4375
902.973	4356
903.091	4219
903.21	4276
903.328	4299
903.446	4268
903.565	4280
903.683	4314
903.801	4253
903.919	4402
904.038	4462
904.156	4303
904.274	4436
904.392	4390
904.51	4447
904.627	4459
904.745	4565
904.863	4592
904.981	4356
905.098	4306
905.216	4367
905.334	4383
905.451	4459
905.569	4447
905.686	4519
905.803	4531
905.921	4421
906.038	4527
906.155	4478
906.272	4432
906.389	4432
906.506	4333
906.623	4363
906.74	4413
906.857	4306
906.974	4402
907.091	4546
907.208	4637
907.324	4596
907.441	4561
907.557	4341
907.674	4322
907.79	4325
907.907	4428
908.023	4432
908.139	4459
908.256	4405
908.372	4470
908.488	4432
908.604	4379
908.72	4257
908.836	4371
908.952	4344
909.068	4398
909.184	4554
909.3	4478
909.415	4573
909.531	4558
909.647	4367
909.762	4363
909.878	4341
909.993	4428
910.108	4424
910.224	4443
910.339	4489
910.454	4417
910.57	4348
910.685	4299
910.8	4622
910.915	4637
911.03	4489
911.145	4329
911.259	4322
911.374	4360
911.489	4238
911.604	4246
911.718	4150
911.833	4204
911.947	4082
912.062	4029
912.176	4192
912.291	4196
912.405	4257
912.519	4462
912.633	4466
912.748	4375
912.862	4303
912.976	4246
913.09	4090
913.204	4147
913.318	4272
913.431	4344
913.545	4371
913.659	4462
913.772	4333
913.886	4261
914	4242
914.113	4409
914.226	4451
914.34	4356
914.453	4234
914.566	4398
914.68	4257
914.793	4284
914.906	4177
915.019	4143
915.132	4032
915.245	4166
915.358	4185
915.47	4268
915.583	4246
915.696	4333
915.809	4436
915.921	4428
916.034	4280
916.146	4223
916.259	4207
916.371	4428
916.483	4352
916.595	4272
916.708	4329
916.82	4310
916.932	4352
917.044	4310
917.156	4280
917.268	4219
917.38	4287
917.491	4280
917.603	4367
917.715	4409
917.826	4402
917.938	4322
918.049	4287
918.161	4398
918.272	4527
918.384	4546
918.495	4447
918.606	4306
918.717	4249
918.828	4299
918.939	4352
919.05	4253
919.161	4371
919.272	4154
919.383	4185
919.494	4451
919.604	4580
919.715	4413
919.826	4375
919.936	4405
920.047	4565
920.157	4470
920.267	4710
920.378	4573
920.488	4489
920.598	4694
920.708	4896
920.818	4721
920.928	4793
921.038	4953
921.148	4949
921.258	4615
921.368	4569
921.477	4474
921.587	4405
921.697	4375
921.806	4500
921.916	4436
922.025	4265
922.134	4257
922.244	4207
922.353	4348
922.462	4158
922.571	4120
922.68	4013
922.789	3983
922.898	4051
923.007	4017
923.116	4082
923.224	4074
923.333	4017
923.442	3979
923.55	4021
923.659	4029
923.767	4097
923.876	4013
923.984	4112
924.092	3983
924.201	4078
924.309	4063
924.417	4112
924.525	4059
924.633	4067
924.741	4995
924.849	3888
924.956	4124
925.064	3907
925.172	3865
925.279	3937
925.387	4055
925.494	4040
925.602	4188
925.709	4120
925.816	4040
925.924	4090
926.031	4230
926.138	4166
926.245	4188
926.352	4105
926.459	4284
926.566	4276
926.673	4128
926.779	4048
926.886	4044
926.993	3953
927.099	3926
927.206	3949
927.312	3915
927.419	4055
927.525	4059
927.631	4131
927.737	3987
927.843	3956
927.95	3831
928.056	3945
928.162	4013
928.267	4032
928.373	4531
928.479	4097
928.585	3899
928.69	4036
928.796	4029
928.901	3991
929.007	3850
929.112	3987
929.218	4010
929.323	3892
929.428	3922
929.533	4112
929.638	3918
929.743	3949
929.848	4074
929.953	3979
930.058	3915
930.163	3812
930.267	3812
930.372	3983
930.477	3816
930.581	4048
930.685	3956
930.79	3781
930.894	3896
930.998	3835
931.103	4029
931.207	3713
931.311	3671
931.415	3690
931.519	3504
931.623	3572
