Data from test_V78500241_875.txt Node
Date: Fri Mar 25 16:55:05 CST 2022
User: usil
Spectrometer: V785-0024
Trigger mode: 0
Integration Time (sec): 4.000000E-1
Scans to average: 1
Nonlinearity correction enabled: false
Boxcar width: 0
Storing dark spectrum: false
XAxis mode: Wavelengths
Number of Pixels in Spectrum: 1024
>>>>>Begin Spectral Data<<<<<
801.071	8039
801.214	7887
801.356	7883
801.499	7894
801.641	7822
801.783	7761
801.926	8008
802.068	7894
802.211	7921
802.353	7890
802.496	7852
802.638	7852
802.78	7871
802.923	7868
803.065	7822
803.208	7830
803.35	8035
803.492	8134
803.635	8145
803.777	8027
803.919	8142
804.061	8366
804.204	8077
804.346	7963
804.488	7955
804.63	8138
804.773	8043
804.915	8039
805.057	8180
805.199	8142
805.341	8183
805.483	8202
805.626	8161
805.768	8092
805.91	8210
806.052	8164
806.194	8054
806.336	8229
806.478	8107
806.62	8073
806.762	8100
806.904	8218
807.046	8396
807.188	8301
807.33	8339
807.472	8313
807.614	8119
807.756	8123
807.898	7997
808.04	7902
808.182	7894
808.324	7879
808.465	7913
808.607	8100
808.749	8062
808.891	8161
809.033	8355
809.174	8229
809.316	8058
809.458	8039
809.6	7978
809.741	7986
809.883	8062
810.025	8077
810.166	7936
810.308	7967
810.45	7982
810.591	7864
810.733	7742
810.875	7677
811.016	7445
811.158	7441
811.299	7548
811.441	7700
811.582	7613
811.724	7613
811.865	7540
812.007	7571
812.148	7613
812.29	7632
812.431	7750
812.573	7879
812.714	8012
812.855	8073
812.997	8111
813.138	8263
813.279	8221
813.421	8130
813.562	8050
813.703	7879
813.845	7879
813.986	7422
814.127	7297
814.268	7164
814.41	7160
814.551	7118
814.692	7103
814.833	6996
814.974	7072
815.115	7065
815.256	6916
815.397	6947
815.539	6878
815.68	6825
815.821	6825
815.962	6863
816.103	6802
816.244	6715
816.385	6604
816.526	6608
816.666	6479
816.807	6311
816.948	6407
817.089	6517
817.23	6429
817.371	6338
817.512	6441
817.653	6384
817.793	6350
817.934	6327
818.075	6369
818.216	6304
818.356	6353
818.497	6209
818.638	6049
818.778	6098
818.919	6095
819.06	6110
819.2	6258
819.341	6319
819.481	6334
819.622	6513
819.762	6745
819.903	6681
820.043	6597
820.184	6532
820.324	6612
820.465	6700
820.605	6639
820.746	6593
820.886	6502
821.026	6627
821.167	6623
821.307	6741
821.447	6711
821.588	6616
821.728	6563
821.868	6460
822.008	6311
822.149	6331
822.289	6292
822.429	6087
822.569	6117
822.709	6064
822.849	5859
822.99	5847
823.13	5912
823.27	5885
823.41	5726
823.55	5718
823.69	5764
823.83	5771
823.97	5707
824.11	5490
824.25	5509
824.389	5509
824.529	5589
824.669	5581
824.809	5619
824.949	5726
825.089	5562
825.228	5592
825.368	5353
825.508	5318
825.648	5334
825.787	5337
825.927	5364
826.067	5307
826.206	5315
826.346	5353
826.485	5414
826.625	5360
826.765	5570
826.904	5474
827.044	5277
827.183	5185
827.323	5086
827.462	5201
827.601	5174
827.741	5155
827.88	5185
828.02	5121
828.159	5265
828.298	5299
828.437	5337
828.577	5254
828.716	5505
828.855	5280
828.994	5155
829.134	5086
829.273	5212
829.412	5132
829.551	5109
829.69	5105
829.829	5223
829.968	5353
830.107	5315
830.246	5231
830.385	5151
830.524	5086
830.663	5060
830.802	4953
830.941	4854
831.08	4877
831.219	4961
831.357	4949
831.496	5113
831.635	4923
831.774	4809
831.913	4892
832.051	4706
832.19	4733
832.329	4820
832.467	4744
832.606	4634
832.744	4687
832.883	4725
833.022	4714
833.16	4767
833.299	4820
833.437	4824
833.576	4801
833.714	4805
833.852	4870
833.991	4889
834.129	4904
834.267	5006
834.406	4965
834.544	4961
834.682	4984
834.821	4942
834.959	5162
835.097	4972
835.235	5117
835.373	5064
835.511	5083
835.65	5003
835.788	4938
835.926	4885
836.064	4904
836.202	4927
836.34	5166
836.478	5201
836.615	5086
836.753	5121
836.891	5258
837.029	5246
837.167	5239
837.305	5159
837.443	5128
837.58	5064
837.718	5250
837.856	5181
837.993	5174
838.131	5216
838.269	5242
838.406	5124
838.544	5143
838.681	5022
838.819	4999
838.956	4881
839.094	4896
839.231	4961
839.369	5117
839.506	5444
839.643	5265
839.781	5033
839.918	5014
840.055	5079
840.193	5052
840.33	5105
840.467	5098
840.604	5162
840.742	5448
840.879	5067
841.016	5041
841.153	5136
841.29	5379
841.427	5406
841.564	5318
841.701	5353
841.838	5265
841.975	5273
842.112	5242
842.249	5109
842.385	5075
842.522	5330
842.659	5189
842.796	5151
842.933	5162
843.069	5140
843.206	5128
843.343	5258
843.479	5193
843.616	5223
843.752	5052
843.889	4965
844.025	5223
844.162	4976
844.298	5246
844.435	5064
844.571	4987
844.708	5204
844.844	5307
844.98	5311
845.117	5311
845.253	5162
845.389	5029
845.525	5155
845.661	5105
845.798	5022
845.934	5147
846.07	5045
846.206	5216
846.342	5231
846.478	5128
846.614	4995
846.75	4915
846.886	4930
847.022	5140
847.158	4995
847.294	5060
847.429	5113
847.565	5033
847.701	5303
847.837	4805
847.972	4752
848.108	4949
848.244	4911
848.379	4759
848.515	4679
848.65	4675
848.786	4694
848.921	4752
849.057	4847
849.192	4854
849.328	4759
849.463	4850
849.598	4782
849.734	4675
849.869	4694
850.004	4615
850.14	4603
850.275	4546
850.41	4542
850.545	4512
850.68	4607
850.815	4599
850.95	4588
851.085	4824
851.22	4687
851.355	4698
851.49	4603
851.625	4607
851.76	4607
851.895	4519
852.03	4497
852.165	4630
852.299	4717
852.434	4771
852.569	4752
852.703	4717
852.838	4812
852.973	4949
853.107	4858
853.242	4725
853.376	4664
853.511	4500
853.645	4607
853.78	4767
853.914	4714
854.048	4645
854.183	4637
854.317	4672
854.451	4809
854.585	4672
854.72	4649
854.854	4736
854.988	4561
855.122	4626
855.256	4462
855.39	4656
855.524	4778
855.658	4664
855.792	4702
855.926	4691
856.06	4755
856.194	4805
856.327	4694
856.461	4653
856.595	4577
856.729	4607
856.862	4744
856.996	4683
857.13	4748
857.263	4782
857.397	4793
857.53	4645
857.664	4721
857.797	4729
857.931	4771
858.064	4687
858.197	4694
858.331	4588
858.464	4584
858.597	4538
858.731	4615
858.864	4634
858.997	4550
859.13	4634
859.263	4637
859.396	4687
859.529	4577
859.662	4554
859.795	4504
859.928	4637
860.061	4752
860.194	4752
860.327	4615
860.46	4531
860.592	4679
860.725	4710
860.858	4672
860.99	4527
861.123	4481
861.256	4504
861.388	4577
861.521	5334
861.653	4508
861.786	4443
861.918	4405
862.05	4493
862.183	4523
862.315	4592
862.447	4645
862.58	4580
862.712	4424
862.844	4325
862.976	4508
863.108	4462
863.24	4774
863.372	4291
863.504	4375
863.636	4367
863.768	4493
863.9	4474
864.032	4356
864.164	4390
864.296	4466
864.428	4538
864.559	4535
864.691	4504
864.823	4485
864.954	4493
865.086	4489
865.217	4402
865.349	4379
865.48	4447
865.612	4462
865.743	4645
865.875	4428
866.006	4383
866.137	4451
866.269	4459
866.4	4421
866.531	4436
866.662	4379
866.793	4356
866.924	4409
867.055	4508
867.186	4421
867.317	4417
867.448	4394
867.579	4409
867.71	4341
867.841	4325
867.972	4440
868.103	4481
868.233	4451
868.364	4428
868.495	4493
868.625	4645
868.756	4733
868.886	4577
869.017	4615
869.147	4710
869.278	4740
869.408	4641
869.539	4611
869.669	4649
869.799	4672
869.929	4717
870.06	4687
870.19	4961
870.32	4896
870.45	4904
870.58	5052
870.71	5090
870.84	5067
870.97	4934
871.1	4889
871.23	5117
871.36	5090
871.489	5025
871.619	5056
871.749	5045
871.879	5060
872.008	5162
872.138	5075
872.267	4965
872.397	4847
872.526	4740
872.656	4691
872.785	4774
872.915	4961
873.044	5029
873.173	4949
873.303	4930
873.432	4911
873.561	4927
873.69	4850
873.819	4854
873.948	4927
874.077	4790
874.206	4774
874.335	4828
874.464	4892
874.593	5048
874.722	4961
874.851	5079
874.979	5064
875.108	5060
875.237	4854
875.365	4847
875.494	4862
875.623	4957
875.751	4812
875.88	4866
876.008	4957
876.136	5033
876.265	5147
876.393	5269
876.521	5277
876.65	5201
876.778	5162
876.906	5056
877.034	5029
877.162	5022
877.29	4968
877.418	5117
877.546	4968
877.674	5037
877.802	5018
877.93	4987
878.058	4965
878.185	4847
878.313	4965
878.441	4991
878.568	4793
878.696	4873
878.824	4946
878.951	4999
879.079	5121
879.206	5299
879.333	5064
879.461	4984
879.588	4900
879.715	5071
879.842	5162
879.97	5022
880.097	4733
880.224	4778
880.351	4839
880.478	4835
880.605	4759
880.732	4759
880.859	5067
880.986	4854
881.112	4930
881.239	4774
881.366	4710
881.493	4603
881.619	4584
881.746	4618
881.872	4622
881.999	4702
882.125	4672
882.252	4786
882.378	4797
882.505	4923
882.631	4828
882.757	4653
882.883	4744
883.01	4748
883.136	4656
883.262	4607
883.388	4622
883.514	4809
883.64	4831
883.766	4744
883.892	4683
884.018	4687
884.143	4885
884.269	4991
884.395	4679
884.52	4599
884.646	4622
884.772	4550
884.897	4558
885.023	4618
885.148	4755
885.274	4900
885.399	4824
885.524	4683
885.65	4687
885.775	4740
885.9	4683
886.025	4858
886.15	4774
886.275	4725
886.4	4672
886.525	4687
886.65	4641
886.775	4710
886.9	4881
887.025	5067
887.149	4774
887.274	4649
887.399	4588
887.523	4615
887.648	4527
887.773	4584
887.897	4725
888.021	4736
888.146	4653
888.27	4755
888.395	4873
888.519	4782
888.643	4812
888.767	4835
888.891	4649
889.015	4592
889.139	4599
889.263	4622
889.387	4740
889.511	4820
889.635	4771
889.759	4634
889.883	4645
890.006	4717
890.13	4782
890.254	4637
890.377	4694
890.501	4531
890.624	4546
890.748	4611
890.871	4516
890.995	4440
891.118	4318
891.241	4470
891.364	4577
891.488	4634
891.611	4455
891.734	4512
891.857	4588
891.98	4531
892.103	4653
892.226	4588
892.349	4504
892.471	4394
892.594	4512
892.717	4596
892.839	4599
892.962	4542
893.085	4611
893.207	4580
893.33	4462
893.452	4512
893.575	4672
893.697	4565
893.819	4755
893.941	4793
894.064	4755
894.186	4615
894.308	4580
894.43	4755
894.552	4759
894.674	4733
894.796	4538
894.918	4565
895.04	4618
895.161	4736
895.283	4649
895.405	4599
895.526	4603
895.648	4687
895.769	4634
895.891	4714
896.012	4706
896.134	4702
896.255	4637
896.376	4618
896.498	4615
896.619	4668
896.74	4584
896.861	4634
896.982	4908
897.103	5033
897.224	4835
897.345	4736
897.466	4649
897.587	4725
897.708	4854
897.828	4748
897.949	4649
898.07	4554
898.19	4607
898.311	4843
898.431	4641
898.552	4691
898.672	4824
898.792	4828
898.913	4725
899.033	4550
899.153	4481
899.273	4421
899.393	4470
899.513	4554
899.633	4535
899.753	4462
899.873	4516
899.993	4588
900.113	4478
900.232	4577
900.352	4580
900.472	4474
900.591	4383
900.711	4523
900.83	4398
900.95	4634
901.069	4645
901.189	4485
901.308	4360
901.427	4287
901.546	4402
901.665	4478
901.784	4531
901.904	4383
902.023	4325
902.141	4169
902.26	4154
902.379	4322
902.498	4238
902.617	4211
902.735	4344
902.854	4356
902.973	4314
903.091	4169
903.21	4246
903.328	4272
903.446	4219
903.565	4238
903.683	4314
903.801	4223
903.919	4421
904.038	4443
904.156	4341
904.274	4432
904.392	4386
904.51	4421
904.627	4455
904.745	4569
904.863	4641
904.981	4329
905.098	4284
905.216	4322
905.334	4390
905.451	4447
905.569	4405
905.686	4565
905.803	4577
905.921	4390
906.038	4618
906.155	4497
906.272	4390
906.389	4436
906.506	4333
906.623	4383
906.74	4386
906.857	4303
906.974	4344
907.091	4485
907.208	4664
907.324	4542
907.441	4459
907.557	4329
907.674	4291
907.79	4318
907.907	4394
908.023	4512
908.139	4470
908.256	4398
908.372	4432
908.488	4455
908.604	4379
908.72	4268
908.836	4363
908.952	4348
909.068	4363
909.184	4622
909.3	4432
909.415	4516
909.531	4554
909.647	4360
909.762	4299
909.878	4356
909.993	4478
910.108	4371
910.224	4383
910.339	4462
910.454	4379
910.57	4341
910.685	4276
910.8	4622
910.915	4607
911.03	4443
911.145	4295
911.259	4291
911.374	4333
911.489	4303
911.604	4272
911.718	4162
911.833	4181
911.947	4101
912.062	4036
912.176	4177
912.291	4230
912.405	4249
912.519	4478
912.633	4512
912.748	4337
912.862	4280
912.976	4192
913.09	4059
913.204	4185
913.318	4272
913.431	4337
913.545	4383
913.659	4447
913.772	4337
913.886	4230
914	4223
914.113	4394
914.226	4409
914.34	4360
914.453	4253
914.566	4440
914.68	4287
914.793	4322
914.906	4162
915.019	4105
915.132	4029
915.245	4147
915.358	4173
915.47	4234
915.583	4299
915.696	4306
915.809	4432
915.921	4371
916.034	4242
916.146	4242
916.259	4196
916.371	4363
916.483	4333
916.595	4272
916.708	4367
916.82	4348
916.932	4318
917.044	4337
917.156	4337
917.268	4192
917.38	4253
917.491	4265
917.603	4352
917.715	4398
917.826	4424
917.938	4356
918.049	4272
918.161	4363
918.272	4531
918.384	4516
918.495	4375
918.606	4253
918.717	4238
918.828	4337
918.939	4344
919.05	4230
919.161	4363
919.272	4112
919.383	4246
919.494	4413
919.604	4649
919.715	4432
919.826	4356
919.936	4329
920.047	4485
920.157	4470
920.267	4691
920.378	4481
920.488	4500
920.598	4717
920.708	4862
920.818	4721
920.928	4714
921.038	4896
921.148	4847
921.258	4649
921.368	4588
921.477	4440
921.587	4436
921.697	4405
921.806	4474
921.916	4398
922.025	4234
922.134	4215
922.244	4265
922.353	4322
922.462	4173
922.571	4086
922.68	3998
922.789	3937
922.898	4051
923.007	3983
923.116	4105
923.224	4071
923.333	4032
923.442	4002
923.55	3987
923.659	4021
923.767	4105
923.876	3991
923.984	4078
924.092	3960
924.201	4078
924.309	4055
924.417	4086
924.525	4063
924.633	4040
924.741	4938
924.849	3884
924.956	4131
925.064	3953
925.172	3899
925.279	3945
925.387	4055
925.494	4067
925.602	4207
925.709	4204
925.816	4055
925.924	4101
926.031	4154
926.138	4204
926.245	4200
926.352	4055
926.459	4227
926.566	4322
926.673	4090
926.779	4074
926.886	4097
926.993	3991
927.099	3956
927.206	3903
927.312	3934
927.419	4010
927.525	3998
927.631	4059
927.737	3964
927.843	3949
927.95	3823
928.056	3899
928.162	3979
928.267	3998
928.373	4592
928.479	4124
928.585	3861
928.69	4048
928.796	4074
928.901	3945
929.007	3838
929.112	3972
929.218	3930
929.323	3937
929.428	3964
929.533	4112
929.638	3934
929.743	3937
929.848	3998
929.953	3979
930.058	3941
930.163	3762
930.267	3842
930.372	3956
930.477	3770
930.581	4071
930.685	3903
930.79	3835
930.894	3896
930.998	3835
931.103	4086
931.207	3705
931.311	3705
931.415	3675
931.519	3519
931.623	3542
