Data from test_V78500241_948.txt Node
Date: Fri Mar 25 16:55:35 CST 2022
User: usil
Spectrometer: V785-0024
Trigger mode: 0
Integration Time (sec): 4.000000E-1
Scans to average: 1
Nonlinearity correction enabled: false
Boxcar width: 0
Storing dark spectrum: false
XAxis mode: Wavelengths
Number of Pixels in Spectrum: 1024
>>>>>Begin Spectral Data<<<<<
801.071	8077
801.214	8031
801.356	7955
801.499	7879
801.641	7799
801.783	7814
801.926	7898
802.068	7898
802.211	7959
802.353	7902
802.496	7871
802.638	7860
802.78	7898
802.923	7921
803.065	7879
803.208	7898
803.35	8024
803.492	8103
803.635	8115
803.777	8058
803.919	8126
804.061	8404
804.204	8096
804.346	8001
804.488	7936
804.63	8039
804.773	8027
804.915	8073
805.057	8275
805.199	8210
805.341	8191
805.483	8214
805.626	8142
805.768	8065
805.91	8157
806.052	8248
806.194	8096
806.336	8301
806.478	8043
806.62	7989
806.762	8153
806.904	8244
807.046	8518
807.188	8339
807.33	8256
807.472	8370
807.614	8172
807.756	8092
807.898	8027
808.04	7928
808.182	7955
808.324	7902
808.465	7837
808.607	8069
808.749	8069
808.891	8183
809.033	8252
809.174	8218
809.316	8031
809.458	8001
809.6	8020
809.741	8027
809.883	8008
810.025	8088
810.166	8031
810.308	8039
810.45	8027
810.591	7845
810.733	7731
810.875	7632
811.016	7464
811.158	7491
811.299	7582
811.441	7742
811.582	7643
811.724	7571
811.865	7521
812.007	7563
812.148	7586
812.29	7601
812.431	7746
812.573	7917
812.714	8008
812.855	8130
812.997	8229
813.138	8347
813.279	8111
813.421	8103
813.562	8008
813.703	7845
813.845	7776
813.986	7441
814.127	7232
814.268	7213
814.41	7175
814.551	7160
814.692	7110
814.833	7015
814.974	7034
815.115	7088
815.256	6993
815.397	6962
815.539	7019
815.68	6825
815.821	6806
815.962	6833
816.103	6749
816.244	6760
816.385	6646
816.526	6639
816.666	6471
816.807	6338
816.948	6391
817.089	6448
817.23	6509
817.371	6414
817.512	6350
817.653	6418
817.793	6380
817.934	6410
818.075	6384
818.216	6395
818.356	6327
818.497	6251
818.638	6049
818.778	6106
818.919	6136
819.06	6087
819.2	6285
819.341	6323
819.481	6357
819.622	6483
819.762	6726
819.903	6684
820.043	6578
820.184	6566
820.324	6521
820.465	6684
820.605	6662
820.746	6635
820.886	6486
821.026	6639
821.167	6642
821.307	6814
821.447	6779
821.588	6715
821.728	6544
821.868	6525
822.008	6308
822.149	6300
822.289	6338
822.429	6136
822.569	6034
822.709	6110
822.849	5893
822.99	5901
823.13	5893
823.27	5912
823.41	5771
823.55	5729
823.69	5745
823.83	5802
823.97	5657
824.11	5505
824.25	5497
824.389	5554
824.529	5570
824.669	5497
824.809	5581
824.949	5646
825.089	5585
825.228	5551
825.368	5402
825.508	5364
825.648	5337
825.787	5364
825.927	5299
826.067	5235
826.206	5265
826.346	5357
826.485	5372
826.625	5376
826.765	5520
826.904	5463
827.044	5299
827.183	5208
827.323	5140
827.462	5223
827.601	5155
827.741	5159
827.88	5181
828.02	5075
828.159	5250
828.298	5284
828.437	5334
828.577	5269
828.716	5459
828.855	5242
828.994	5155
829.134	5136
829.273	5151
829.412	5159
829.551	5132
829.69	5231
829.829	5197
829.968	5345
830.107	5261
830.246	5258
830.385	5185
830.524	5071
830.663	5037
830.802	4961
830.941	4850
831.08	4877
831.219	4900
831.357	4953
831.496	5124
831.635	4911
831.774	4847
831.913	4843
832.051	4744
832.19	4744
832.329	4812
832.467	4668
832.606	4637
832.744	4687
832.883	4752
833.022	4660
833.16	4717
833.299	4793
833.437	4767
833.576	4805
833.714	4816
833.852	4847
833.991	4908
834.129	4957
834.267	4968
834.406	4881
834.544	4949
834.682	4965
834.821	4934
834.959	5181
835.097	4942
835.235	5105
835.373	5079
835.511	5105
835.65	5010
835.788	4999
835.926	4919
836.064	4896
836.202	4927
836.34	5151
836.478	5208
836.615	5128
836.753	5231
836.891	5246
837.029	5204
837.167	5193
837.305	5117
837.443	5181
837.58	4987
837.718	5208
837.856	5197
837.993	5136
838.131	5170
838.269	5174
838.406	5185
838.544	5162
838.681	5029
838.819	4972
838.956	4915
839.094	4904
839.231	4980
839.369	5048
839.506	5425
839.643	5265
839.781	4995
839.918	4980
840.055	5083
840.193	5090
840.33	5090
840.467	5094
840.604	5124
840.742	5398
840.879	5056
841.016	5094
841.153	5105
841.29	5372
841.427	5326
841.564	5311
841.701	5318
841.838	5261
841.975	5181
842.112	5242
842.249	5064
842.385	5025
842.522	5292
842.659	5193
842.796	5136
842.933	5223
843.069	5132
843.206	5083
843.343	5258
843.479	5166
843.616	5239
843.752	5014
843.889	4991
844.025	5174
844.162	4980
844.298	5170
844.435	5052
844.571	5056
844.708	5155
844.844	5322
844.98	5280
845.117	5258
845.253	5121
845.389	5071
845.525	5162
845.661	5128
845.798	5029
845.934	5090
846.07	5033
846.206	5143
846.342	5250
846.478	5132
846.614	5018
846.75	4908
846.886	4908
847.022	5064
847.158	4923
847.294	5022
847.429	5037
847.565	5045
847.701	5326
847.837	4771
847.972	4752
848.108	4908
848.244	4900
848.379	4778
848.515	4717
848.65	4702
848.786	4672
848.921	4755
849.057	4843
849.192	4843
849.328	4759
849.463	4786
849.598	4793
849.734	4786
849.869	4653
850.004	4626
850.14	4630
850.275	4584
850.41	4546
850.545	4527
850.68	4569
850.815	4584
850.95	4569
851.085	4782
851.22	4733
851.355	4637
851.49	4618
851.625	4618
851.76	4626
851.895	4569
852.03	4527
852.165	4626
852.299	4710
852.434	4740
852.569	4714
852.703	4706
852.838	4774
852.973	4885
853.107	4873
853.242	4698
853.376	4668
853.511	4565
853.645	4603
853.78	4809
853.914	4645
854.048	4622
854.183	4660
854.317	4653
854.451	4790
854.585	4634
854.72	4592
854.854	4694
854.988	4649
855.122	4596
855.256	4500
855.39	4664
855.524	4786
855.658	4702
855.792	4668
855.926	4706
856.06	4717
856.194	4786
856.327	4710
856.461	4607
856.595	4626
856.729	4645
856.862	4721
856.996	4694
857.13	4752
857.263	4748
857.397	4801
857.53	4607
857.664	4717
857.797	4736
857.931	4782
858.064	4698
858.197	4763
858.331	4622
858.464	4615
858.597	4519
858.731	4668
858.864	4618
858.997	4630
859.13	4694
859.263	4683
859.396	4740
859.529	4607
859.662	4634
859.795	4599
859.928	4653
860.061	4790
860.194	4763
860.327	4634
860.46	4569
860.592	4733
860.725	4736
860.858	4721
860.99	4603
861.123	4519
861.256	4538
861.388	4672
861.521	5174
861.653	4558
861.786	4409
861.918	4516
862.05	4535
862.183	4538
862.315	4637
862.447	4740
862.58	4569
862.712	4424
862.844	4379
862.976	4451
863.108	4519
863.24	4801
863.372	4386
863.504	4417
863.636	4424
863.768	4497
863.9	4485
864.032	4379
864.164	4470
864.296	4466
864.428	4573
864.559	4577
864.691	4561
864.823	4588
864.954	4565
865.086	4538
865.217	4500
865.349	4417
865.48	4493
865.612	4531
865.743	4660
865.875	4500
866.006	4462
866.137	4485
866.269	4447
866.4	4436
866.531	4459
866.662	4413
866.793	4459
866.924	4478
867.055	4519
867.186	4447
867.317	4432
867.448	4405
867.579	4405
867.71	4432
867.841	4402
867.972	4443
868.103	4409
868.233	4466
868.364	4451
868.495	4462
868.625	4683
868.756	4812
868.886	4603
869.017	4675
869.147	4824
869.278	4786
869.408	4672
869.539	4649
869.669	4702
869.799	4698
869.929	4763
870.06	4744
870.19	4968
870.32	4938
870.45	4919
870.58	5045
870.71	5048
870.84	5086
870.97	4953
871.1	4961
871.23	5170
871.36	5216
871.489	5048
871.619	5071
871.749	5136
871.879	5143
872.008	5170
872.138	5018
872.267	4927
872.397	4900
872.526	4828
872.656	4698
872.785	4877
872.915	5014
873.044	5048
873.173	4949
873.303	4972
873.432	4965
873.561	4995
873.69	4873
873.819	4904
873.948	4965
874.077	4843
874.206	4801
874.335	4866
874.464	4953
874.593	5117
874.722	4972
874.851	5189
874.979	5052
875.108	4995
875.237	4896
875.365	4858
875.494	4938
875.623	4995
875.751	4873
875.88	4915
876.008	4995
876.136	5048
876.265	5193
876.393	5410
876.521	5273
876.65	5292
876.778	5197
876.906	5136
877.034	5090
877.162	5003
877.29	4995
877.418	5079
877.546	5041
877.674	5029
877.802	5010
877.93	5010
878.058	4999
878.185	4896
878.313	4991
878.441	4987
878.568	4877
878.696	4896
878.824	4938
878.951	5014
879.079	5151
879.206	5315
879.333	5105
879.461	5003
879.588	5033
879.715	5143
879.842	5216
879.97	5025
880.097	4816
880.224	4774
880.351	4774
880.478	4816
880.605	4778
880.732	4835
880.859	5090
880.986	4862
881.112	4965
881.239	4843
881.366	4672
881.493	4645
881.619	4584
881.746	4679
881.872	4649
881.999	4649
882.125	4748
882.252	4801
882.378	4793
882.505	4991
882.631	4763
882.757	4672
882.883	4729
883.01	4748
883.136	4710
883.262	4698
883.388	4672
883.514	4820
883.64	4900
883.766	4820
883.892	4714
884.018	4733
884.143	4915
884.269	5071
884.395	4721
884.52	4656
884.646	4706
884.772	4626
884.897	4622
885.023	4679
885.148	4752
885.274	4839
885.399	4866
885.524	4733
885.65	4717
885.775	4752
885.9	4679
886.025	4938
886.15	4797
886.275	4710
886.4	4653
886.525	4755
886.65	4706
886.775	4702
886.9	4911
887.025	5025
887.149	4877
887.274	4664
887.399	4637
887.523	4656
887.648	4611
887.773	4607
887.897	4790
888.021	4824
888.146	4744
888.27	4824
888.395	4908
888.519	4778
888.643	4828
888.767	4820
888.891	4675
889.015	4580
889.139	4653
889.263	4577
889.387	4774
889.511	4885
889.635	4843
889.759	4668
889.883	4675
890.006	4755
890.13	4847
890.254	4641
890.377	4706
890.501	4584
890.624	4516
890.748	4641
890.871	4527
890.995	4443
891.118	4417
891.241	4554
891.364	4592
891.488	4645
891.611	4584
891.734	4493
891.857	4607
891.98	4565
892.103	4653
892.226	4599
892.349	4565
892.471	4474
892.594	4573
892.717	4615
892.839	4580
892.962	4626
893.085	4694
893.207	4599
893.33	4516
893.452	4504
893.575	4668
893.697	4637
893.819	4786
893.941	4862
894.064	4805
894.186	4565
894.308	4622
894.43	4744
894.552	4820
894.674	4733
894.796	4546
894.918	4626
895.04	4588
895.161	4721
895.283	4702
895.405	4569
895.526	4584
895.648	4653
895.769	4721
895.891	4752
896.012	4729
896.134	4729
896.255	4668
896.376	4668
896.498	4630
896.619	4725
896.74	4592
896.861	4656
896.982	4927
897.103	5067
897.224	4862
897.345	4729
897.466	4687
897.587	4733
897.708	4862
897.828	4801
897.949	4729
898.07	4569
898.19	4672
898.311	4850
898.431	4706
898.552	4755
898.672	4858
898.792	4816
898.913	4759
899.033	4634
899.153	4542
899.273	4443
899.393	4508
899.513	4573
899.633	4607
899.753	4519
899.873	4478
899.993	4611
900.113	4504
900.232	4565
900.352	4588
900.472	4500
900.591	4413
900.711	4527
900.83	4440
900.95	4565
901.069	4675
901.189	4577
901.308	4379
901.427	4360
901.546	4421
901.665	4481
901.784	4527
901.904	4398
902.023	4367
902.141	4223
902.26	4192
902.379	4310
902.498	4234
902.617	4211
902.735	4386
902.854	4417
902.973	4417
903.091	4242
903.21	4268
903.328	4310
903.446	4234
903.565	4246
903.683	4383
903.801	4291
903.919	4375
904.038	4443
904.156	4341
904.274	4428
904.392	4371
904.51	4466
904.627	4478
904.745	4592
904.863	4653
904.981	4405
905.098	4409
905.216	4360
905.334	4424
905.451	4428
905.569	4432
905.686	4573
905.803	4550
905.921	4386
906.038	4603
906.155	4497
906.272	4413
906.389	4474
906.506	4371
906.623	4436
906.74	4432
906.857	4329
906.974	4405
907.091	4573
907.208	4668
907.324	4599
907.441	4519
907.557	4348
907.674	4348
907.79	4306
907.907	4428
908.023	4470
908.139	4451
908.256	4500
908.372	4485
908.488	4440
908.604	4367
908.72	4333
908.836	4386
908.952	4447
909.068	4462
909.184	4558
909.3	4436
909.415	4645
909.531	4580
909.647	4329
909.762	4360
909.878	4348
909.993	4489
910.108	4383
910.224	4421
910.339	4497
910.454	4394
910.57	4325
910.685	4329
910.8	4637
910.915	4622
911.03	4466
911.145	4356
911.259	4295
911.374	4402
911.489	4329
911.604	4257
911.718	4128
911.833	4215
911.947	4112
912.062	4055
912.176	4227
912.291	4223
912.405	4287
912.519	4421
912.633	4493
912.748	4383
912.862	4329
912.976	4246
913.09	4078
913.204	4185
913.318	4234
913.431	4352
913.545	4394
913.659	4459
913.772	4322
913.886	4253
914	4253
914.113	4333
914.226	4413
914.34	4390
914.453	4284
914.566	4451
914.68	4341
914.793	4337
914.906	4150
915.019	4135
915.132	4071
915.245	4173
915.358	4230
915.47	4223
915.583	4242
915.696	4291
915.809	4405
915.921	4432
916.034	4268
916.146	4272
916.259	4249
916.371	4390
916.483	4367
916.595	4287
916.708	4356
916.82	4295
916.932	4322
917.044	4276
917.156	4306
917.268	4177
917.38	4242
917.491	4287
917.603	4363
917.715	4390
917.826	4424
917.938	4367
918.049	4230
918.161	4390
918.272	4592
918.384	4550
918.495	4489
918.606	4310
918.717	4223
918.828	4348
918.939	4363
919.05	4219
919.161	4303
919.272	4131
919.383	4249
919.494	4451
919.604	4630
919.715	4436
919.826	4371
919.936	4390
920.047	4527
920.157	4485
920.267	4710
920.378	4596
920.488	4508
920.598	4702
920.708	4870
920.818	4790
920.928	4748
921.038	4923
921.148	4927
921.258	4611
921.368	4558
921.477	4512
921.587	4455
921.697	4386
921.806	4580
921.916	4436
922.025	4295
922.134	4291
922.244	4204
922.353	4337
922.462	4196
922.571	4128
922.68	4017
922.789	4002
922.898	4071
923.007	3983
923.116	4109
923.224	4128
923.333	4059
923.442	4025
923.55	3953
923.659	4036
923.767	4150
923.876	4032
923.984	4116
924.092	3949
924.201	4074
924.309	4147
924.417	4166
924.525	4090
924.633	4063
924.741	5067
924.849	3937
924.956	4128
925.064	3975
925.172	3926
925.279	3994
925.387	4124
925.494	4090
925.602	4249
925.709	4211
925.816	4071
925.924	4162
926.031	4272
926.138	4242
926.245	4192
926.352	4131
926.459	4325
926.566	4333
926.673	4181
926.779	4074
926.886	4109
926.993	4010
927.099	3994
927.206	4025
927.312	3998
927.419	4074
927.525	4086
927.631	4105
927.737	4059
927.843	3979
927.95	3888
928.056	4002
928.162	4040
928.267	4109
928.373	4721
928.479	4188
928.585	3884
928.69	4032
928.796	4139
928.901	4048
929.007	3861
929.112	4021
929.218	4021
929.323	3975
929.428	3972
929.533	4158
929.638	3972
929.743	3953
929.848	4120
929.953	4055
930.058	4029
930.163	3743
930.267	3888
930.372	3991
930.477	3873
930.581	4162
930.685	4006
930.79	3850
930.894	3899
930.998	3888
931.103	4067
931.207	3747
931.311	3732
931.415	3713
931.519	3557
931.623	3584
