Data from test_V78500241_2080.txt Node
Date: Fri Mar 25 17:03:27 CST 2022
User: usil
Spectrometer: V785-0024
Trigger mode: 0
Integration Time (sec): 4.000000E-1
Scans to average: 1
Nonlinearity correction enabled: false
Boxcar width: 0
Storing dark spectrum: false
XAxis mode: Wavelengths
Number of Pixels in Spectrum: 1024
>>>>>Begin Spectral Data<<<<<
801.071	8005
801.214	7947
801.356	7860
801.499	7788
801.641	7746
801.783	7811
801.926	7970
802.068	7955
802.211	7955
802.353	8001
802.496	7811
802.638	7849
802.78	7837
802.923	7864
803.065	7830
803.208	7826
803.35	7913
803.492	8084
803.635	8134
803.777	8005
803.919	8103
804.061	8484
804.204	8062
804.346	8073
804.488	7936
804.63	8130
804.773	8005
804.915	8103
805.057	8282
805.199	8111
805.341	8145
805.483	8218
805.626	8210
805.768	8115
805.91	8180
806.052	8180
806.194	8062
806.336	8256
806.478	8081
806.62	8062
806.762	8096
806.904	8298
807.046	8514
807.188	8336
807.33	8298
807.472	8374
807.614	8199
807.756	8103
807.898	7986
808.04	7883
808.182	7871
808.324	7856
808.465	7982
808.607	8008
808.749	8035
808.891	8176
809.033	8351
809.174	8206
809.316	8035
809.458	8100
809.6	8077
809.741	8016
809.883	8039
810.025	8046
810.166	8039
810.308	8001
810.45	7982
810.591	7799
810.733	7727
810.875	7628
811.016	7419
811.158	7460
811.299	7594
811.441	7700
811.582	7616
811.724	7575
811.865	7533
812.007	7487
812.148	7529
812.29	7544
812.431	7772
812.573	7856
812.714	8016
812.855	8157
812.997	8214
813.138	8324
813.279	8100
813.421	8043
813.562	7906
813.703	7803
813.845	7746
813.986	7396
814.127	7247
814.268	7213
814.41	7156
814.551	7164
814.692	7209
814.833	7069
814.974	7129
815.115	7122
815.256	7053
815.397	6863
815.539	6882
815.68	6745
815.821	6776
815.962	6844
816.103	6798
816.244	6654
816.385	6642
816.526	6601
816.666	6464
816.807	6319
816.948	6334
817.089	6464
817.23	6471
817.371	6346
817.512	6319
817.653	6395
817.793	6403
817.934	6426
818.075	6452
818.216	6456
818.356	6414
818.497	6258
818.638	6148
818.778	6087
818.919	6129
819.06	6178
819.2	6289
819.341	6319
819.481	6334
819.622	6445
819.762	6692
819.903	6681
820.043	6623
820.184	6551
820.324	6585
820.465	6700
820.605	6616
820.746	6623
820.886	6509
821.026	6700
821.167	6749
821.307	6810
821.447	6726
821.588	6589
821.728	6528
821.868	6483
822.008	6357
822.149	6308
822.289	6338
822.429	6140
822.569	6102
822.709	6102
822.849	5939
822.99	5897
823.13	5904
823.27	5908
823.41	5809
823.55	5821
823.69	5688
823.83	5813
823.97	5646
824.11	5520
824.25	5539
824.389	5619
824.529	5570
824.669	5520
824.809	5619
824.949	5676
825.089	5577
825.228	5558
825.368	5402
825.508	5364
825.648	5379
825.787	5341
825.927	5330
826.067	5288
826.206	5280
826.346	5341
826.485	5398
826.625	5406
826.765	5478
826.904	5429
827.044	5231
827.183	5208
827.323	5075
827.462	5216
827.601	5170
827.741	5166
827.88	5239
828.02	5098
828.159	5185
828.298	5265
828.437	5379
828.577	5231
828.716	5448
828.855	5353
828.994	5102
829.134	5140
829.273	5189
829.412	5109
829.551	5128
829.69	5166
829.829	5216
829.968	5402
830.107	5288
830.246	5273
830.385	5159
830.524	5109
830.663	5071
830.802	4961
830.941	4900
831.08	4854
831.219	4938
831.357	4957
831.496	5166
831.635	4927
831.774	4809
831.913	4843
832.051	4771
832.19	4748
832.329	4797
832.467	4675
832.606	4630
832.744	4736
832.883	4816
833.022	4714
833.16	4793
833.299	4862
833.437	4820
833.576	4801
833.714	4877
833.852	4866
833.991	4873
834.129	4942
834.267	4942
834.406	4938
834.544	4934
834.682	4976
834.821	4965
834.959	5174
835.097	4953
835.235	5151
835.373	5075
835.511	5083
835.65	5003
835.788	4999
835.926	4904
836.064	4930
836.202	4908
836.34	5162
836.478	5174
836.615	5124
836.753	5223
836.891	5269
837.029	5239
837.167	5193
837.305	5128
837.443	5128
837.58	5079
837.718	5231
837.856	5189
837.993	5178
838.131	5216
838.269	5189
838.406	5181
838.544	5185
838.681	4995
838.819	5045
838.956	4870
839.094	4873
839.231	4949
839.369	5052
839.506	5391
839.643	5220
839.781	5056
839.918	5041
840.055	5094
840.193	5060
840.33	5086
840.467	5117
840.604	5197
840.742	5398
840.879	5094
841.016	5083
841.153	5132
841.29	5345
841.427	5280
841.564	5315
841.701	5349
841.838	5277
841.975	5193
842.112	5216
842.249	5143
842.385	5075
842.522	5349
842.659	5132
842.796	5170
842.933	5227
843.069	5170
843.206	5166
843.343	5242
843.479	5235
843.616	5250
843.752	5037
843.889	4957
844.025	5185
844.162	4984
844.298	5185
844.435	5056
844.571	5075
844.708	5185
844.844	5277
844.98	5322
845.117	5299
845.253	5151
845.389	5079
845.525	5174
845.661	5105
845.798	5014
845.934	5132
846.07	5025
846.206	5170
846.342	5261
846.478	5193
846.614	5018
846.75	4976
846.886	4927
847.022	5121
847.158	4968
847.294	5090
847.429	5124
847.565	5079
847.701	5337
847.837	4854
847.972	4824
848.108	4923
848.244	4881
848.379	4771
848.515	4752
848.65	4759
848.786	4721
848.921	4748
849.057	4885
849.192	4866
849.328	4816
849.463	4862
849.598	4790
849.734	4740
849.869	4725
850.004	4611
850.14	4637
850.275	4565
850.41	4519
850.545	4527
850.68	4584
850.815	4615
850.95	4656
851.085	4812
851.22	4683
851.355	4637
851.49	4615
851.625	4630
851.76	4645
851.895	4588
852.03	4497
852.165	4622
852.299	4736
852.434	4774
852.569	4759
852.703	4740
852.838	4820
852.973	4927
853.107	4915
853.242	4706
853.376	4641
853.511	4550
853.645	4622
853.78	4812
853.914	4687
854.048	4649
854.183	4592
854.317	4637
854.451	4847
854.585	4645
854.72	4603
854.854	4778
854.988	4592
855.122	4615
855.256	4481
855.39	4649
855.524	4725
855.658	4717
855.792	4679
855.926	4725
856.06	4748
856.194	4767
856.327	4675
856.461	4588
856.595	4607
856.729	4611
856.862	4782
856.996	4664
857.13	4660
857.263	4706
857.397	4824
857.53	4679
857.664	4706
857.797	4687
857.931	4748
858.064	4637
858.197	4752
858.331	4656
858.464	4569
858.597	4512
858.731	4603
858.864	4656
858.997	4580
859.13	4626
859.263	4603
859.396	4672
859.529	4554
859.662	4512
859.795	4500
859.928	4645
860.061	4759
860.194	4729
860.327	4558
860.46	4550
860.592	4706
860.725	4668
860.858	4721
860.99	4565
861.123	4508
861.256	4500
861.388	4561
861.521	5326
861.653	4470
861.786	4428
861.918	4443
862.05	4535
862.183	4531
862.315	4607
862.447	4626
862.58	4565
862.712	4375
862.844	4352
862.976	4451
863.108	4436
863.24	4771
863.372	4341
863.504	4352
863.636	4417
863.768	4493
863.9	4436
864.032	4367
864.164	4390
864.296	4440
864.428	4546
864.559	4588
864.691	4512
864.823	4523
864.954	4546
865.086	4512
865.217	4451
865.349	4428
865.48	4462
865.612	4500
865.743	4660
865.875	4519
866.006	4447
866.137	4500
866.269	4485
866.4	4478
866.531	4443
866.662	4447
866.793	4428
866.924	4478
867.055	4508
867.186	4481
867.317	4451
867.448	4383
867.579	4436
867.71	4440
867.841	4360
867.972	4470
868.103	4451
868.233	4493
868.364	4474
868.495	4470
868.625	4649
868.756	4752
868.886	4596
869.017	4656
869.147	4816
869.278	4805
869.408	4668
869.539	4687
869.669	4691
869.799	4725
869.929	4778
870.06	4767
870.19	4999
870.32	4995
870.45	5003
870.58	5067
870.71	5109
870.84	5098
870.97	4957
871.1	4923
871.23	5162
871.36	5181
871.489	5098
871.619	5109
871.749	5147
871.879	5147
872.008	5201
872.138	5071
872.267	4972
872.397	4866
872.526	4892
872.656	4748
872.785	4850
872.915	5003
873.044	5079
873.173	4991
873.303	4995
873.432	5029
873.561	4999
873.69	4881
873.819	4892
873.948	4919
874.077	4892
874.206	4828
874.335	4877
874.464	4976
874.593	5048
874.722	4999
874.851	5143
874.979	5121
875.108	5018
875.237	4984
875.365	4900
875.494	4965
875.623	5029
875.751	4885
875.88	4885
876.008	4999
876.136	5090
876.265	5201
876.393	5398
876.521	5273
876.65	5250
876.778	5174
876.906	5086
877.034	5079
877.162	5075
877.29	5048
877.418	5083
877.546	5132
877.674	5048
877.802	5105
877.93	5060
878.058	4995
878.185	4900
878.313	5025
878.441	4965
878.568	4812
878.696	4900
878.824	5052
878.951	4987
879.079	5170
879.206	5265
879.333	5151
879.461	5022
879.588	5033
879.715	5140
879.842	5265
879.97	5003
880.097	4843
880.224	4801
880.351	4824
880.478	4828
880.605	4854
880.732	4870
880.859	5121
880.986	4938
881.112	4919
881.239	4828
881.366	4691
881.493	4668
881.619	4611
881.746	4694
881.872	4668
881.999	4664
882.125	4733
882.252	4793
882.378	4824
882.505	4976
882.631	4778
882.757	4717
882.883	4733
883.01	4767
883.136	4679
883.262	4641
883.388	4622
883.514	4835
883.64	4908
883.766	4820
883.892	4660
884.018	4740
884.143	4900
884.269	5025
884.395	4717
884.52	4672
884.646	4710
884.772	4588
884.897	4592
885.023	4660
885.148	4812
885.274	4862
885.399	4866
885.524	4748
885.65	4759
885.775	4740
885.9	4767
886.025	4870
886.15	4820
886.275	4786
886.4	4710
886.525	4801
886.65	4725
886.775	4691
886.9	4915
887.025	5056
887.149	4809
887.274	4702
887.399	4603
887.523	4660
887.648	4588
887.773	4641
887.897	4778
888.021	4809
888.146	4672
888.27	4873
888.395	4938
888.519	4854
888.643	4877
888.767	4866
888.891	4755
889.015	4679
889.139	4729
889.263	4607
889.387	4778
889.511	4870
889.635	4767
889.759	4721
889.883	4691
890.006	4759
890.13	4873
890.254	4630
890.377	4714
890.501	4569
890.624	4523
890.748	4679
890.871	4516
890.995	4455
891.118	4375
891.241	4561
891.364	4607
891.488	4679
891.611	4474
891.734	4588
891.857	4588
891.98	4592
892.103	4679
892.226	4672
892.349	4561
892.471	4402
892.594	4634
892.717	4630
892.839	4599
892.962	4630
893.085	4691
893.207	4618
893.33	4512
893.452	4592
893.575	4694
893.697	4584
893.819	4782
893.941	4824
894.064	4812
894.186	4607
894.308	4622
894.43	4786
894.552	4847
894.674	4786
894.796	4592
894.918	4584
895.04	4607
895.161	4706
895.283	4698
895.405	4626
895.526	4656
895.648	4698
895.769	4729
895.891	4691
896.012	4736
896.134	4740
896.255	4660
896.376	4664
896.498	4634
896.619	4755
896.74	4618
896.861	4660
896.982	4919
897.103	5113
897.224	4870
897.345	4733
897.466	4679
897.587	4733
897.708	4896
897.828	4812
897.949	4702
898.07	4592
898.19	4649
898.311	4854
898.431	4679
898.552	4759
898.672	4820
898.792	4824
898.913	4755
899.033	4596
899.153	4516
899.273	4459
899.393	4516
899.513	4489
899.633	4531
899.753	4565
899.873	4508
899.993	4626
900.113	4565
900.232	4656
900.352	4565
900.472	4546
900.591	4455
900.711	4516
900.83	4470
900.95	4687
901.069	4675
901.189	4580
901.308	4394
901.427	4314
901.546	4394
901.665	4527
901.784	4558
901.904	4417
902.023	4306
902.141	4234
902.26	4188
902.379	4341
902.498	4291
902.617	4314
902.735	4390
902.854	4421
902.973	4371
903.091	4261
903.21	4314
903.328	4310
903.446	4367
903.565	4284
903.683	4371
903.801	4337
903.919	4424
904.038	4440
904.156	4306
904.274	4398
904.392	4443
904.51	4398
904.627	4489
904.745	4580
904.863	4649
904.981	4413
905.098	4348
905.216	4386
905.334	4462
905.451	4485
905.569	4455
905.686	4596
905.803	4592
905.921	4440
906.038	4588
906.155	4538
906.272	4424
906.389	4497
906.506	4409
906.623	4375
906.74	4440
906.857	4375
906.974	4417
907.091	4618
907.208	4691
907.324	4592
907.441	4546
907.557	4390
907.674	4394
907.79	4341
907.907	4402
908.023	4508
908.139	4493
908.256	4462
908.372	4466
908.488	4424
908.604	4367
908.72	4344
908.836	4398
908.952	4424
909.068	4489
909.184	4565
909.3	4527
909.415	4641
909.531	4607
909.647	4360
909.762	4367
909.878	4394
909.993	4489
910.108	4447
910.224	4417
910.339	4523
910.454	4390
910.57	4363
910.685	4314
910.8	4687
910.915	4649
911.03	4542
911.145	4379
911.259	4371
911.374	4383
911.489	4306
911.604	4299
911.718	4181
911.833	4211
911.947	4131
912.062	4051
912.176	4173
912.291	4272
912.405	4219
912.519	4493
912.633	4527
912.748	4390
912.862	4325
912.976	4261
913.09	4063
913.204	4219
913.318	4185
913.431	4367
913.545	4344
913.659	4455
913.772	4402
913.886	4257
914	4249
914.113	4375
914.226	4409
914.34	4383
914.453	4223
914.566	4417
914.68	4322
914.793	4348
914.906	4135
915.019	4131
915.132	4109
915.245	4188
915.358	4253
915.47	4306
915.583	4223
915.696	4306
915.809	4443
915.921	4409
916.034	4325
916.146	4314
916.259	4257
916.371	4379
916.483	4405
916.595	4318
916.708	4352
916.82	4341
916.932	4295
917.044	4363
917.156	4367
917.268	4242
917.38	4295
917.491	4287
917.603	4367
917.715	4405
917.826	4421
917.938	4352
918.049	4280
918.161	4394
918.272	4535
918.384	4588
918.495	4421
918.606	4314
918.717	4230
918.828	4337
918.939	4424
919.05	4322
919.161	4291
919.272	4181
919.383	4230
919.494	4447
919.604	4672
919.715	4478
919.826	4390
919.936	4451
920.047	4558
920.157	4523
920.267	4691
920.378	4596
920.488	4478
920.598	4710
920.708	4858
920.818	4786
920.928	4733
921.038	4904
921.148	4957
921.258	4630
921.368	4535
921.477	4489
921.587	4512
921.697	4375
921.806	4550
921.916	4428
922.025	4261
922.134	4314
922.244	4246
922.353	4337
922.462	4181
922.571	4207
922.68	4036
922.789	3987
922.898	4029
923.007	3983
923.116	4120
923.224	4090
923.333	4055
923.442	4017
923.55	3945
923.659	4082
923.767	4116
923.876	4025
923.984	4166
924.092	4002
924.201	4074
924.309	4086
924.417	4139
924.525	4067
924.633	4105
924.741	5064
924.849	3903
924.956	4177
925.064	3975
925.172	3934
925.279	4017
925.387	4086
925.494	4036
925.602	4200
925.709	4200
925.816	4029
925.924	4147
926.031	4230
926.138	4211
926.245	4230
926.352	4109
926.459	4276
926.566	4333
926.673	4173
926.779	4101
926.886	4116
926.993	3968
927.099	3968
927.206	3953
927.312	3983
927.419	4063
927.525	4025
927.631	4097
927.737	3975
927.843	3903
927.95	3854
928.056	3953
928.162	3991
928.267	4051
928.373	4622
928.479	4143
928.585	3911
928.69	4017
928.796	4101
928.901	3949
929.007	3873
929.112	4013
929.218	4002
929.323	3934
929.428	3949
929.533	4135
929.638	3930
929.743	3953
929.848	4059
929.953	4025
930.058	3937
930.163	3755
930.267	3804
930.372	4002
930.477	3831
930.581	4128
930.685	3937
930.79	3804
930.894	3953
930.998	3865
931.103	4025
931.207	3713
931.311	3709
931.415	3694
931.519	3534
931.623	3557
