Data from test_V78500241_2058.txt Node
Date: Fri Mar 25 17:03:18 CST 2022
User: usil
Spectrometer: V785-0024
Trigger mode: 0
Integration Time (sec): 4.000000E-1
Scans to average: 1
Nonlinearity correction enabled: false
Boxcar width: 0
Storing dark spectrum: false
XAxis mode: Wavelengths
Number of Pixels in Spectrum: 1024
>>>>>Begin Spectral Data<<<<<
801.071	8020
801.214	8092
801.356	7871
801.499	7970
801.641	7750
801.783	7887
801.926	7940
802.068	8024
802.211	7986
802.353	8046
802.496	7837
802.638	7978
802.78	7917
802.923	7925
803.065	7917
803.208	7887
803.35	7982
803.492	8054
803.635	8206
803.777	8012
803.919	8218
804.061	8465
804.204	8130
804.346	8126
804.488	7978
804.63	8130
804.773	8020
804.915	8119
805.057	8244
805.199	8077
805.341	8176
805.483	8263
805.626	8214
805.768	8164
805.91	8229
806.052	8210
806.194	8100
806.336	8279
806.478	8115
806.62	8103
806.762	8134
806.904	8210
807.046	8484
807.188	8427
807.33	8320
807.472	8370
807.614	8123
807.756	8111
807.898	7989
808.04	7868
808.182	7902
808.324	7940
808.465	7868
808.607	8039
808.749	8054
808.891	8229
809.033	8309
809.174	8305
809.316	8183
809.458	8077
809.6	8043
809.741	8062
809.883	8077
810.025	8180
810.166	8077
810.308	8031
810.45	7951
810.591	7826
810.733	7776
810.875	7666
811.016	7552
811.158	7586
811.299	7597
811.441	7696
811.582	7750
811.724	7559
811.865	7483
812.007	7582
812.148	7647
812.29	7624
812.431	7769
812.573	7932
812.714	7967
812.855	8138
812.997	8210
813.138	8290
813.279	8092
813.421	8035
813.562	7974
813.703	7826
813.845	7772
813.986	7400
814.127	7240
814.268	7194
814.41	7240
814.551	7175
814.692	7202
814.833	7118
814.974	7137
815.115	7076
815.256	7008
815.397	6947
815.539	6977
815.68	6802
815.821	6779
815.962	6901
816.103	6779
816.244	6741
816.385	6620
816.526	6669
816.666	6547
816.807	6266
816.948	6464
817.089	6441
817.23	6407
817.371	6350
817.512	6372
817.653	6422
817.793	6372
817.934	6437
818.075	6452
818.216	6437
818.356	6410
818.497	6277
818.638	6095
818.778	6201
818.919	6190
819.06	6216
819.2	6346
819.341	6289
819.481	6426
819.622	6570
819.762	6776
819.903	6760
820.043	6642
820.184	6616
820.324	6547
820.465	6749
820.605	6684
820.746	6684
820.886	6566
821.026	6616
821.167	6764
821.307	6741
821.447	6757
821.588	6669
821.728	6620
821.868	6506
822.008	6311
822.149	6372
822.289	6399
822.429	6136
822.569	6114
822.709	6114
822.849	5931
822.99	5923
823.13	5961
823.27	5958
823.41	5836
823.55	5809
823.69	5790
823.83	5828
823.97	5699
824.11	5455
824.25	5585
824.389	5562
824.529	5524
824.669	5554
824.809	5619
824.949	5661
825.089	5661
825.228	5623
825.368	5414
825.508	5360
825.648	5326
825.787	5387
825.927	5360
826.067	5280
826.206	5383
826.346	5383
826.485	5372
826.625	5429
826.765	5554
826.904	5467
827.044	5303
827.183	5235
827.323	5178
827.462	5239
827.601	5178
827.741	5231
827.88	5261
828.02	5052
828.159	5269
828.298	5318
828.437	5387
828.577	5315
828.716	5520
828.855	5322
828.994	5174
829.134	5147
829.273	5223
829.412	5132
829.551	5128
829.69	5159
829.829	5292
829.968	5387
830.107	5261
830.246	5311
830.385	5140
830.524	5128
830.663	5071
830.802	4961
830.941	4927
831.08	4877
831.219	4984
831.357	4991
831.496	5159
831.635	4946
831.774	4866
831.913	4847
832.051	4744
832.19	4771
832.329	4828
832.467	4744
832.606	4664
832.744	4729
832.883	4759
833.022	4755
833.16	4809
833.299	4782
833.437	4873
833.576	4843
833.714	4896
833.852	4847
833.991	4866
834.129	4980
834.267	4987
834.406	4965
834.544	4957
834.682	4976
834.821	5025
834.959	5201
835.097	5010
835.235	5170
835.373	5143
835.511	5121
835.65	5003
835.788	5033
835.926	4961
836.064	4873
836.202	4908
836.34	5208
836.478	5273
836.615	5105
836.753	5258
836.891	5326
837.029	5318
837.167	5181
837.305	5185
837.443	5128
837.58	5067
837.718	5250
837.856	5151
837.993	5162
838.131	5223
838.269	5201
838.406	5197
838.544	5159
838.681	5025
838.819	5010
838.956	4896
839.094	4930
839.231	4968
839.369	5094
839.506	5402
839.643	5235
839.781	5113
839.918	5048
840.055	5105
840.193	5143
840.33	5124
840.467	5159
840.604	5143
840.742	5421
840.879	5086
841.016	5136
841.153	5223
841.29	5345
841.427	5326
841.564	5254
841.701	5349
841.838	5265
841.975	5242
842.112	5254
842.249	5109
842.385	5124
842.522	5379
842.659	5174
842.796	5147
842.933	5178
843.069	5117
843.206	5147
843.343	5391
843.479	5277
843.616	5246
843.752	5041
843.889	4984
844.025	5227
844.162	5029
844.298	5223
844.435	5094
844.571	5037
844.708	5208
844.844	5288
844.98	5337
845.117	5299
845.253	5113
845.389	5079
845.525	5178
845.661	5136
845.798	5075
845.934	5140
846.07	5060
846.206	5181
846.342	5330
846.478	5181
846.614	5014
846.75	4999
846.886	4904
847.022	5102
847.158	4991
847.294	5086
847.429	5121
847.565	5071
847.701	5337
847.837	4873
847.972	4854
848.108	4942
848.244	4949
848.379	4847
848.515	4740
848.65	4714
848.786	4729
848.921	4778
849.057	4885
849.192	4930
849.328	4839
849.463	4862
849.598	4782
849.734	4778
849.869	4694
850.004	4683
850.14	4691
850.275	4645
850.41	4538
850.545	4592
850.68	4645
850.815	4653
850.95	4611
851.085	4839
851.22	4774
851.355	4702
851.49	4615
851.625	4645
851.76	4641
851.895	4546
852.03	4481
852.165	4687
852.299	4748
852.434	4774
852.569	4763
852.703	4767
852.838	4873
852.973	4938
853.107	4949
853.242	4755
853.376	4702
853.511	4542
853.645	4694
853.78	4755
853.914	4668
854.048	4691
854.183	4618
854.317	4740
854.451	4835
854.585	4664
854.72	4656
854.854	4725
854.988	4592
855.122	4660
855.256	4535
855.39	4672
855.524	4786
855.658	4691
855.792	4683
855.926	4721
856.06	4778
856.194	4786
856.327	4702
856.461	4618
856.595	4630
856.729	4626
856.862	4721
856.996	4706
857.13	4725
857.263	4759
857.397	4790
857.53	4702
857.664	4767
857.797	4812
857.931	4771
858.064	4706
858.197	4752
858.331	4618
858.464	4630
858.597	4546
858.731	4645
858.864	4607
858.997	4592
859.13	4618
859.263	4607
859.396	4714
859.529	4622
859.662	4550
859.795	4561
859.928	4630
860.061	4812
860.194	4721
860.327	4607
860.46	4531
860.592	4702
860.725	4698
860.858	4733
860.99	4550
861.123	4527
861.256	4531
861.388	4641
861.521	5277
861.653	4478
861.786	4489
861.918	4485
862.05	4523
862.183	4569
862.315	4584
862.447	4672
862.58	4516
862.712	4421
862.844	4310
862.976	4481
863.108	4447
863.24	4744
863.372	4299
863.504	4405
863.636	4413
863.768	4531
863.9	4462
864.032	4398
864.164	4428
864.296	4451
864.428	4592
864.559	4592
864.691	4516
864.823	4497
864.954	4516
865.086	4542
865.217	4481
865.349	4405
865.48	4459
865.612	4523
865.743	4653
865.875	4428
866.006	4428
866.137	4474
866.269	4493
866.4	4421
866.531	4481
866.662	4383
866.793	4383
866.924	4421
867.055	4508
867.186	4478
867.317	4394
867.448	4394
867.579	4375
867.71	4402
867.841	4318
867.972	4466
868.103	4436
868.233	4455
868.364	4424
868.495	4519
868.625	4653
868.756	4786
868.886	4565
869.017	4630
869.147	4736
869.278	4759
869.408	4660
869.539	4660
869.669	4744
869.799	4660
869.929	4767
870.06	4736
870.19	4949
870.32	4904
870.45	4938
870.58	5037
870.71	5090
870.84	5086
870.97	4942
871.1	4877
871.23	5140
871.36	5193
871.489	5033
871.619	5071
871.749	5155
871.879	5098
872.008	5147
872.138	5071
872.267	4957
872.397	4866
872.526	4828
872.656	4706
872.785	4835
872.915	4984
873.044	5067
873.173	4942
873.303	4953
873.432	4984
873.561	4965
873.69	4870
873.819	4854
873.948	4915
874.077	4831
874.206	4812
874.335	4805
874.464	4930
874.593	5094
874.722	5022
874.851	5060
874.979	5083
875.108	5067
875.237	4942
875.365	4927
875.494	4900
875.623	5010
875.751	4828
875.88	4900
876.008	5010
876.136	5094
876.265	5170
876.393	5318
876.521	5269
876.65	5227
876.778	5121
876.906	5056
877.034	5048
877.162	5052
877.29	4999
877.418	5102
877.546	5010
877.674	5064
877.802	5052
877.93	4999
878.058	4953
878.185	4873
878.313	4968
878.441	4930
878.568	4816
878.696	4889
878.824	4976
878.951	4984
879.079	5098
879.206	5284
879.333	5067
879.461	4930
879.588	4980
879.715	5117
879.842	5189
879.97	5048
880.097	4778
880.224	4729
880.351	4831
880.478	4786
880.605	4801
880.732	4790
880.859	5113
880.986	4892
881.112	4957
881.239	4809
881.366	4702
881.493	4580
881.619	4634
881.746	4645
881.872	4615
881.999	4656
882.125	4672
882.252	4801
882.378	4820
882.505	4987
882.631	4862
882.757	4649
882.883	4721
883.01	4733
883.136	4649
883.262	4641
883.388	4607
883.514	4824
883.64	4828
883.766	4816
883.892	4634
884.018	4706
884.143	4877
884.269	4987
884.395	4653
884.52	4630
884.646	4618
884.772	4546
884.897	4561
885.023	4656
885.148	4793
885.274	4816
885.399	4850
885.524	4694
885.65	4717
885.775	4740
885.9	4714
886.025	4843
886.15	4778
886.275	4672
886.4	4656
886.525	4717
886.65	4721
886.775	4660
886.9	4923
887.025	4987
887.149	4797
887.274	4637
887.399	4558
887.523	4561
887.648	4565
887.773	4588
887.897	4763
888.021	4774
888.146	4660
888.27	4812
888.395	4927
888.519	4778
888.643	4824
888.767	4793
888.891	4687
889.015	4603
889.139	4691
889.263	4622
889.387	4752
889.511	4873
889.635	4797
889.759	4580
889.883	4634
890.006	4721
890.13	4805
890.254	4603
890.377	4622
890.501	4573
890.624	4550
890.748	4584
890.871	4489
890.995	4428
891.118	4398
891.241	4523
891.364	4607
891.488	4573
891.611	4500
891.734	4489
891.857	4634
891.98	4569
892.103	4615
892.226	4660
892.349	4500
892.471	4466
892.594	4550
892.717	4603
892.839	4538
892.962	4599
893.085	4683
893.207	4603
893.33	4481
893.452	4493
893.575	4679
893.697	4554
893.819	4793
893.941	4862
894.064	4729
894.186	4592
894.308	4569
894.43	4793
894.552	4797
894.674	4752
894.796	4550
894.918	4596
895.04	4558
895.161	4706
895.283	4729
895.405	4569
895.526	4645
895.648	4687
895.769	4672
895.891	4736
896.012	4729
896.134	4736
896.255	4622
896.376	4653
896.498	4611
896.619	4691
896.74	4622
896.861	4664
896.982	4900
897.103	5079
897.224	4816
897.345	4782
897.466	4675
897.587	4774
897.708	4835
897.828	4736
897.949	4698
898.07	4573
898.19	4584
898.311	4801
898.431	4702
898.552	4694
898.672	4782
898.792	4843
898.913	4782
899.033	4634
899.153	4459
899.273	4409
899.393	4516
899.513	4500
899.633	4512
899.753	4478
899.873	4531
899.993	4569
900.113	4588
900.232	4611
900.352	4508
900.472	4493
900.591	4421
900.711	4504
900.83	4405
900.95	4554
901.069	4668
901.189	4550
901.308	4371
901.427	4341
901.546	4371
901.665	4440
901.784	4470
901.904	4371
902.023	4341
902.141	4204
902.26	4158
902.379	4318
902.498	4280
902.617	4253
902.735	4367
902.854	4386
902.973	4371
903.091	4200
903.21	4215
903.328	4329
903.446	4287
903.565	4257
903.683	4337
903.801	4257
903.919	4383
904.038	4443
904.156	4314
904.274	4424
904.392	4421
904.51	4470
904.627	4466
904.745	4569
904.863	4630
904.981	4379
905.098	4318
905.216	4367
905.334	4428
905.451	4424
905.569	4383
905.686	4588
905.803	4516
905.921	4413
906.038	4569
906.155	4459
906.272	4379
906.389	4432
906.506	4284
906.623	4402
906.74	4379
906.857	4284
906.974	4348
907.091	4546
907.208	4679
907.324	4558
907.441	4512
907.557	4352
907.674	4299
907.79	4329
907.907	4417
908.023	4493
908.139	4489
908.256	4394
908.372	4455
908.488	4447
908.604	4371
908.72	4333
908.836	4379
908.952	4424
909.068	4451
909.184	4542
909.3	4405
909.415	4569
909.531	4554
909.647	4356
909.762	4409
909.878	4348
909.993	4398
910.108	4375
910.224	4421
910.339	4508
910.454	4440
910.57	4383
910.685	4306
910.8	4649
910.915	4630
911.03	4481
911.145	4303
911.259	4379
911.374	4405
911.489	4287
911.604	4261
911.718	4120
911.833	4192
911.947	4074
912.062	4071
912.176	4207
912.291	4249
912.405	4261
912.519	4474
912.633	4542
912.748	4386
912.862	4344
912.976	4257
913.09	4112
913.204	4200
913.318	4249
913.431	4360
913.545	4356
913.659	4363
913.772	4360
913.886	4227
914	4276
914.113	4436
914.226	4440
914.34	4363
914.453	4219
914.566	4394
914.68	4303
914.793	4299
914.906	4192
915.019	4124
915.132	4086
915.245	4166
915.358	4162
915.47	4234
915.583	4280
915.696	4272
915.809	4390
915.921	4386
916.034	4242
916.146	4223
916.259	4211
916.371	4383
916.483	4367
916.595	4257
916.708	4322
916.82	4329
916.932	4341
917.044	4322
917.156	4333
917.268	4227
917.38	4287
917.491	4230
917.603	4325
917.715	4424
917.826	4405
917.938	4371
918.049	4284
918.161	4455
918.272	4550
918.384	4550
918.495	4436
918.606	4322
918.717	4204
918.828	4348
918.939	4375
919.05	4284
919.161	4371
919.272	4093
919.383	4234
919.494	4428
919.604	4637
919.715	4428
919.826	4314
919.936	4352
920.047	4542
920.157	4470
920.267	4714
920.378	4573
920.488	4538
920.598	4672
920.708	4889
920.818	4706
920.928	4714
921.038	4927
921.148	4881
921.258	4588
921.368	4565
921.477	4466
921.587	4485
921.697	4379
921.806	4538
921.916	4417
922.025	4215
922.134	4261
922.244	4223
922.353	4348
922.462	4181
922.571	4124
922.68	4010
922.789	3994
922.898	4013
923.007	3987
923.116	4109
923.224	4078
923.333	4044
923.442	3983
923.55	3941
923.659	4044
923.767	4120
923.876	3983
923.984	4101
924.092	3979
924.201	4059
924.309	4090
924.417	4082
924.525	4044
924.633	4120
924.741	4995
924.849	3926
924.956	4090
925.064	3991
925.172	3941
925.279	3972
925.387	4006
925.494	4109
925.602	4230
925.709	4143
925.816	4055
925.924	4124
926.031	4227
926.138	4139
926.245	4185
926.352	4090
926.459	4272
926.566	4253
926.673	4116
926.779	4093
926.886	4029
926.993	3975
927.099	3964
927.206	3926
927.312	3930
927.419	4059
927.525	4036
927.631	4063
927.737	3956
927.843	3930
927.95	3873
928.056	3945
928.162	3979
928.267	4044
928.373	4565
928.479	4090
928.585	3854
928.69	4036
928.796	4055
928.901	3968
929.007	3850
929.112	3983
929.218	3956
929.323	3945
929.428	3918
929.533	4097
929.638	3888
929.743	3975
929.848	4025
929.953	3998
930.058	3960
930.163	3785
930.267	3835
930.372	3934
930.477	3804
930.581	4078
930.685	3915
930.79	3808
930.894	3888
930.998	3869
931.103	4032
931.207	3728
931.311	3667
931.415	3663
931.519	3519
931.623	3542
