Data from test_V78500241_2194.txt Node
Date: Fri Mar 25 17:04:15 CST 2022
User: usil
Spectrometer: V785-0024
Trigger mode: 0
Integration Time (sec): 4.000000E-1
Scans to average: 1
Nonlinearity correction enabled: false
Boxcar width: 0
Storing dark spectrum: false
XAxis mode: Wavelengths
Number of Pixels in Spectrum: 1024
>>>>>Begin Spectral Data<<<<<
801.071	7986
801.214	8092
801.356	7864
801.499	7818
801.641	7795
801.783	7871
801.926	8001
802.068	7909
802.211	7997
802.353	7978
802.496	7868
802.638	7883
802.78	7845
802.923	7982
803.065	7864
803.208	7883
803.35	8031
803.492	8100
803.635	8138
803.777	8031
803.919	8149
804.061	8431
804.204	8149
804.346	8001
804.488	7947
804.63	8100
804.773	8031
804.915	8054
805.057	8256
805.199	8092
805.341	8252
805.483	8301
805.626	8176
805.768	8195
805.91	8153
806.052	8202
806.194	8092
806.336	8267
806.478	8130
806.62	8092
806.762	8195
806.904	8256
807.046	8484
807.188	8366
807.33	8298
807.472	8389
807.614	8210
807.756	8183
807.898	8084
808.04	7906
808.182	7925
808.324	7894
808.465	7875
808.607	8077
808.749	8107
808.891	8214
809.033	8279
809.174	8286
809.316	8134
809.458	8092
809.6	8077
809.741	7989
809.883	8016
810.025	8138
810.166	8092
810.308	8035
810.45	7986
810.591	7875
810.733	7757
810.875	7689
811.016	7609
811.158	7506
811.299	7609
811.441	7750
811.582	7738
811.724	7567
811.865	7552
812.007	7681
812.148	7571
812.29	7601
812.431	7814
812.573	7887
812.714	7974
812.855	8145
812.997	8214
813.138	8370
813.279	8153
813.421	8081
813.562	7921
813.703	7818
813.845	7712
813.986	7400
814.127	7232
814.268	7240
814.41	7194
814.551	7179
814.692	7179
814.833	7110
814.974	7095
815.115	7099
815.256	6977
815.397	6935
815.539	6939
815.68	6818
815.821	6757
815.962	6852
816.103	6802
816.244	6688
816.385	6623
816.526	6688
816.666	6513
816.807	6251
816.948	6403
817.089	6471
817.23	6467
817.371	6426
817.512	6399
817.653	6391
817.793	6372
817.934	6365
818.075	6456
818.216	6452
818.356	6479
818.497	6296
818.638	6205
818.778	6216
818.919	6114
819.06	6201
819.2	6334
819.341	6357
819.481	6346
819.622	6544
819.762	6734
819.903	6776
820.043	6551
820.184	6620
820.324	6578
820.465	6726
820.605	6684
820.746	6627
820.886	6521
821.026	6669
821.167	6749
821.307	6768
821.447	6749
821.588	6688
821.728	6604
821.868	6471
822.008	6304
822.149	6380
822.289	6353
822.429	6182
822.569	6068
822.709	6102
822.849	6015
822.99	5882
823.13	5939
823.27	5904
823.41	5756
823.55	5790
823.69	5741
823.83	5745
823.97	5691
824.11	5551
824.25	5528
824.389	5547
824.529	5585
824.669	5535
824.809	5638
824.949	5581
825.089	5592
825.228	5558
825.368	5410
825.508	5254
825.648	5395
825.787	5433
825.927	5395
826.067	5318
826.206	5235
826.346	5410
826.485	5341
826.625	5425
826.765	5581
826.904	5467
827.044	5235
827.183	5220
827.323	5178
827.462	5254
827.601	5147
827.741	5189
827.88	5277
828.02	5208
828.159	5208
828.298	5296
828.437	5345
828.577	5337
828.716	5440
828.855	5330
828.994	5117
829.134	5155
829.273	5201
829.412	5109
829.551	5140
829.69	5181
829.829	5318
829.968	5421
830.107	5311
830.246	5277
830.385	5193
830.524	5124
830.663	5064
830.802	5018
830.941	4915
831.08	4923
831.219	5045
831.357	4957
831.496	5178
831.635	4927
831.774	4847
831.913	4831
832.051	4717
832.19	4733
832.329	4854
832.467	4664
832.606	4592
832.744	4710
832.883	4721
833.022	4752
833.16	4778
833.299	4854
833.437	4850
833.576	4805
833.714	4858
833.852	4850
833.991	4911
834.129	4961
834.267	4965
834.406	4900
834.544	4953
834.682	4984
834.821	4957
834.959	5143
835.097	4968
835.235	5178
835.373	5083
835.511	5128
835.65	5052
835.788	5048
835.926	4889
836.064	4858
836.202	4919
836.34	5227
836.478	5223
836.615	5109
836.753	5166
836.891	5318
837.029	5220
837.167	5216
837.305	5181
837.443	5181
837.58	5052
837.718	5227
837.856	5170
837.993	5181
838.131	5284
838.269	5178
838.406	5178
838.544	5193
838.681	5075
838.819	4999
838.956	4927
839.094	4896
839.231	4980
839.369	5121
839.506	5429
839.643	5261
839.781	5048
839.918	5022
840.055	5140
840.193	5094
840.33	5132
840.467	5140
840.604	5166
840.742	5501
840.879	5067
841.016	5071
841.153	5162
841.29	5436
841.427	5288
841.564	5364
841.701	5383
841.838	5265
841.975	5223
842.112	5273
842.249	5136
842.385	5079
842.522	5330
842.659	5185
842.796	5113
842.933	5166
843.069	5132
843.206	5216
843.343	5379
843.479	5269
843.616	5284
843.752	5006
843.889	5048
844.025	5223
844.162	5022
844.298	5197
844.435	5102
844.571	5090
844.708	5159
844.844	5322
844.98	5372
845.117	5345
845.253	5189
845.389	5075
845.525	5132
845.661	5140
845.798	5041
845.934	5155
846.07	5041
846.206	5174
846.342	5284
846.478	5159
846.614	5025
846.75	4942
846.886	4965
847.022	5136
847.158	5022
847.294	5033
847.429	5132
847.565	5079
847.701	5296
847.837	4862
847.972	4801
848.108	4965
848.244	4946
848.379	4786
848.515	4702
848.65	4683
848.786	4774
848.921	4812
849.057	4858
849.192	4942
849.328	4828
849.463	4850
849.598	4843
849.734	4740
849.869	4687
850.004	4641
850.14	4691
850.275	4558
850.41	4500
850.545	4538
850.68	4630
850.815	4588
850.95	4637
851.085	4870
851.22	4736
851.355	4691
851.49	4615
851.625	4592
851.76	4679
851.895	4565
852.03	4527
852.165	4630
852.299	4717
852.434	4752
852.569	4752
852.703	4790
852.838	4908
852.973	4930
853.107	4938
853.242	4771
853.376	4660
853.511	4535
853.645	4577
853.78	4782
853.914	4710
854.048	4679
854.183	4645
854.317	4721
854.451	4809
854.585	4710
854.72	4626
854.854	4744
854.988	4596
855.122	4607
855.256	4493
855.39	4725
855.524	4793
855.658	4733
855.792	4660
855.926	4698
856.06	4755
856.194	4759
856.327	4706
856.461	4611
856.595	4618
856.729	4683
856.862	4771
856.996	4714
857.13	4702
857.263	4759
857.397	4805
857.53	4656
857.664	4759
857.797	4774
857.931	4725
858.064	4694
858.197	4706
858.331	4660
858.464	4588
858.597	4504
858.731	4626
858.864	4656
858.997	4599
859.13	4672
859.263	4691
859.396	4736
859.529	4588
859.662	4500
859.795	4554
859.928	4622
860.061	4755
860.194	4736
860.327	4618
860.46	4573
860.592	4721
860.725	4645
860.858	4782
860.99	4603
861.123	4504
861.256	4466
861.388	4592
861.521	5398
861.653	4485
861.786	4447
861.918	4440
862.05	4512
862.183	4538
862.315	4618
862.447	4710
862.58	4550
862.712	4383
862.844	4303
862.976	4432
863.108	4402
863.24	4805
863.372	4367
863.504	4383
863.636	4413
863.768	4489
863.9	4421
864.032	4402
864.164	4375
864.296	4443
864.428	4565
864.559	4550
864.691	4573
864.823	4516
864.954	4466
865.086	4512
865.217	4478
865.349	4428
865.48	4443
865.612	4493
865.743	4637
865.875	4466
866.006	4432
866.137	4440
866.269	4455
866.4	4428
866.531	4379
866.662	4421
866.793	4413
866.924	4417
867.055	4462
867.186	4432
867.317	4432
867.448	4363
867.579	4383
867.71	4390
867.841	4383
867.972	4478
868.103	4462
868.233	4455
868.364	4455
868.495	4470
868.625	4691
868.756	4763
868.886	4550
869.017	4634
869.147	4748
869.278	4748
869.408	4687
869.539	4618
869.669	4698
869.799	4672
869.929	4736
870.06	4771
870.19	4949
870.32	4911
870.45	4881
870.58	4980
870.71	5052
870.84	5136
870.97	4908
871.1	4892
871.23	5174
871.36	5067
871.489	5037
871.619	5162
871.749	5071
871.879	5143
872.008	5178
872.138	5014
872.267	4915
872.397	4870
872.526	4801
872.656	4725
872.785	4771
872.915	4980
873.044	5048
873.173	4919
873.303	4957
873.432	4965
873.561	4987
873.69	4889
873.819	4904
873.948	4919
874.077	4858
874.206	4763
874.335	4812
874.464	4866
874.593	5060
874.722	4991
874.851	5109
874.979	5018
875.108	5029
875.237	4847
875.365	4854
875.494	4873
875.623	4961
875.751	4835
875.88	4885
876.008	5010
876.136	5041
876.265	5212
876.393	5269
876.521	5261
876.65	5204
876.778	5143
876.906	5083
877.034	4972
877.162	5048
877.29	4972
877.418	5045
877.546	5052
877.674	5064
877.802	5033
877.93	5029
878.058	4896
878.185	4858
878.313	4934
878.441	4965
878.568	4778
878.696	4809
878.824	4957
878.951	5041
879.079	5098
879.206	5311
879.333	5117
879.461	4949
879.588	4968
879.715	5117
879.842	5212
879.97	5025
880.097	4828
880.224	4771
880.351	4812
880.478	4801
880.605	4755
880.732	4812
880.859	5079
880.986	4881
881.112	4885
881.239	4812
881.366	4668
881.493	4599
881.619	4577
881.746	4637
881.872	4626
881.999	4683
882.125	4683
882.252	4805
882.378	4812
882.505	4961
882.631	4839
882.757	4694
882.883	4698
883.01	4725
883.136	4645
883.262	4615
883.388	4611
883.514	4812
883.64	4854
883.766	4763
883.892	4653
884.018	4736
884.143	4904
884.269	4991
884.395	4694
884.52	4656
884.646	4630
884.772	4561
884.897	4573
885.023	4664
885.148	4771
885.274	4870
885.399	4801
885.524	4710
885.65	4664
885.775	4740
885.9	4717
886.025	4862
886.15	4755
886.275	4672
886.4	4672
886.525	4736
886.65	4702
886.775	4710
886.9	4919
887.025	5048
887.149	4858
887.274	4599
887.399	4542
887.523	4588
887.648	4588
887.773	4542
887.897	4729
888.021	4752
888.146	4679
888.27	4809
888.395	4911
888.519	4824
888.643	4778
888.767	4820
888.891	4679
889.015	4634
889.139	4679
889.263	4637
889.387	4740
889.511	4850
889.635	4786
889.759	4641
889.883	4672
890.006	4698
890.13	4831
890.254	4637
890.377	4664
890.501	4535
890.624	4519
890.748	4649
890.871	4443
890.995	4413
891.118	4432
891.241	4523
891.364	4577
891.488	4698
891.611	4485
891.734	4523
891.857	4577
891.98	4550
892.103	4675
892.226	4626
892.349	4527
892.471	4402
892.594	4531
892.717	4592
892.839	4596
892.962	4630
893.085	4675
893.207	4607
893.33	4443
893.452	4554
893.575	4622
893.697	4592
893.819	4771
893.941	4759
894.064	4812
894.186	4538
894.308	4618
894.43	4717
894.552	4820
894.674	4755
894.796	4542
894.918	4603
895.04	4565
895.161	4736
895.283	4687
895.405	4531
895.526	4626
895.648	4694
895.769	4649
895.891	4740
896.012	4714
896.134	4748
896.255	4679
896.376	4664
896.498	4580
896.619	4683
896.74	4618
896.861	4630
896.982	4904
897.103	5056
897.224	4824
897.345	4744
897.466	4683
897.587	4698
897.708	4843
897.828	4774
897.949	4679
898.07	4596
898.19	4687
898.311	4843
898.431	4664
898.552	4740
898.672	4839
898.792	4839
898.913	4748
899.033	4618
899.153	4497
899.273	4462
899.393	4485
899.513	4519
899.633	4558
899.753	4573
899.873	4577
899.993	4561
900.113	4607
900.232	4599
900.352	4535
900.472	4531
900.591	4379
900.711	4523
900.83	4428
900.95	4653
901.069	4664
901.189	4538
901.308	4371
901.427	4322
901.546	4409
901.665	4459
901.784	4500
901.904	4383
902.023	4318
902.141	4173
902.26	4158
902.379	4344
902.498	4257
902.617	4227
902.735	4348
902.854	4356
902.973	4299
903.091	4185
903.21	4265
903.328	4318
903.446	4272
903.565	4227
903.683	4352
903.801	4306
903.919	4405
904.038	4413
904.156	4310
904.274	4405
904.392	4402
904.51	4398
904.627	4474
904.745	4596
904.863	4626
904.981	4363
905.098	4257
905.216	4402
905.334	4428
905.451	4455
905.569	4500
905.686	4485
905.803	4550
905.921	4405
906.038	4546
906.155	4462
906.272	4421
906.389	4440
906.506	4398
906.623	4356
906.74	4394
906.857	4257
906.974	4383
907.091	4531
907.208	4694
907.324	4607
907.441	4500
907.557	4363
907.674	4303
907.79	4306
907.907	4371
908.023	4421
908.139	4493
908.256	4455
908.372	4519
908.488	4447
908.604	4337
908.72	4284
908.836	4367
908.952	4417
909.068	4424
909.184	4569
909.3	4424
909.415	4584
909.531	4455
909.647	4383
909.762	4413
909.878	4352
909.993	4379
910.108	4344
910.224	4398
910.339	4455
910.454	4390
910.57	4363
910.685	4314
910.8	4607
910.915	4637
911.03	4478
911.145	4318
911.259	4303
911.374	4325
911.489	4246
911.604	4204
911.718	4181
911.833	4196
911.947	4086
912.062	4040
912.176	4227
912.291	4246
912.405	4227
912.519	4443
912.633	4489
912.748	4363
912.862	4272
912.976	4215
913.09	4055
913.204	4204
913.318	4257
913.431	4402
913.545	4352
913.659	4390
913.772	4363
913.886	4246
914	4204
914.113	4383
914.226	4390
914.34	4402
914.453	4219
914.566	4428
914.68	4272
914.793	4352
914.906	4169
915.019	4131
915.132	4093
915.245	4211
915.358	4215
915.47	4291
915.583	4257
915.696	4291
915.809	4383
915.921	4402
916.034	4276
916.146	4227
916.259	4211
916.371	4329
916.483	4337
916.595	4219
916.708	4291
916.82	4299
916.932	4322
917.044	4318
917.156	4318
917.268	4238
917.38	4299
917.491	4287
917.603	4280
917.715	4421
917.826	4451
917.938	4344
918.049	4192
918.161	4379
918.272	4554
918.384	4531
918.495	4455
918.606	4268
918.717	4181
918.828	4360
918.939	4360
919.05	4322
919.161	4306
919.272	4109
919.383	4200
919.494	4466
919.604	4653
919.715	4459
919.826	4363
919.936	4356
920.047	4550
920.157	4538
920.267	4725
920.378	4538
920.488	4527
920.598	4675
920.708	4858
920.818	4778
920.928	4733
921.038	4972
921.148	4923
921.258	4634
921.368	4573
921.477	4474
921.587	4440
921.697	4398
921.806	4554
921.916	4432
922.025	4261
922.134	4257
922.244	4261
922.353	4329
922.462	4200
922.571	4158
922.68	4010
922.789	3926
922.898	4017
923.007	3956
923.116	4051
923.224	4051
923.333	4109
923.442	4029
923.55	3953
923.659	4044
923.767	4154
923.876	4029
923.984	4105
924.092	4017
924.201	4036
924.309	4093
924.417	4109
924.525	4013
924.633	4097
924.741	5029
924.849	3926
924.956	4135
925.064	3956
925.172	3915
925.279	4002
925.387	4025
925.494	4082
925.602	4196
925.709	4154
925.816	4051
925.924	4128
926.031	4234
926.138	4177
926.245	4177
926.352	4112
926.459	4280
926.566	4322
926.673	4135
926.779	4063
926.886	4067
926.993	3964
927.099	3941
927.206	3945
927.312	3964
927.419	4032
927.525	4044
927.631	4071
927.737	3930
927.843	3968
927.95	3842
928.056	3934
928.162	3941
928.267	4078
928.373	4679
928.479	4101
928.585	3865
928.69	4036
928.796	4013
928.901	3968
929.007	3869
929.112	3964
929.218	3983
929.323	3903
929.428	3945
929.533	4124
929.638	3899
929.743	3945
929.848	4025
929.953	4048
930.058	3926
930.163	3743
930.267	3831
930.372	3979
930.477	3831
930.581	4044
930.685	4002
930.79	3781
930.894	3888
930.998	3869
931.103	4055
931.207	3740
931.311	3686
931.415	3652
931.519	3485
931.623	3576
