Data from test_V78500241_661.txt Node
Date: Fri Mar 25 16:53:35 CST 2022
User: usil
Spectrometer: V785-0024
Trigger mode: 0
Integration Time (sec): 4.000000E-1
Scans to average: 1
Nonlinearity correction enabled: false
Boxcar width: 0
Storing dark spectrum: false
XAxis mode: Wavelengths
Number of Pixels in Spectrum: 1024
>>>>>Begin Spectral Data<<<<<
801.071	7986
801.214	8020
801.356	7856
801.499	7856
801.641	7826
801.783	7860
801.926	8065
802.068	7940
802.211	7989
802.353	8016
802.496	7837
802.638	7986
802.78	7936
802.923	7909
803.065	7826
803.208	7864
803.35	8050
803.492	8119
803.635	8176
803.777	8016
803.919	8130
804.061	8400
804.204	8046
804.346	8050
804.488	7944
804.63	8092
804.773	8062
804.915	8172
805.057	8290
805.199	8145
805.341	8252
805.483	8294
805.626	8202
805.768	8195
805.91	8180
806.052	8191
806.194	8073
806.336	8252
806.478	8214
806.62	8054
806.762	8107
806.904	8279
807.046	8530
807.188	8381
807.33	8347
807.472	8336
807.614	8263
807.756	8138
807.898	8027
808.04	7852
808.182	7906
808.324	7909
808.465	7898
808.607	8073
808.749	8126
808.891	8229
809.033	8244
809.174	8187
809.316	8054
809.458	8027
809.6	7986
809.741	7997
809.883	7959
810.025	8088
810.166	8096
810.308	8020
810.45	8043
810.591	7967
810.733	7750
810.875	7658
811.016	7582
811.158	7502
811.299	7590
811.441	7712
811.582	7677
811.724	7552
811.865	7563
812.007	7643
812.148	7613
812.29	7594
812.431	7700
812.573	7864
812.714	7940
812.855	8187
812.997	8206
813.138	8339
813.279	8290
813.421	8103
813.562	8077
813.703	7807
813.845	7738
813.986	7487
814.127	7339
814.268	7194
814.41	7202
814.551	7065
814.692	7175
814.833	7103
814.974	7103
815.115	7080
815.256	6981
815.397	6996
815.539	6856
815.68	6878
815.821	6852
815.962	6859
816.103	6791
816.244	6703
816.385	6582
816.526	6654
816.666	6441
816.807	6342
816.948	6437
817.089	6448
817.23	6448
817.371	6414
817.512	6399
817.653	6384
817.793	6346
817.934	6456
818.075	6464
818.216	6429
818.356	6426
818.497	6277
818.638	6175
818.778	6114
818.919	6178
819.06	6182
819.2	6300
819.341	6304
819.481	6369
819.622	6521
819.762	6738
819.903	6677
820.043	6623
820.184	6563
820.324	6566
820.465	6688
820.605	6646
820.746	6559
820.886	6475
821.026	6639
821.167	6722
821.307	6700
821.447	6715
821.588	6692
821.728	6551
821.868	6479
822.008	6350
822.149	6346
822.289	6308
822.429	6091
822.569	6110
822.709	6114
822.849	5901
822.99	5897
823.13	5916
823.27	5893
823.41	5741
823.55	5733
823.69	5726
823.83	5809
823.97	5684
824.11	5512
824.25	5539
824.389	5547
824.529	5573
824.669	5558
824.809	5604
824.949	5710
825.089	5615
825.228	5554
825.368	5429
825.508	5341
825.648	5436
825.787	5379
825.927	5345
826.067	5307
826.206	5258
826.346	5383
826.485	5414
826.625	5395
826.765	5577
826.904	5433
827.044	5254
827.183	5201
827.323	5086
827.462	5261
827.601	5181
827.741	5098
827.88	5201
828.02	5109
828.159	5273
828.298	5288
828.437	5410
828.577	5284
828.716	5497
828.855	5364
828.994	5220
829.134	5151
829.273	5178
829.412	5128
829.551	5136
829.69	5121
829.829	5296
829.968	5379
830.107	5246
830.246	5277
830.385	5170
830.524	5189
830.663	5094
830.802	4949
830.941	4850
831.08	4885
831.219	4991
831.357	4961
831.496	5178
831.635	4877
831.774	4843
831.913	4862
832.051	4725
832.19	4729
832.329	4835
832.467	4702
832.606	4637
832.744	4733
832.883	4679
833.022	4721
833.16	4790
833.299	4854
833.437	4820
833.576	4816
833.714	4850
833.852	4862
833.991	4904
834.129	4946
834.267	5006
834.406	4892
834.544	5025
834.682	4999
834.821	4946
834.959	5132
835.097	4968
835.235	5143
835.373	5067
835.511	5121
835.65	5025
835.788	5006
835.926	4900
836.064	4862
836.202	4870
836.34	5185
836.478	5250
836.615	5094
836.753	5208
836.891	5322
837.029	5227
837.167	5201
837.305	5151
837.443	5117
837.58	5018
837.718	5277
837.856	5201
837.993	5086
838.131	5170
838.269	5204
838.406	5155
838.544	5181
838.681	5018
838.819	4987
838.956	4900
839.094	4896
839.231	4957
839.369	5121
839.506	5402
839.643	5292
839.781	5094
839.918	5022
840.055	5090
840.193	5098
840.33	5117
840.467	5098
840.604	5181
840.742	5368
840.879	5083
841.016	5067
841.153	5159
841.29	5372
841.427	5311
841.564	5269
841.701	5341
841.838	5280
841.975	5269
842.112	5280
842.249	5102
842.385	5136
842.522	5269
842.659	5143
842.796	5128
842.933	5212
843.069	5067
843.206	5159
843.343	5273
843.479	5269
843.616	5265
843.752	4968
843.889	5010
844.025	5197
844.162	5037
844.298	5201
844.435	5083
844.571	5045
844.708	5223
844.844	5345
844.98	5280
845.117	5273
845.253	5189
845.389	5052
845.525	5121
845.661	5128
845.798	4995
845.934	5159
846.07	5025
846.206	5174
846.342	5258
846.478	5181
846.614	4995
846.75	4987
846.886	4942
847.022	5124
847.158	5022
847.294	5033
847.429	5067
847.565	5098
847.701	5322
847.837	4904
847.972	4801
848.108	4972
848.244	4900
848.379	4793
848.515	4721
848.65	4702
848.786	4729
848.921	4778
849.057	4854
849.192	4850
849.328	4839
849.463	4843
849.598	4778
849.734	4740
849.869	4698
850.004	4649
850.14	4714
850.275	4565
850.41	4523
850.545	4584
850.68	4565
850.815	4611
850.95	4611
851.085	4873
851.22	4740
851.355	4714
851.49	4596
851.625	4641
851.76	4668
851.895	4542
852.03	4542
852.165	4607
852.299	4672
852.434	4786
852.569	4755
852.703	4733
852.838	4858
852.973	4942
853.107	4892
853.242	4736
853.376	4626
853.511	4523
853.645	4626
853.78	4812
853.914	4634
854.048	4714
854.183	4660
854.317	4729
854.451	4839
854.585	4622
854.72	4653
854.854	4767
854.988	4565
855.122	4645
855.256	4550
855.39	4672
855.524	4744
855.658	4733
855.792	4687
855.926	4714
856.06	4717
856.194	4797
856.327	4698
856.461	4615
856.595	4618
856.729	4603
856.862	4759
856.996	4717
857.13	4755
857.263	4759
857.397	4843
857.53	4645
857.664	4717
857.797	4771
857.931	4778
858.064	4702
858.197	4752
858.331	4630
858.464	4603
858.597	4523
858.731	4660
858.864	4641
858.997	4592
859.13	4649
859.263	4656
859.396	4653
859.529	4588
859.662	4542
859.795	4504
859.928	4626
860.061	4847
860.194	4733
860.327	4607
860.46	4573
860.592	4698
860.725	4694
860.858	4755
860.99	4577
861.123	4478
861.256	4519
861.388	4569
861.521	5360
861.653	4459
861.786	4462
861.918	4500
862.05	4516
862.183	4558
862.315	4588
862.447	4679
862.58	4535
862.712	4371
862.844	4314
862.976	4481
863.108	4428
863.24	4866
863.372	4287
863.504	4409
863.636	4390
863.768	4455
863.9	4470
864.032	4356
864.164	4379
864.296	4546
864.428	4512
864.559	4569
864.691	4500
864.823	4569
864.954	4436
865.086	4531
865.217	4436
865.349	4402
865.48	4451
865.612	4550
865.743	4618
865.875	4516
866.006	4394
866.137	4466
866.269	4466
866.4	4424
866.531	4432
866.662	4371
866.793	4405
866.924	4417
867.055	4516
867.186	4447
867.317	4386
867.448	4363
867.579	4398
867.71	4375
867.841	4363
867.972	4417
868.103	4478
868.233	4409
868.364	4489
868.495	4451
868.625	4641
868.756	4717
868.886	4573
869.017	4622
869.147	4744
869.278	4782
869.408	4649
869.539	4630
869.669	4702
869.799	4687
869.929	4744
870.06	4717
870.19	4904
870.32	4900
870.45	4942
870.58	4961
870.71	5098
870.84	5109
870.97	4961
871.1	4942
871.23	5117
871.36	5155
871.489	5014
871.619	5121
871.749	5113
871.879	5113
872.008	5162
872.138	5052
872.267	4968
872.397	4850
872.526	4824
872.656	4694
872.785	4809
872.915	4934
873.044	5048
873.173	4908
873.303	4980
873.432	4957
873.561	4968
873.69	4850
873.819	4885
873.948	4942
874.077	4847
874.206	4744
874.335	4801
874.464	4904
874.593	5014
874.722	4987
874.851	5147
874.979	5064
875.108	5048
875.237	4873
875.365	4873
875.494	4919
875.623	4976
875.751	4870
875.88	4889
876.008	4953
876.136	5014
876.265	5193
876.393	5345
876.521	5254
876.65	5261
876.778	5151
876.906	5086
877.034	4980
877.162	5067
877.29	4991
877.418	5022
877.546	5086
877.674	5029
877.802	5029
877.93	4984
878.058	4927
878.185	4809
878.313	5029
878.441	4938
878.568	4824
878.696	4873
878.824	4972
878.951	5025
879.079	5083
879.206	5307
879.333	5094
879.461	5033
879.588	5022
879.715	5083
879.842	5265
879.97	4995
880.097	4812
880.224	4763
880.351	4736
880.478	4812
880.605	4786
880.732	4740
880.859	5094
880.986	4877
881.112	4881
881.239	4721
881.366	4675
881.493	4603
881.619	4535
881.746	4634
881.872	4630
881.999	4679
882.125	4714
882.252	4778
882.378	4797
882.505	4949
882.631	4790
882.757	4687
882.883	4702
883.01	4717
883.136	4698
883.262	4584
883.388	4611
883.514	4824
883.64	4858
883.766	4820
883.892	4679
884.018	4733
884.143	4885
884.269	4938
884.395	4683
884.52	4637
884.646	4634
884.772	4580
884.897	4558
885.023	4660
885.148	4748
885.274	4934
885.399	4782
885.524	4729
885.65	4698
885.775	4733
885.9	4706
886.025	4839
886.15	4744
886.275	4698
886.4	4622
886.525	4714
886.65	4675
886.775	4679
886.9	4930
887.025	5018
887.149	4850
887.274	4675
887.399	4615
887.523	4561
887.648	4569
887.773	4569
887.897	4835
888.021	4786
888.146	4649
888.27	4824
888.395	4908
888.519	4824
888.643	4828
888.767	4843
888.891	4660
889.015	4622
889.139	4691
889.263	4615
889.387	4767
889.511	4828
889.635	4805
889.759	4664
889.883	4668
890.006	4717
890.13	4847
890.254	4622
890.377	4740
890.501	4550
890.624	4550
890.748	4641
890.871	4481
890.995	4402
891.118	4371
891.241	4504
891.364	4546
891.488	4637
891.611	4455
891.734	4550
891.857	4577
891.98	4569
892.103	4603
892.226	4592
892.349	4516
892.471	4398
892.594	4542
892.717	4611
892.839	4531
892.962	4584
893.085	4599
893.207	4615
893.33	4428
893.452	4573
893.575	4626
893.697	4588
893.819	4778
893.941	4816
894.064	4759
894.186	4584
894.308	4618
894.43	4752
894.552	4824
894.674	4729
894.796	4538
894.918	4599
895.04	4592
895.161	4679
895.283	4618
895.405	4649
895.526	4660
895.648	4721
895.769	4694
895.891	4679
896.012	4767
896.134	4736
896.255	4649
896.376	4645
896.498	4649
896.619	4664
896.74	4607
896.861	4637
896.982	4957
897.103	5010
897.224	4763
897.345	4759
897.466	4691
897.587	4721
897.708	4911
897.828	4778
897.949	4630
898.07	4596
898.19	4679
898.311	4809
898.431	4634
898.552	4736
898.672	4805
898.792	4831
898.913	4717
899.033	4622
899.153	4478
899.273	4417
899.393	4497
899.513	4523
899.633	4508
899.753	4550
899.873	4497
899.993	4615
900.113	4535
900.232	4561
900.352	4519
900.472	4481
900.591	4356
900.711	4523
900.83	4417
900.95	4622
901.069	4672
901.189	4493
901.308	4383
901.427	4337
901.546	4344
901.665	4443
901.784	4554
901.904	4421
902.023	4310
902.141	4234
902.26	4173
902.379	4257
902.498	4242
902.617	4219
902.735	4329
902.854	4398
902.973	4375
903.091	4169
903.21	4192
903.328	4318
903.446	4295
903.565	4284
903.683	4375
903.801	4333
903.919	4386
904.038	4462
904.156	4287
904.274	4413
904.392	4363
904.51	4440
904.627	4470
904.745	4573
904.863	4611
904.981	4428
905.098	4284
905.216	4386
905.334	4390
905.451	4436
905.569	4451
905.686	4561
905.803	4569
905.921	4428
906.038	4531
906.155	4478
906.272	4405
906.389	4413
906.506	4325
906.623	4371
906.74	4383
906.857	4303
906.974	4367
907.091	4538
907.208	4694
907.324	4637
907.441	4500
907.557	4325
907.674	4360
907.79	4329
907.907	4405
908.023	4523
908.139	4478
908.256	4481
908.372	4489
908.488	4440
908.604	4337
908.72	4299
908.836	4394
908.952	4398
909.068	4394
909.184	4607
909.3	4485
909.415	4588
909.531	4554
909.647	4360
909.762	4383
909.878	4337
909.993	4474
910.108	4447
910.224	4440
910.339	4481
910.454	4436
910.57	4341
910.685	4322
910.8	4656
910.915	4569
911.03	4497
911.145	4333
911.259	4310
911.374	4386
911.489	4272
911.604	4276
911.718	4158
911.833	4154
911.947	4036
912.062	4021
912.176	4204
912.291	4238
912.405	4200
912.519	4402
912.633	4527
912.748	4356
912.862	4310
912.976	4196
913.09	4055
913.204	4185
913.318	4253
913.431	4360
913.545	4379
913.659	4440
913.772	4306
913.886	4257
914	4242
914.113	4394
914.226	4451
914.34	4394
914.453	4196
914.566	4402
914.68	4314
914.793	4318
914.906	4158
915.019	4090
915.132	4074
915.245	4204
915.358	4234
915.47	4219
915.583	4268
915.696	4295
915.809	4421
915.921	4447
916.034	4261
916.146	4246
916.259	4261
916.371	4348
916.483	4314
916.595	4303
916.708	4348
916.82	4284
916.932	4329
917.044	4261
917.156	4329
917.268	4219
917.38	4287
917.491	4303
917.603	4379
917.715	4402
917.826	4428
917.938	4375
918.049	4261
918.161	4390
918.272	4580
918.384	4519
918.495	4428
918.606	4299
918.717	4207
918.828	4341
918.939	4405
919.05	4253
919.161	4322
919.272	4128
919.383	4238
919.494	4455
919.604	4592
919.715	4474
919.826	4371
919.936	4402
920.047	4527
920.157	4474
920.267	4687
920.378	4546
920.488	4561
920.598	4679
920.708	4889
920.818	4771
920.928	4748
921.038	4961
921.148	4889
921.258	4592
921.368	4516
921.477	4512
921.587	4459
921.697	4398
921.806	4538
921.916	4432
922.025	4230
922.134	4276
922.244	4196
922.353	4322
922.462	4230
922.571	4097
922.68	3968
922.789	4006
922.898	4074
923.007	3972
923.116	4131
923.224	4090
923.333	4044
923.442	4006
923.55	3991
923.659	3972
923.767	4131
923.876	3979
923.984	4166
924.092	3945
924.201	4120
924.309	4078
924.417	4105
924.525	4036
924.633	4131
924.741	5037
924.849	3934
924.956	4105
925.064	3987
925.172	3880
925.279	3964
925.387	4044
925.494	4040
925.602	4173
925.709	4150
925.816	4071
925.924	4116
926.031	4230
926.138	4169
926.245	4177
926.352	4090
926.459	4268
926.566	4287
926.673	4169
926.779	4078
926.886	4078
926.993	3975
927.099	3941
927.206	3960
927.312	3899
927.419	4029
927.525	4048
927.631	4101
927.737	3926
927.843	3937
927.95	3869
928.056	3960
928.162	4029
928.267	4006
928.373	4694
928.479	4139
928.585	3892
928.69	4021
928.796	4116
928.901	4002
929.007	3842
929.112	3987
929.218	3960
929.323	3941
929.428	3964
929.533	4093
929.638	3922
929.743	3960
929.848	4021
929.953	4010
930.058	3953
930.163	3800
930.267	3816
930.372	3949
930.477	3816
930.581	4086
930.685	3960
930.79	3835
930.894	3869
930.998	3869
931.103	4059
931.207	3720
931.311	3705
931.415	3679
931.519	3538
931.623	3553
