Data from test_V78500241_1982.txt Node
Date: Fri Mar 25 17:02:46 CST 2022
User: usil
Spectrometer: V785-0024
Trigger mode: 0
Integration Time (sec): 4.000000E-1
Scans to average: 1
Nonlinearity correction enabled: false
Boxcar width: 0
Storing dark spectrum: false
XAxis mode: Wavelengths
Number of Pixels in Spectrum: 1024
>>>>>Begin Spectral Data<<<<<
801.071	8001
801.214	7974
801.356	7906
801.499	7902
801.641	7765
801.783	7761
801.926	7974
802.068	7913
802.211	7936
802.353	7967
802.496	7887
802.638	7830
802.78	7955
802.923	7940
803.065	7871
803.208	7795
803.35	7940
803.492	8008
803.635	8092
803.777	7993
803.919	8081
804.061	8412
804.204	8107
804.346	8039
804.488	8005
804.63	8046
804.773	7963
804.915	8103
805.057	8370
805.199	8153
805.341	8172
805.483	8252
805.626	8195
805.768	8161
805.91	8191
806.052	8279
806.194	8050
806.336	8324
806.478	8008
806.62	8100
806.762	8096
806.904	8305
807.046	8488
807.188	8336
807.33	8336
807.472	8355
807.614	8187
807.756	8134
807.898	8039
808.04	7879
808.182	7932
808.324	7860
808.465	7913
808.607	8088
808.749	8123
808.891	8153
809.033	8309
809.174	8229
809.316	8134
809.458	8054
809.6	7997
809.741	8020
809.883	8031
810.025	8161
810.166	8081
810.308	8001
810.45	8027
810.591	7879
810.733	7731
810.875	7647
811.016	7601
811.158	7480
811.299	7563
811.441	7700
811.582	7655
811.724	7597
811.865	7521
812.007	7651
812.148	7578
812.29	7616
812.431	7807
812.573	7887
812.714	8065
812.855	8161
812.997	8168
813.138	8320
813.279	8134
813.421	8043
813.562	7928
813.703	7799
813.845	7738
813.986	7373
814.127	7282
814.268	7240
814.41	7118
814.551	7190
814.692	7206
814.833	7133
814.974	7141
815.115	7164
815.256	6913
815.397	6882
815.539	6897
815.68	6798
815.821	6810
815.962	6867
816.103	6741
816.244	6688
816.385	6612
816.526	6658
816.666	6528
816.807	6342
816.948	6456
817.089	6513
817.23	6467
817.371	6369
817.512	6403
817.653	6426
817.793	6350
817.934	6391
818.075	6448
818.216	6471
818.356	6395
818.497	6308
818.638	6121
818.778	6197
818.919	6175
819.06	6140
819.2	6331
819.341	6319
819.481	6346
819.622	6517
819.762	6696
819.903	6681
820.043	6635
820.184	6620
820.324	6566
820.465	6665
820.605	6646
820.746	6711
820.886	6498
821.026	6631
821.167	6719
821.307	6738
821.447	6772
821.588	6692
821.728	6547
821.868	6460
822.008	6380
822.149	6353
822.289	6300
822.429	6087
822.569	6041
822.709	6152
822.849	5950
822.99	5923
823.13	5969
823.27	5885
823.41	5840
823.55	5783
823.69	5703
823.83	5764
823.97	5642
824.11	5577
824.25	5528
824.389	5535
824.529	5577
824.669	5566
824.809	5699
824.949	5691
825.089	5589
825.228	5577
825.368	5364
825.508	5353
825.648	5341
825.787	5391
825.927	5353
826.067	5269
826.206	5299
826.346	5372
826.485	5425
826.625	5395
826.765	5524
826.904	5459
827.044	5261
827.183	5151
827.323	5136
827.462	5174
827.601	5143
827.741	5181
827.88	5254
828.02	5124
828.159	5204
828.298	5258
828.437	5345
828.577	5239
828.716	5493
828.855	5337
828.994	5166
829.134	5105
829.273	5178
829.412	5132
829.551	5155
829.69	5147
829.829	5227
829.968	5398
830.107	5269
830.246	5280
830.385	5159
830.524	5094
830.663	5041
830.802	4957
830.941	4908
831.08	4892
831.219	5033
831.357	4927
831.496	5124
831.635	4900
831.774	4828
831.913	4793
832.051	4729
832.19	4793
832.329	4843
832.467	4729
832.606	4618
832.744	4702
832.883	4694
833.022	4725
833.16	4774
833.299	4778
833.437	4835
833.576	4835
833.714	4831
833.852	4889
833.991	4900
834.129	4919
834.267	4949
834.406	4892
834.544	4991
834.682	4991
834.821	4923
834.959	5132
835.097	4995
835.235	5098
835.373	5083
835.511	5071
835.65	5041
835.788	5037
835.926	4911
836.064	4908
836.202	4923
836.34	5124
836.478	5212
836.615	5109
836.753	5208
836.891	5254
837.029	5250
837.167	5204
837.305	5170
837.443	5201
837.58	5094
837.718	5311
837.856	5178
837.993	5121
838.131	5288
838.269	5201
838.406	5124
838.544	5212
838.681	5003
838.819	4995
838.956	4892
839.094	4896
839.231	4987
839.369	5102
839.506	5455
839.643	5239
839.781	5086
839.918	5014
840.055	5083
840.193	5045
840.33	5109
840.467	5124
840.604	5185
840.742	5455
840.879	5079
841.016	5064
841.153	5128
841.29	5368
841.427	5311
841.564	5326
841.701	5334
841.838	5277
841.975	5242
842.112	5269
842.249	5136
842.385	5086
842.522	5299
842.659	5155
842.796	5140
842.933	5147
843.069	5121
843.206	5166
843.343	5307
843.479	5220
843.616	5246
843.752	5056
843.889	4995
844.025	5174
844.162	4995
844.298	5189
844.435	5079
844.571	5018
844.708	5208
844.844	5265
844.98	5337
845.117	5246
845.253	5136
845.389	5075
845.525	5193
845.661	5178
845.798	5041
845.934	5128
846.07	5064
846.206	5201
846.342	5292
846.478	5151
846.614	5014
846.75	4972
846.886	4900
847.022	5151
847.158	5052
847.294	5056
847.429	5086
847.565	5025
847.701	5307
847.837	4885
847.972	4839
848.108	4946
848.244	4930
848.379	4782
848.515	4702
848.65	4725
848.786	4763
848.921	4755
849.057	4881
849.192	4953
849.328	4778
849.463	4816
849.598	4805
849.734	4744
849.869	4664
850.004	4618
850.14	4660
850.275	4637
850.41	4569
850.545	4527
850.68	4611
850.815	4611
850.95	4599
851.085	4877
851.22	4763
851.355	4653
851.49	4577
851.625	4622
851.76	4660
851.895	4535
852.03	4519
852.165	4634
852.299	4702
852.434	4797
852.569	4714
852.703	4721
852.838	4847
852.973	4915
853.107	4896
853.242	4752
853.376	4660
853.511	4535
853.645	4645
853.78	4816
853.914	4622
854.048	4641
854.183	4683
854.317	4664
854.451	4812
854.585	4668
854.72	4653
854.854	4790
854.988	4596
855.122	4603
855.256	4527
855.39	4660
855.524	4752
855.658	4771
855.792	4733
855.926	4759
856.06	4725
856.194	4820
856.327	4679
856.461	4649
856.595	4603
856.729	4626
856.862	4736
856.996	4714
857.13	4721
857.263	4774
857.397	4820
857.53	4672
857.664	4736
857.797	4801
857.931	4790
858.064	4664
858.197	4763
858.331	4687
858.464	4603
858.597	4531
858.731	4660
858.864	4615
858.997	4584
859.13	4649
859.263	4645
859.396	4706
859.529	4626
859.662	4569
859.795	4565
859.928	4577
860.061	4725
860.194	4771
860.327	4573
860.46	4550
860.592	4691
860.725	4744
860.858	4679
860.99	4607
861.123	4535
861.256	4497
861.388	4592
861.521	5162
861.653	4459
861.786	4390
861.918	4466
862.05	4504
862.183	4508
862.315	4588
862.447	4683
862.58	4599
862.712	4409
862.844	4291
862.976	4478
863.108	4535
863.24	4733
863.372	4337
863.504	4417
863.636	4402
863.768	4497
863.9	4405
864.032	4402
864.164	4421
864.296	4455
864.428	4474
864.559	4512
864.691	4489
864.823	4497
864.954	4512
865.086	4455
865.217	4405
865.349	4405
865.48	4497
865.612	4462
865.743	4588
865.875	4512
866.006	4413
866.137	4436
866.269	4402
866.4	4459
866.531	4459
866.662	4398
866.793	4390
866.924	4398
867.055	4512
867.186	4421
867.317	4421
867.448	4417
867.579	4402
867.71	4394
867.841	4409
867.972	4421
868.103	4443
868.233	4440
868.364	4421
868.495	4508
868.625	4660
868.756	4744
868.886	4546
869.017	4599
869.147	4759
869.278	4816
869.408	4599
869.539	4645
869.669	4702
869.799	4649
869.929	4763
870.06	4733
870.19	4946
870.32	4858
870.45	4946
870.58	5064
870.71	5098
870.84	5048
870.97	4961
871.1	4892
871.23	5098
871.36	5151
871.489	5071
871.619	5056
871.749	5090
871.879	5136
872.008	5193
872.138	5037
872.267	5006
872.397	4854
872.526	4805
872.656	4725
872.785	4812
872.915	4942
873.044	5006
873.173	4919
873.303	4991
873.432	4972
873.561	5014
873.69	4862
873.819	4828
873.948	4892
874.077	4809
874.206	4782
874.335	4793
874.464	4927
874.593	5102
874.722	4968
874.851	5086
874.979	5037
875.108	5056
875.237	4915
875.365	4854
875.494	4877
875.623	4976
875.751	4835
875.88	4854
876.008	4984
876.136	5041
876.265	5193
876.393	5307
876.521	5235
876.65	5235
876.778	5109
876.906	5075
877.034	5029
877.162	5029
877.29	4980
877.418	5052
877.546	4980
877.674	5113
877.802	5014
877.93	4968
878.058	4953
878.185	4877
878.313	4949
878.441	4984
878.568	4797
878.696	4930
878.824	4923
878.951	4980
879.079	5117
879.206	5273
879.333	5083
879.461	5022
879.588	4991
879.715	5064
879.842	5178
879.97	5022
880.097	4790
880.224	4790
880.351	4805
880.478	4767
880.605	4733
880.732	4816
880.859	5045
880.986	4866
881.112	4908
881.239	4790
881.366	4687
881.493	4660
881.619	4577
881.746	4607
881.872	4641
881.999	4679
882.125	4717
882.252	4763
882.378	4873
882.505	4904
882.631	4801
882.757	4618
882.883	4714
883.01	4698
883.136	4660
883.262	4630
883.388	4611
883.514	4793
883.64	4824
883.766	4793
883.892	4691
884.018	4725
884.143	4892
884.269	4965
884.395	4675
884.52	4592
884.646	4622
884.772	4588
884.897	4546
885.023	4630
885.148	4740
885.274	4873
885.399	4782
885.524	4744
885.65	4710
885.775	4797
885.9	4687
886.025	4767
886.15	4786
886.275	4710
886.4	4694
886.525	4744
886.65	4683
886.775	4710
886.9	4896
887.025	5014
887.149	4854
887.274	4660
887.399	4607
887.523	4550
887.648	4565
887.773	4546
887.897	4816
888.021	4816
888.146	4710
888.27	4790
888.395	4889
888.519	4816
888.643	4824
888.767	4801
888.891	4660
889.015	4634
889.139	4637
889.263	4626
889.387	4767
889.511	4843
889.635	4782
889.759	4691
889.883	4634
890.006	4733
890.13	4850
890.254	4599
890.377	4664
890.501	4577
890.624	4535
890.748	4634
890.871	4470
890.995	4466
891.118	4371
891.241	4519
891.364	4554
891.488	4630
891.611	4478
891.734	4531
891.857	4599
891.98	4504
892.103	4660
892.226	4565
892.349	4523
892.471	4436
892.594	4512
892.717	4664
892.839	4573
892.962	4554
893.085	4664
893.207	4561
893.33	4508
893.452	4523
893.575	4679
893.697	4592
893.819	4778
893.941	4786
894.064	4778
894.186	4569
894.308	4569
894.43	4725
894.552	4778
894.674	4759
894.796	4550
894.918	4573
895.04	4577
895.161	4694
895.283	4626
895.405	4607
895.526	4618
895.648	4675
895.769	4706
895.891	4717
896.012	4736
896.134	4733
896.255	4694
896.376	4615
896.498	4611
896.619	4694
896.74	4569
896.861	4649
896.982	4957
897.103	5048
897.224	4843
897.345	4748
897.466	4664
897.587	4725
897.708	4828
897.828	4790
897.949	4653
898.07	4561
898.19	4622
898.311	4854
898.431	4641
898.552	4748
898.672	4820
898.792	4748
898.913	4717
899.033	4622
899.153	4485
899.273	4474
899.393	4516
899.513	4527
899.633	4535
899.753	4550
899.873	4519
899.993	4573
900.113	4535
900.232	4611
900.352	4516
900.472	4519
900.591	4432
900.711	4516
900.83	4421
900.95	4611
901.069	4679
901.189	4550
901.308	4356
901.427	4310
901.546	4398
901.665	4462
901.784	4500
901.904	4356
902.023	4348
902.141	4131
902.26	4185
902.379	4295
902.498	4261
902.617	4207
902.735	4375
902.854	4386
902.973	4383
903.091	4276
903.21	4242
903.328	4344
903.446	4272
903.565	4261
903.683	4356
903.801	4306
903.919	4398
904.038	4440
904.156	4325
904.274	4413
904.392	4386
904.51	4424
904.627	4478
904.745	4569
904.863	4596
904.981	4363
905.098	4322
905.216	4379
905.334	4386
905.451	4405
905.569	4424
905.686	4558
905.803	4489
905.921	4409
906.038	4546
906.155	4455
906.272	4394
906.389	4481
906.506	4318
906.623	4322
906.74	4379
906.857	4325
906.974	4360
907.091	4569
907.208	4698
907.324	4558
907.441	4504
907.557	4348
907.674	4390
907.79	4310
907.907	4390
908.023	4500
908.139	4504
908.256	4436
908.372	4470
908.488	4443
908.604	4341
908.72	4329
908.836	4371
908.952	4375
909.068	4402
909.184	4580
909.3	4470
909.415	4558
909.531	4573
909.647	4379
909.762	4455
909.878	4375
909.993	4447
910.108	4443
910.224	4485
910.339	4519
910.454	4424
910.57	4337
910.685	4352
910.8	4649
910.915	4580
911.03	4478
911.145	4337
911.259	4322
911.374	4325
911.489	4272
911.604	4306
911.718	4211
911.833	4227
911.947	4135
912.062	4017
912.176	4211
912.291	4249
912.405	4280
912.519	4493
912.633	4504
912.748	4371
912.862	4318
912.976	4192
913.09	4097
913.204	4150
913.318	4268
913.431	4386
913.545	4341
913.659	4447
913.772	4375
913.886	4261
914	4204
914.113	4398
914.226	4383
914.34	4440
914.453	4227
914.566	4383
914.68	4310
914.793	4322
914.906	4109
915.019	4090
915.132	4109
915.245	4169
915.358	4223
915.47	4207
915.583	4227
915.696	4280
915.809	4440
915.921	4440
916.034	4246
916.146	4284
916.259	4196
916.371	4348
916.483	4375
916.595	4257
916.708	4287
916.82	4295
916.932	4291
917.044	4303
917.156	4322
917.268	4196
917.38	4272
917.491	4318
917.603	4337
917.715	4409
917.826	4428
917.938	4310
918.049	4272
918.161	4348
918.272	4512
918.384	4550
918.495	4402
918.606	4238
918.717	4261
918.828	4291
918.939	4390
919.05	4268
919.161	4329
919.272	4093
919.383	4253
919.494	4443
919.604	4622
919.715	4440
919.826	4405
919.936	4409
920.047	4485
920.157	4497
920.267	4637
920.378	4550
920.488	4481
920.598	4675
920.708	4885
920.818	4736
920.928	4755
921.038	4957
921.148	4934
921.258	4630
921.368	4565
921.477	4546
921.587	4485
921.697	4379
921.806	4508
921.916	4447
922.025	4265
922.134	4287
922.244	4253
922.353	4333
922.462	4207
922.571	4150
922.68	3983
922.789	3994
922.898	4071
923.007	4002
923.116	4101
923.224	4048
923.333	4093
923.442	3998
923.55	3979
923.659	4002
923.767	4112
923.876	3987
923.984	4112
924.092	4006
924.201	4109
924.309	4071
924.417	4169
924.525	4017
924.633	4093
924.741	5022
924.849	3903
924.956	4074
925.064	3953
925.172	3896
925.279	3937
925.387	4006
925.494	4097
925.602	4185
925.709	4219
925.816	4078
925.924	4120
926.031	4227
926.138	4154
926.245	4207
926.352	4067
926.459	4268
926.566	4299
926.673	4120
926.779	4055
926.886	4059
926.993	3968
927.099	3926
927.206	3991
927.312	3941
927.419	4025
927.525	4048
927.631	4078
927.737	3968
927.843	3926
927.95	3827
928.056	3960
928.162	3983
928.267	4063
928.373	4607
928.479	4147
928.585	3850
928.69	4029
928.796	4082
928.901	3983
929.007	3854
929.112	3945
929.218	3964
929.323	3941
929.428	3949
929.533	4124
929.638	3857
929.743	3953
929.848	4048
929.953	3987
930.058	3953
930.163	3800
930.267	3835
930.372	3960
930.477	3831
930.581	4105
930.685	3945
930.79	3781
930.894	3846
930.998	3880
931.103	4055
931.207	3732
931.311	3698
931.415	3656
931.519	3523
931.623	3549
