Data from test_V78500241_859.txt Node
Date: Fri Mar 25 16:54:58 CST 2022
User: usil
Spectrometer: V785-0024
Trigger mode: 0
Integration Time (sec): 4.000000E-1
Scans to average: 1
Nonlinearity correction enabled: false
Boxcar width: 0
Storing dark spectrum: false
XAxis mode: Wavelengths
Number of Pixels in Spectrum: 1024
>>>>>Begin Spectral Data<<<<<
801.071	7940
801.214	7993
801.356	7860
801.499	7803
801.641	7898
801.783	7852
801.926	7959
802.068	7947
802.211	7928
802.353	7963
802.496	7837
802.638	7849
802.78	7959
802.923	7890
803.065	7947
803.208	7932
803.35	8008
803.492	8164
803.635	8153
803.777	8012
803.919	8084
804.061	8381
804.204	8145
804.346	7959
804.488	7989
804.63	8103
804.773	8020
804.915	8153
805.057	8256
805.199	8199
805.341	8229
805.483	8275
805.626	8157
805.768	8100
805.91	8237
806.052	8119
806.194	8149
806.336	8320
806.478	8088
806.62	8065
806.762	8161
806.904	8240
807.046	8461
807.188	8351
807.33	8366
807.472	8301
807.614	8126
807.756	8084
807.898	7955
808.04	7932
808.182	7909
808.324	7902
808.465	7890
808.607	8062
808.749	8096
808.891	8202
809.033	8271
809.174	8153
809.316	8077
809.458	8073
809.6	7993
809.741	8039
809.883	8050
810.025	8046
810.166	8111
810.308	8001
810.45	8069
810.591	7913
810.733	7738
810.875	7639
811.016	7613
811.158	7434
811.299	7537
811.441	7681
811.582	7636
811.724	7571
811.865	7502
812.007	7548
812.148	7540
812.29	7616
812.431	7689
812.573	7826
812.714	7917
812.855	8046
812.997	8134
813.138	8385
813.279	8134
813.421	8084
813.562	8031
813.703	7826
813.845	7742
813.986	7445
814.127	7263
814.268	7209
814.41	7198
814.551	7110
814.692	7149
814.833	7088
814.974	7065
815.115	7088
815.256	6882
815.397	6989
815.539	7000
815.68	6859
815.821	6738
815.962	6856
816.103	6802
816.244	6753
816.385	6700
816.526	6654
816.666	6483
816.807	6235
816.948	6403
817.089	6479
817.23	6445
817.371	6357
817.512	6338
817.653	6388
817.793	6372
817.934	6410
818.075	6426
818.216	6437
818.356	6414
818.497	6243
818.638	6140
818.778	6163
818.919	6110
819.06	6117
819.2	6315
819.341	6331
819.481	6346
819.622	6498
819.762	6719
819.903	6692
820.043	6570
820.184	6597
820.324	6563
820.465	6650
820.605	6642
820.746	6662
820.886	6475
821.026	6700
821.167	6722
821.307	6741
821.447	6749
821.588	6692
821.728	6528
821.868	6517
822.008	6304
822.149	6376
822.289	6388
822.429	6144
822.569	6072
822.709	6129
822.849	5908
822.99	5916
823.13	5878
823.27	5874
823.41	5798
823.55	5836
823.69	5802
823.83	5870
823.97	5619
824.11	5532
824.25	5459
824.389	5592
824.529	5558
824.669	5566
824.809	5570
824.949	5672
825.089	5623
825.228	5524
825.368	5410
825.508	5303
825.648	5364
825.787	5337
825.927	5421
826.067	5280
826.206	5303
826.346	5398
826.485	5391
826.625	5372
826.765	5524
826.904	5516
827.044	5220
827.183	5197
827.323	5121
827.462	5261
827.601	5178
827.741	5162
827.88	5193
828.02	5098
828.159	5212
828.298	5296
828.437	5410
828.577	5269
828.716	5471
828.855	5360
828.994	5155
829.134	5170
829.273	5159
829.412	5121
829.551	5132
829.69	5128
829.829	5204
829.968	5357
830.107	5223
830.246	5265
830.385	5136
830.524	5109
830.663	5037
830.802	4942
830.941	4881
831.08	4866
831.219	4923
831.357	5037
831.496	5151
831.635	4881
831.774	4847
831.913	4793
832.051	4755
832.19	4740
832.329	4858
832.467	4683
832.606	4634
832.744	4721
832.883	4706
833.022	4706
833.16	4801
833.299	4828
833.437	4831
833.576	4805
833.714	4835
833.852	4850
833.991	4877
834.129	4976
834.267	4946
834.406	4919
834.544	4995
834.682	4980
834.821	4976
834.959	5212
835.097	5003
835.235	5098
835.373	5086
835.511	5109
835.65	5079
835.788	4995
835.926	4881
836.064	4892
836.202	4923
836.34	5140
836.478	5258
836.615	5094
836.753	5223
836.891	5292
837.029	5246
837.167	5162
837.305	5162
837.443	5220
837.58	5086
837.718	5227
837.856	5201
837.993	5132
838.131	5311
838.269	5136
838.406	5181
838.544	5162
838.681	5067
838.819	5037
838.956	4915
839.094	4900
839.231	4961
839.369	5064
839.506	5440
839.643	5235
839.781	5090
839.918	5014
840.055	5067
840.193	5113
840.33	5105
840.467	5147
840.604	5189
840.742	5387
840.879	5075
841.016	5064
841.153	5147
841.29	5337
841.427	5284
841.564	5357
841.701	5341
841.838	5258
841.975	5242
842.112	5250
842.249	5105
842.385	5056
842.522	5353
842.659	5181
842.796	5117
842.933	5193
843.069	5174
843.206	5174
843.343	5303
843.479	5239
843.616	5303
843.752	5014
843.889	5025
844.025	5170
844.162	5018
844.298	5174
844.435	5045
844.571	5079
844.708	5128
844.844	5284
844.98	5299
845.117	5299
845.253	5162
845.389	5113
845.525	5159
845.661	5143
845.798	5052
845.934	5098
846.07	4999
846.206	5193
846.342	5231
846.478	5197
846.614	4976
846.75	4965
846.886	4870
847.022	5121
847.158	4976
847.294	5083
847.429	5098
847.565	5003
847.701	5349
847.837	4854
847.972	4771
848.108	4957
848.244	4908
848.379	4767
848.515	4744
848.65	4740
848.786	4736
848.921	4733
849.057	4915
849.192	4858
849.328	4778
849.463	4877
849.598	4755
849.734	4767
849.869	4634
850.004	4637
850.14	4691
850.275	4611
850.41	4512
850.545	4558
850.68	4573
850.815	4641
850.95	4592
851.085	4885
851.22	4767
851.355	4656
851.49	4653
851.625	4645
851.76	4653
851.895	4565
852.03	4546
852.165	4569
852.299	4725
852.434	4755
852.569	4698
852.703	4767
852.838	4877
852.973	4919
853.107	4930
853.242	4729
853.376	4649
853.511	4573
853.645	4630
853.78	4820
853.914	4645
854.048	4649
854.183	4698
854.317	4664
854.451	4805
854.585	4637
854.72	4641
854.854	4744
854.988	4615
855.122	4668
855.256	4497
855.39	4653
855.524	4740
855.658	4717
855.792	4714
855.926	4710
856.06	4721
856.194	4786
856.327	4721
856.461	4580
856.595	4584
856.729	4618
856.862	4755
856.996	4675
857.13	4729
857.263	4744
857.397	4790
857.53	4603
857.664	4710
857.797	4729
857.931	4736
858.064	4736
858.197	4717
858.331	4603
858.464	4592
858.597	4527
858.731	4603
858.864	4596
858.997	4573
859.13	4649
859.263	4660
859.396	4687
859.529	4577
859.662	4554
859.795	4565
859.928	4611
860.061	4759
860.194	4744
860.327	4599
860.46	4558
860.592	4691
860.725	4656
860.858	4717
860.99	4508
861.123	4508
861.256	4535
861.388	4599
861.521	5277
861.653	4489
861.786	4459
861.918	4504
862.05	4519
862.183	4470
862.315	4569
862.447	4664
862.58	4592
862.712	4421
862.844	4299
862.976	4459
863.108	4459
863.24	4733
863.372	4371
863.504	4432
863.636	4383
863.768	4493
863.9	4459
864.032	4398
864.164	4409
864.296	4428
864.428	4497
864.559	4554
864.691	4489
864.823	4432
864.954	4493
865.086	4497
865.217	4481
865.349	4421
865.48	4516
865.612	4493
865.743	4649
865.875	4462
866.006	4440
866.137	4493
866.269	4421
866.4	4402
866.531	4459
866.662	4390
866.793	4375
866.924	4394
867.055	4531
867.186	4432
867.317	4405
867.448	4386
867.579	4367
867.71	4371
867.841	4329
867.972	4462
868.103	4436
868.233	4417
868.364	4409
868.495	4508
868.625	4622
868.756	4733
868.886	4565
869.017	4577
869.147	4835
869.278	4774
869.408	4634
869.539	4653
869.669	4698
869.799	4653
869.929	4740
870.06	4694
870.19	4953
870.32	4911
870.45	4908
870.58	4980
870.71	5075
870.84	5048
870.97	4953
871.1	4870
871.23	5132
871.36	5117
871.489	5060
871.619	5064
871.749	5094
871.879	5117
872.008	5147
872.138	5022
872.267	4957
872.397	4820
872.526	4790
872.656	4748
872.785	4816
872.915	4961
873.044	4980
873.173	4953
873.303	4957
873.432	4949
873.561	4892
873.69	4889
873.819	4820
873.948	4904
874.077	4797
874.206	4759
874.335	4752
874.464	4915
874.593	5041
874.722	4968
874.851	5067
874.979	5052
875.108	5045
875.237	4877
875.365	4904
875.494	4828
875.623	4961
875.751	4812
875.88	4915
876.008	4949
876.136	5025
876.265	5121
876.393	5261
876.521	5223
876.65	5223
876.778	5151
876.906	5094
877.034	5037
877.162	5010
877.29	4984
877.418	5018
877.546	4991
877.674	5048
877.802	5018
877.93	4995
878.058	4904
878.185	4881
878.313	4930
878.441	4965
878.568	4774
878.696	4873
878.824	4896
878.951	5003
879.079	5113
879.206	5231
879.333	5086
879.461	4968
879.588	4965
879.715	5124
879.842	5220
879.97	4991
880.097	4733
880.224	4729
880.351	4752
880.478	4816
880.605	4790
880.732	4790
880.859	5075
880.986	4870
881.112	4904
881.239	4774
881.366	4664
881.493	4588
881.619	4573
881.746	4645
881.872	4675
881.999	4645
882.125	4706
882.252	4763
882.378	4812
882.505	4965
882.631	4774
882.757	4691
882.883	4748
883.01	4706
883.136	4668
883.262	4611
883.388	4561
883.514	4816
883.64	4847
883.766	4740
883.892	4656
884.018	4710
884.143	4858
884.269	4991
884.395	4634
884.52	4596
884.646	4607
884.772	4554
884.897	4523
885.023	4653
885.148	4778
885.274	4892
885.399	4774
885.524	4733
885.65	4706
885.775	4748
885.9	4668
886.025	4877
886.15	4816
886.275	4706
886.4	4641
886.525	4714
886.65	4733
886.775	4656
886.9	4881
887.025	5079
887.149	4824
887.274	4675
887.399	4554
887.523	4561
887.648	4580
887.773	4569
887.897	4721
888.021	4752
888.146	4679
888.27	4809
888.395	4854
888.519	4809
888.643	4771
888.767	4774
888.891	4645
889.015	4599
889.139	4687
889.263	4603
889.387	4755
889.511	4835
889.635	4816
889.759	4653
889.883	4656
890.006	4755
890.13	4828
890.254	4603
890.377	4679
890.501	4573
890.624	4535
890.748	4630
890.871	4516
890.995	4413
891.118	4375
891.241	4523
891.364	4523
891.488	4615
891.611	4504
891.734	4535
891.857	4561
891.98	4569
892.103	4645
892.226	4615
892.349	4535
892.471	4432
892.594	4558
892.717	4599
892.839	4611
892.962	4561
893.085	4656
893.207	4611
893.33	4455
893.452	4561
893.575	4645
893.697	4550
893.819	4748
893.941	4824
894.064	4736
894.186	4535
894.308	4565
894.43	4694
894.552	4805
894.674	4748
894.796	4558
894.918	4580
895.04	4546
895.161	4710
895.283	4706
895.405	4554
895.526	4634
895.648	4714
895.769	4687
895.891	4714
896.012	4710
896.134	4668
896.255	4672
896.376	4641
896.498	4607
896.619	4675
896.74	4569
896.861	4641
896.982	4911
897.103	5086
897.224	4786
897.345	4702
897.466	4653
897.587	4714
897.708	4831
897.828	4774
897.949	4641
898.07	4580
898.19	4656
898.311	4835
898.431	4721
898.552	4759
898.672	4774
898.792	4748
898.913	4790
899.033	4618
899.153	4516
899.273	4451
899.393	4474
899.513	4497
899.633	4527
899.753	4527
899.873	4508
899.993	4542
900.113	4523
900.232	4554
900.352	4493
900.472	4436
900.591	4402
900.711	4466
900.83	4451
900.95	4584
901.069	4694
901.189	4508
901.308	4386
901.427	4299
901.546	4428
901.665	4459
901.784	4519
901.904	4371
902.023	4306
902.141	4162
902.26	4158
902.379	4306
902.498	4276
902.617	4230
902.735	4417
902.854	4371
902.973	4356
903.091	4173
903.21	4204
903.328	4276
903.446	4257
903.565	4257
903.683	4306
903.801	4322
903.919	4428
904.038	4390
904.156	4322
904.274	4402
904.392	4386
904.51	4402
904.627	4481
904.745	4580
904.863	4584
904.981	4386
905.098	4314
905.216	4344
905.334	4413
905.451	4447
905.569	4421
905.686	4519
905.803	4550
905.921	4386
906.038	4592
906.155	4462
906.272	4390
906.389	4417
906.506	4379
906.623	4352
906.74	4375
906.857	4318
906.974	4360
907.091	4546
907.208	4668
907.324	4618
907.441	4493
907.557	4363
907.674	4295
907.79	4318
907.907	4383
908.023	4497
908.139	4474
908.256	4367
908.372	4443
908.488	4409
908.604	4318
908.72	4325
908.836	4352
908.952	4356
909.068	4413
909.184	4538
909.3	4493
909.415	4569
909.531	4573
909.647	4329
909.762	4337
909.878	4303
909.993	4470
910.108	4398
910.224	4405
910.339	4489
910.454	4398
910.57	4375
910.685	4265
910.8	4653
910.915	4580
911.03	4489
911.145	4333
911.259	4329
911.374	4375
911.489	4295
911.604	4272
911.718	4154
911.833	4154
911.947	4036
912.062	4029
912.176	4177
912.291	4234
912.405	4280
912.519	4424
912.633	4478
912.748	4348
912.862	4318
912.976	4177
913.09	4093
913.204	4192
913.318	4291
913.431	4333
913.545	4314
913.659	4421
913.772	4371
913.886	4238
914	4230
914.113	4379
914.226	4424
914.34	4386
914.453	4181
914.566	4447
914.68	4306
914.793	4352
914.906	4128
915.019	4105
915.132	4067
915.245	4158
915.358	4177
915.47	4230
915.583	4265
915.696	4291
915.809	4421
915.921	4409
916.034	4246
916.146	4280
916.259	4238
916.371	4367
916.483	4344
916.595	4246
916.708	4299
916.82	4341
916.932	4333
917.044	4322
917.156	4291
917.268	4177
917.38	4268
917.491	4230
917.603	4268
917.715	4383
917.826	4462
917.938	4344
918.049	4242
918.161	4398
918.272	4519
918.384	4512
918.495	4421
918.606	4306
918.717	4268
918.828	4356
918.939	4341
919.05	4299
919.161	4314
919.272	4105
919.383	4223
919.494	4455
919.604	4649
919.715	4447
919.826	4348
919.936	4440
920.047	4508
920.157	4470
920.267	4714
920.378	4546
920.488	4519
920.598	4656
920.708	4873
920.818	4733
920.928	4790
921.038	4953
921.148	4987
921.258	4603
921.368	4569
921.477	4455
921.587	4428
921.697	4379
921.806	4531
921.916	4459
922.025	4299
922.134	4276
922.244	4223
922.353	4306
922.462	4139
922.571	4135
922.68	4021
922.789	3972
922.898	4006
923.007	3994
923.116	4143
923.224	4101
923.333	4086
923.442	3979
923.55	3975
923.659	3983
923.767	4116
923.876	3994
923.984	4078
924.092	3949
924.201	4044
924.309	4071
924.417	4097
924.525	4036
924.633	4093
924.741	4850
924.849	3899
924.956	4105
925.064	3960
925.172	3922
925.279	3953
925.387	4032
925.494	4032
925.602	4211
925.709	4154
925.816	4032
925.924	4131
926.031	4230
926.138	4158
926.245	4196
926.352	4139
926.459	4196
926.566	4310
926.673	4150
926.779	4086
926.886	4116
926.993	3960
927.099	3975
927.206	3979
927.312	3956
927.419	4059
927.525	4021
927.631	4093
927.737	3979
927.843	3922
927.95	3831
928.056	3941
928.162	3991
928.267	4067
928.373	4569
928.479	4071
928.585	3816
928.69	4006
928.796	4010
928.901	3941
929.007	3831
929.112	4017
929.218	3991
929.323	3945
929.428	3941
929.533	4154
929.638	3888
929.743	3930
929.848	4051
929.953	3987
930.058	3968
930.163	3804
930.267	3800
930.372	3964
930.477	3778
930.581	4063
930.685	3918
930.79	3804
930.894	3888
930.998	3838
931.103	4044
931.207	3717
931.311	3663
931.415	3671
931.519	3519
931.623	3542
