Data from test_V78500241_166.txt Node
Date: Fri Mar 25 16:50:09 CST 2022
User: usil
Spectrometer: V785-0024
Trigger mode: 0
Integration Time (sec): 4.000000E-1
Scans to average: 1
Nonlinearity correction enabled: false
Boxcar width: 0
Storing dark spectrum: false
XAxis mode: Wavelengths
Number of Pixels in Spectrum: 1024
>>>>>Begin Spectral Data<<<<<
801.071	8050
801.214	8039
801.356	7864
801.499	7849
801.641	7784
801.783	7871
801.926	7978
802.068	7982
802.211	8043
802.353	8031
802.496	7887
802.638	7974
802.78	7951
802.923	7890
803.065	7868
803.208	7841
803.35	7986
803.492	8168
803.635	8168
803.777	8058
803.919	8130
804.061	8442
804.204	8142
804.346	8054
804.488	8027
804.63	8001
804.773	7940
804.915	8149
805.057	8271
805.199	8164
805.341	8214
805.483	8271
805.626	8176
805.768	8092
805.91	8244
806.052	8183
806.194	8157
806.336	8298
806.478	8020
806.62	8062
806.762	8084
806.904	8240
807.046	8408
807.188	8309
807.33	8229
807.472	8324
807.614	8187
807.756	8111
807.898	8062
808.04	7947
808.182	7898
808.324	7917
808.465	7989
808.607	8039
808.749	8100
808.891	8199
809.033	8381
809.174	8221
809.316	8092
809.458	8111
809.6	8016
809.741	8050
809.883	8039
810.025	8119
810.166	8062
810.308	8123
810.45	8016
810.591	7860
810.733	7788
810.875	7689
811.016	7575
811.158	7529
811.299	7636
811.441	7792
811.582	7734
811.724	7616
811.865	7559
812.007	7655
812.148	7613
812.29	7658
812.431	7883
812.573	7970
812.714	7978
812.855	8142
812.997	8305
813.138	8415
813.279	8195
813.421	8130
813.562	8024
813.703	7932
813.845	7845
813.986	7529
814.127	7285
814.268	7274
814.41	7289
814.551	7183
814.692	7259
814.833	7175
814.974	7190
815.115	7213
815.256	7050
815.397	6958
815.539	6966
815.68	6821
815.821	6821
815.962	6909
816.103	6825
816.244	6719
816.385	6738
816.526	6662
816.666	6555
816.807	6365
816.948	6483
817.089	6513
817.23	6452
817.371	6437
817.512	6456
817.653	6418
817.793	6380
817.934	6475
818.075	6452
818.216	6403
818.356	6410
818.497	6235
818.638	6186
818.778	6106
818.919	6190
819.06	6155
819.2	6331
819.341	6376
819.481	6365
819.622	6509
819.762	6741
819.903	6665
820.043	6631
820.184	6559
820.324	6623
820.465	6806
820.605	6707
820.746	6631
820.886	6540
821.026	6700
821.167	6734
821.307	6795
821.447	6779
821.588	6726
821.728	6620
821.868	6574
822.008	6350
822.149	6361
822.289	6369
822.429	6186
822.569	6121
822.709	6129
822.849	5931
822.99	5916
823.13	5969
823.27	5927
823.41	5764
823.55	5866
823.69	5805
823.83	5844
823.97	5691
824.11	5573
824.25	5490
824.389	5554
824.529	5589
824.669	5520
824.809	5634
824.949	5684
825.089	5611
825.228	5558
825.368	5395
825.508	5391
825.648	5387
825.787	5353
825.927	5402
826.067	5318
826.206	5322
826.346	5402
826.485	5410
826.625	5395
826.765	5512
826.904	5501
827.044	5284
827.183	5242
827.323	5117
827.462	5303
827.601	5162
827.741	5258
827.88	5254
828.02	5159
828.159	5204
828.298	5299
828.437	5429
828.577	5345
828.716	5501
828.855	5372
828.994	5193
829.134	5155
829.273	5258
829.412	5170
829.551	5151
829.69	5193
829.829	5212
829.968	5372
830.107	5303
830.246	5250
830.385	5178
830.524	5166
830.663	5086
830.802	5003
830.941	4919
831.08	4904
831.219	4991
831.357	5003
831.496	5185
831.635	4911
831.774	4850
831.913	4854
832.051	4786
832.19	4763
832.329	4911
832.467	4717
832.606	4664
832.744	4763
832.883	4759
833.022	4744
833.16	4805
833.299	4862
833.437	4801
833.576	4820
833.714	4850
833.852	4919
833.991	4942
834.129	4957
834.267	4991
834.406	4919
834.544	5014
834.682	4987
834.821	5010
834.959	5170
835.097	5033
835.235	5170
835.373	5109
835.511	5193
835.65	5079
835.788	4995
835.926	4919
836.064	4850
836.202	4919
836.34	5220
836.478	5254
836.615	5181
836.753	5254
836.891	5326
837.029	5242
837.167	5242
837.305	5181
837.443	5181
837.58	5124
837.718	5311
837.856	5216
837.993	5201
838.131	5265
838.269	5212
838.406	5212
838.544	5193
838.681	5083
838.819	5048
838.956	4892
839.094	4908
839.231	5033
839.369	5140
839.506	5459
839.643	5277
839.781	5060
839.918	5098
840.055	5174
840.193	5155
840.33	5143
840.467	5128
840.604	5235
840.742	5448
840.879	5128
841.016	5094
841.153	5185
841.29	5448
841.427	5353
841.564	5315
841.701	5376
841.838	5337
841.975	5269
842.112	5326
842.249	5166
842.385	5102
842.522	5334
842.659	5147
842.796	5181
842.933	5239
843.069	5174
843.206	5189
843.343	5368
843.479	5265
843.616	5265
843.752	5052
843.889	5071
844.025	5239
844.162	5041
844.298	5208
844.435	5113
844.571	5056
844.708	5227
844.844	5330
844.98	5383
845.117	5311
845.253	5124
845.389	5086
845.525	5197
845.661	5128
845.798	5102
845.934	5166
846.07	5014
846.206	5170
846.342	5318
846.478	5181
846.614	5052
846.75	4957
846.886	4968
847.022	5170
847.158	4995
847.294	5037
847.429	5121
847.565	5029
847.701	5353
847.837	4881
847.972	4866
848.108	5033
848.244	4949
848.379	4786
848.515	4733
848.65	4744
848.786	4809
848.921	4782
849.057	4908
849.192	4904
849.328	4850
849.463	4850
849.598	4862
849.734	4748
849.869	4710
850.004	4634
850.14	4656
850.275	4596
850.41	4531
850.545	4611
850.68	4596
850.815	4649
850.95	4656
851.085	4858
851.22	4733
851.355	4653
851.49	4634
851.625	4664
851.76	4672
851.895	4561
852.03	4542
852.165	4687
852.299	4771
852.434	4835
852.569	4763
852.703	4733
852.838	4877
852.973	5014
853.107	4915
853.242	4725
853.376	4645
853.511	4546
853.645	4630
853.78	4850
853.914	4679
854.048	4717
854.183	4637
854.317	4706
854.451	4850
854.585	4706
854.72	4668
854.854	4809
854.988	4653
855.122	4637
855.256	4519
855.39	4656
855.524	4805
855.658	4729
855.792	4736
855.926	4725
856.06	4816
856.194	4797
856.327	4702
856.461	4672
856.595	4656
856.729	4637
856.862	4759
856.996	4717
857.13	4797
857.263	4816
857.397	4809
857.53	4656
857.664	4797
857.797	4786
857.931	4793
858.064	4721
858.197	4740
858.331	4664
858.464	4630
858.597	4516
858.731	4656
858.864	4656
858.997	4603
859.13	4687
859.263	4694
859.396	4698
859.529	4603
859.662	4558
859.795	4603
859.928	4626
860.061	4816
860.194	4767
860.327	4611
860.46	4569
860.592	4698
860.725	4755
860.858	4797
860.99	4573
861.123	4535
861.256	4561
861.388	4626
861.521	5429
861.653	4516
861.786	4428
861.918	4489
862.05	4546
862.183	4519
862.315	4630
862.447	4691
862.58	4603
862.712	4398
862.844	4310
862.976	4478
863.108	4489
863.24	4877
863.372	4356
863.504	4421
863.636	4428
863.768	4474
863.9	4432
864.032	4405
864.164	4432
864.296	4535
864.428	4538
864.559	4592
864.691	4504
864.823	4561
864.954	4531
865.086	4523
865.217	4455
865.349	4409
865.48	4527
865.612	4485
865.743	4660
865.875	4489
866.006	4413
866.137	4474
866.269	4451
866.4	4474
866.531	4405
866.662	4405
866.793	4424
866.924	4428
867.055	4470
867.186	4428
867.317	4459
867.448	4398
867.579	4405
867.71	4424
867.841	4447
867.972	4462
868.103	4466
868.233	4455
868.364	4447
868.495	4519
868.625	4710
868.756	4759
868.886	4596
869.017	4588
869.147	4767
869.278	4778
869.408	4729
869.539	4622
869.669	4694
869.799	4721
869.929	4755
870.06	4767
870.19	4949
870.32	4938
870.45	4915
870.58	5052
870.71	5075
870.84	5109
870.97	4984
871.1	4942
871.23	5185
871.36	5193
871.489	4987
871.619	5105
871.749	5098
871.879	5147
872.008	5208
872.138	5041
872.267	4980
872.397	4835
872.526	4847
872.656	4710
872.785	4805
872.915	4961
873.044	5060
873.173	4961
873.303	4999
873.432	4923
873.561	4919
873.69	4892
873.819	4870
873.948	4972
874.077	4801
874.206	4786
874.335	4824
874.464	4908
874.593	5048
874.722	5037
874.851	5094
874.979	5094
875.108	5109
875.237	4957
875.365	4889
875.494	4911
875.623	4946
875.751	4831
875.88	4927
876.008	4976
876.136	5048
876.265	5208
876.393	5360
876.521	5204
876.65	5231
876.778	5204
876.906	5136
877.034	5018
877.162	5048
877.29	5014
877.418	5033
877.546	5052
877.674	5045
877.802	4999
877.93	5006
878.058	4957
878.185	4824
878.313	4949
878.441	4946
878.568	4816
878.696	4862
878.824	4968
878.951	5029
879.079	5166
879.206	5261
879.333	5102
879.461	4976
879.588	5029
879.715	5147
879.842	5284
879.97	5060
880.097	4809
880.224	4771
880.351	4778
880.478	4873
880.605	4767
880.732	4816
880.859	5155
880.986	4904
881.112	4919
881.239	4790
881.366	4683
881.493	4603
881.619	4599
881.746	4641
881.872	4653
881.999	4714
882.125	4721
882.252	4805
882.378	4843
882.505	5010
882.631	4790
882.757	4698
882.883	4740
883.01	4710
883.136	4714
883.262	4649
883.388	4634
883.514	4866
883.64	4881
883.766	4801
883.892	4721
884.018	4717
884.143	4942
884.269	5025
884.395	4683
884.52	4656
884.646	4672
884.772	4596
884.897	4618
885.023	4717
885.148	4752
885.274	4858
885.399	4809
885.524	4706
885.65	4694
885.775	4752
885.9	4729
886.025	4854
886.15	4809
886.275	4736
886.4	4687
886.525	4740
886.65	4710
886.775	4694
886.9	4908
887.025	5052
887.149	4812
887.274	4641
887.399	4611
887.523	4569
887.648	4599
887.773	4607
887.897	4755
888.021	4786
888.146	4672
888.27	4797
888.395	4919
888.519	4797
888.643	4820
888.767	4847
888.891	4698
889.015	4653
889.139	4668
889.263	4584
889.387	4736
889.511	4873
889.635	4828
889.759	4634
889.883	4622
890.006	4771
890.13	4824
890.254	4641
890.377	4672
890.501	4504
890.624	4596
890.748	4615
890.871	4542
890.995	4478
891.118	4417
891.241	4512
891.364	4577
891.488	4596
891.611	4489
891.734	4577
891.857	4626
891.98	4607
892.103	4660
892.226	4603
892.349	4546
892.471	4402
892.594	4531
892.717	4603
892.839	4599
892.962	4615
893.085	4702
893.207	4615
893.33	4455
893.452	4538
893.575	4675
893.697	4580
893.819	4786
893.941	4835
894.064	4790
894.186	4618
894.308	4569
894.43	4744
894.552	4820
894.674	4748
894.796	4558
894.918	4645
895.04	4558
895.161	4714
895.283	4660
895.405	4584
895.526	4691
895.648	4675
895.769	4702
895.891	4774
896.012	4763
896.134	4725
896.255	4653
896.376	4626
896.498	4603
896.619	4698
896.74	4622
896.861	4668
896.982	4923
897.103	5113
897.224	4820
897.345	4744
897.466	4675
897.587	4763
897.708	4858
897.828	4793
897.949	4683
898.07	4637
898.19	4664
898.311	4870
898.431	4668
898.552	4729
898.672	4850
898.792	4847
898.913	4755
899.033	4656
899.153	4550
899.273	4459
899.393	4497
899.513	4542
899.633	4516
899.753	4573
899.873	4497
899.993	4634
900.113	4573
900.232	4603
900.352	4603
900.472	4478
900.591	4402
900.711	4508
900.83	4466
900.95	4615
901.069	4683
901.189	4538
901.308	4402
901.427	4379
901.546	4363
901.665	4497
901.784	4493
901.904	4356
902.023	4306
902.141	4188
902.26	4135
902.379	4325
902.498	4249
902.617	4246
902.735	4394
902.854	4390
902.973	4390
903.091	4238
903.21	4238
903.328	4322
903.446	4299
903.565	4306
903.683	4390
903.801	4265
903.919	4390
904.038	4432
904.156	4299
904.274	4417
904.392	4394
904.51	4390
904.627	4512
904.745	4611
904.863	4637
904.981	4405
905.098	4344
905.216	4394
905.334	4421
905.451	4481
905.569	4466
905.686	4554
905.803	4607
905.921	4424
906.038	4588
906.155	4500
906.272	4405
906.389	4508
906.506	4360
906.623	4337
906.74	4390
906.857	4291
906.974	4360
907.091	4618
907.208	4714
907.324	4618
907.441	4519
907.557	4352
907.674	4363
907.79	4337
907.907	4394
908.023	4504
908.139	4531
908.256	4478
908.372	4455
908.488	4497
908.604	4371
908.72	4303
908.836	4386
908.952	4424
909.068	4432
909.184	4596
909.3	4523
909.415	4565
909.531	4573
909.647	4322
909.762	4432
909.878	4356
909.993	4432
910.108	4440
910.224	4413
910.339	4474
910.454	4440
910.57	4360
910.685	4329
910.8	4668
910.915	4645
911.03	4493
911.145	4344
911.259	4341
911.374	4417
911.489	4356
911.604	4257
911.718	4181
911.833	4234
911.947	4090
912.062	4010
912.176	4204
912.291	4265
912.405	4253
912.519	4504
912.633	4527
912.748	4383
912.862	4367
912.976	4177
913.09	4082
913.204	4188
913.318	4268
913.431	4333
913.545	4363
913.659	4443
913.772	4390
913.886	4234
914	4227
914.113	4394
914.226	4455
914.34	4428
914.453	4253
914.566	4497
914.68	4261
914.793	4348
914.906	4188
915.019	4150
915.132	4120
915.245	4238
915.358	4272
915.47	4265
915.583	4230
915.696	4333
915.809	4428
915.921	4413
916.034	4272
916.146	4268
916.259	4234
916.371	4363
916.483	4371
916.595	4261
916.708	4295
916.82	4306
916.932	4344
917.044	4363
917.156	4352
917.268	4200
917.38	4314
917.491	4257
917.603	4333
917.715	4436
917.826	4363
917.938	4367
918.049	4257
918.161	4379
918.272	4565
918.384	4569
918.495	4478
918.606	4276
918.717	4272
918.828	4344
918.939	4375
919.05	4261
919.161	4344
919.272	4154
919.383	4223
919.494	4447
919.604	4599
919.715	4402
919.826	4375
919.936	4352
920.047	4550
920.157	4512
920.267	4691
920.378	4561
920.488	4519
920.598	4748
920.708	4915
920.818	4831
920.928	4801
921.038	4980
921.148	4934
921.258	4641
921.368	4569
921.477	4508
921.587	4447
921.697	4329
921.806	4584
921.916	4447
922.025	4303
922.134	4253
922.244	4234
922.353	4303
922.462	4196
922.571	4162
922.68	4040
922.789	3953
922.898	4044
923.007	3979
923.116	4097
923.224	4093
923.333	4051
923.442	3998
923.55	3972
923.659	4021
923.767	4131
923.876	3968
923.984	4128
924.092	4013
924.201	4078
924.309	4055
924.417	4150
924.525	4090
924.633	4124
924.741	4854
924.849	3937
924.956	4112
925.064	3991
925.172	3899
925.279	3979
925.387	4093
925.494	4059
925.602	4242
925.709	4177
925.816	4063
925.924	4120
926.031	4246
926.138	4215
926.245	4181
926.352	4139
926.459	4287
926.566	4329
926.673	4181
926.779	4105
926.886	4086
926.993	3994
927.099	3956
927.206	3987
927.312	3941
927.419	4071
927.525	4044
927.631	4093
927.737	3945
927.843	3949
927.95	3842
928.056	3934
928.162	3949
928.267	4063
928.373	4691
928.479	4109
928.585	3907
928.69	4029
928.796	4093
928.901	3945
929.007	3850
929.112	4044
929.218	4029
929.323	3915
929.428	3949
929.533	4150
929.638	3918
929.743	3994
929.848	4032
929.953	4055
930.058	3945
930.163	3827
930.267	3808
930.372	4013
930.477	3857
930.581	4086
930.685	3964
930.79	3819
930.894	3930
930.998	3888
931.103	4063
931.207	3690
931.311	3698
931.415	3682
931.519	3515
931.623	3564
