Data from test_V78500241_175.txt Node
Date: Fri Mar 25 16:50:13 CST 2022
User: usil
Spectrometer: V785-0024
Trigger mode: 0
Integration Time (sec): 4.000000E-1
Scans to average: 1
Nonlinearity correction enabled: false
Boxcar width: 0
Storing dark spectrum: false
XAxis mode: Wavelengths
Number of Pixels in Spectrum: 1024
>>>>>Begin Spectral Data<<<<<
801.071	8016
801.214	8050
801.356	7906
801.499	7837
801.641	7860
801.783	7906
801.926	8020
802.068	7997
802.211	8096
802.353	8027
802.496	7951
802.638	7921
802.78	7982
802.923	7947
803.065	7932
803.208	7887
803.35	8024
803.492	8081
803.635	8153
803.777	8020
803.919	8096
804.061	8339
804.204	8134
804.346	7982
804.488	7921
804.63	8084
804.773	7986
804.915	8088
805.057	8279
805.199	8123
805.341	8157
805.483	8214
805.626	8180
805.768	8168
805.91	8180
806.052	8221
806.194	8168
806.336	8358
806.478	8081
806.62	8054
806.762	8069
806.904	8248
807.046	8434
807.188	8358
807.33	8290
807.472	8389
807.614	8161
807.756	8183
807.898	8035
808.04	7917
808.182	7928
808.324	7822
808.465	7963
808.607	8046
808.749	8096
808.891	8214
809.033	8347
809.174	8145
809.316	8054
809.458	8065
809.6	7959
809.741	8012
809.883	8016
810.025	8084
810.166	8039
810.308	8088
810.45	8031
810.591	7955
810.733	7826
810.875	7769
811.016	7666
811.158	7529
811.299	7609
811.441	7765
811.582	7723
811.724	7563
811.865	7552
812.007	7666
812.148	7624
812.29	7693
812.431	7795
812.573	7970
812.714	8016
812.855	8210
812.997	8332
813.138	8324
813.279	8218
813.421	8210
813.562	8050
813.703	7849
813.845	7803
813.986	7472
814.127	7285
814.268	7297
814.41	7278
814.551	7206
814.692	7247
814.833	7057
814.974	7141
815.115	7168
815.256	6996
815.397	6905
815.539	6985
815.68	6802
815.821	6821
815.962	6897
816.103	6871
816.244	6722
816.385	6673
816.526	6620
816.666	6620
816.807	6247
816.948	6521
817.089	6479
817.23	6410
817.371	6418
817.512	6422
817.653	6471
817.793	6353
817.934	6365
818.075	6426
818.216	6479
818.356	6391
818.497	6197
818.638	6175
818.778	6136
818.919	6095
819.06	6175
819.2	6308
819.341	6376
819.481	6361
819.622	6528
819.762	6745
819.903	6696
820.043	6604
820.184	6574
820.324	6646
820.465	6631
820.605	6719
820.746	6623
820.886	6559
821.026	6711
821.167	6707
821.307	6783
821.447	6791
821.588	6669
821.728	6612
821.868	6578
822.008	6361
822.149	6471
822.289	6361
822.429	6171
822.569	6098
822.709	6091
822.849	5901
822.99	5885
823.13	5954
823.27	5927
823.41	5821
823.55	5817
823.69	5802
823.83	5832
823.97	5691
824.11	5558
824.25	5524
824.389	5592
824.529	5608
824.669	5562
824.809	5646
824.949	5729
825.089	5661
825.228	5562
825.368	5391
825.508	5357
825.648	5376
825.787	5429
825.927	5372
826.067	5353
826.206	5299
826.346	5349
826.485	5452
826.625	5440
826.765	5562
826.904	5509
827.044	5292
827.183	5231
827.323	5113
827.462	5277
827.601	5159
827.741	5178
827.88	5178
828.02	5117
828.159	5250
828.298	5315
828.437	5337
828.577	5273
828.716	5497
828.855	5330
828.994	5185
829.134	5159
829.273	5178
829.412	5128
829.551	5166
829.69	5174
829.829	5254
829.968	5391
830.107	5273
830.246	5269
830.385	5181
830.524	5162
830.663	5086
830.802	5010
830.941	4919
831.08	4900
831.219	5033
831.357	5022
831.496	5204
831.635	4908
831.774	4877
831.913	4866
832.051	4729
832.19	4729
832.329	4881
832.467	4679
832.606	4698
832.744	4698
832.883	4752
833.022	4725
833.16	4736
833.299	4839
833.437	4911
833.576	4854
833.714	4885
833.852	4900
833.991	4908
834.129	4961
834.267	4980
834.406	4927
834.544	4984
834.682	4946
834.821	4953
834.959	5136
835.097	4965
835.235	5174
835.373	5113
835.511	5128
835.65	5052
835.788	5060
835.926	4896
836.064	4942
836.202	4923
836.34	5147
836.478	5242
836.615	5117
836.753	5273
836.891	5341
837.029	5296
837.167	5212
837.305	5113
837.443	5117
837.58	5079
837.718	5273
837.856	5208
837.993	5193
838.131	5261
838.269	5197
838.406	5220
838.544	5159
838.681	5109
838.819	4999
838.956	4942
839.094	4911
839.231	4972
839.369	5094
839.506	5410
839.643	5284
839.781	5052
839.918	5056
840.055	5105
840.193	5140
840.33	5143
840.467	5155
840.604	5174
840.742	5452
840.879	5128
841.016	5155
841.153	5185
841.29	5421
841.427	5322
841.564	5315
841.701	5395
841.838	5261
841.975	5246
842.112	5242
842.249	5124
842.385	5155
842.522	5372
842.659	5181
842.796	5136
842.933	5223
843.069	5128
843.206	5151
843.343	5330
843.479	5261
843.616	5288
843.752	5041
843.889	5037
844.025	5208
844.162	5060
844.298	5250
844.435	5071
844.571	5022
844.708	5185
844.844	5341
844.98	5296
845.117	5269
845.253	5185
845.389	5075
845.525	5246
845.661	5178
845.798	5041
845.934	5155
846.07	5052
846.206	5147
846.342	5318
846.478	5235
846.614	5037
846.75	4987
846.886	4991
847.022	5128
847.158	5037
847.294	5079
847.429	5090
847.565	5083
847.701	5311
847.837	4873
847.972	4866
848.108	4953
848.244	4953
848.379	4782
848.515	4725
848.65	4725
848.786	4759
848.921	4782
849.057	4896
849.192	4930
849.328	4805
849.463	4862
849.598	4854
849.734	4778
849.869	4683
850.004	4668
850.14	4626
850.275	4618
850.41	4546
850.545	4596
850.68	4668
850.815	4637
850.95	4618
851.085	4858
851.22	4763
851.355	4691
851.49	4622
851.625	4637
851.76	4653
851.895	4569
852.03	4512
852.165	4664
852.299	4702
852.434	4812
852.569	4733
852.703	4759
852.838	4835
852.973	4927
853.107	4927
853.242	4767
853.376	4687
853.511	4577
853.645	4641
853.78	4835
853.914	4668
854.048	4698
854.183	4694
854.317	4714
854.451	4858
854.585	4683
854.72	4649
854.854	4797
854.988	4653
855.122	4649
855.256	4527
855.39	4672
855.524	4805
855.658	4782
855.792	4714
855.926	4744
856.06	4790
856.194	4801
856.327	4706
856.461	4634
856.595	4580
856.729	4664
856.862	4740
856.996	4714
857.13	4714
857.263	4752
857.397	4816
857.53	4687
857.664	4721
857.797	4793
857.931	4782
858.064	4694
858.197	4797
858.331	4698
858.464	4641
858.597	4523
858.731	4660
858.864	4637
858.997	4607
859.13	4664
859.263	4679
859.396	4717
859.529	4599
859.662	4569
859.795	4565
859.928	4664
860.061	4774
860.194	4748
860.327	4561
860.46	4596
860.592	4755
860.725	4721
860.858	4771
860.99	4588
861.123	4542
861.256	4546
861.388	4630
861.521	5383
861.653	4512
861.786	4489
861.918	4538
862.05	4599
862.183	4535
862.315	4641
862.447	4702
862.58	4573
862.712	4424
862.844	4318
862.976	4527
863.108	4500
863.24	4885
863.372	4310
863.504	4462
863.636	4470
863.768	4451
863.9	4462
864.032	4363
864.164	4390
864.296	4485
864.428	4573
864.559	4573
864.691	4565
864.823	4573
864.954	4504
865.086	4538
865.217	4481
865.349	4481
865.48	4462
865.612	4565
865.743	4634
865.875	4493
866.006	4436
866.137	4443
866.269	4455
866.4	4470
866.531	4447
866.662	4394
866.793	4421
866.924	4451
867.055	4481
867.186	4455
867.317	4428
867.448	4398
867.579	4421
867.71	4417
867.841	4428
867.972	4504
868.103	4451
868.233	4440
868.364	4424
868.495	4417
868.625	4691
868.756	4805
868.886	4577
869.017	4607
869.147	4733
869.278	4816
869.408	4611
869.539	4637
869.669	4755
869.799	4672
869.929	4759
870.06	4706
870.19	5010
870.32	4930
870.45	4889
870.58	5041
870.71	5105
870.84	5132
870.97	5006
871.1	4870
871.23	5208
871.36	5178
871.489	5083
871.619	5045
871.749	5102
871.879	5102
872.008	5170
872.138	5083
872.267	5025
872.397	4885
872.526	4797
872.656	4721
872.785	4854
872.915	4968
873.044	5010
873.173	4999
873.303	4934
873.432	4972
873.561	4927
873.69	4877
873.819	4904
873.948	4930
874.077	4828
874.206	4809
874.335	4812
874.464	4896
874.593	5079
874.722	4991
874.851	5102
874.979	5083
875.108	5041
875.237	4972
875.365	4904
875.494	4911
875.623	4995
875.751	4862
875.88	4892
876.008	4976
876.136	4984
876.265	5212
876.393	5436
876.521	5269
876.65	5242
876.778	5223
876.906	5124
877.034	5014
877.162	5079
877.29	5075
877.418	5121
877.546	5071
877.674	5048
877.802	5052
877.93	5064
878.058	4999
878.185	4900
878.313	4946
878.441	4953
878.568	4820
878.696	4927
878.824	4976
878.951	5064
879.079	5151
879.206	5315
879.333	5124
879.461	5006
879.588	4984
879.715	5121
879.842	5296
879.97	5014
880.097	4831
880.224	4786
880.351	4866
880.478	4847
880.605	4839
880.732	4797
880.859	5136
880.986	4923
881.112	4930
881.239	4801
881.366	4675
881.493	4592
881.619	4592
881.746	4675
881.872	4656
881.999	4599
882.125	4694
882.252	4782
882.378	4847
882.505	4965
882.631	4763
882.757	4660
882.883	4721
883.01	4733
883.136	4691
883.262	4641
883.388	4675
883.514	4790
883.64	4816
883.766	4873
883.892	4717
884.018	4729
884.143	4908
884.269	5022
884.395	4660
884.52	4626
884.646	4683
884.772	4584
884.897	4622
885.023	4660
885.148	4801
885.274	4839
885.399	4816
885.524	4714
885.65	4717
885.775	4710
885.9	4668
886.025	4885
886.15	4820
886.275	4740
886.4	4694
886.525	4763
886.65	4656
886.775	4691
886.9	4900
887.025	5067
887.149	4820
887.274	4694
887.399	4615
887.523	4634
887.648	4611
887.773	4599
887.897	4729
888.021	4820
888.146	4660
888.27	4820
888.395	4938
888.519	4824
888.643	4847
888.767	4843
888.891	4710
889.015	4607
889.139	4645
889.263	4618
889.387	4771
889.511	4862
889.635	4820
889.759	4664
889.883	4649
890.006	4759
890.13	4843
890.254	4641
890.377	4679
890.501	4603
890.624	4538
890.748	4664
890.871	4535
890.995	4466
891.118	4409
891.241	4538
891.364	4554
891.488	4660
891.611	4497
891.734	4558
891.857	4637
891.98	4592
892.103	4675
892.226	4607
892.349	4523
892.471	4440
892.594	4592
892.717	4577
892.839	4630
892.962	4664
893.085	4660
893.207	4565
893.33	4489
893.452	4497
893.575	4679
893.697	4554
893.819	4824
893.941	4831
894.064	4816
894.186	4588
894.308	4618
894.43	4725
894.552	4847
894.674	4793
894.796	4580
894.918	4615
895.04	4596
895.161	4710
895.283	4649
895.405	4599
895.526	4607
895.648	4691
895.769	4653
895.891	4717
896.012	4755
896.134	4797
896.255	4668
896.376	4679
896.498	4607
896.619	4634
896.74	4656
896.861	4653
896.982	4953
897.103	5083
897.224	4820
897.345	4679
897.466	4706
897.587	4752
897.708	4877
897.828	4797
897.949	4687
898.07	4554
898.19	4615
898.311	4801
898.431	4672
898.552	4744
898.672	4782
898.792	4809
898.913	4740
899.033	4641
899.153	4512
899.273	4443
899.393	4478
899.513	4508
899.633	4573
899.753	4550
899.873	4504
899.993	4592
900.113	4493
900.232	4637
900.352	4584
900.472	4478
900.591	4375
900.711	4531
900.83	4409
900.95	4607
901.069	4687
901.189	4573
901.308	4402
901.427	4287
901.546	4421
901.665	4489
901.784	4523
901.904	4379
902.023	4405
902.141	4230
902.26	4162
902.379	4310
902.498	4249
902.617	4272
902.735	4367
902.854	4417
902.973	4360
903.091	4207
903.21	4219
903.328	4299
903.446	4280
903.565	4234
903.683	4413
903.801	4280
903.919	4413
904.038	4504
904.156	4287
904.274	4481
904.392	4421
904.51	4424
904.627	4523
904.745	4626
904.863	4618
904.981	4428
905.098	4356
905.216	4356
905.334	4440
905.451	4455
905.569	4470
905.686	4538
905.803	4554
905.921	4432
906.038	4637
906.155	4462
906.272	4428
906.389	4462
906.506	4352
906.623	4402
906.74	4405
906.857	4325
906.974	4375
907.091	4573
907.208	4714
907.324	4611
907.441	4508
907.557	4337
907.674	4348
907.79	4341
907.907	4386
908.023	4493
908.139	4512
908.256	4443
908.372	4481
908.488	4500
908.604	4390
908.72	4398
908.836	4386
908.952	4386
909.068	4455
909.184	4637
909.3	4508
909.415	4569
909.531	4546
909.647	4390
909.762	4409
909.878	4344
909.993	4424
910.108	4424
910.224	4443
910.339	4500
910.454	4383
910.57	4386
910.685	4341
910.8	4645
910.915	4660
911.03	4500
911.145	4356
911.259	4329
911.374	4379
911.489	4329
911.604	4318
911.718	4204
911.833	4200
911.947	4147
912.062	4051
912.176	4185
912.291	4242
912.405	4246
912.519	4455
912.633	4523
912.748	4424
912.862	4318
912.976	4173
913.09	4158
913.204	4185
913.318	4272
913.431	4363
913.545	4360
913.659	4462
913.772	4367
913.886	4276
914	4253
914.113	4383
914.226	4474
914.34	4398
914.453	4238
914.566	4466
914.68	4329
914.793	4306
914.906	4181
915.019	4135
915.132	4112
915.245	4238
915.358	4215
915.47	4287
915.583	4306
915.696	4310
915.809	4428
915.921	4421
916.034	4306
916.146	4306
916.259	4238
916.371	4367
916.483	4398
916.595	4242
916.708	4329
916.82	4314
916.932	4318
917.044	4322
917.156	4390
917.268	4276
917.38	4314
917.491	4318
917.603	4348
917.715	4443
917.826	4428
917.938	4363
918.049	4276
918.161	4402
918.272	4500
918.384	4493
918.495	4470
918.606	4276
918.717	4287
918.828	4348
918.939	4383
919.05	4257
919.161	4314
919.272	4143
919.383	4276
919.494	4478
919.604	4649
919.715	4398
919.826	4352
919.936	4390
920.047	4535
920.157	4451
920.267	4714
920.378	4558
920.488	4512
920.598	4736
920.708	4923
920.818	4748
920.928	4771
921.038	5010
921.148	4953
921.258	4634
921.368	4561
921.477	4516
921.587	4489
921.697	4390
921.806	4550
921.916	4432
922.025	4295
922.134	4272
922.244	4200
922.353	4337
922.462	4215
922.571	4093
922.68	4006
922.789	3972
922.898	4090
923.007	4010
923.116	4116
923.224	4071
923.333	4109
923.442	3998
923.55	3998
923.659	4067
923.767	4105
923.876	4025
923.984	4128
924.092	4021
924.201	4086
924.309	4078
924.417	4116
924.525	4082
924.633	4124
924.741	4862
924.849	3960
924.956	4139
925.064	3953
925.172	3918
925.279	3945
925.387	4067
925.494	4036
925.602	4219
925.709	4238
925.816	4093
925.924	4128
926.031	4253
926.138	4166
926.245	4181
926.352	4059
926.459	4268
926.566	4322
926.673	4147
926.779	4109
926.886	4090
926.993	4036
927.099	3964
927.206	3972
927.312	3941
927.419	4048
927.525	4059
927.631	4112
927.737	3953
927.843	3979
927.95	3842
928.056	3968
928.162	3994
928.267	4006
928.373	4675
928.479	4116
928.585	3899
928.69	4044
928.796	4090
928.901	3975
929.007	3884
929.112	4010
929.218	4010
929.323	3934
929.428	3949
929.533	4124
929.638	3911
929.743	4021
929.848	4029
929.953	4040
930.058	3941
930.163	3789
930.267	3827
930.372	4021
930.477	3816
930.581	4093
930.685	3964
930.79	3846
930.894	3865
930.998	3861
931.103	4071
931.207	3720
931.311	3686
931.415	3728
931.519	3538
931.623	3534
