Data from test_V78500241_588.txt Node
Date: Fri Mar 25 16:53:05 CST 2022
User: usil
Spectrometer: V785-0024
Trigger mode: 0
Integration Time (sec): 4.000000E-1
Scans to average: 1
Nonlinearity correction enabled: false
Boxcar width: 0
Storing dark spectrum: false
XAxis mode: Wavelengths
Number of Pixels in Spectrum: 1024
>>>>>Begin Spectral Data<<<<<
801.071	7967
801.214	7921
801.356	7814
801.499	7807
801.641	7746
801.783	7833
801.926	7986
802.068	8024
802.211	7970
802.353	8020
802.496	7898
802.638	7925
802.78	7887
802.923	7898
803.065	7780
803.208	7753
803.35	7944
803.492	8001
803.635	8111
803.777	7955
803.919	8138
804.061	8381
804.204	8134
804.346	7974
804.488	8001
804.63	8054
804.773	8016
804.915	8077
805.057	8286
805.199	8142
805.341	8187
805.483	8214
805.626	8240
805.768	8103
805.91	8153
806.052	8206
806.194	8126
806.336	8233
806.478	8065
806.62	8065
806.762	8107
806.904	8256
807.046	8393
807.188	8317
807.33	8309
807.472	8294
807.614	8077
807.756	8138
807.898	7963
808.04	7868
808.182	7921
808.324	7875
808.465	7917
808.607	8024
808.749	8126
808.891	8172
809.033	8206
809.174	8115
809.316	8005
809.458	8111
809.6	7932
809.741	8024
809.883	7944
810.025	8062
810.166	7989
810.308	7986
810.45	7989
810.591	7902
810.733	7723
810.875	7647
811.016	7525
811.158	7540
811.299	7605
811.441	7772
811.582	7628
811.724	7571
811.865	7567
812.007	7578
812.148	7559
812.29	7636
812.431	7738
812.573	7849
812.714	8016
812.855	8077
812.997	8214
813.138	8324
813.279	8199
813.421	8210
813.562	7970
813.703	7894
813.845	7772
813.986	7419
814.127	7324
814.268	7259
814.41	7198
814.551	7187
814.692	7171
814.833	7053
814.974	7084
815.115	7027
815.256	6981
815.397	6840
815.539	6924
815.68	6821
815.821	6840
815.962	6867
816.103	6776
816.244	6711
816.385	6620
816.526	6566
816.666	6490
816.807	6311
816.948	6403
817.089	6475
817.23	6403
817.371	6350
817.512	6456
817.653	6338
817.793	6346
817.934	6376
818.075	6418
818.216	6445
818.356	6376
818.497	6239
818.638	6098
818.778	6060
818.919	6136
819.06	6159
819.2	6311
819.341	6266
819.481	6323
819.622	6502
819.762	6612
819.903	6700
820.043	6555
820.184	6490
820.324	6582
820.465	6662
820.605	6597
820.746	6642
820.886	6456
821.026	6620
821.167	6627
821.307	6757
821.447	6730
821.588	6566
821.728	6528
821.868	6448
822.008	6232
822.149	6304
822.289	6346
822.429	6129
822.569	6087
822.709	6106
822.849	5893
822.99	5882
823.13	5908
823.27	5893
823.41	5805
823.55	5802
823.69	5790
823.83	5798
823.97	5699
824.11	5615
824.25	5558
824.389	5558
824.529	5547
824.669	5520
824.809	5619
824.949	5684
825.089	5611
825.228	5539
825.368	5383
825.508	5360
825.648	5421
825.787	5360
825.927	5387
826.067	5349
826.206	5254
826.346	5467
826.485	5459
826.625	5444
826.765	5535
826.904	5467
827.044	5223
827.183	5223
827.323	5185
827.462	5284
827.601	5280
827.741	5136
827.88	5216
828.02	5128
828.159	5185
828.298	5292
828.437	5364
828.577	5296
828.716	5554
828.855	5341
828.994	5216
829.134	5189
829.273	5166
829.412	5216
829.551	5208
829.69	5193
829.829	5239
829.968	5387
830.107	5299
830.246	5330
830.385	5223
830.524	5166
830.663	5136
830.802	4991
830.941	4930
831.08	4911
831.219	4991
831.357	5060
831.496	5189
831.635	4976
831.774	4904
831.913	4831
832.051	4767
832.19	4793
832.329	4896
832.467	4740
832.606	4683
832.744	4767
832.883	4767
833.022	4755
833.16	4805
833.299	4923
833.437	4839
833.576	4828
833.714	4831
833.852	4870
833.991	4866
834.129	4965
834.267	4949
834.406	4953
834.544	4980
834.682	4957
834.821	5003
834.959	5162
835.097	5022
835.235	5212
835.373	5079
835.511	5083
835.65	5037
835.788	5048
835.926	4915
836.064	4881
836.202	4927
836.34	5147
836.478	5311
836.615	5140
836.753	5220
836.891	5303
837.029	5288
837.167	5212
837.305	5147
837.443	5128
837.58	5075
837.718	5299
837.856	5185
837.993	5181
838.131	5250
838.269	5250
838.406	5261
838.544	5216
838.681	5105
838.819	5014
838.956	4938
839.094	4934
839.231	5075
839.369	5143
839.506	5463
839.643	5280
839.781	5090
839.918	5041
840.055	5132
840.193	5124
840.33	5132
840.467	5117
840.604	5261
840.742	5501
840.879	5083
841.016	5098
841.153	5143
841.29	5414
841.427	5322
841.564	5330
841.701	5417
841.838	5303
841.975	5265
842.112	5318
842.249	5181
842.385	5105
842.522	5379
842.659	5155
842.796	5174
842.933	5201
843.069	5170
843.206	5185
843.343	5299
843.479	5246
843.616	5261
843.752	5041
843.889	5018
844.025	5280
844.162	5071
844.298	5208
844.435	5098
844.571	5071
844.708	5208
844.844	5303
844.98	5372
845.117	5337
845.253	5185
845.389	5079
845.525	5166
845.661	5143
845.798	5079
845.934	5151
846.07	5064
846.206	5174
846.342	5288
846.478	5216
846.614	5010
846.75	5041
846.886	4942
847.022	5155
847.158	5045
847.294	5075
847.429	5140
847.565	5060
847.701	5307
847.837	4900
847.972	4858
848.108	4980
848.244	4923
848.379	4805
848.515	4714
848.65	4812
848.786	4809
848.921	4801
849.057	4915
849.192	4927
849.328	4831
849.463	4816
849.598	4805
849.734	4774
849.869	4755
850.004	4626
850.14	4691
850.275	4618
850.41	4538
850.545	4588
850.68	4611
850.815	4630
850.95	4641
851.085	4908
851.22	4797
851.355	4729
851.49	4645
851.625	4641
851.76	4656
851.895	4535
852.03	4558
852.165	4675
852.299	4744
852.434	4812
852.569	4748
852.703	4862
852.838	4850
852.973	4949
853.107	4999
853.242	4771
853.376	4752
853.511	4618
853.645	4577
853.78	4866
853.914	4740
854.048	4649
854.183	4649
854.317	4744
854.451	4812
854.585	4706
854.72	4672
854.854	4763
854.988	4645
855.122	4656
855.256	4531
855.39	4698
855.524	4790
855.658	4786
855.792	4729
855.926	4763
856.06	4771
856.194	4824
856.327	4698
856.461	4649
856.595	4611
856.729	4675
856.862	4801
856.996	4687
857.13	4694
857.263	4778
857.397	4820
857.53	4653
857.664	4797
857.797	4809
857.931	4786
858.064	4710
858.197	4755
858.331	4702
858.464	4641
858.597	4531
858.731	4683
858.864	4660
858.997	4596
859.13	4725
859.263	4706
859.396	4702
859.529	4634
859.662	4538
859.795	4592
859.928	4683
860.061	4771
860.194	4793
860.327	4637
860.46	4569
860.592	4710
860.725	4778
860.858	4786
860.99	4535
861.123	4550
861.256	4519
861.388	4611
861.521	5318
861.653	4493
861.786	4497
861.918	4485
862.05	4493
862.183	4618
862.315	4656
862.447	4656
862.58	4607
862.712	4424
862.844	4360
862.976	4493
863.108	4500
863.24	4908
863.372	4325
863.504	4447
863.636	4379
863.768	4535
863.9	4436
864.032	4421
864.164	4451
864.296	4500
864.428	4569
864.559	4580
864.691	4523
864.823	4580
864.954	4489
865.086	4527
865.217	4447
865.349	4428
865.48	4512
865.612	4542
865.743	4607
865.875	4474
866.006	4462
866.137	4481
866.269	4489
866.4	4436
866.531	4440
866.662	4344
866.793	4413
866.924	4424
867.055	4542
867.186	4512
867.317	4451
867.448	4421
867.579	4371
867.71	4424
867.841	4398
867.972	4459
868.103	4470
868.233	4523
868.364	4443
868.495	4489
868.625	4630
868.756	4752
868.886	4565
869.017	4679
869.147	4786
869.278	4778
869.408	4694
869.539	4645
869.669	4710
869.799	4611
869.929	4744
870.06	4763
870.19	4999
870.32	4930
870.45	4968
870.58	5014
870.71	5136
870.84	5128
870.97	4965
871.1	4911
871.23	5162
871.36	5128
871.489	4995
871.619	5071
871.749	5105
871.879	5166
872.008	5181
872.138	5102
872.267	4984
872.397	4843
872.526	4835
872.656	4733
872.785	4782
872.915	4949
873.044	5056
873.173	4942
873.303	4980
873.432	5010
873.561	4946
873.69	4889
873.819	4850
873.948	4927
874.077	4873
874.206	4771
874.335	4786
874.464	4968
874.593	5060
874.722	4987
874.851	5113
874.979	5010
875.108	5071
875.237	4938
875.365	4900
875.494	4904
875.623	4999
875.751	4873
875.88	4892
876.008	5045
876.136	5090
876.265	5197
876.393	5364
876.521	5250
876.65	5239
876.778	5143
876.906	5124
877.034	5041
877.162	5071
877.29	4957
877.418	5102
877.546	4984
877.674	5086
877.802	5071
877.93	5003
878.058	4987
878.185	4900
878.313	4961
878.441	4961
878.568	4843
878.696	4881
878.824	4980
878.951	5033
879.079	5140
879.206	5292
879.333	5098
879.461	4976
879.588	5029
879.715	5143
879.842	5231
879.97	5010
880.097	4831
880.224	4774
880.351	4824
880.478	4881
880.605	4824
880.732	4843
880.859	5140
880.986	4908
881.112	4889
881.239	4790
881.366	4687
881.493	4641
881.619	4599
881.746	4649
881.872	4668
881.999	4679
882.125	4736
882.252	4771
882.378	4831
882.505	5003
882.631	4873
882.757	4691
882.883	4736
883.01	4736
883.136	4702
883.262	4656
883.388	4622
883.514	4847
883.64	4873
883.766	4778
883.892	4714
884.018	4691
884.143	4911
884.269	4995
884.395	4721
884.52	4630
884.646	4637
884.772	4584
884.897	4584
885.023	4630
885.148	4812
885.274	4915
885.399	4831
885.524	4767
885.65	4698
885.775	4729
885.9	4759
886.025	4858
886.15	4809
886.275	4706
886.4	4683
886.525	4767
886.65	4698
886.775	4683
886.9	4976
887.025	5033
887.149	4862
887.274	4668
887.399	4622
887.523	4626
887.648	4592
887.773	4603
887.897	4748
888.021	4805
888.146	4653
888.27	4873
888.395	4930
888.519	4786
888.643	4755
888.767	4866
888.891	4706
889.015	4626
889.139	4679
889.263	4645
889.387	4809
889.511	4900
889.635	4812
889.759	4607
889.883	4679
890.006	4752
890.13	4885
890.254	4596
890.377	4721
890.501	4546
890.624	4485
890.748	4615
890.871	4519
890.995	4455
891.118	4383
891.241	4519
891.364	4527
891.488	4664
891.611	4504
891.734	4535
891.857	4599
891.98	4569
892.103	4679
892.226	4596
892.349	4577
892.471	4466
892.594	4546
892.717	4592
892.839	4558
892.962	4603
893.085	4637
893.207	4641
893.33	4459
893.452	4478
893.575	4675
893.697	4550
893.819	4786
893.941	4858
894.064	4778
894.186	4645
894.308	4577
894.43	4729
894.552	4866
894.674	4759
894.796	4592
894.918	4558
895.04	4569
895.161	4698
895.283	4721
895.405	4580
895.526	4645
895.648	4664
895.769	4679
895.891	4702
896.012	4763
896.134	4714
896.255	4679
896.376	4668
896.498	4634
896.619	4672
896.74	4664
896.861	4687
896.982	4930
897.103	5025
897.224	4835
897.345	4763
897.466	4679
897.587	4793
897.708	4873
897.828	4763
897.949	4649
898.07	4550
898.19	4596
898.311	4850
898.431	4653
898.552	4725
898.672	4778
898.792	4778
898.913	4736
899.033	4641
899.153	4535
899.273	4428
899.393	4519
899.513	4531
899.633	4470
899.753	4573
899.873	4497
899.993	4622
900.113	4516
900.232	4573
900.352	4596
900.472	4531
900.591	4413
900.711	4493
900.83	4409
900.95	4592
901.069	4683
901.189	4542
901.308	4379
901.427	4318
901.546	4405
901.665	4512
901.784	4535
901.904	4417
902.023	4341
902.141	4223
902.26	4192
902.379	4295
902.498	4242
902.617	4249
902.735	4394
902.854	4432
902.973	4341
903.091	4215
903.21	4253
903.328	4314
903.446	4322
903.565	4284
903.683	4341
903.801	4291
903.919	4485
904.038	4417
904.156	4325
904.274	4474
904.392	4344
904.51	4436
904.627	4440
904.745	4577
904.863	4653
904.981	4367
905.098	4299
905.216	4325
905.334	4405
905.451	4447
905.569	4455
905.686	4558
905.803	4558
905.921	4363
906.038	4550
906.155	4447
906.272	4371
906.389	4451
906.506	4413
906.623	4424
906.74	4383
906.857	4341
906.974	4398
907.091	4565
907.208	4691
907.324	4573
907.441	4489
907.557	4314
907.674	4367
907.79	4337
907.907	4394
908.023	4497
908.139	4500
908.256	4466
908.372	4504
908.488	4432
908.604	4344
908.72	4341
908.836	4371
908.952	4371
909.068	4432
909.184	4596
909.3	4474
909.415	4588
909.531	4611
909.647	4383
909.762	4337
909.878	4383
909.993	4432
910.108	4394
910.224	4424
910.339	4478
910.454	4394
910.57	4329
910.685	4287
910.8	4603
910.915	4580
911.03	4481
911.145	4352
911.259	4325
911.374	4413
911.489	4310
911.604	4310
911.718	4185
911.833	4185
911.947	4051
912.062	4010
912.176	4196
912.291	4219
912.405	4253
912.519	4489
912.633	4535
912.748	4356
912.862	4306
912.976	4253
913.09	4147
913.204	4185
913.318	4284
913.431	4325
913.545	4341
913.659	4443
913.772	4318
913.886	4246
914	4287
914.113	4390
914.226	4405
914.34	4417
914.453	4287
914.566	4402
914.68	4303
914.793	4360
914.906	4158
915.019	4143
915.132	4101
915.245	4166
915.358	4204
915.47	4230
915.583	4306
915.696	4303
915.809	4447
915.921	4447
916.034	4234
916.146	4249
916.259	4234
916.371	4390
916.483	4379
916.595	4230
916.708	4322
916.82	4363
916.932	4322
917.044	4360
917.156	4299
917.268	4192
917.38	4230
917.491	4268
917.603	4337
917.715	4440
917.826	4421
917.938	4367
918.049	4246
918.161	4459
918.272	4519
918.384	4573
918.495	4497
918.606	4325
918.717	4192
918.828	4360
918.939	4405
919.05	4280
919.161	4333
919.272	4116
919.383	4211
919.494	4497
919.604	4596
919.715	4489
919.826	4379
919.936	4421
920.047	4569
920.157	4535
920.267	4725
920.378	4523
920.488	4485
920.598	4698
920.708	4889
920.818	4714
920.928	4736
921.038	4915
921.148	4919
921.258	4634
921.368	4531
921.477	4497
921.587	4497
921.697	4383
921.806	4580
921.916	4424
922.025	4265
922.134	4227
922.244	4207
922.353	4310
922.462	4181
922.571	4078
922.68	4010
922.789	3983
922.898	4025
923.007	4017
923.116	4093
923.224	4109
923.333	4082
923.442	3968
923.55	3953
923.659	4040
923.767	4078
923.876	4032
923.984	4090
924.092	3998
924.201	4036
924.309	4112
924.417	4135
924.525	4074
924.633	4063
924.741	5056
924.849	3892
924.956	4105
925.064	4002
925.172	3899
925.279	3979
925.387	4051
925.494	4074
925.602	4249
925.709	4188
925.816	4055
925.924	4116
926.031	4234
926.138	4116
926.245	4242
926.352	4105
926.459	4246
926.566	4318
926.673	4166
926.779	4074
926.886	4120
926.993	3930
927.099	3934
927.206	3922
927.312	3918
927.419	4082
927.525	4055
927.631	4082
927.737	3922
927.843	3922
927.95	3778
928.056	3926
928.162	3991
928.267	4082
928.373	4645
928.479	4131
928.585	3846
928.69	4013
928.796	4097
928.901	3945
929.007	3785
929.112	4010
929.218	3987
929.323	3956
929.428	3911
929.533	4116
929.638	3873
929.743	3968
929.848	4036
929.953	4021
930.058	3960
930.163	3762
930.267	3838
930.372	4029
930.477	3808
930.581	4067
930.685	3964
930.79	3838
930.894	3861
930.998	3850
931.103	3994
931.207	3694
931.311	3675
931.415	3656
931.519	3507
931.623	3519
