Data from test_V78500241_835.txt Node
Date: Fri Mar 25 16:54:48 CST 2022
User: usil
Spectrometer: V785-0024
Trigger mode: 0
Integration Time (sec): 4.000000E-1
Scans to average: 1
Nonlinearity correction enabled: false
Boxcar width: 0
Storing dark spectrum: false
XAxis mode: Wavelengths
Number of Pixels in Spectrum: 1024
>>>>>Begin Spectral Data<<<<<
801.071	8065
801.214	8050
801.356	7951
801.499	7906
801.641	7792
801.783	7841
801.926	7955
802.068	7818
802.211	7925
802.353	7944
802.496	7830
802.638	7807
802.78	7898
802.923	7875
803.065	7868
803.208	7871
803.35	7986
803.492	8123
803.635	8187
803.777	7951
803.919	8100
804.061	8396
804.204	8111
804.346	8012
804.488	7963
804.63	8142
804.773	8012
804.915	8043
805.057	8237
805.199	8084
805.341	8191
805.483	8240
805.626	8164
805.768	8096
805.91	8134
806.052	8183
806.194	8058
806.336	8355
806.478	8107
806.62	7993
806.762	8096
806.904	8271
807.046	8469
807.188	8393
807.33	8320
807.472	8355
807.614	8180
807.756	8103
807.898	7951
808.04	7814
808.182	7807
808.324	7864
808.465	7852
808.607	8012
808.749	8081
808.891	8199
809.033	8256
809.174	8176
809.316	7997
809.458	8039
809.6	7955
809.741	8050
809.883	8008
810.025	8062
810.166	8062
810.308	8031
810.45	7978
810.591	7890
810.733	7715
810.875	7651
811.016	7540
811.158	7476
811.299	7567
811.441	7742
811.582	7662
811.724	7594
811.865	7468
812.007	7597
812.148	7578
812.29	7582
812.431	7708
812.573	7845
812.714	7947
812.855	8073
812.997	8218
813.138	8328
813.279	8221
813.421	8031
813.562	7982
813.703	7788
813.845	7712
813.986	7476
814.127	7251
814.268	7236
814.41	7278
814.551	7118
814.692	7141
814.833	7031
814.974	7042
815.115	7053
815.256	6958
815.397	6932
815.539	6928
815.68	6783
815.821	6783
815.962	6825
816.103	6795
816.244	6745
816.385	6654
816.526	6582
816.666	6521
816.807	6319
816.948	6452
817.089	6441
817.23	6467
817.371	6346
817.512	6350
817.653	6361
817.793	6338
817.934	6384
818.075	6429
818.216	6380
818.356	6331
818.497	6197
818.638	6057
818.778	6133
818.919	6121
819.06	6079
819.2	6277
819.341	6277
819.481	6369
819.622	6532
819.762	6707
819.903	6677
820.043	6631
820.184	6578
820.324	6597
820.465	6627
820.605	6639
820.746	6623
820.886	6479
821.026	6627
821.167	6696
821.307	6779
821.447	6772
821.588	6585
821.728	6486
821.868	6494
822.008	6319
822.149	6353
822.289	6395
822.429	6152
822.569	6026
822.709	6076
822.849	5950
822.99	5889
823.13	5939
823.27	5874
823.41	5817
823.55	5767
823.69	5745
823.83	5783
823.97	5653
824.11	5524
824.25	5497
824.389	5524
824.529	5543
824.669	5505
824.809	5596
824.949	5661
825.089	5630
825.228	5547
825.368	5391
825.508	5334
825.648	5326
825.787	5349
825.927	5376
826.067	5265
826.206	5292
826.346	5383
826.485	5414
826.625	5360
826.765	5490
826.904	5520
827.044	5242
827.183	5212
827.323	5124
827.462	5280
827.601	5174
827.741	5155
827.88	5178
828.02	5075
828.159	5208
828.298	5254
828.437	5395
828.577	5235
828.716	5493
828.855	5280
828.994	5147
829.134	5143
829.273	5193
829.412	5098
829.551	5121
829.69	5117
829.829	5227
829.968	5330
830.107	5265
830.246	5227
830.385	5151
830.524	5094
830.663	5041
830.802	4934
830.941	4904
831.08	4858
831.219	4942
831.357	4968
831.496	5124
831.635	4862
831.774	4831
831.913	4831
832.051	4736
832.19	4729
832.329	4763
832.467	4736
832.606	4596
832.744	4755
832.883	4706
833.022	4717
833.16	4793
833.299	4805
833.437	4793
833.576	4850
833.714	4850
833.852	4843
833.991	4889
834.129	4984
834.267	4949
834.406	4900
834.544	4949
834.682	4919
834.821	4915
834.959	5140
835.097	4999
835.235	5159
835.373	5071
835.511	5094
835.65	5067
835.788	5006
835.926	4919
836.064	4885
836.202	4915
836.34	5174
836.478	5204
836.615	5064
836.753	5223
836.891	5311
837.029	5239
837.167	5181
837.305	5151
837.443	5189
837.58	5052
837.718	5155
837.856	5159
837.993	5162
838.131	5250
838.269	5204
838.406	5208
838.544	5166
838.681	5052
838.819	4961
838.956	4892
839.094	4889
839.231	4896
839.369	5102
839.506	5421
839.643	5273
839.781	5048
839.918	4976
840.055	5102
840.193	5094
840.33	5121
840.467	5060
840.604	5166
840.742	5391
840.879	5018
841.016	5060
841.153	5189
841.29	5334
841.427	5353
841.564	5288
841.701	5387
841.838	5223
841.975	5212
842.112	5223
842.249	5155
842.385	5060
842.522	5345
842.659	5151
842.796	5090
842.933	5189
843.069	5117
843.206	5143
843.343	5258
843.479	5216
843.616	5258
843.752	5029
843.889	4980
844.025	5162
844.162	5014
844.298	5155
844.435	5079
844.571	5010
844.708	5193
844.844	5303
844.98	5334
845.117	5299
845.253	5124
845.389	5037
845.525	5151
845.661	5109
845.798	5048
845.934	5147
846.07	5060
846.206	5159
846.342	5246
846.478	5109
846.614	4991
846.75	4957
846.886	4904
847.022	5132
847.158	4980
847.294	5048
847.429	5090
847.565	5010
847.701	5353
847.837	4866
847.972	4828
848.108	4938
848.244	4892
848.379	4759
848.515	4717
848.65	4687
848.786	4717
848.921	4812
849.057	4854
849.192	4892
849.328	4831
849.463	4831
849.598	4767
849.734	4763
849.869	4672
850.004	4611
850.14	4634
850.275	4554
850.41	4535
850.545	4538
850.68	4584
850.815	4588
850.95	4580
851.085	4801
851.22	4774
851.355	4672
851.49	4584
851.625	4592
851.76	4618
851.895	4504
852.03	4512
852.165	4622
852.299	4687
852.434	4759
852.569	4714
852.703	4774
852.838	4790
852.973	4881
853.107	4896
853.242	4668
853.376	4611
853.511	4554
853.645	4622
853.78	4767
853.914	4645
854.048	4672
854.183	4637
854.317	4691
854.451	4858
854.585	4630
854.72	4683
854.854	4744
854.988	4618
855.122	4626
855.256	4516
855.39	4672
855.524	4748
855.658	4694
855.792	4672
855.926	4721
856.06	4767
856.194	4736
856.327	4656
856.461	4573
856.595	4565
856.729	4580
856.862	4744
856.996	4668
857.13	4748
857.263	4710
857.397	4790
857.53	4660
857.664	4691
857.797	4786
857.931	4752
858.064	4675
858.197	4763
858.331	4664
858.464	4630
858.597	4497
858.731	4599
858.864	4599
858.997	4622
859.13	4672
859.263	4679
859.396	4683
859.529	4577
859.662	4558
859.795	4558
859.928	4611
860.061	4759
860.194	4698
860.327	4596
860.46	4542
860.592	4634
860.725	4641
860.858	4706
860.99	4573
861.123	4550
861.256	4504
861.388	4637
861.521	5277
861.653	4489
861.786	4497
861.918	4443
862.05	4497
862.183	4508
862.315	4599
862.447	4607
862.58	4577
862.712	4344
862.844	4276
862.976	4474
863.108	4508
863.24	4759
863.372	4287
863.504	4383
863.636	4394
863.768	4474
863.9	4409
864.032	4348
864.164	4367
864.296	4474
864.428	4462
864.559	4588
864.691	4565
864.823	4478
864.954	4466
865.086	4474
865.217	4413
865.349	4417
865.48	4428
865.612	4500
865.743	4668
865.875	4470
866.006	4443
866.137	4481
866.269	4462
866.4	4394
866.531	4409
866.662	4424
866.793	4363
866.924	4432
867.055	4523
867.186	4436
867.317	4360
867.448	4405
867.579	4367
867.71	4333
867.841	4333
867.972	4432
868.103	4466
868.233	4478
868.364	4440
868.495	4440
868.625	4660
868.756	4755
868.886	4603
869.017	4588
869.147	4725
869.278	4763
869.408	4626
869.539	4607
869.669	4675
869.799	4675
869.929	4771
870.06	4694
870.19	4938
870.32	4904
870.45	4885
870.58	4984
870.71	5060
870.84	5086
870.97	4904
871.1	4866
871.23	5140
871.36	5105
871.489	4999
871.619	5064
871.749	5041
871.879	5060
872.008	5178
872.138	5045
872.267	4919
872.397	4831
872.526	4824
872.656	4687
872.785	4763
872.915	4930
873.044	4976
873.173	4949
873.303	4942
873.432	4919
873.561	4930
873.69	4812
873.819	4805
873.948	4915
874.077	4843
874.206	4740
874.335	4744
874.464	4896
874.593	5067
874.722	4957
874.851	5132
874.979	5064
875.108	5037
875.237	4881
875.365	4877
875.494	4831
875.623	4957
875.751	4812
875.88	4870
876.008	4991
876.136	5064
876.265	5170
876.393	5326
876.521	5269
876.65	5201
876.778	5151
876.906	5018
877.034	4999
877.162	5006
877.29	4976
877.418	5052
877.546	5056
877.674	5003
877.802	4968
877.93	5003
878.058	4938
878.185	4850
878.313	4953
878.441	4858
878.568	4755
878.696	4858
878.824	4915
878.951	4987
879.079	5071
879.206	5261
879.333	5143
879.461	4980
879.588	4976
879.715	5098
879.842	5166
879.97	4980
880.097	4740
880.224	4706
880.351	4755
880.478	4828
880.605	4782
880.732	4759
880.859	5064
880.986	4831
881.112	4915
881.239	4767
881.366	4653
881.493	4577
881.619	4523
881.746	4611
881.872	4645
881.999	4656
882.125	4645
882.252	4767
882.378	4786
882.505	4946
882.631	4729
882.757	4691
882.883	4717
883.01	4649
883.136	4599
883.262	4577
883.388	4592
883.514	4812
883.64	4835
883.766	4774
883.892	4702
884.018	4683
884.143	4911
884.269	4961
884.395	4694
884.52	4607
884.646	4634
884.772	4580
884.897	4569
885.023	4641
885.148	4763
885.274	4801
885.399	4805
885.524	4702
885.65	4687
885.775	4763
885.9	4668
886.025	4816
886.15	4733
886.275	4683
886.4	4641
886.525	4634
886.65	4694
886.775	4679
886.9	4828
887.025	5014
887.149	4809
887.274	4653
887.399	4577
887.523	4538
887.648	4577
887.773	4546
887.897	4717
888.021	4809
888.146	4664
888.27	4790
888.395	4892
888.519	4755
888.643	4828
888.767	4870
888.891	4675
889.015	4588
889.139	4645
889.263	4577
889.387	4786
889.511	4831
889.635	4809
889.759	4645
889.883	4653
890.006	4759
890.13	4854
890.254	4615
890.377	4717
890.501	4573
890.624	4569
890.748	4626
890.871	4538
890.995	4417
891.118	4405
891.241	4508
891.364	4550
891.488	4668
891.611	4523
891.734	4542
891.857	4637
891.98	4569
892.103	4672
892.226	4637
892.349	4573
892.471	4447
892.594	4596
892.717	4622
892.839	4577
892.962	4618
893.085	4714
893.207	4596
893.33	4535
893.452	4603
893.575	4687
893.697	4634
893.819	4835
893.941	4858
894.064	4786
894.186	4584
894.308	4622
894.43	4778
894.552	4862
894.674	4782
894.796	4596
894.918	4641
895.04	4596
895.161	4717
895.283	4706
895.405	4611
895.526	4645
895.648	4763
895.769	4767
895.891	4736
896.012	4809
896.134	4797
896.255	4714
896.376	4672
896.498	4641
896.619	4721
896.74	4622
896.861	4706
896.982	4934
897.103	5136
897.224	4854
897.345	4736
897.466	4702
897.587	4767
897.708	4873
897.828	4725
897.949	4691
898.07	4645
898.19	4702
898.311	4854
898.431	4687
898.552	4843
898.672	4824
898.792	4831
898.913	4812
899.033	4622
899.153	4535
899.273	4470
899.393	4550
899.513	4546
899.633	4512
899.753	4592
899.873	4554
899.993	4580
900.113	4512
900.232	4630
900.352	4573
900.472	4485
900.591	4405
900.711	4466
900.83	4462
900.95	4645
901.069	4714
901.189	4542
901.308	4375
901.427	4314
901.546	4394
901.665	4512
901.784	4538
901.904	4489
902.023	4379
902.141	4246
902.26	4188
902.379	4341
902.498	4322
902.617	4253
902.735	4402
902.854	4466
902.973	4413
903.091	4211
903.21	4249
903.328	4333
903.446	4333
903.565	4280
903.683	4360
903.801	4280
903.919	4443
904.038	4428
904.156	4352
904.274	4455
904.392	4466
904.51	4447
904.627	4508
904.745	4634
904.863	4615
904.981	4443
905.098	4329
905.216	4455
905.334	4462
905.451	4481
905.569	4451
905.686	4630
905.803	4542
905.921	4436
906.038	4554
906.155	4493
906.272	4394
906.389	4459
906.506	4371
906.623	4409
906.74	4402
906.857	4337
906.974	4390
907.091	4626
907.208	4683
907.324	4630
907.441	4542
907.557	4333
907.674	4356
907.79	4383
907.907	4413
908.023	4519
908.139	4443
908.256	4470
908.372	4512
908.488	4481
908.604	4394
908.72	4386
908.836	4367
908.952	4363
909.068	4421
909.184	4588
909.3	4481
909.415	4622
909.531	4588
909.647	4421
909.762	4443
909.878	4375
909.993	4493
910.108	4409
910.224	4371
910.339	4527
910.454	4424
910.57	4405
910.685	4306
910.8	4675
910.915	4592
911.03	4535
911.145	4352
911.259	4363
911.374	4367
911.489	4322
911.604	4337
911.718	4181
911.833	4230
911.947	4093
912.062	4086
912.176	4196
912.291	4280
912.405	4295
912.519	4447
912.633	4523
912.748	4417
912.862	4318
912.976	4257
913.09	4101
913.204	4230
913.318	4265
913.431	4398
913.545	4405
913.659	4466
913.772	4409
913.886	4284
914	4280
914.113	4390
914.226	4440
914.34	4440
914.453	4257
914.566	4462
914.68	4329
914.793	4356
914.906	4207
915.019	4173
915.132	4071
915.245	4196
915.358	4261
915.47	4299
915.583	4284
915.696	4325
915.809	4443
915.921	4440
916.034	4287
916.146	4284
916.259	4257
916.371	4402
916.483	4348
916.595	4261
916.708	4360
916.82	4390
916.932	4329
917.044	4341
917.156	4341
917.268	4223
917.38	4352
917.491	4284
917.603	4344
917.715	4432
917.826	4470
917.938	4363
918.049	4253
918.161	4356
918.272	4607
918.384	4565
918.495	4459
918.606	4379
918.717	4276
918.828	4341
918.939	4402
919.05	4261
919.161	4348
919.272	4173
919.383	4234
919.494	4481
919.604	4664
919.715	4462
919.826	4363
919.936	4394
920.047	4584
920.157	4523
920.267	4694
920.378	4519
920.488	4497
920.598	4721
920.708	4911
920.818	4790
920.928	4816
921.038	5022
921.148	4911
921.258	4626
921.368	4546
921.477	4508
921.587	4500
921.697	4390
921.806	4573
921.916	4459
922.025	4261
922.134	4284
922.244	4242
922.353	4367
922.462	4204
922.571	4169
922.68	4025
922.789	4010
922.898	4131
923.007	4013
923.116	4166
923.224	4063
923.333	4051
923.442	4010
923.55	3994
923.659	4109
923.767	4074
923.876	4067
923.984	4173
924.092	3987
924.201	4032
924.309	4093
924.417	4177
924.525	4013
924.633	4124
924.741	4858
924.849	3937
924.956	4128
925.064	4006
925.172	3937
925.279	3922
925.387	4063
925.494	4048
925.602	4242
925.709	4173
925.816	4063
925.924	4188
926.031	4253
926.138	4177
926.245	4200
926.352	4112
926.459	4265
926.566	4337
926.673	4188
926.779	4071
926.886	4105
926.993	3994
927.099	3964
927.206	3968
927.312	4006
927.419	4063
927.525	4040
927.631	4086
927.737	3945
927.843	3979
927.95	3892
928.056	3968
928.162	3991
928.267	4063
928.373	4729
928.479	4120
928.585	3918
928.69	4059
928.796	4063
928.901	3968
929.007	3899
929.112	4006
929.218	4010
929.323	3949
929.428	4006
929.533	4131
929.638	3880
929.743	3960
929.848	4055
929.953	4021
930.058	3918
930.163	3800
930.267	3869
930.372	3956
930.477	3835
930.581	4067
930.685	3979
930.79	3842
930.894	3911
930.998	3880
931.103	4051
931.207	3740
931.311	3747
931.415	3705
931.519	3526
931.623	3526
