Data from test_V78500241_283.txt Node
Date: Fri Mar 25 16:50:58 CST 2022
User: usil
Spectrometer: V785-0024
Trigger mode: 0
Integration Time (sec): 4.000000E-1
Scans to average: 1
Nonlinearity correction enabled: false
Boxcar width: 0
Storing dark spectrum: false
XAxis mode: Wavelengths
Number of Pixels in Spectrum: 1024
>>>>>Begin Spectral Data<<<<<
801.071	8096
801.214	8073
801.356	7894
801.499	7887
801.641	7845
801.783	7871
801.926	8039
802.068	8039
802.211	8046
802.353	8012
802.496	7917
802.638	7951
802.78	7902
802.923	7936
803.065	7879
803.208	7807
803.35	8024
803.492	8081
803.635	8119
803.777	7993
803.919	8100
804.061	8396
804.204	8164
804.346	8031
804.488	7925
804.63	8088
804.773	7986
804.915	8096
805.057	8199
805.199	8077
805.341	8195
805.483	8290
805.626	8164
805.768	8077
805.91	8096
806.052	8199
806.194	8134
806.336	8294
806.478	8161
806.62	8119
806.762	8119
806.904	8240
807.046	8454
807.188	8370
807.33	8290
807.472	8313
807.614	8073
807.756	8153
807.898	7947
808.04	7917
808.182	7989
808.324	7928
808.465	7928
808.607	8092
808.749	8183
808.891	8202
809.033	8279
809.174	8225
809.316	8001
809.458	8012
809.6	8001
809.741	8027
809.883	7989
810.025	8096
810.166	8084
810.308	8005
810.45	7963
810.591	7871
810.733	7757
810.875	7700
811.016	7510
811.158	7502
811.299	7636
811.441	7833
811.582	7655
811.724	7636
811.865	7529
812.007	7620
812.148	7639
812.29	7658
812.431	7784
812.573	7906
812.714	7989
812.855	8149
812.997	8210
813.138	8233
813.279	8279
813.421	8077
813.562	8016
813.703	7849
813.845	7738
813.986	7468
814.127	7270
814.268	7190
814.41	7213
814.551	7190
814.692	7168
814.833	7118
814.974	7023
815.115	7072
815.256	6928
815.397	6875
815.539	6913
815.68	6772
815.821	6821
815.962	6913
816.103	6776
816.244	6760
816.385	6623
816.526	6662
816.666	6578
816.807	6296
816.948	6410
817.089	6490
817.23	6418
817.371	6429
817.512	6342
817.653	6388
817.793	6410
817.934	6410
818.075	6456
818.216	6460
818.356	6429
818.497	6281
818.638	6136
818.778	6117
818.919	6079
819.06	6163
819.2	6289
819.341	6270
819.481	6285
819.622	6563
819.762	6745
819.903	6681
820.043	6627
820.184	6585
820.324	6574
820.465	6635
820.605	6662
820.746	6642
820.886	6513
821.026	6688
821.167	6734
821.307	6795
821.447	6791
821.588	6669
821.728	6570
821.868	6517
822.008	6403
822.149	6388
822.289	6350
822.429	6178
822.569	6117
822.709	6129
822.849	5931
822.99	5908
823.13	5931
823.27	5935
823.41	5775
823.55	5813
823.69	5718
823.83	5779
823.97	5707
824.11	5600
824.25	5516
824.389	5547
824.529	5570
824.669	5539
824.809	5657
824.949	5638
825.089	5646
825.228	5562
825.368	5417
825.508	5372
825.648	5334
825.787	5345
825.927	5440
826.067	5315
826.206	5292
826.346	5383
826.485	5448
826.625	5425
826.765	5543
826.904	5493
827.044	5254
827.183	5201
827.323	5151
827.462	5258
827.601	5113
827.741	5193
827.88	5288
828.02	5132
828.159	5189
828.298	5269
828.437	5376
828.577	5220
828.716	5490
828.855	5326
828.994	5155
829.134	5181
829.273	5220
829.412	5124
829.551	5113
829.69	5155
829.829	5315
829.968	5387
830.107	5303
830.246	5292
830.385	5170
830.524	5090
830.663	5117
830.802	4965
830.941	4927
831.08	4850
831.219	5025
831.357	4976
831.496	5147
831.635	4923
831.774	4866
831.913	4809
832.051	4740
832.19	4744
832.329	4812
832.467	4672
832.606	4618
832.744	4782
832.883	4820
833.022	4740
833.16	4801
833.299	4824
833.437	4847
833.576	4858
833.714	4839
833.852	4793
833.991	4896
834.129	4938
834.267	4961
834.406	4885
834.544	4938
834.682	4972
834.821	4984
834.959	5147
835.097	4987
835.235	5216
835.373	5029
835.511	5048
835.65	5048
835.788	5029
835.926	4843
836.064	4896
836.202	4915
836.34	5185
836.478	5261
836.615	5140
836.753	5166
836.891	5292
837.029	5258
837.167	5174
837.305	5216
837.443	5147
837.58	5075
837.718	5269
837.856	5174
837.993	5151
838.131	5239
838.269	5250
838.406	5174
838.544	5185
838.681	5048
838.819	5037
838.956	4843
839.094	4923
839.231	5033
839.369	5067
839.506	5364
839.643	5303
839.781	5105
839.918	4942
840.055	5113
840.193	5105
840.33	5094
840.467	5147
840.604	5185
840.742	5417
840.879	5071
841.016	5117
841.153	5155
841.29	5349
841.427	5326
841.564	5318
841.701	5296
841.838	5280
841.975	5189
842.112	5254
842.249	5159
842.385	5067
842.522	5322
842.659	5201
842.796	5155
842.933	5159
843.069	5159
843.206	5147
843.343	5284
843.479	5242
843.616	5288
843.752	5037
843.889	4980
844.025	5197
844.162	5037
844.298	5220
844.435	5121
844.571	5003
844.708	5204
844.844	5265
844.98	5322
845.117	5273
845.253	5151
845.389	5132
845.525	5178
845.661	5060
845.798	5010
845.934	5143
846.07	5064
846.206	5136
846.342	5246
846.478	5162
846.614	4949
846.75	4908
846.886	4919
847.022	5147
847.158	5045
847.294	5090
847.429	5086
847.565	5060
847.701	5364
847.837	4919
847.972	4828
848.108	5006
848.244	4915
848.379	4717
848.515	4786
848.65	4755
848.786	4691
848.921	4782
849.057	4831
849.192	4828
849.328	4805
849.463	4843
849.598	4774
849.734	4755
849.869	4729
850.004	4649
850.14	4622
850.275	4588
850.41	4527
850.545	4584
850.68	4580
850.815	4596
850.95	4592
851.085	4820
851.22	4759
851.355	4668
851.49	4618
851.625	4653
851.76	4637
851.895	4550
852.03	4542
852.165	4641
852.299	4729
852.434	4752
852.569	4752
852.703	4812
852.838	4870
852.973	4915
853.107	4877
853.242	4759
853.376	4653
853.511	4519
853.645	4649
853.78	4786
853.914	4763
854.048	4649
854.183	4691
854.317	4694
854.451	4847
854.585	4649
854.72	4656
854.854	4828
854.988	4592
855.122	4641
855.256	4550
855.39	4675
855.524	4797
855.658	4790
855.792	4729
855.926	4744
856.06	4797
856.194	4721
856.327	4694
856.461	4645
856.595	4634
856.729	4683
856.862	4782
856.996	4668
857.13	4767
857.263	4759
857.397	4824
857.53	4687
857.664	4717
857.797	4767
857.931	4793
858.064	4736
858.197	4763
858.331	4645
858.464	4607
858.597	4558
858.731	4630
858.864	4645
858.997	4584
859.13	4645
859.263	4687
859.396	4645
859.529	4580
859.662	4561
859.795	4531
859.928	4679
860.061	4812
860.194	4736
860.327	4634
860.46	4508
860.592	4733
860.725	4725
860.858	4714
860.99	4596
861.123	4519
861.256	4523
861.388	4611
861.521	5357
861.653	4481
861.786	4481
861.918	4493
862.05	4500
862.183	4519
862.315	4634
862.447	4679
862.58	4542
862.712	4409
862.844	4363
862.976	4504
863.108	4500
863.24	4885
863.372	4314
863.504	4462
863.636	4417
863.768	4481
863.9	4424
864.032	4386
864.164	4447
864.296	4508
864.428	4535
864.559	4516
864.691	4493
864.823	4497
864.954	4546
865.086	4489
865.217	4436
865.349	4424
865.48	4443
865.612	4516
865.743	4622
865.875	4493
866.006	4470
866.137	4493
866.269	4443
866.4	4470
866.531	4451
866.662	4371
866.793	4413
866.924	4421
867.055	4440
867.186	4440
867.317	4386
867.448	4367
867.579	4379
867.71	4352
867.841	4409
867.972	4451
868.103	4470
868.233	4470
868.364	4451
868.495	4485
868.625	4702
868.756	4763
868.886	4580
869.017	4630
869.147	4801
869.278	4759
869.408	4664
869.539	4622
869.669	4691
869.799	4672
869.929	4771
870.06	4691
870.19	4942
870.32	4957
870.45	4938
870.58	5029
870.71	5083
870.84	5048
870.97	4984
871.1	4927
871.23	5143
871.36	5109
871.489	5071
871.619	5090
871.749	5143
871.879	5113
872.008	5159
872.138	5071
872.267	5003
872.397	4873
872.526	4809
872.656	4774
872.785	4824
872.915	4961
873.044	5041
873.173	4919
873.303	5003
873.432	4976
873.561	4987
873.69	4908
873.819	4854
873.948	4934
874.077	4816
874.206	4752
874.335	4820
874.464	4908
874.593	5075
874.722	4961
874.851	5090
874.979	5117
875.108	5060
875.237	4995
875.365	4850
875.494	4908
875.623	4972
875.751	4854
875.88	4881
876.008	4930
876.136	5045
876.265	5170
876.393	5391
876.521	5341
876.65	5208
876.778	5159
876.906	5029
877.034	4976
877.162	5048
877.29	5022
877.418	5048
877.546	5010
877.674	5056
877.802	5018
877.93	5014
878.058	4915
878.185	4889
878.313	5018
878.441	4942
878.568	4820
878.696	4858
878.824	4930
878.951	4995
879.079	5159
879.206	5277
879.333	5109
879.461	5014
879.588	4999
879.715	5151
879.842	5269
879.97	4991
880.097	4778
880.224	4748
880.351	4767
880.478	4839
880.605	4801
880.732	4824
880.859	5056
880.986	4854
881.112	4877
881.239	4786
881.366	4710
881.493	4649
881.619	4630
881.746	4656
881.872	4645
881.999	4656
882.125	4725
882.252	4812
882.378	4801
882.505	4949
882.631	4816
882.757	4634
882.883	4736
883.01	4740
883.136	4691
883.262	4584
883.388	4622
883.514	4828
883.64	4889
883.766	4831
883.892	4641
884.018	4710
884.143	4915
884.269	5022
884.395	4698
884.52	4622
884.646	4626
884.772	4588
884.897	4607
885.023	4603
885.148	4771
885.274	4870
885.399	4805
885.524	4763
885.65	4729
885.775	4755
885.9	4710
886.025	4927
886.15	4835
886.275	4687
886.4	4637
886.525	4725
886.65	4675
886.775	4706
886.9	4889
887.025	5079
887.149	4771
887.274	4649
887.399	4653
887.523	4645
887.648	4558
887.773	4599
887.897	4744
888.021	4797
888.146	4698
888.27	4831
888.395	4877
888.519	4835
888.643	4790
888.767	4820
888.891	4710
889.015	4618
889.139	4702
889.263	4596
889.387	4782
889.511	4828
889.635	4805
889.759	4664
889.883	4683
890.006	4717
890.13	4824
890.254	4584
890.377	4702
890.501	4519
890.624	4508
890.748	4641
890.871	4519
890.995	4455
891.118	4379
891.241	4542
891.364	4512
891.488	4649
891.611	4542
891.734	4558
891.857	4618
891.98	4500
892.103	4679
892.226	4599
892.349	4550
892.471	4504
892.594	4546
892.717	4584
892.839	4577
892.962	4622
893.085	4698
893.207	4577
893.33	4451
893.452	4508
893.575	4637
893.697	4596
893.819	4793
893.941	4847
894.064	4759
894.186	4584
894.308	4611
894.43	4771
894.552	4839
894.674	4763
894.796	4554
894.918	4637
895.04	4588
895.161	4702
895.283	4714
895.405	4611
895.526	4637
895.648	4656
895.769	4725
895.891	4706
896.012	4710
896.134	4733
896.255	4641
896.376	4653
896.498	4637
896.619	4694
896.74	4596
896.861	4706
896.982	4980
897.103	5033
897.224	4831
897.345	4748
897.466	4710
897.587	4721
897.708	4885
897.828	4752
897.949	4729
898.07	4599
898.19	4611
898.311	4797
898.431	4687
898.552	4729
898.672	4801
898.792	4805
898.913	4740
899.033	4641
899.153	4516
899.273	4466
899.393	4512
899.513	4485
899.633	4497
899.753	4580
899.873	4504
899.993	4516
900.113	4577
900.232	4679
900.352	4546
900.472	4466
900.591	4428
900.711	4500
900.83	4481
900.95	4599
901.069	4702
901.189	4611
901.308	4379
901.427	4291
901.546	4402
901.665	4462
901.784	4493
901.904	4413
902.023	4329
902.141	4215
902.26	4196
902.379	4325
902.498	4261
902.617	4238
902.735	4386
902.854	4379
902.973	4409
903.091	4230
903.21	4215
903.328	4291
903.446	4207
903.565	4348
903.683	4409
903.801	4272
903.919	4421
904.038	4470
904.156	4322
904.274	4466
904.392	4356
904.51	4443
904.627	4436
904.745	4603
904.863	4645
904.981	4390
905.098	4386
905.216	4367
905.334	4440
905.451	4436
905.569	4455
905.686	4554
905.803	4584
905.921	4352
906.038	4565
906.155	4493
906.272	4356
906.389	4440
906.506	4310
906.623	4386
906.74	4371
906.857	4363
906.974	4386
907.091	4535
907.208	4679
907.324	4603
907.441	4542
907.557	4390
907.674	4363
907.79	4310
907.907	4417
908.023	4481
908.139	4497
908.256	4440
908.372	4497
908.488	4478
908.604	4329
908.72	4363
908.836	4367
908.952	4402
909.068	4470
909.184	4573
909.3	4504
909.415	4618
909.531	4565
909.647	4398
909.762	4402
909.878	4329
909.993	4474
910.108	4398
910.224	4436
910.339	4466
910.454	4424
910.57	4367
910.685	4291
910.8	4683
910.915	4599
911.03	4497
911.145	4310
911.259	4386
911.374	4409
911.489	4322
911.604	4287
911.718	4154
911.833	4207
911.947	4097
912.062	4044
912.176	4227
912.291	4272
912.405	4299
912.519	4554
912.633	4554
912.748	4337
912.862	4325
912.976	4154
913.09	4093
913.204	4227
913.318	4238
913.431	4348
913.545	4405
913.659	4459
913.772	4318
913.886	4257
914	4219
914.113	4451
914.226	4432
914.34	4390
914.453	4238
914.566	4443
914.68	4337
914.793	4367
914.906	4147
915.019	4139
915.132	4067
915.245	4177
915.358	4219
915.47	4219
915.583	4249
915.696	4303
915.809	4386
915.921	4459
916.034	4276
916.146	4249
916.259	4234
916.371	4356
916.483	4363
916.595	4268
916.708	4325
916.82	4341
916.932	4291
917.044	4352
917.156	4341
917.268	4257
917.38	4291
917.491	4291
917.603	4333
917.715	4417
917.826	4500
917.938	4303
918.049	4246
918.161	4360
918.272	4512
918.384	4531
918.495	4447
918.606	4318
918.717	4253
918.828	4333
918.939	4367
919.05	4261
919.161	4314
919.272	4150
919.383	4253
919.494	4447
919.604	4626
919.715	4386
919.826	4337
919.936	4417
920.047	4531
920.157	4512
920.267	4698
920.378	4588
920.488	4504
920.598	4683
920.708	4885
920.818	4763
920.928	4748
921.038	4934
921.148	4949
921.258	4630
921.368	4523
921.477	4535
921.587	4451
921.697	4390
921.806	4554
921.916	4447
922.025	4322
922.134	4272
922.244	4223
922.353	4363
922.462	4249
922.571	4124
922.68	4025
922.789	4002
922.898	4063
923.007	3979
923.116	4112
923.224	4101
923.333	4090
923.442	4006
923.55	3994
923.659	4074
923.767	4124
923.876	3991
923.984	4131
924.092	3960
924.201	4067
924.309	4063
924.417	4154
924.525	4071
924.633	4078
924.741	5086
924.849	3896
924.956	4162
925.064	3934
925.172	3922
925.279	3987
925.387	4036
925.494	4071
925.602	4230
925.709	4158
925.816	4063
925.924	4154
926.031	4234
926.138	4143
926.245	4230
926.352	4124
926.459	4207
926.566	4337
926.673	4158
926.779	4086
926.886	4082
926.993	4021
927.099	3968
927.206	3926
927.312	3949
927.419	4071
927.525	4051
927.631	4120
927.737	3979
927.843	3979
927.95	3827
928.056	3956
928.162	3994
928.267	4055
928.373	4721
928.479	4101
928.585	3873
928.69	4013
928.796	4105
928.901	3983
929.007	3899
929.112	4017
929.218	3991
929.323	3926
929.428	3922
929.533	4147
929.638	3911
929.743	3975
929.848	4048
929.953	3979
930.058	3903
930.163	3781
930.267	3797
930.372	3983
930.477	3797
930.581	4074
930.685	4013
930.79	3823
930.894	3854
930.998	3899
931.103	4059
931.207	3713
931.311	3660
931.415	3656
931.519	3511
931.623	3561
