Data from test_V78500241_2561.txt Node
Date: Fri Mar 25 17:06:48 CST 2022
User: usil
Spectrometer: V785-0024
Trigger mode: 0
Integration Time (sec): 4.000000E-1
Scans to average: 1
Nonlinearity correction enabled: false
Boxcar width: 0
Storing dark spectrum: false
XAxis mode: Wavelengths
Number of Pixels in Spectrum: 1024
>>>>>Begin Spectral Data<<<<<
801.071	8020
801.214	8081
801.356	7890
801.499	7833
801.641	7780
801.783	7852
801.926	7947
802.068	7928
802.211	8016
802.353	8031
802.496	7852
802.638	7860
802.78	7909
802.923	7947
803.065	7909
803.208	7871
803.35	7925
803.492	8111
803.635	8149
803.777	8081
803.919	8180
804.061	8423
804.204	8134
804.346	8092
804.488	7928
804.63	8100
804.773	8031
804.915	8111
805.057	8309
805.199	8115
805.341	8218
805.483	8195
805.626	8252
805.768	8183
805.91	8172
806.052	8123
806.194	8073
806.336	8271
806.478	8138
806.62	8008
806.762	8134
806.904	8252
807.046	8507
807.188	8465
807.33	8328
807.472	8339
807.614	8168
807.756	8145
807.898	7974
808.04	7811
808.182	7833
808.324	7909
808.465	7906
808.607	8111
808.749	8084
808.891	8259
809.033	8355
809.174	8233
809.316	8073
809.458	8123
809.6	7997
809.741	7974
809.883	8016
810.025	8081
810.166	8065
810.308	8027
810.45	7982
810.591	7833
810.733	7727
810.875	7632
811.016	7510
811.158	7487
811.299	7590
811.441	7727
811.582	7696
811.724	7521
811.865	7582
812.007	7567
812.148	7613
812.29	7594
812.431	7761
812.573	7826
812.714	8001
812.855	8142
812.997	8180
813.138	8252
813.279	8210
813.421	8081
813.562	7986
813.703	7833
813.845	7795
813.986	7426
814.127	7251
814.268	7228
814.41	7171
814.551	7202
814.692	7266
814.833	7065
814.974	7126
815.115	7122
815.256	6939
815.397	6935
815.539	6924
815.68	6795
815.821	6806
815.962	6878
816.103	6829
816.244	6760
816.385	6616
816.526	6551
816.666	6521
816.807	6304
816.948	6395
817.089	6536
817.23	6471
817.371	6441
817.512	6410
817.653	6445
817.793	6319
817.934	6353
818.075	6506
818.216	6410
818.356	6342
818.497	6292
818.638	6117
818.778	6178
818.919	6091
819.06	6186
819.2	6350
819.341	6289
819.481	6456
819.622	6513
819.762	6730
819.903	6711
820.043	6597
820.184	6574
820.324	6662
820.465	6730
820.605	6711
820.746	6623
820.886	6528
821.026	6738
821.167	6692
821.307	6840
821.447	6779
821.588	6658
821.728	6604
821.868	6551
822.008	6410
822.149	6384
822.289	6342
822.429	6186
822.569	6087
822.709	6152
822.849	5942
822.99	5958
823.13	5980
823.27	5980
823.41	5821
823.55	5855
823.69	5779
823.83	5824
823.97	5672
824.11	5585
824.25	5581
824.389	5619
824.529	5600
824.669	5532
824.809	5672
824.949	5733
825.089	5672
825.228	5604
825.368	5433
825.508	5379
825.648	5395
825.787	5402
825.927	5433
826.067	5345
826.206	5299
826.346	5410
826.485	5471
826.625	5455
826.765	5524
826.904	5486
827.044	5337
827.183	5273
827.323	5174
827.462	5284
827.601	5204
827.741	5227
827.88	5269
828.02	5159
828.159	5265
828.298	5368
828.437	5395
828.577	5280
828.716	5528
828.855	5341
828.994	5223
829.134	5231
829.273	5235
829.412	5193
829.551	5143
829.69	5197
829.829	5288
829.968	5406
830.107	5360
830.246	5387
830.385	5193
830.524	5204
830.663	5155
830.802	5022
830.941	4927
831.08	4942
831.219	5003
831.357	5041
831.496	5159
831.635	4930
831.774	4889
831.913	4900
832.051	4782
832.19	4771
832.329	4896
832.467	4729
832.606	4694
832.744	4828
832.883	4809
833.022	4809
833.16	4774
833.299	4892
833.437	4889
833.576	4885
833.714	4908
833.852	4911
833.991	4923
834.129	5018
834.267	4968
834.406	4965
834.544	4987
834.682	5025
834.821	5025
834.959	5140
835.097	5041
835.235	5178
835.373	5136
835.511	5109
835.65	5064
835.788	5045
835.926	4934
836.064	4904
836.202	4995
836.34	5220
836.478	5280
836.615	5121
836.753	5280
836.891	5318
837.029	5239
837.167	5273
837.305	5212
837.443	5181
837.58	5128
837.718	5258
837.856	5193
837.993	5189
838.131	5258
838.269	5284
838.406	5246
838.544	5239
838.681	5033
838.819	5037
838.956	4919
839.094	4957
839.231	4999
839.369	5128
839.506	5474
839.643	5296
839.781	5140
839.918	5018
840.055	5166
840.193	5159
840.33	5159
840.467	5231
840.604	5246
840.742	5440
840.879	5094
841.016	5136
841.153	5162
841.29	5440
841.427	5368
841.564	5353
841.701	5463
841.838	5330
841.975	5273
842.112	5299
842.249	5212
842.385	5113
842.522	5330
842.659	5155
842.796	5204
842.933	5227
843.069	5204
843.206	5201
843.343	5360
843.479	5288
843.616	5349
843.752	5037
843.889	5037
844.025	5258
844.162	5071
844.298	5303
844.435	5132
844.571	5105
844.708	5189
844.844	5345
844.98	5349
845.117	5277
845.253	5231
845.389	5098
845.525	5216
845.661	5204
845.798	5102
845.934	5174
846.07	5079
846.206	5227
846.342	5318
846.478	5204
846.614	5033
846.75	5045
846.886	5033
847.022	5155
847.158	5014
847.294	5075
847.429	5105
847.565	5071
847.701	5364
847.837	4858
847.972	4843
848.108	5003
848.244	4972
848.379	4854
848.515	4733
848.65	4729
848.786	4763
848.921	4782
849.057	4896
849.192	4911
849.328	4828
849.463	4881
849.598	4793
849.734	4782
849.869	4755
850.004	4687
850.14	4668
850.275	4679
850.41	4531
850.545	4618
850.68	4649
850.815	4615
850.95	4615
851.085	4877
851.22	4797
851.355	4714
851.49	4656
851.625	4649
851.76	4687
851.895	4588
852.03	4554
852.165	4729
852.299	4748
852.434	4812
852.569	4752
852.703	4748
852.838	4866
852.973	4995
853.107	4938
853.242	4736
853.376	4717
853.511	4558
853.645	4641
853.78	4839
853.914	4725
854.048	4721
854.183	4630
854.317	4717
854.451	4873
854.585	4698
854.72	4679
854.854	4767
854.988	4634
855.122	4668
855.256	4565
855.39	4740
855.524	4797
855.658	4755
855.792	4786
855.926	4805
856.06	4812
856.194	4782
856.327	4725
856.461	4592
856.595	4649
856.729	4634
856.862	4805
856.996	4714
857.13	4729
857.263	4824
857.397	4786
857.53	4683
857.664	4748
857.797	4828
857.931	4793
858.064	4717
858.197	4790
858.331	4668
858.464	4580
858.597	4573
858.731	4679
858.864	4706
858.997	4630
859.13	4683
859.263	4714
859.396	4698
859.529	4603
859.662	4573
859.795	4542
859.928	4649
860.061	4805
860.194	4744
860.327	4664
860.46	4653
860.592	4752
860.725	4774
860.858	4744
860.99	4607
861.123	4535
861.256	4546
861.388	4558
861.521	5277
861.653	4542
861.786	4519
861.918	4516
862.05	4535
862.183	4558
862.315	4630
862.447	4675
862.58	4561
862.712	4443
862.844	4329
862.976	4497
863.108	4470
863.24	4774
863.372	4360
863.504	4451
863.636	4367
863.768	4535
863.9	4440
864.032	4424
864.164	4459
864.296	4535
864.428	4615
864.559	4573
864.691	4618
864.823	4531
864.954	4546
865.086	4535
865.217	4436
865.349	4443
865.48	4535
865.612	4512
865.743	4710
865.875	4485
866.006	4455
866.137	4497
866.269	4413
866.4	4478
866.531	4428
866.662	4402
866.793	4440
866.924	4462
867.055	4497
867.186	4478
867.317	4409
867.448	4375
867.579	4375
867.71	4421
867.841	4390
867.972	4478
868.103	4493
868.233	4428
868.364	4485
868.495	4523
868.625	4660
868.756	4835
868.886	4546
869.017	4653
869.147	4843
869.278	4843
869.408	4691
869.539	4672
869.669	4698
869.799	4641
869.929	4740
870.06	4767
870.19	4949
870.32	5003
870.45	4987
870.58	5045
870.71	5124
870.84	5124
870.97	4949
871.1	4927
871.23	5185
871.36	5170
871.489	5033
871.619	5086
871.749	5094
871.879	5147
872.008	5197
872.138	5064
872.267	4976
872.397	4873
872.526	4854
872.656	4752
872.785	4850
872.915	4987
873.044	5048
873.173	4923
873.303	4991
873.432	4927
873.561	4968
873.69	4889
873.819	4934
873.948	4889
874.077	4862
874.206	4755
874.335	4801
874.464	4961
874.593	5048
874.722	5037
874.851	5102
874.979	5056
875.108	5102
875.237	4965
875.365	4938
875.494	4873
875.623	4957
875.751	4889
875.88	4930
876.008	4980
876.136	5071
876.265	5231
876.393	5357
876.521	5334
876.65	5269
876.778	5201
876.906	5109
877.034	4991
877.162	5086
877.29	5006
877.418	5052
877.546	5090
877.674	5045
877.802	5071
877.93	5022
878.058	4942
878.185	4930
878.313	4968
878.441	4987
878.568	4839
878.696	4919
878.824	4987
878.951	4987
879.079	5136
879.206	5337
879.333	5105
879.461	5025
879.588	5037
879.715	5140
879.842	5208
879.97	5033
880.097	4828
880.224	4793
880.351	4828
880.478	4809
880.605	4759
880.732	4793
880.859	5113
880.986	4881
881.112	4942
881.239	4786
881.366	4656
881.493	4603
881.619	4615
881.746	4615
881.872	4634
881.999	4656
882.125	4687
882.252	4771
882.378	4835
882.505	4991
882.631	4831
882.757	4641
882.883	4755
883.01	4729
883.136	4683
883.262	4656
883.388	4626
883.514	4824
883.64	4896
883.766	4812
883.892	4637
884.018	4733
884.143	4866
884.269	5033
884.395	4736
884.52	4599
884.646	4687
884.772	4558
884.897	4611
885.023	4706
885.148	4759
885.274	4889
885.399	4793
885.524	4691
885.65	4694
885.775	4763
885.9	4717
886.025	4866
886.15	4782
886.275	4752
886.4	4634
886.525	4702
886.65	4702
886.775	4664
886.9	4908
887.025	5052
887.149	4862
887.274	4687
887.399	4569
887.523	4596
887.648	4565
887.773	4611
887.897	4778
888.021	4744
888.146	4664
888.27	4873
888.395	4927
888.519	4778
888.643	4870
888.767	4858
888.891	4660
889.015	4664
889.139	4679
889.263	4607
889.387	4763
889.511	4919
889.635	4820
889.759	4653
889.883	4630
890.006	4744
890.13	4881
890.254	4618
890.377	4675
890.501	4538
890.624	4565
890.748	4653
890.871	4531
890.995	4402
891.118	4424
891.241	4538
891.364	4599
891.488	4615
891.611	4516
891.734	4512
891.857	4653
891.98	4615
892.103	4618
892.226	4618
892.349	4565
892.471	4447
892.594	4615
892.717	4584
892.839	4592
892.962	4645
893.085	4706
893.207	4603
893.33	4451
893.452	4489
893.575	4687
893.697	4634
893.819	4843
893.941	4850
894.064	4790
894.186	4599
894.308	4596
894.43	4706
894.552	4839
894.674	4759
894.796	4558
894.918	4538
895.04	4550
895.161	4748
895.283	4637
895.405	4634
895.526	4672
895.648	4649
895.769	4675
895.891	4733
896.012	4702
896.134	4714
896.255	4725
896.376	4656
896.498	4592
896.619	4683
896.74	4645
896.861	4641
896.982	4938
897.103	5048
897.224	4824
897.345	4748
897.466	4637
897.587	4744
897.708	4862
897.828	4748
897.949	4656
898.07	4580
898.19	4637
898.311	4839
898.431	4694
898.552	4714
898.672	4862
898.792	4786
898.913	4759
899.033	4653
899.153	4554
899.273	4485
899.393	4531
899.513	4500
899.633	4512
899.753	4603
899.873	4478
899.993	4622
900.113	4531
900.232	4584
900.352	4580
900.472	4455
900.591	4436
900.711	4459
900.83	4462
900.95	4611
901.069	4706
901.189	4523
901.308	4333
901.427	4367
901.546	4371
901.665	4535
901.784	4478
901.904	4379
902.023	4333
902.141	4211
902.26	4166
902.379	4306
902.498	4291
902.617	4238
902.735	4363
902.854	4405
902.973	4325
903.091	4211
903.21	4196
903.328	4318
903.446	4299
903.565	4268
903.683	4356
903.801	4249
903.919	4432
904.038	4440
904.156	4344
904.274	4390
904.392	4405
904.51	4440
904.627	4481
904.745	4535
904.863	4660
904.981	4356
905.098	4314
905.216	4344
905.334	4409
905.451	4436
905.569	4455
905.686	4577
905.803	4580
905.921	4402
906.038	4550
906.155	4428
906.272	4402
906.389	4421
906.506	4333
906.623	4398
906.74	4390
906.857	4314
906.974	4360
907.091	4558
907.208	4668
907.324	4592
907.441	4466
907.557	4356
907.674	4318
907.79	4329
907.907	4360
908.023	4584
908.139	4485
908.256	4421
908.372	4470
908.488	4455
908.604	4344
908.72	4314
908.836	4394
908.952	4379
909.068	4443
909.184	4542
909.3	4516
909.415	4596
909.531	4542
909.647	4363
909.762	4383
909.878	4344
909.993	4367
910.108	4405
910.224	4371
910.339	4462
910.454	4424
910.57	4341
910.685	4352
910.8	4630
910.915	4573
911.03	4459
911.145	4306
911.259	4322
911.374	4348
911.489	4265
911.604	4295
911.718	4143
911.833	4242
911.947	4067
912.062	4044
912.176	4219
912.291	4261
912.405	4303
912.519	4447
912.633	4554
912.748	4329
912.862	4295
912.976	4177
913.09	4112
913.204	4192
913.318	4242
913.431	4352
913.545	4383
913.659	4443
913.772	4356
913.886	4280
914	4234
914.113	4409
914.226	4428
914.34	4417
914.453	4234
914.566	4432
914.68	4295
914.793	4310
914.906	4150
915.019	4131
915.132	4131
915.245	4200
915.358	4227
915.47	4253
915.583	4268
915.696	4306
915.809	4405
915.921	4405
916.034	4272
916.146	4284
916.259	4192
916.371	4402
916.483	4325
916.595	4234
916.708	4318
916.82	4329
916.932	4325
917.044	4318
917.156	4333
917.268	4246
917.38	4280
917.491	4306
917.603	4314
917.715	4413
917.826	4443
917.938	4322
918.049	4249
918.161	4390
918.272	4573
918.384	4550
918.495	4459
918.606	4314
918.717	4181
918.828	4360
918.939	4341
919.05	4249
919.161	4322
919.272	4131
919.383	4303
919.494	4413
919.604	4645
919.715	4489
919.826	4356
919.936	4402
920.047	4527
920.157	4531
920.267	4694
920.378	4546
920.488	4535
920.598	4755
920.708	4877
920.818	4721
920.928	4763
921.038	4923
921.148	4900
921.258	4634
921.368	4611
921.477	4493
921.587	4470
921.697	4356
921.806	4596
921.916	4443
922.025	4280
922.134	4306
922.244	4272
922.353	4341
922.462	4173
922.571	4196
922.68	3964
922.789	3994
922.898	4017
923.007	4006
923.116	4082
923.224	4082
923.333	4071
923.442	3968
923.55	3979
923.659	4063
923.767	4116
923.876	4013
923.984	4131
924.092	4021
924.201	4097
924.309	4097
924.417	4109
924.525	4048
924.633	4105
924.741	5083
924.849	3899
924.956	4147
925.064	3987
925.172	3888
925.279	3937
925.387	4036
925.494	4124
925.602	4188
925.709	4169
925.816	4002
925.924	4059
926.031	4192
926.138	4169
926.245	4219
926.352	4059
926.459	4291
926.566	4287
926.673	4131
926.779	4082
926.886	4048
926.993	3987
927.099	3941
927.206	3926
927.312	3930
927.419	4086
927.525	4074
927.631	4078
927.737	3934
927.843	3941
927.95	3808
928.056	3937
928.162	3972
928.267	4093
928.373	4626
928.479	4093
928.585	3907
928.69	4032
928.796	4040
928.901	4006
929.007	3861
929.112	3964
929.218	3949
929.323	3892
929.428	3926
929.533	4120
929.638	3888
929.743	4036
929.848	4044
929.953	4036
930.058	3915
930.163	3785
930.267	3869
930.372	3994
930.477	3823
930.581	4048
930.685	3968
930.79	3850
930.894	3915
930.998	3854
931.103	4055
931.207	3713
931.311	3713
931.415	3648
931.519	3534
931.623	3564
