Data from test_V78500241_1654.txt Node
Date: Fri Mar 25 17:00:30 CST 2022
User: usil
Spectrometer: V785-0024
Trigger mode: 0
Integration Time (sec): 4.000000E-1
Scans to average: 1
Nonlinearity correction enabled: false
Boxcar width: 0
Storing dark spectrum: false
XAxis mode: Wavelengths
Number of Pixels in Spectrum: 1024
>>>>>Begin Spectral Data<<<<<
801.071	8073
801.214	8050
801.356	7822
801.499	7875
801.641	7845
801.783	7784
801.926	7928
802.068	7989
802.211	7963
802.353	8050
802.496	7822
802.638	7845
802.78	7852
802.923	7875
803.065	7890
803.208	7909
803.35	8027
803.492	8050
803.635	8176
803.777	8050
803.919	8088
804.061	8446
804.204	8088
804.346	8012
804.488	7932
804.63	8103
804.773	8012
804.915	8088
805.057	8275
805.199	8130
805.341	8176
805.483	8259
805.626	8191
805.768	8100
805.91	8267
806.052	8229
806.194	8153
806.336	8267
806.478	8107
806.62	8062
806.762	8168
806.904	8317
807.046	8484
807.188	8351
807.33	8324
807.472	8324
807.614	8183
807.756	8157
807.898	7894
808.04	7925
808.182	7875
808.324	7879
808.465	7875
808.607	8024
808.749	8123
808.891	8191
809.033	8317
809.174	8210
809.316	8081
809.458	8050
809.6	7986
809.741	7997
809.883	8031
810.025	8153
810.166	8043
810.308	8058
810.45	7928
810.591	7811
810.733	7746
810.875	7624
811.016	7540
811.158	7457
811.299	7590
811.441	7765
811.582	7704
811.724	7567
811.865	7521
812.007	7594
812.148	7563
812.29	7647
812.431	7780
812.573	7856
812.714	7982
812.855	8187
812.997	8240
813.138	8328
813.279	8233
813.421	8164
813.562	7989
813.703	7830
813.845	7769
813.986	7460
814.127	7194
814.268	7187
814.41	7202
814.551	7187
814.692	7209
814.833	7107
814.974	7129
815.115	7149
815.256	6989
815.397	6962
815.539	6935
815.68	6814
815.821	6741
815.962	6878
816.103	6837
816.244	6681
816.385	6574
816.526	6631
816.666	6475
816.807	6266
816.948	6414
817.089	6467
817.23	6422
817.371	6346
817.512	6384
817.653	6361
817.793	6372
817.934	6422
818.075	6479
818.216	6437
818.356	6418
818.497	6258
818.638	6091
818.778	6121
818.919	6148
819.06	6167
819.2	6342
819.341	6334
819.481	6323
819.622	6547
819.762	6715
819.903	6688
820.043	6635
820.184	6574
820.324	6578
820.465	6654
820.605	6669
820.746	6631
820.886	6521
821.026	6669
821.167	6722
821.307	6829
821.447	6719
821.588	6654
821.728	6506
821.868	6471
822.008	6308
822.149	6376
822.289	6308
822.429	6129
822.569	6041
822.709	6079
822.849	5908
822.99	5832
823.13	5878
823.27	5908
823.41	5802
823.55	5775
823.69	5760
823.83	5771
823.97	5665
824.11	5501
824.25	5440
824.389	5554
824.529	5532
824.669	5520
824.809	5604
824.949	5627
825.089	5608
825.228	5539
825.368	5337
825.508	5326
825.648	5353
825.787	5353
825.927	5326
826.067	5318
826.206	5303
826.346	5379
826.485	5357
826.625	5436
826.765	5520
826.904	5417
827.044	5216
827.183	5220
827.323	5090
827.462	5174
827.601	5170
827.741	5178
827.88	5204
828.02	5121
828.159	5231
828.298	5322
828.437	5387
828.577	5265
828.716	5452
828.855	5326
828.994	5117
829.134	5151
829.273	5151
829.412	5124
829.551	5155
829.69	5155
829.829	5258
829.968	5318
830.107	5265
830.246	5242
830.385	5197
830.524	5140
830.663	5083
830.802	4987
830.941	4850
831.08	4816
831.219	4972
831.357	5010
831.496	5136
831.635	4911
831.774	4858
831.913	4854
832.051	4710
832.19	4748
832.329	4850
832.467	4645
832.606	4668
832.744	4744
832.883	4683
833.022	4694
833.16	4744
833.299	4790
833.437	4843
833.576	4828
833.714	4801
833.852	4824
833.991	4858
834.129	4930
834.267	4919
834.406	4904
834.544	4984
834.682	4904
834.821	4961
834.959	5143
835.097	4953
835.235	5128
835.373	5029
835.511	5124
835.65	5067
835.788	5037
835.926	4870
836.064	4881
836.202	4934
836.34	5121
836.478	5231
836.615	5094
836.753	5155
836.891	5250
837.029	5220
837.167	5140
837.305	5140
837.443	5121
837.58	5102
837.718	5269
837.856	5204
837.993	5124
838.131	5174
838.269	5166
838.406	5159
838.544	5136
838.681	5029
838.819	4942
838.956	4873
839.094	4885
839.231	4987
839.369	5086
839.506	5406
839.643	5242
839.781	5090
839.918	4991
840.055	5094
840.193	5056
840.33	5128
840.467	5166
840.604	5170
840.742	5395
840.879	5113
841.016	5067
841.153	5102
841.29	5326
841.427	5239
841.564	5330
841.701	5337
841.838	5273
841.975	5201
842.112	5265
842.249	5083
842.385	5117
842.522	5330
842.659	5162
842.796	5151
842.933	5128
843.069	5109
843.206	5147
843.343	5208
843.479	5258
843.616	5280
843.752	5010
843.889	5006
844.025	5208
844.162	5018
844.298	5216
844.435	5052
844.571	5010
844.708	5178
844.844	5307
844.98	5322
845.117	5258
845.253	5170
845.389	5060
845.525	5140
845.661	5128
845.798	5025
845.934	5147
846.07	5025
846.206	5223
846.342	5261
846.478	5170
846.614	4946
846.75	5045
846.886	4900
847.022	5140
847.158	5006
847.294	5090
847.429	5052
847.565	5052
847.701	5349
847.837	4812
847.972	4755
848.108	4923
848.244	4927
848.379	4736
848.515	4702
848.65	4725
848.786	4755
848.921	4733
849.057	4873
849.192	4854
849.328	4755
849.463	4858
849.598	4805
849.734	4782
849.869	4675
850.004	4637
850.14	4645
850.275	4580
850.41	4481
850.545	4519
850.68	4569
850.815	4649
850.95	4584
851.085	4870
851.22	4736
851.355	4653
851.49	4573
851.625	4630
851.76	4660
851.895	4569
852.03	4516
852.165	4668
852.299	4736
852.434	4748
852.569	4774
852.703	4752
852.838	4809
852.973	4923
853.107	4915
853.242	4755
853.376	4694
853.511	4531
853.645	4611
853.78	4778
853.914	4679
854.048	4645
854.183	4645
854.317	4672
854.451	4870
854.585	4675
854.72	4645
854.854	4763
854.988	4596
855.122	4622
855.256	4550
855.39	4645
855.524	4790
855.658	4694
855.792	4634
855.926	4733
856.06	4759
856.194	4847
856.327	4694
856.461	4611
856.595	4607
856.729	4645
856.862	4694
856.996	4672
857.13	4691
857.263	4805
857.397	4790
857.53	4603
857.664	4748
857.797	4733
857.931	4786
858.064	4649
858.197	4702
858.331	4645
858.464	4580
858.597	4516
858.731	4592
858.864	4664
858.997	4618
859.13	4637
859.263	4649
859.396	4698
859.529	4554
859.662	4580
859.795	4527
859.928	4668
860.061	4691
860.194	4687
860.327	4607
860.46	4538
860.592	4710
860.725	4710
860.858	4683
860.99	4565
861.123	4523
861.256	4497
861.388	4615
861.521	5220
861.653	4424
861.786	4459
861.918	4432
862.05	4531
862.183	4516
862.315	4596
862.447	4660
862.58	4542
862.712	4398
862.844	4295
862.976	4417
863.108	4455
863.24	4725
863.372	4383
863.504	4390
863.636	4405
863.768	4447
863.9	4402
864.032	4356
864.164	4386
864.296	4447
864.428	4565
864.559	4565
864.691	4535
864.823	4466
864.954	4523
865.086	4527
865.217	4459
865.349	4386
865.48	4436
865.612	4512
865.743	4573
865.875	4451
866.006	4436
866.137	4432
866.269	4451
866.4	4432
866.531	4428
866.662	4383
866.793	4398
866.924	4413
867.055	4428
867.186	4462
867.317	4363
867.448	4375
867.579	4344
867.71	4398
867.841	4363
867.972	4451
868.103	4455
868.233	4436
868.364	4443
868.495	4432
868.625	4630
868.756	4740
868.886	4538
869.017	4573
869.147	4740
869.278	4752
869.408	4615
869.539	4649
869.669	4714
869.799	4641
869.929	4725
870.06	4721
870.19	4965
870.32	4927
870.45	4927
870.58	5041
870.71	5079
870.84	5132
870.97	4908
871.1	4881
871.23	5079
871.36	5124
871.489	5018
871.619	5064
871.749	5102
871.879	5098
872.008	5159
872.138	5056
872.267	4961
872.397	4858
872.526	4820
872.656	4767
872.785	4820
872.915	4991
873.044	5056
873.173	4938
873.303	4987
873.432	4938
873.561	4930
873.69	4900
873.819	4873
873.948	4900
874.077	4782
874.206	4725
874.335	4725
874.464	4877
874.593	5018
874.722	4972
874.851	5090
874.979	5022
875.108	4984
875.237	4870
875.365	4828
875.494	4820
875.623	4953
875.751	4850
875.88	4873
876.008	4934
876.136	5033
876.265	5193
876.393	5353
876.521	5242
876.65	5178
876.778	5098
876.906	5056
877.034	5029
877.162	5048
877.29	4919
877.418	5083
877.546	5022
877.674	5086
877.802	5022
877.93	4972
878.058	4934
878.185	4850
878.313	4919
878.441	4930
878.568	4771
878.696	4820
878.824	4889
878.951	5010
879.079	5155
879.206	5227
879.333	5094
879.461	4942
879.588	4972
879.715	5090
879.842	5216
879.97	4995
880.097	4866
880.224	4763
880.351	4824
880.478	4797
880.605	4809
880.732	4744
880.859	5098
880.986	4908
881.112	4850
881.239	4778
881.366	4714
881.493	4554
881.619	4588
881.746	4641
881.872	4645
881.999	4645
882.125	4649
882.252	4767
882.378	4824
882.505	4961
882.631	4767
882.757	4592
882.883	4714
883.01	4725
883.136	4641
883.262	4603
883.388	4656
883.514	4797
883.64	4870
883.766	4759
883.892	4668
884.018	4729
884.143	4927
884.269	4968
884.395	4653
884.52	4580
884.646	4660
884.772	4542
884.897	4546
885.023	4672
885.148	4782
885.274	4862
885.399	4824
885.524	4721
885.65	4714
885.775	4752
885.9	4706
886.025	4850
886.15	4790
886.275	4714
886.4	4615
886.525	4740
886.65	4679
886.775	4683
886.9	4892
887.025	5045
887.149	4816
887.274	4717
887.399	4611
887.523	4618
887.648	4592
887.773	4660
887.897	4793
888.021	4793
888.146	4675
888.27	4797
888.395	4923
888.519	4824
888.643	4824
888.767	4877
888.891	4691
889.015	4588
889.139	4714
889.263	4634
889.387	4824
889.511	4889
889.635	4828
889.759	4653
889.883	4698
890.006	4733
890.13	4896
890.254	4649
890.377	4729
890.501	4592
890.624	4519
890.748	4702
890.871	4516
890.995	4519
891.118	4421
891.241	4554
891.364	4577
891.488	4637
891.611	4546
891.734	4558
891.857	4622
891.98	4561
892.103	4645
892.226	4641
892.349	4596
892.471	4516
892.594	4558
892.717	4694
892.839	4573
892.962	4664
893.085	4717
893.207	4599
893.33	4512
893.452	4561
893.575	4675
893.697	4618
893.819	4782
893.941	4809
894.064	4858
894.186	4603
894.308	4615
894.43	4729
894.552	4812
894.674	4801
894.796	4637
894.918	4683
895.04	4546
895.161	4717
895.283	4702
895.405	4607
895.526	4668
895.648	4740
895.769	4755
895.891	4744
896.012	4797
896.134	4736
896.255	4725
896.376	4668
896.498	4641
896.619	4714
896.74	4622
896.861	4672
896.982	4942
897.103	5162
897.224	4854
897.345	4809
897.466	4706
897.587	4752
897.708	4873
897.828	4774
897.949	4691
898.07	4603
898.19	4656
898.311	4839
898.431	4736
898.552	4771
898.672	4900
898.792	4805
898.913	4809
899.033	4668
899.153	4516
899.273	4462
899.393	4527
899.513	4542
899.633	4504
899.753	4580
899.873	4535
899.993	4603
900.113	4558
900.232	4577
900.352	4565
900.472	4512
900.591	4394
900.711	4573
900.83	4512
900.95	4603
901.069	4706
901.189	4569
901.308	4409
901.427	4310
901.546	4417
901.665	4558
901.784	4554
901.904	4405
902.023	4314
902.141	4291
902.26	4188
902.379	4329
902.498	4287
902.617	4272
902.735	4383
902.854	4417
902.973	4428
903.091	4261
903.21	4284
903.328	4310
903.446	4333
903.565	4284
903.683	4329
903.801	4306
903.919	4409
904.038	4478
904.156	4348
904.274	4489
904.392	4409
904.51	4474
904.627	4527
904.745	4596
904.863	4653
904.981	4424
905.098	4348
905.216	4413
905.334	4428
905.451	4470
905.569	4413
905.686	4630
905.803	4577
905.921	4443
906.038	4577
906.155	4558
906.272	4447
906.389	4512
906.506	4344
906.623	4409
906.74	4417
906.857	4360
906.974	4409
907.091	4584
907.208	4714
907.324	4615
907.441	4531
907.557	4386
907.674	4310
907.79	4379
907.907	4402
908.023	4500
908.139	4512
908.256	4443
908.372	4497
908.488	4500
908.604	4386
908.72	4383
908.836	4375
908.952	4383
909.068	4481
909.184	4596
909.3	4531
909.415	4611
909.531	4565
909.647	4413
909.762	4409
909.878	4394
909.993	4443
910.108	4462
910.224	4440
910.339	4546
910.454	4447
910.57	4383
910.685	4333
910.8	4637
910.915	4664
911.03	4519
911.145	4314
911.259	4337
911.374	4405
911.489	4295
911.604	4295
911.718	4169
911.833	4265
911.947	4120
912.062	4109
912.176	4238
912.291	4265
912.405	4318
912.519	4481
912.633	4550
912.748	4421
912.862	4329
912.976	4257
913.09	4097
913.204	4215
913.318	4318
913.431	4383
913.545	4360
913.659	4424
913.772	4409
913.886	4265
914	4268
914.113	4394
914.226	4459
914.34	4428
914.453	4219
914.566	4428
914.68	4306
914.793	4344
914.906	4181
915.019	4181
915.132	4128
915.245	4192
915.358	4196
915.47	4261
915.583	4257
915.696	4299
915.809	4478
915.921	4447
916.034	4265
916.146	4249
916.259	4234
916.371	4394
916.483	4386
916.595	4291
916.708	4303
916.82	4348
916.932	4348
917.044	4356
917.156	4329
917.268	4207
917.38	4280
917.491	4257
917.603	4371
917.715	4443
917.826	4421
917.938	4390
918.049	4268
918.161	4402
918.272	4516
918.384	4554
918.495	4455
918.606	4310
918.717	4223
918.828	4394
918.939	4383
919.05	4253
919.161	4367
919.272	4162
919.383	4280
919.494	4447
919.604	4672
919.715	4443
919.826	4402
919.936	4405
920.047	4550
920.157	4527
920.267	4771
920.378	4603
920.488	4519
920.598	4721
920.708	4919
920.818	4774
920.928	4774
921.038	5003
921.148	4930
921.258	4603
921.368	4588
921.477	4489
921.587	4447
921.697	4386
921.806	4577
921.916	4436
922.025	4314
922.134	4291
922.244	4177
922.353	4341
922.462	4246
922.571	4135
922.68	4067
922.789	4002
922.898	4040
923.007	4048
923.116	4097
923.224	4040
923.333	4124
923.442	3983
923.55	4025
923.659	4017
923.767	4143
923.876	4017
923.984	4131
924.092	4021
924.201	4071
924.309	4150
924.417	4169
924.525	4082
924.633	4169
924.741	4930
924.849	3968
924.956	4196
925.064	3991
925.172	3941
925.279	4010
925.387	4078
925.494	4090
925.602	4246
925.709	4211
925.816	4051
925.924	4154
926.031	4234
926.138	4207
926.245	4227
926.352	4105
926.459	4253
926.566	4360
926.673	4192
926.779	4109
926.886	4124
926.993	3975
927.099	3987
927.206	3983
927.312	3949
927.419	4109
927.525	4017
927.631	4154
927.737	4032
927.843	3945
927.95	3816
928.056	3994
928.162	4006
928.267	4131
928.373	4630
928.479	4120
928.585	3918
928.69	4040
928.796	4097
928.901	3983
929.007	3846
929.112	4002
929.218	4002
929.323	3911
929.428	3987
929.533	4086
929.638	3937
929.743	3983
929.848	4101
929.953	4021
930.058	3945
930.163	3819
930.267	3854
930.372	3972
930.477	3873
930.581	4090
930.685	3975
930.79	3854
930.894	3896
930.998	3903
931.103	4055
931.207	3770
931.311	3717
931.415	3694
931.519	3492
931.623	3553
