Data from test_V78500241_2208.txt Node
Date: Fri Mar 25 17:04:21 CST 2022
User: usil
Spectrometer: V785-0024
Trigger mode: 0
Integration Time (sec): 4.000000E-1
Scans to average: 1
Nonlinearity correction enabled: false
Boxcar width: 0
Storing dark spectrum: false
XAxis mode: Wavelengths
Number of Pixels in Spectrum: 1024
>>>>>Begin Spectral Data<<<<<
801.071	8058
801.214	7963
801.356	7898
801.499	7780
801.641	7902
801.783	7890
801.926	7993
802.068	7940
802.211	7959
802.353	8001
802.496	7898
802.638	7883
802.78	7868
802.923	7868
803.065	7902
803.208	7833
803.35	7978
803.492	8039
803.635	8157
803.777	8031
803.919	8115
804.061	8438
804.204	8149
804.346	8039
804.488	7974
804.63	8069
804.773	8062
804.915	8130
805.057	8259
805.199	8221
805.341	8214
805.483	8290
805.626	8210
805.768	8107
805.91	8206
806.052	8248
806.194	8107
806.336	8301
806.478	8107
806.62	8073
806.762	8172
806.904	8290
807.046	8469
807.188	8423
807.33	8317
807.472	8324
807.614	8180
807.756	8180
807.898	8012
808.04	7940
808.182	7913
808.324	7932
808.465	7913
808.607	8039
808.749	8062
808.891	8172
809.033	8351
809.174	8259
809.316	8081
809.458	8084
809.6	8016
809.741	8016
809.883	8119
810.025	8119
810.166	8050
810.308	8031
810.45	8024
810.591	7868
810.733	7769
810.875	7643
811.016	7590
811.158	7533
811.299	7590
811.441	7643
811.582	7719
811.724	7601
811.865	7514
812.007	7655
812.148	7567
812.29	7578
812.431	7719
812.573	7887
812.714	7989
812.855	8081
812.997	8195
813.138	8275
813.279	8149
813.421	8103
813.562	7959
813.703	7803
813.845	7734
813.986	7377
814.127	7228
814.268	7202
814.41	7225
814.551	7228
814.692	7251
814.833	7133
814.974	7149
815.115	7042
815.256	6970
815.397	6905
815.539	6909
815.68	6798
815.821	6776
815.962	6905
816.103	6897
816.244	6753
816.385	6642
816.526	6639
816.666	6464
816.807	6357
816.948	6464
817.089	6471
817.23	6475
817.371	6388
817.512	6376
817.653	6410
817.793	6414
817.934	6418
818.075	6407
818.216	6372
818.356	6403
818.497	6285
818.638	6182
818.778	6155
818.919	6144
819.06	6155
819.2	6350
819.341	6281
819.481	6422
819.622	6589
819.762	6703
819.903	6707
820.043	6654
820.184	6601
820.324	6502
820.465	6681
820.605	6757
820.746	6711
820.886	6532
821.026	6608
821.167	6665
821.307	6772
821.447	6749
821.588	6703
821.728	6551
821.868	6521
822.008	6327
822.149	6395
822.289	6407
822.429	6182
822.569	6106
822.709	6133
822.849	5942
822.99	5923
823.13	5950
823.27	5904
823.41	5840
823.55	5817
823.69	5809
823.83	5703
823.97	5661
824.11	5535
824.25	5490
824.389	5543
824.529	5596
824.669	5543
824.809	5611
824.949	5623
825.089	5627
825.228	5551
825.368	5436
825.508	5364
825.648	5379
825.787	5360
825.927	5387
826.067	5307
826.206	5296
826.346	5349
826.485	5440
826.625	5429
826.765	5455
826.904	5467
827.044	5246
827.183	5208
827.323	5155
827.462	5235
827.601	5147
827.741	5227
827.88	5223
828.02	5113
828.159	5235
828.298	5292
828.437	5395
828.577	5258
828.716	5478
828.855	5311
828.994	5174
829.134	5136
829.273	5170
829.412	5128
829.551	5113
829.69	5208
829.829	5277
829.968	5372
830.107	5246
830.246	5337
830.385	5159
830.524	5105
830.663	5048
830.802	4991
830.941	4839
831.08	4854
831.219	4995
831.357	4984
831.496	5128
831.635	4923
831.774	4866
831.913	4873
832.051	4710
832.19	4793
832.329	4858
832.467	4717
832.606	4702
832.744	4778
832.883	4736
833.022	4694
833.16	4778
833.299	4767
833.437	4831
833.576	4854
833.714	4889
833.852	4839
833.991	4896
834.129	4972
834.267	4934
834.406	4930
834.544	5018
834.682	4984
834.821	4987
834.959	5208
835.097	4999
835.235	5128
835.373	5124
835.511	5094
835.65	5045
835.788	5048
835.926	4900
836.064	4870
836.202	4889
836.34	5132
836.478	5208
836.615	5151
836.753	5178
836.891	5299
837.029	5246
837.167	5208
837.305	5174
837.443	5124
837.58	5086
837.718	5273
837.856	5155
837.993	5178
838.131	5223
838.269	5246
838.406	5273
838.544	5140
838.681	5003
838.819	5006
838.956	4885
839.094	4915
839.231	4953
839.369	5052
839.506	5436
839.643	5307
839.781	5113
839.918	5025
840.055	5121
840.193	5064
840.33	5048
840.467	5090
840.604	5189
840.742	5402
840.879	5083
841.016	5071
841.153	5174
841.29	5406
841.427	5326
841.564	5322
841.701	5299
841.838	5258
841.975	5235
842.112	5322
842.249	5086
842.385	5079
842.522	5334
842.659	5147
842.796	5178
842.933	5208
843.069	5185
843.206	5155
843.343	5372
843.479	5239
843.616	5265
843.752	4976
843.889	4980
844.025	5178
844.162	5022
844.298	5212
844.435	5052
844.571	5060
844.708	5105
844.844	5318
844.98	5368
845.117	5307
845.253	5086
845.389	5067
845.525	5185
845.661	5128
845.798	5029
845.934	5124
846.07	5037
846.206	5220
846.342	5277
846.478	5166
846.614	5041
846.75	4968
846.886	4919
847.022	5124
847.158	5071
847.294	5075
847.429	5079
847.565	5045
847.701	5383
847.837	4877
847.972	4793
848.108	4953
848.244	4896
848.379	4801
848.515	4717
848.65	4725
848.786	4744
848.921	4759
849.057	4896
849.192	4900
849.328	4828
849.463	4835
849.598	4786
849.734	4706
849.869	4694
850.004	4618
850.14	4694
850.275	4599
850.41	4512
850.545	4596
850.68	4618
850.815	4584
850.95	4641
851.085	4835
851.22	4740
851.355	4645
851.49	4653
851.625	4626
851.76	4641
851.895	4565
852.03	4550
852.165	4679
852.299	4733
852.434	4755
852.569	4710
852.703	4793
852.838	4812
852.973	4904
853.107	4904
853.242	4725
853.376	4596
853.511	4592
853.645	4615
853.78	4816
853.914	4675
854.048	4611
854.183	4660
854.317	4694
854.451	4858
854.585	4733
854.72	4645
854.854	4725
854.988	4584
855.122	4645
855.256	4527
855.39	4656
855.524	4835
855.658	4714
855.792	4714
855.926	4717
856.06	4774
856.194	4771
856.327	4660
856.461	4618
856.595	4607
856.729	4611
856.862	4790
856.996	4706
857.13	4710
857.263	4752
857.397	4790
857.53	4672
857.664	4706
857.797	4717
857.931	4812
858.064	4637
858.197	4710
858.331	4660
858.464	4626
858.597	4497
858.731	4550
858.864	4618
858.997	4577
859.13	4645
859.263	4672
859.396	4694
859.529	4599
859.662	4535
859.795	4508
859.928	4637
860.061	4782
860.194	4733
860.327	4618
860.46	4554
860.592	4721
860.725	4702
860.858	4694
860.99	4535
861.123	4516
861.256	4519
861.388	4565
861.521	5277
861.653	4497
861.786	4489
861.918	4493
862.05	4535
862.183	4558
862.315	4607
862.447	4622
862.58	4565
862.712	4386
862.844	4333
862.976	4462
863.108	4447
863.24	4786
863.372	4325
863.504	4459
863.636	4413
863.768	4478
863.9	4451
864.032	4337
864.164	4398
864.296	4478
864.428	4527
864.559	4573
864.691	4516
864.823	4527
864.954	4565
865.086	4485
865.217	4436
865.349	4421
865.48	4436
865.612	4470
865.743	4569
865.875	4459
866.006	4428
866.137	4459
866.269	4508
866.4	4470
866.531	4413
866.662	4379
866.793	4386
866.924	4405
867.055	4535
867.186	4478
867.317	4409
867.448	4405
867.579	4394
867.71	4394
867.841	4367
867.972	4489
868.103	4500
868.233	4443
868.364	4459
868.495	4485
868.625	4698
868.756	4710
868.886	4596
869.017	4607
869.147	4778
869.278	4755
869.408	4660
869.539	4645
869.669	4725
869.799	4641
869.929	4767
870.06	4725
870.19	4915
870.32	4870
870.45	4942
870.58	5006
870.71	5090
870.84	5121
870.97	4934
871.1	4919
871.23	5124
871.36	5086
871.489	5025
871.619	5094
871.749	5067
871.879	5121
872.008	5155
872.138	5079
872.267	4934
872.397	4866
872.526	4782
872.656	4725
872.785	4736
872.915	4965
873.044	5037
873.173	4927
873.303	4957
873.432	4953
873.561	4904
873.69	4900
873.819	4862
873.948	4934
874.077	4839
874.206	4752
874.335	4812
874.464	4965
874.593	5010
874.722	4946
874.851	5071
874.979	5045
875.108	5037
875.237	4930
875.365	4896
875.494	4892
875.623	4957
875.751	4805
875.88	4930
876.008	5022
876.136	5060
876.265	5155
876.393	5318
876.521	5212
876.65	5216
876.778	5174
876.906	5075
877.034	5006
877.162	5018
877.29	4995
877.418	5071
877.546	5037
877.674	5010
877.802	5048
877.93	5029
878.058	4991
878.185	4892
878.313	4949
878.441	4965
878.568	4767
878.696	4873
878.824	4987
878.951	5022
879.079	5029
879.206	5318
879.333	5098
879.461	5006
879.588	5010
879.715	5105
879.842	5185
879.97	4995
880.097	4786
880.224	4755
880.351	4797
880.478	4782
880.605	4824
880.732	4782
880.859	5075
880.986	4919
881.112	4915
881.239	4835
881.366	4706
881.493	4622
881.619	4599
881.746	4634
881.872	4607
881.999	4626
882.125	4645
882.252	4847
882.378	4801
882.505	4999
882.631	4816
882.757	4683
882.883	4729
883.01	4710
883.136	4664
883.262	4588
883.388	4607
883.514	4820
883.64	4873
883.766	4809
883.892	4672
884.018	4717
884.143	4881
884.269	5018
884.395	4687
884.52	4656
884.646	4664
884.772	4554
884.897	4550
885.023	4664
885.148	4740
885.274	4828
885.399	4828
885.524	4714
885.65	4691
885.775	4748
885.9	4759
886.025	4866
886.15	4767
886.275	4717
886.4	4694
886.525	4763
886.65	4660
886.775	4694
886.9	4850
887.025	5052
887.149	4763
887.274	4611
887.399	4573
887.523	4599
887.648	4577
887.773	4531
887.897	4752
888.021	4778
888.146	4698
888.27	4771
888.395	4908
888.519	4820
888.643	4797
888.767	4839
888.891	4649
889.015	4630
889.139	4630
889.263	4622
889.387	4721
889.511	4881
889.635	4725
889.759	4626
889.883	4668
890.006	4714
890.13	4801
890.254	4577
890.377	4679
890.501	4538
890.624	4546
890.748	4660
890.871	4447
890.995	4421
891.118	4344
891.241	4542
891.364	4500
891.488	4679
891.611	4535
891.734	4523
891.857	4615
891.98	4558
892.103	4660
892.226	4516
892.349	4519
892.471	4447
892.594	4516
892.717	4611
892.839	4535
892.962	4596
893.085	4634
893.207	4603
893.33	4481
893.452	4538
893.575	4668
893.697	4538
893.819	4835
893.941	4862
894.064	4744
894.186	4577
894.308	4561
894.43	4717
894.552	4801
894.674	4717
894.796	4565
894.918	4611
895.04	4554
895.161	4736
895.283	4710
895.405	4618
895.526	4622
895.648	4714
895.769	4637
895.891	4683
896.012	4698
896.134	4679
896.255	4660
896.376	4603
896.498	4645
896.619	4645
896.74	4622
896.861	4634
896.982	4968
897.103	5109
897.224	4847
897.345	4683
897.466	4683
897.587	4714
897.708	4870
897.828	4778
897.949	4668
898.07	4580
898.19	4645
898.311	4801
898.431	4683
898.552	4714
898.672	4778
898.792	4816
898.913	4698
899.033	4622
899.153	4508
899.273	4409
899.393	4462
899.513	4500
899.633	4531
899.753	4500
899.873	4550
899.993	4596
900.113	4523
900.232	4573
900.352	4550
900.472	4500
900.591	4383
900.711	4478
900.83	4390
900.95	4596
901.069	4687
901.189	4538
901.308	4337
901.427	4314
901.546	4341
901.665	4470
901.784	4523
901.904	4405
902.023	4310
902.141	4200
902.26	4154
902.379	4280
902.498	4268
902.617	4238
902.735	4360
902.854	4375
902.973	4348
903.091	4207
903.21	4219
903.328	4318
903.446	4261
903.565	4265
903.683	4310
903.801	4265
903.919	4409
904.038	4440
904.156	4314
904.274	4440
904.392	4402
904.51	4455
904.627	4504
904.745	4611
904.863	4618
904.981	4383
905.098	4325
905.216	4344
905.334	4424
905.451	4405
905.569	4443
905.686	4512
905.803	4573
905.921	4443
906.038	4588
906.155	4497
906.272	4436
906.389	4478
906.506	4314
906.623	4371
906.74	4383
906.857	4295
906.974	4348
907.091	4603
907.208	4771
907.324	4611
907.441	4474
907.557	4352
907.674	4386
907.79	4337
907.907	4341
908.023	4500
908.139	4462
908.256	4432
908.372	4466
908.488	4440
908.604	4337
908.72	4272
908.836	4394
908.952	4390
909.068	4440
909.184	4550
909.3	4421
909.415	4558
909.531	4596
909.647	4383
909.762	4375
909.878	4379
909.993	4390
910.108	4344
910.224	4386
910.339	4455
910.454	4417
910.57	4367
910.685	4276
910.8	4630
910.915	4653
911.03	4459
911.145	4329
911.259	4299
911.374	4383
911.489	4303
911.604	4276
911.718	4211
911.833	4207
911.947	4128
912.062	4017
912.176	4230
912.291	4242
912.405	4230
912.519	4546
912.633	4493
912.748	4402
912.862	4291
912.976	4177
913.09	4078
913.204	4128
913.318	4265
913.431	4310
913.545	4394
913.659	4436
913.772	4363
913.886	4253
914	4242
914.113	4367
914.226	4436
914.34	4352
914.453	4246
914.566	4432
914.68	4348
914.793	4303
914.906	4139
915.019	4154
915.132	4074
915.245	4177
915.358	4204
915.47	4234
915.583	4318
915.696	4287
915.809	4417
915.921	4409
916.034	4242
916.146	4272
916.259	4204
916.371	4325
916.483	4383
916.595	4249
916.708	4310
916.82	4352
916.932	4303
917.044	4310
917.156	4322
917.268	4196
917.38	4272
917.491	4295
917.603	4352
917.715	4413
917.826	4405
917.938	4352
918.049	4257
918.161	4386
918.272	4577
918.384	4542
918.495	4459
918.606	4303
918.717	4265
918.828	4356
918.939	4413
919.05	4230
919.161	4322
919.272	4158
919.383	4223
919.494	4394
919.604	4618
919.715	4443
919.826	4352
919.936	4398
920.047	4542
920.157	4504
920.267	4706
920.378	4500
920.488	4497
920.598	4706
920.708	4919
920.818	4729
920.928	4725
921.038	4904
921.148	4946
921.258	4630
921.368	4599
921.477	4508
921.587	4436
921.697	4402
921.806	4481
921.916	4443
922.025	4227
922.134	4284
922.244	4192
922.353	4325
922.462	4173
922.571	4147
922.68	4036
922.789	3979
922.898	4010
923.007	4010
923.116	4097
923.224	4040
923.333	4101
923.442	3998
923.55	3972
923.659	3972
923.767	4143
923.876	3987
923.984	4112
924.092	3956
924.201	4071
924.309	4128
924.417	4044
924.525	4097
924.633	4162
924.741	5060
924.849	3945
924.956	4131
925.064	3960
925.172	3945
925.279	3994
925.387	4029
925.494	4025
925.602	4200
925.709	4230
925.816	4032
925.924	4135
926.031	4227
926.138	4162
926.245	4219
926.352	4074
926.459	4223
926.566	4329
926.673	4154
926.779	4101
926.886	4101
926.993	3998
927.099	3937
927.206	3926
927.312	3960
927.419	4025
927.525	4029
927.631	4109
927.737	3972
927.843	3903
927.95	3876
928.056	3953
928.162	3994
928.267	4067
928.373	4649
928.479	4105
928.585	3876
928.69	3991
928.796	4071
928.901	3941
929.007	3842
929.112	3956
929.218	3953
929.323	3949
929.428	3918
929.533	4143
929.638	3911
929.743	3949
929.848	4013
929.953	3994
930.058	3937
930.163	3774
930.267	3827
930.372	4013
930.477	3804
930.581	4116
930.685	3956
930.79	3804
930.894	3884
930.998	3827
931.103	4013
931.207	3728
931.311	3724
931.415	3663
931.519	3530
931.623	3545
