Data from test_V78500241_2590.txt Node
Date: Fri Mar 25 17:07:00 CST 2022
User: usil
Spectrometer: V785-0024
Trigger mode: 0
Integration Time (sec): 4.000000E-1
Scans to average: 1
Nonlinearity correction enabled: false
Boxcar width: 0
Storing dark spectrum: false
XAxis mode: Wavelengths
Number of Pixels in Spectrum: 1024
>>>>>Begin Spectral Data<<<<<
801.071	7993
801.214	8031
801.356	7883
801.499	7852
801.641	7769
801.783	7807
801.926	7970
802.068	7879
802.211	7955
802.353	7997
802.496	7906
802.638	7921
802.78	7936
802.923	7940
803.065	7936
803.208	7856
803.35	7951
803.492	8157
803.635	8206
803.777	8027
803.919	8145
804.061	8419
804.204	8149
804.346	8027
804.488	8001
804.63	8107
804.773	7982
804.915	8065
805.057	8294
805.199	8153
805.341	8218
805.483	8290
805.626	8271
805.768	8123
805.91	8195
806.052	8172
806.194	8077
806.336	8317
806.478	8107
806.62	7993
806.762	8172
806.904	8221
807.046	8507
807.188	8389
807.33	8271
807.472	8313
807.614	8119
807.756	8187
807.898	8035
808.04	7856
808.182	7898
808.324	7894
808.465	7898
808.607	8096
808.749	8145
808.891	8221
809.033	8355
809.174	8244
809.316	8035
809.458	8081
809.6	8024
809.741	8096
809.883	7997
810.025	8088
810.166	8069
810.308	8024
810.45	8031
810.591	7799
810.733	7708
810.875	7624
811.016	7544
811.158	7396
811.299	7590
811.441	7761
811.582	7734
811.724	7575
811.865	7563
812.007	7575
812.148	7609
812.29	7575
812.431	7765
812.573	7871
812.714	8065
812.855	8126
812.997	8195
813.138	8294
813.279	8168
813.421	8107
813.562	7989
813.703	7837
813.845	7727
813.986	7506
814.127	7240
814.268	7236
814.41	7232
814.551	7152
814.692	7270
814.833	7152
814.974	7126
815.115	7126
815.256	6970
815.397	6958
815.539	6932
815.68	6783
815.821	6760
815.962	6916
816.103	6840
816.244	6703
816.385	6635
816.526	6650
816.666	6490
816.807	6289
816.948	6490
817.089	6498
817.23	6395
817.371	6384
817.512	6414
817.653	6391
817.793	6384
817.934	6410
818.075	6445
818.216	6441
818.356	6407
818.497	6205
818.638	6095
818.778	6152
818.919	6106
819.06	6133
819.2	6369
819.341	6369
819.481	6327
819.622	6566
819.762	6741
819.903	6696
820.043	6631
820.184	6642
820.324	6578
820.465	6745
820.605	6677
820.746	6681
820.886	6555
821.026	6696
821.167	6684
821.307	6787
821.447	6783
821.588	6738
821.728	6604
821.868	6486
822.008	6342
822.149	6319
822.289	6350
822.429	6163
822.569	6125
822.709	6079
822.849	5935
822.99	5965
823.13	5912
823.27	5958
823.41	5798
823.55	5817
823.69	5790
823.83	5805
823.97	5646
824.11	5512
824.25	5501
824.389	5547
824.529	5562
824.669	5554
824.809	5630
824.949	5676
825.089	5615
825.228	5535
825.368	5448
825.508	5349
825.648	5334
825.787	5414
825.927	5368
826.067	5307
826.206	5269
826.346	5345
826.485	5417
826.625	5429
826.765	5551
826.904	5501
827.044	5269
827.183	5223
827.323	5128
827.462	5246
827.601	5151
827.741	5201
827.88	5216
828.02	5079
828.159	5258
828.298	5277
828.437	5398
828.577	5303
828.716	5482
828.855	5357
828.994	5193
829.134	5098
829.273	5201
829.412	5189
829.551	5132
829.69	5151
829.829	5273
829.968	5383
830.107	5269
830.246	5280
830.385	5181
830.524	5155
830.663	5033
830.802	4984
830.941	4877
831.08	4889
831.219	4927
831.357	4953
831.496	5174
831.635	4946
831.774	4793
831.913	4839
832.051	4710
832.19	4793
832.329	4824
832.467	4649
832.606	4577
832.744	4725
832.883	4733
833.022	4729
833.16	4755
833.299	4854
833.437	4866
833.576	4858
833.714	4862
833.852	4873
833.991	4896
834.129	4999
834.267	4965
834.406	4911
834.544	4915
834.682	4991
834.821	4987
834.959	5109
835.097	5014
835.235	5185
835.373	5014
835.511	5136
835.65	5033
835.788	5006
835.926	4873
836.064	4927
836.202	4927
836.34	5189
836.478	5216
836.615	5109
836.753	5258
836.891	5353
837.029	5258
837.167	5181
837.305	5212
837.443	5140
837.58	5071
837.718	5280
837.856	5201
837.993	5166
838.131	5231
838.269	5235
838.406	5239
838.544	5197
838.681	4995
838.819	4984
838.956	4889
839.094	4915
839.231	4995
839.369	5067
839.506	5433
839.643	5292
839.781	5060
839.918	5006
840.055	5075
840.193	5064
840.33	5132
840.467	5155
840.604	5208
840.742	5444
840.879	5083
841.016	5162
841.153	5132
841.29	5395
841.427	5326
841.564	5239
841.701	5433
841.838	5269
841.975	5261
842.112	5239
842.249	5166
842.385	5143
842.522	5357
842.659	5193
842.796	5155
842.933	5242
843.069	5159
843.206	5121
843.343	5303
843.479	5227
843.616	5277
843.752	5048
843.889	4972
844.025	5201
844.162	4987
844.298	5208
844.435	5067
844.571	5022
844.708	5189
844.844	5265
844.98	5353
845.117	5322
845.253	5124
845.389	5140
845.525	5124
845.661	5151
845.798	5018
845.934	5147
846.07	5079
846.206	5155
846.342	5292
846.478	5231
846.614	5029
846.75	5003
846.886	4946
847.022	5128
847.158	5045
847.294	5086
847.429	5117
847.565	5075
847.701	5349
847.837	4835
847.972	4820
848.108	4927
848.244	4930
848.379	4816
848.515	4721
848.65	4763
848.786	4778
848.921	4809
849.057	4854
849.192	4930
849.328	4782
849.463	4828
849.598	4824
849.734	4729
849.869	4683
850.004	4618
850.14	4694
850.275	4637
850.41	4542
850.545	4546
850.68	4641
850.815	4672
850.95	4626
851.085	4854
851.22	4782
851.355	4656
851.49	4603
851.625	4615
851.76	4660
851.895	4554
852.03	4489
852.165	4668
852.299	4687
852.434	4763
852.569	4729
852.703	4733
852.838	4809
852.973	4946
853.107	4930
853.242	4763
853.376	4710
853.511	4527
853.645	4611
853.78	4824
853.914	4672
854.048	4626
854.183	4634
854.317	4683
854.451	4847
854.585	4687
854.72	4649
854.854	4812
854.988	4558
855.122	4649
855.256	4607
855.39	4649
855.524	4778
855.658	4729
855.792	4698
855.926	4698
856.06	4759
856.194	4801
856.327	4668
856.461	4622
856.595	4580
856.729	4634
856.862	4767
856.996	4672
857.13	4717
857.263	4786
857.397	4774
857.53	4580
857.664	4736
857.797	4736
857.931	4759
858.064	4653
858.197	4710
858.331	4672
858.464	4577
858.597	4493
858.731	4634
858.864	4626
858.997	4577
859.13	4630
859.263	4626
859.396	4653
859.529	4569
859.662	4592
859.795	4512
859.928	4611
860.061	4759
860.194	4740
860.327	4558
860.46	4584
860.592	4755
860.725	4694
860.858	4755
860.99	4618
861.123	4554
861.256	4527
861.388	4607
861.521	5318
861.653	4478
861.786	4474
861.918	4474
862.05	4550
862.183	4538
862.315	4592
862.447	4645
862.58	4538
862.712	4432
862.844	4360
862.976	4489
863.108	4474
863.24	4786
863.372	4322
863.504	4375
863.636	4409
863.768	4462
863.9	4424
864.032	4344
864.164	4383
864.296	4504
864.428	4569
864.559	4558
864.691	4512
864.823	4527
864.954	4493
865.086	4516
865.217	4428
865.349	4428
865.48	4493
865.612	4489
865.743	4618
865.875	4470
866.006	4451
866.137	4478
866.269	4459
866.4	4447
866.531	4398
866.662	4375
866.793	4394
866.924	4390
867.055	4493
867.186	4455
867.317	4371
867.448	4428
867.579	4421
867.71	4371
867.841	4348
867.972	4451
868.103	4424
868.233	4436
868.364	4466
868.495	4493
868.625	4603
868.756	4797
868.886	4531
869.017	4584
869.147	4790
869.278	4740
869.408	4645
869.539	4683
869.669	4729
869.799	4645
869.929	4771
870.06	4744
870.19	4953
870.32	4927
870.45	4904
870.58	4942
870.71	5083
870.84	5121
870.97	4927
871.1	4908
871.23	5162
871.36	5117
871.489	5025
871.619	5102
871.749	5079
871.879	5132
872.008	5201
872.138	5056
872.267	4999
872.397	4858
872.526	4771
872.656	4725
872.785	4831
872.915	4927
873.044	5064
873.173	4942
873.303	4999
873.432	4961
873.561	4930
873.69	4904
873.819	4793
873.948	4843
874.077	4828
874.206	4748
874.335	4786
874.464	4972
874.593	5029
874.722	4942
874.851	5132
874.979	5003
875.108	4987
875.237	4881
875.365	4904
875.494	4900
875.623	4976
875.751	4820
875.88	4866
876.008	4957
876.136	5052
876.265	5121
876.393	5341
876.521	5296
876.65	5269
876.778	5178
876.906	5117
877.034	5056
877.162	5090
877.29	4980
877.418	5014
877.546	5048
877.674	5037
877.802	4984
877.93	5006
878.058	4953
878.185	4847
878.313	4957
878.441	4938
878.568	4805
878.696	4873
878.824	4995
878.951	5029
879.079	5102
879.206	5292
879.333	5128
879.461	4987
879.588	4984
879.715	5113
879.842	5242
879.97	5029
880.097	4831
880.224	4706
880.351	4831
880.478	4797
880.605	4797
880.732	4824
880.859	5071
880.986	4889
881.112	4904
881.239	4771
881.366	4656
881.493	4569
881.619	4622
881.746	4702
881.872	4660
881.999	4675
882.125	4706
882.252	4725
882.378	4835
882.505	4915
882.631	4759
882.757	4687
882.883	4729
883.01	4740
883.136	4664
883.262	4599
883.388	4668
883.514	4858
883.64	4881
883.766	4816
883.892	4694
884.018	4683
884.143	4870
884.269	4972
884.395	4664
884.52	4641
884.646	4702
884.772	4565
884.897	4584
885.023	4710
885.148	4782
885.274	4858
885.399	4801
885.524	4710
885.65	4729
885.775	4748
885.9	4691
886.025	4847
886.15	4774
886.275	4710
886.4	4679
886.525	4694
886.65	4637
886.775	4630
886.9	4911
887.025	5037
887.149	4809
887.274	4649
887.399	4637
887.523	4584
887.648	4569
887.773	4588
887.897	4721
888.021	4755
888.146	4694
888.27	4790
888.395	4896
888.519	4816
888.643	4816
888.767	4816
888.891	4675
889.015	4615
889.139	4603
889.263	4641
889.387	4786
889.511	4866
889.635	4782
889.759	4672
889.883	4645
890.006	4691
890.13	4847
890.254	4634
890.377	4675
890.501	4546
890.624	4489
890.748	4649
890.871	4523
890.995	4432
891.118	4383
891.241	4519
891.364	4531
891.488	4630
891.611	4519
891.734	4558
891.857	4588
891.98	4542
892.103	4645
892.226	4580
892.349	4554
892.471	4451
892.594	4519
892.717	4637
892.839	4538
892.962	4618
893.085	4645
893.207	4580
893.33	4474
893.452	4512
893.575	4683
893.697	4626
893.819	4839
893.941	4850
894.064	4729
894.186	4561
894.308	4531
894.43	4774
894.552	4816
894.674	4759
894.796	4523
894.918	4645
895.04	4546
895.161	4714
895.283	4668
895.405	4603
895.526	4675
895.648	4698
895.769	4675
895.891	4675
896.012	4736
896.134	4759
896.255	4641
896.376	4603
896.498	4615
896.619	4649
896.74	4607
896.861	4603
896.982	4904
897.103	5025
897.224	4866
897.345	4752
897.466	4710
897.587	4694
897.708	4854
897.828	4820
897.949	4702
898.07	4550
898.19	4641
898.311	4847
898.431	4675
898.552	4790
898.672	4809
898.792	4816
898.913	4771
899.033	4634
899.153	4516
899.273	4405
899.393	4478
899.513	4523
899.633	4546
899.753	4546
899.873	4478
899.993	4607
900.113	4512
900.232	4546
900.352	4535
900.472	4485
900.591	4394
900.711	4531
900.83	4443
900.95	4599
901.069	4694
901.189	4527
901.308	4367
901.427	4318
901.546	4386
901.665	4462
901.784	4512
901.904	4386
902.023	4322
902.141	4166
902.26	4135
902.379	4291
902.498	4223
902.617	4215
902.735	4417
902.854	4428
902.973	4325
903.091	4188
903.21	4253
903.328	4268
903.446	4246
903.565	4272
903.683	4329
903.801	4291
903.919	4402
904.038	4421
904.156	4360
904.274	4432
904.392	4500
904.51	4474
904.627	4497
904.745	4588
904.863	4641
904.981	4344
905.098	4322
905.216	4394
905.334	4428
905.451	4459
905.569	4466
905.686	4542
905.803	4550
905.921	4405
906.038	4558
906.155	4489
906.272	4375
906.389	4451
906.506	4383
906.623	4379
906.74	4394
906.857	4318
906.974	4402
907.091	4558
907.208	4653
907.324	4546
907.441	4531
907.557	4356
907.674	4356
907.79	4356
907.907	4428
908.023	4550
908.139	4504
908.256	4432
908.372	4489
908.488	4455
908.604	4360
908.72	4360
908.836	4367
908.952	4390
909.068	4402
909.184	4599
909.3	4481
909.415	4588
909.531	4504
909.647	4386
909.762	4386
909.878	4325
909.993	4462
910.108	4424
910.224	4390
910.339	4493
910.454	4405
910.57	4337
910.685	4318
910.8	4653
910.915	4569
911.03	4485
911.145	4329
911.259	4352
911.374	4333
911.489	4325
911.604	4310
911.718	4200
911.833	4169
911.947	4124
912.062	4051
912.176	4204
912.291	4200
912.405	4227
912.519	4504
912.633	4485
912.748	4318
912.862	4348
912.976	4211
913.09	4063
913.204	4169
913.318	4253
913.431	4375
913.545	4375
913.659	4451
913.772	4348
913.886	4268
914	4238
914.113	4398
914.226	4485
914.34	4417
914.453	4253
914.566	4394
914.68	4310
914.793	4287
914.906	4215
915.019	4128
915.132	4067
915.245	4196
915.358	4249
915.47	4234
915.583	4287
915.696	4303
915.809	4402
915.921	4413
916.034	4196
916.146	4261
916.259	4219
916.371	4363
916.483	4352
916.595	4238
916.708	4303
916.82	4341
916.932	4314
917.044	4329
917.156	4352
917.268	4238
917.38	4268
917.491	4257
917.603	4363
917.715	4428
917.826	4405
917.938	4341
918.049	4265
918.161	4341
918.272	4554
918.384	4516
918.495	4447
918.606	4253
918.717	4249
918.828	4329
918.939	4375
919.05	4257
919.161	4337
919.272	4128
919.383	4242
919.494	4432
919.604	4599
919.715	4409
919.826	4318
919.936	4405
920.047	4561
920.157	4493
920.267	4717
920.378	4573
920.488	4493
920.598	4736
920.708	4873
920.818	4771
920.928	4759
921.038	4984
921.148	4889
921.258	4588
921.368	4535
921.477	4527
921.587	4459
921.697	4409
921.806	4512
921.916	4516
922.025	4268
922.134	4314
922.244	4234
922.353	4341
922.462	4192
922.571	4154
922.68	3994
922.789	3960
922.898	4051
923.007	4010
923.116	4158
923.224	4067
923.333	4090
923.442	3991
923.55	3994
923.659	4021
923.767	4074
923.876	3975
923.984	4090
924.092	3987
924.201	4067
924.309	4120
924.417	4109
924.525	4078
924.633	4120
924.741	5029
924.849	3888
924.956	4086
925.064	3956
925.172	3896
925.279	3964
925.387	4036
925.494	4017
925.602	4207
925.709	4169
925.816	3991
925.924	4150
926.031	4234
926.138	4219
926.245	4249
926.352	4036
926.459	4318
926.566	4284
926.673	4173
926.779	4017
926.886	4112
926.993	4021
927.099	3941
927.206	3937
927.312	3945
927.419	4036
927.525	4040
927.631	4147
927.737	3945
927.843	3930
927.95	3819
928.056	3998
928.162	3972
928.267	4105
928.373	4561
928.479	4097
928.585	3892
928.69	4036
928.796	4116
928.901	3960
929.007	3838
929.112	4051
929.218	3968
929.323	3930
929.428	3937
929.533	4116
929.638	3949
929.743	3960
929.848	4067
929.953	3953
930.058	3918
930.163	3804
930.267	3816
930.372	3994
930.477	3823
930.581	4116
930.685	3922
930.79	3850
930.894	3865
930.998	3892
931.103	4044
931.207	3740
931.311	3743
931.415	3717
931.519	3504
931.623	3523
