Data from test_V78500241_1740.txt Node
Date: Fri Mar 25 17:01:06 CST 2022
User: usil
Spectrometer: V785-0024
Trigger mode: 0
Integration Time (sec): 4.000000E-1
Scans to average: 1
Nonlinearity correction enabled: false
Boxcar width: 0
Storing dark spectrum: false
XAxis mode: Wavelengths
Number of Pixels in Spectrum: 1024
>>>>>Begin Spectral Data<<<<<
801.071	7989
801.214	7928
801.356	7940
801.499	7860
801.641	7784
801.783	7795
801.926	7879
802.068	7913
802.211	7989
802.353	8016
802.496	7871
802.638	7841
802.78	7890
802.923	7890
803.065	7871
803.208	7852
803.35	7883
803.492	8134
803.635	8126
803.777	8092
803.919	8054
804.061	8408
804.204	8218
804.346	8069
804.488	7921
804.63	8024
804.773	8005
804.915	8149
805.057	8256
805.199	8126
805.341	8180
805.483	8282
805.626	8183
805.768	8134
805.91	8202
806.052	8172
806.194	8138
806.336	8210
806.478	8031
806.62	8050
806.762	8077
806.904	8267
807.046	8408
807.188	8419
807.33	8332
807.472	8400
807.614	8187
807.756	8100
807.898	7993
808.04	7879
808.182	7871
808.324	7868
808.465	7913
808.607	8043
808.749	8123
808.891	8210
809.033	8301
809.174	8145
809.316	8054
809.458	8039
809.6	7993
809.741	7986
809.883	8001
810.025	8073
810.166	8012
810.308	7978
810.45	7959
810.591	7852
810.733	7677
810.875	7647
811.016	7510
811.158	7434
811.299	7537
811.441	7651
811.582	7731
811.724	7597
811.865	7510
812.007	7586
812.148	7590
812.29	7556
812.431	7712
812.573	7902
812.714	7925
812.855	8115
812.997	8199
813.138	8279
813.279	8195
813.421	8069
813.562	7921
813.703	7772
813.845	7723
813.986	7472
814.127	7217
814.268	7190
814.41	7179
814.551	7145
814.692	7255
814.833	7072
814.974	7156
815.115	7118
815.256	6882
815.397	6928
815.539	6951
815.68	6802
815.821	6760
815.962	6814
816.103	6730
816.244	6677
816.385	6635
816.526	6616
816.666	6486
816.807	6327
816.948	6509
817.089	6494
817.23	6338
817.371	6369
817.512	6369
817.653	6414
817.793	6369
817.934	6407
818.075	6433
818.216	6357
818.356	6399
818.497	6167
818.638	6076
818.778	6155
818.919	6095
819.06	6129
819.2	6296
819.341	6327
819.481	6407
819.622	6578
819.762	6711
819.903	6768
820.043	6658
820.184	6559
820.324	6601
820.465	6749
820.605	6707
820.746	6578
820.886	6483
821.026	6639
821.167	6681
821.307	6764
821.447	6837
821.588	6726
821.728	6570
821.868	6448
822.008	6391
822.149	6426
822.289	6350
822.429	6220
822.569	6045
822.709	6175
822.849	5927
822.99	5950
823.13	5942
823.27	5904
823.41	5790
823.55	5760
823.69	5802
823.83	5760
823.97	5684
824.11	5509
824.25	5520
824.389	5554
824.529	5623
824.669	5543
824.809	5672
824.949	5695
825.089	5646
825.228	5547
825.368	5406
825.508	5410
825.648	5372
825.787	5368
825.927	5398
826.067	5349
826.206	5345
826.346	5444
826.485	5448
826.625	5433
826.765	5623
826.904	5558
827.044	5269
827.183	5223
827.323	5166
827.462	5227
827.601	5181
827.741	5216
827.88	5254
828.02	5132
828.159	5261
828.298	5315
828.437	5402
828.577	5353
828.716	5455
828.855	5322
828.994	5162
829.134	5185
829.273	5258
829.412	5185
829.551	5124
829.69	5162
829.829	5280
829.968	5387
830.107	5288
830.246	5322
830.385	5189
830.524	5178
830.663	5071
830.802	4995
830.941	4896
831.08	4923
831.219	5060
831.357	4999
831.496	5151
831.635	4946
831.774	4892
831.913	4915
832.051	4839
832.19	4790
832.329	4824
832.467	4721
832.606	4672
832.744	4763
832.883	4763
833.022	4809
833.16	4847
833.299	4862
833.437	4873
833.576	4881
833.714	4892
833.852	4900
833.991	4889
834.129	5014
834.267	4961
834.406	4946
834.544	5022
834.682	5083
834.821	5003
834.959	5227
835.097	5018
835.235	5162
835.373	5094
835.511	5083
835.65	5052
835.788	5041
835.926	4900
836.064	4877
836.202	4896
836.34	5162
836.478	5311
836.615	5181
836.753	5208
836.891	5303
837.029	5246
837.167	5216
837.305	5143
837.443	5147
837.58	5155
837.718	5258
837.856	5223
837.993	5197
838.131	5261
838.269	5250
838.406	5204
838.544	5208
838.681	5033
838.819	5083
838.956	4934
839.094	4946
839.231	5075
839.369	5113
839.506	5425
839.643	5307
839.781	5029
839.918	5014
840.055	5140
840.193	5102
840.33	5128
840.467	5201
840.604	5174
840.742	5486
840.879	5098
841.016	5090
841.153	5132
841.29	5357
841.427	5341
841.564	5353
841.701	5414
841.838	5315
841.975	5239
842.112	5292
842.249	5201
842.385	5136
842.522	5318
842.659	5201
842.796	5227
842.933	5250
843.069	5166
843.206	5162
843.343	5322
843.479	5284
843.616	5311
843.752	5048
843.889	5033
844.025	5261
844.162	5045
844.298	5181
844.435	5079
844.571	5083
844.708	5208
844.844	5349
844.98	5368
845.117	5296
845.253	5147
845.389	5094
845.525	5201
845.661	5143
845.798	5064
845.934	5151
846.07	5006
846.206	5235
846.342	5345
846.478	5143
846.614	5056
846.75	5045
846.886	4995
847.022	5201
847.158	5029
847.294	5178
847.429	5121
847.565	5102
847.701	5307
847.837	4854
847.972	4824
848.108	5006
848.244	4953
848.379	4767
848.515	4710
848.65	4763
848.786	4717
848.921	4801
849.057	4915
849.192	4946
849.328	4809
849.463	4877
849.598	4828
849.734	4755
849.869	4790
850.004	4634
850.14	4698
850.275	4645
850.41	4592
850.545	4588
850.68	4615
850.815	4656
850.95	4641
851.085	4831
851.22	4786
851.355	4691
851.49	4622
851.625	4660
851.76	4656
851.895	4558
852.03	4580
852.165	4687
852.299	4763
852.434	4767
852.569	4755
852.703	4778
852.838	4843
852.973	4987
853.107	4965
853.242	4763
853.376	4706
853.511	4599
853.645	4607
853.78	4755
853.914	4664
854.048	4672
854.183	4683
854.317	4717
854.451	4866
854.585	4733
854.72	4656
854.854	4828
854.988	4630
855.122	4660
855.256	4527
855.39	4755
855.524	4744
855.658	4740
855.792	4687
855.926	4774
856.06	4809
856.194	4812
856.327	4687
856.461	4622
856.595	4664
856.729	4660
856.862	4790
856.996	4698
857.13	4740
857.263	4771
857.397	4793
857.53	4672
857.664	4763
857.797	4793
857.931	4786
858.064	4740
858.197	4744
858.331	4694
858.464	4615
858.597	4546
858.731	4668
858.864	4694
858.997	4660
859.13	4664
859.263	4683
859.396	4721
859.529	4603
859.662	4561
859.795	4535
859.928	4656
860.061	4710
860.194	4801
860.327	4618
860.46	4615
860.592	4694
860.725	4725
860.858	4755
860.99	4588
861.123	4584
861.256	4546
861.388	4618
861.521	5345
861.653	4512
861.786	4428
861.918	4443
862.05	4561
862.183	4577
862.315	4630
862.447	4668
862.58	4558
862.712	4459
862.844	4363
862.976	4481
863.108	4455
863.24	4896
863.372	4375
863.504	4413
863.636	4428
863.768	4531
863.9	4451
864.032	4337
864.164	4447
864.296	4542
864.428	4592
864.559	4603
864.691	4554
864.823	4508
864.954	4577
865.086	4497
865.217	4474
865.349	4443
865.48	4440
865.612	4497
865.743	4687
865.875	4504
866.006	4451
866.137	4478
866.269	4455
866.4	4478
866.531	4466
866.662	4432
866.793	4421
866.924	4428
867.055	4508
867.186	4455
867.317	4424
867.448	4432
867.579	4436
867.71	4409
867.841	4394
867.972	4489
868.103	4508
868.233	4489
868.364	4447
868.495	4527
868.625	4706
868.756	4771
868.886	4569
869.017	4660
869.147	4831
869.278	4824
869.408	4702
869.539	4672
869.669	4733
869.799	4675
869.929	4790
870.06	4774
870.19	4961
870.32	4927
870.45	4915
870.58	4991
870.71	5121
870.84	5132
870.97	4972
871.1	4900
871.23	5162
871.36	5143
871.489	5003
871.619	5079
871.749	5048
871.879	5098
872.008	5178
872.138	5151
872.267	4984
872.397	4866
872.526	4824
872.656	4710
872.785	4839
872.915	4946
873.044	5048
873.173	4942
873.303	4938
873.432	4957
873.561	4991
873.69	4919
873.819	4843
873.948	4900
874.077	4831
874.206	4755
874.335	4812
874.464	4949
874.593	5075
874.722	4965
874.851	5136
874.979	5060
875.108	5010
875.237	4870
875.365	4904
875.494	4946
875.623	5041
875.751	4835
875.88	4915
876.008	5014
876.136	4999
876.265	5208
876.393	5341
876.521	5280
876.65	5239
876.778	5174
876.906	5033
877.034	4999
877.162	5060
877.29	4968
877.418	5060
877.546	5079
877.674	5041
877.802	5037
877.93	5006
878.058	4946
878.185	4927
878.313	4968
878.441	4946
878.568	4816
878.696	4850
878.824	4972
878.951	5022
879.079	5143
879.206	5284
879.333	5121
879.461	4991
879.588	4999
879.715	5178
879.842	5231
879.97	5033
880.097	4793
880.224	4782
880.351	4873
880.478	4858
880.605	4759
880.732	4790
880.859	5124
880.986	4885
881.112	4900
881.239	4847
881.366	4679
881.493	4603
881.619	4565
881.746	4691
881.872	4698
881.999	4664
882.125	4706
882.252	4786
882.378	4809
882.505	4987
882.631	4839
882.757	4710
882.883	4748
883.01	4771
883.136	4683
883.262	4653
883.388	4596
883.514	4812
883.64	4908
883.766	4816
883.892	4698
884.018	4710
884.143	4885
884.269	5025
884.395	4706
884.52	4607
884.646	4626
884.772	4565
884.897	4588
885.023	4675
885.148	4797
885.274	4915
885.399	4801
885.524	4744
885.65	4714
885.775	4725
885.9	4679
886.025	4854
886.15	4782
886.275	4729
886.4	4683
886.525	4733
886.65	4706
886.775	4717
886.9	4938
887.025	5079
887.149	4805
887.274	4664
887.399	4588
887.523	4615
887.648	4546
887.773	4615
887.897	4793
888.021	4774
888.146	4691
888.27	4786
888.395	4915
888.519	4801
888.643	4816
888.767	4854
888.891	4656
889.015	4637
889.139	4660
889.263	4584
889.387	4763
889.511	4839
889.635	4831
889.759	4641
889.883	4637
890.006	4694
890.13	4812
890.254	4687
890.377	4717
890.501	4516
890.624	4550
890.748	4637
890.871	4440
890.995	4443
891.118	4383
891.241	4512
891.364	4558
891.488	4637
891.611	4523
891.734	4599
891.857	4596
891.98	4588
892.103	4622
892.226	4630
892.349	4512
892.471	4462
892.594	4554
892.717	4653
892.839	4550
892.962	4611
893.085	4656
893.207	4588
893.33	4493
893.452	4497
893.575	4637
893.697	4573
893.819	4816
893.941	4782
894.064	4786
894.186	4573
894.308	4577
894.43	4759
894.552	4782
894.674	4767
894.796	4584
894.918	4573
895.04	4615
895.161	4729
895.283	4725
895.405	4565
895.526	4588
895.648	4694
895.769	4653
895.891	4725
896.012	4744
896.134	4721
896.255	4721
896.376	4683
896.498	4607
896.619	4664
896.74	4607
896.861	4660
896.982	4953
897.103	5067
897.224	4835
897.345	4763
897.466	4694
897.587	4721
897.708	4919
897.828	4809
897.949	4634
898.07	4615
898.19	4683
898.311	4843
898.431	4645
898.552	4763
898.672	4835
898.792	4809
898.913	4721
899.033	4637
899.153	4508
899.273	4470
899.393	4500
899.513	4554
899.633	4523
899.753	4535
899.873	4538
899.993	4561
900.113	4478
900.232	4584
900.352	4527
900.472	4466
900.591	4398
900.711	4508
900.83	4459
900.95	4607
901.069	4672
901.189	4573
901.308	4329
901.427	4295
901.546	4367
901.665	4474
901.784	4546
901.904	4424
902.023	4306
902.141	4230
902.26	4234
902.379	4314
902.498	4249
902.617	4211
902.735	4356
902.854	4432
902.973	4367
903.091	4211
903.21	4246
903.328	4337
903.446	4272
903.565	4249
903.683	4386
903.801	4272
903.919	4413
904.038	4443
904.156	4333
904.274	4417
904.392	4398
904.51	4409
904.627	4558
904.745	4615
904.863	4653
904.981	4402
905.098	4291
905.216	4398
905.334	4413
905.451	4432
905.569	4447
905.686	4580
905.803	4561
905.921	4413
906.038	4508
906.155	4459
906.272	4421
906.389	4409
906.506	4360
906.623	4352
906.74	4363
906.857	4287
906.974	4383
907.091	4588
907.208	4672
907.324	4599
907.441	4474
907.557	4371
907.674	4318
907.79	4306
907.907	4447
908.023	4481
908.139	4466
908.256	4485
908.372	4466
908.488	4470
908.604	4333
908.72	4299
908.836	4371
908.952	4352
909.068	4440
909.184	4580
909.3	4413
909.415	4615
909.531	4531
909.647	4363
909.762	4363
909.878	4352
909.993	4363
910.108	4394
910.224	4424
910.339	4527
910.454	4413
910.57	4363
910.685	4329
910.8	4683
910.915	4626
911.03	4493
911.145	4348
911.259	4337
911.374	4375
911.489	4322
911.604	4295
911.718	4154
911.833	4162
911.947	4097
912.062	4040
912.176	4223
912.291	4230
912.405	4242
912.519	4474
912.633	4474
912.748	4367
912.862	4341
912.976	4192
913.09	4124
913.204	4158
913.318	4230
913.431	4363
913.545	4405
913.659	4447
913.772	4356
913.886	4238
914	4207
914.113	4409
914.226	4470
914.34	4386
914.453	4211
914.566	4413
914.68	4299
914.793	4306
914.906	4162
915.019	4116
915.132	4093
915.245	4200
915.358	4268
915.47	4211
915.583	4295
915.696	4303
915.809	4443
915.921	4470
916.034	4280
916.146	4211
916.259	4196
916.371	4371
916.483	4371
916.595	4246
916.708	4310
916.82	4329
916.932	4291
917.044	4322
917.156	4306
917.268	4261
917.38	4276
917.491	4249
917.603	4363
917.715	4417
917.826	4424
917.938	4344
918.049	4211
918.161	4447
918.272	4523
918.384	4512
918.495	4470
918.606	4261
918.717	4268
918.828	4333
918.939	4360
919.05	4310
919.161	4310
919.272	4162
919.383	4257
919.494	4436
919.604	4664
919.715	4474
919.826	4363
919.936	4424
920.047	4535
920.157	4500
920.267	4714
920.378	4569
920.488	4485
920.598	4717
920.708	4854
920.818	4744
920.928	4744
921.038	4984
921.148	4919
921.258	4649
921.368	4558
921.477	4474
921.587	4459
921.697	4402
921.806	4577
921.916	4402
922.025	4280
922.134	4219
922.244	4234
922.353	4356
922.462	4166
922.571	4154
922.68	4032
922.789	3953
922.898	4025
923.007	4002
923.116	4067
923.224	4109
923.333	4086
923.442	4002
923.55	3975
923.659	4013
923.767	4090
923.876	4040
923.984	4112
924.092	4002
924.201	4063
924.309	4124
924.417	4147
924.525	4063
924.633	4109
924.741	4870
924.849	3930
924.956	4169
925.064	3987
925.172	3876
925.279	4010
925.387	4059
925.494	4044
925.602	4249
925.709	4147
925.816	4002
925.924	4116
926.031	4249
926.138	4169
926.245	4162
926.352	4112
926.459	4284
926.566	4337
926.673	4169
926.779	4071
926.886	4051
926.993	3994
927.099	3911
927.206	3968
927.312	3937
927.419	4029
927.525	4010
927.631	4078
927.737	3972
927.843	3979
927.95	3888
928.056	3915
928.162	4006
928.267	4051
928.373	4687
928.479	4162
928.585	3800
928.69	4002
928.796	4124
928.901	3983
929.007	3873
929.112	4002
929.218	3934
929.323	3922
929.428	3964
929.533	4120
929.638	3876
929.743	3964
929.848	4032
929.953	3994
930.058	3960
930.163	3766
930.267	3835
930.372	4013
930.477	3816
930.581	4071
930.685	3956
930.79	3808
930.894	3850
930.998	3884
931.103	4051
931.207	3705
931.311	3717
931.415	3736
931.519	3545
931.623	3545
