Data from test_V78500241_438.txt Node
Date: Fri Mar 25 16:52:02 CST 2022
User: usil
Spectrometer: V785-0024
Trigger mode: 0
Integration Time (sec): 4.000000E-1
Scans to average: 1
Nonlinearity correction enabled: false
Boxcar width: 0
Storing dark spectrum: false
XAxis mode: Wavelengths
Number of Pixels in Spectrum: 1024
>>>>>Begin Spectral Data<<<<<
801.071	8031
801.214	7978
801.356	7833
801.499	7883
801.641	7868
801.783	7784
801.926	8062
802.068	8020
802.211	8035
802.353	8039
802.496	7944
802.638	7860
802.78	7902
802.923	7909
803.065	7871
803.208	7814
803.35	7963
803.492	8031
803.635	8145
803.777	7940
803.919	8103
804.061	8358
804.204	8138
804.346	8005
804.488	7951
804.63	8088
804.773	7967
804.915	8107
805.057	8248
805.199	8206
805.341	8187
805.483	8259
805.626	8142
805.768	8069
805.91	8069
806.052	8145
806.194	8062
806.336	8320
806.478	8202
806.62	8065
806.762	8195
806.904	8282
807.046	8389
807.188	8320
807.33	8195
807.472	8336
807.614	8115
807.756	8168
807.898	7970
808.04	7917
808.182	7928
808.324	7947
808.465	7936
808.607	8126
808.749	8115
808.891	8240
809.033	8351
809.174	8233
809.316	8062
809.458	8046
809.6	8008
809.741	8092
809.883	8031
810.025	8107
810.166	8050
810.308	8054
810.45	8073
810.591	7849
810.733	7780
810.875	7639
811.016	7506
811.158	7502
811.299	7693
811.441	7792
811.582	7674
811.724	7601
811.865	7613
812.007	7681
812.148	7537
812.29	7624
812.431	7772
812.573	7974
812.714	7967
812.855	8191
812.997	8271
813.138	8343
813.279	8172
813.421	8130
813.562	8092
813.703	7986
813.845	7803
813.986	7544
814.127	7419
814.268	7327
814.41	7187
814.551	7175
814.692	7232
814.833	7088
814.974	7122
815.115	7110
815.256	6958
815.397	6977
815.539	6951
815.68	6844
815.821	6856
815.962	6886
816.103	6924
816.244	6658
816.385	6646
816.526	6612
816.666	6547
816.807	6315
816.948	6426
817.089	6448
817.23	6437
817.371	6395
817.512	6357
817.653	6407
817.793	6319
817.934	6384
818.075	6407
818.216	6513
818.356	6403
818.497	6304
818.638	6148
818.778	6167
818.919	6152
819.06	6190
819.2	6338
819.341	6346
819.481	6308
819.622	6513
819.762	6741
819.903	6700
820.043	6593
820.184	6574
820.324	6650
820.465	6787
820.605	6612
820.746	6627
820.886	6521
821.026	6635
821.167	6776
821.307	6760
821.447	6825
821.588	6707
821.728	6589
821.868	6521
822.008	6285
822.149	6372
822.289	6399
822.429	6144
822.569	6098
822.709	6106
822.849	5942
822.99	5946
823.13	5927
823.27	5920
823.41	5779
823.55	5817
823.69	5783
823.83	5798
823.97	5680
824.11	5573
824.25	5532
824.389	5566
824.529	5547
824.669	5539
824.809	5627
824.949	5653
825.089	5642
825.228	5551
825.368	5440
825.508	5372
825.648	5349
825.787	5364
825.927	5398
826.067	5330
826.206	5307
826.346	5421
826.485	5368
826.625	5364
826.765	5532
826.904	5467
827.044	5288
827.183	5216
827.323	5098
827.462	5227
827.601	5162
827.741	5208
827.88	5204
828.02	5151
828.159	5208
828.298	5273
828.437	5395
828.577	5269
828.716	5493
828.855	5349
828.994	5193
829.134	5159
829.273	5181
829.412	5174
829.551	5117
829.69	5143
829.829	5227
829.968	5379
830.107	5250
830.246	5318
830.385	5151
830.524	5079
830.663	5064
830.802	4915
830.941	4885
831.08	4942
831.219	5025
831.357	4930
831.496	5170
831.635	4953
831.774	4858
831.913	4839
832.051	4790
832.19	4786
832.329	4866
832.467	4694
832.606	4630
832.744	4706
832.883	4748
833.022	4763
833.16	4801
833.299	4854
833.437	4828
833.576	4824
833.714	4778
833.852	4873
833.991	4870
834.129	4946
834.267	4953
834.406	4900
834.544	4976
834.682	5010
834.821	4980
834.959	5178
835.097	5022
835.235	5162
835.373	5094
835.511	5109
835.65	4972
835.788	5071
835.926	4858
836.064	4847
836.202	4953
836.34	5159
836.478	5242
836.615	5159
836.753	5181
836.891	5292
837.029	5227
837.167	5201
837.305	5098
837.443	5121
837.58	5102
837.718	5261
837.856	5246
837.993	5147
838.131	5254
838.269	5212
838.406	5201
838.544	5170
838.681	5056
838.819	5067
838.956	4839
839.094	4900
839.231	4961
839.369	5067
839.506	5433
839.643	5250
839.781	5056
839.918	4976
840.055	5140
840.193	5075
840.33	5113
840.467	5140
840.604	5208
840.742	5467
840.879	5086
841.016	5090
841.153	5132
841.29	5364
841.427	5337
841.564	5345
841.701	5315
841.838	5212
841.975	5280
842.112	5258
842.249	5181
842.385	5117
842.522	5372
842.659	5208
842.796	5174
842.933	5208
843.069	5147
843.206	5159
843.343	5315
843.479	5296
843.616	5235
843.752	5060
843.889	5006
844.025	5204
844.162	4980
844.298	5181
844.435	5098
844.571	5037
844.708	5181
844.844	5261
844.98	5326
845.117	5292
845.253	5136
845.389	5113
845.525	5113
845.661	5109
845.798	5045
845.934	5109
846.07	5033
846.206	5227
846.342	5269
846.478	5193
846.614	5014
846.75	5010
846.886	4923
847.022	5121
847.158	4972
847.294	5060
847.429	5086
847.565	5117
847.701	5307
847.837	4870
847.972	4801
848.108	4942
848.244	4957
848.379	4763
848.515	4797
848.65	4729
848.786	4790
848.921	4748
849.057	4896
849.192	4892
849.328	4831
849.463	4828
849.598	4805
849.734	4752
849.869	4683
850.004	4607
850.14	4694
850.275	4630
850.41	4542
850.545	4580
850.68	4626
850.815	4656
850.95	4573
851.085	4820
851.22	4786
851.355	4672
851.49	4660
851.625	4622
851.76	4588
851.895	4546
852.03	4519
852.165	4622
852.299	4656
852.434	4725
852.569	4725
852.703	4763
852.838	4820
852.973	4957
853.107	4919
853.242	4778
853.376	4725
853.511	4603
853.645	4618
853.78	4839
853.914	4694
854.048	4691
854.183	4649
854.317	4694
854.451	4835
854.585	4744
854.72	4618
854.854	4763
854.988	4580
855.122	4630
855.256	4527
855.39	4675
855.524	4774
855.658	4729
855.792	4729
855.926	4672
856.06	4744
856.194	4835
856.327	4649
856.461	4634
856.595	4641
856.729	4592
856.862	4725
856.996	4725
857.13	4717
857.263	4763
857.397	4782
857.53	4607
857.664	4763
857.797	4733
857.931	4820
858.064	4660
858.197	4729
858.331	4615
858.464	4558
858.597	4546
858.731	4634
858.864	4675
858.997	4592
859.13	4672
859.263	4698
859.396	4706
859.529	4550
859.662	4542
859.795	4508
859.928	4641
860.061	4721
860.194	4782
860.327	4596
860.46	4584
860.592	4714
860.725	4774
860.858	4714
860.99	4535
861.123	4546
861.256	4584
861.388	4634
861.521	5436
861.653	4504
861.786	4443
861.918	4519
862.05	4512
862.183	4546
862.315	4603
862.447	4679
862.58	4569
862.712	4398
862.844	4322
862.976	4478
863.108	4455
863.24	4805
863.372	4329
863.504	4424
863.636	4432
863.768	4428
863.9	4440
864.032	4402
864.164	4462
864.296	4462
864.428	4577
864.559	4504
864.691	4527
864.823	4523
864.954	4493
865.086	4546
865.217	4481
865.349	4459
865.48	4440
865.612	4466
865.743	4618
865.875	4405
866.006	4424
866.137	4451
866.269	4478
866.4	4455
866.531	4402
866.662	4360
866.793	4394
866.924	4459
867.055	4489
867.186	4481
867.317	4432
867.448	4398
867.579	4398
867.71	4443
867.841	4379
867.972	4405
868.103	4462
868.233	4440
868.364	4417
868.495	4455
868.625	4702
868.756	4740
868.886	4615
869.017	4618
869.147	4786
869.278	4774
869.408	4714
869.539	4641
869.669	4755
869.799	4630
869.929	4729
870.06	4706
870.19	4942
870.32	4961
870.45	4927
870.58	5014
870.71	5056
870.84	5128
870.97	4942
871.1	4908
871.23	5105
871.36	5105
871.489	5037
871.619	5086
871.749	5109
871.879	5109
872.008	5132
872.138	5083
872.267	4984
872.397	4866
872.526	4797
872.656	4736
872.785	4820
872.915	4968
873.044	5003
873.173	4991
873.303	4957
873.432	4995
873.561	4984
873.69	4870
873.819	4873
873.948	4881
874.077	4793
874.206	4797
874.335	4767
874.464	4904
874.593	5071
874.722	4976
874.851	5086
874.979	5071
875.108	5041
875.237	4858
875.365	4873
875.494	4889
875.623	4995
875.751	4839
875.88	4881
876.008	4961
876.136	5018
876.265	5246
876.393	5349
876.521	5280
876.65	5204
876.778	5174
876.906	5045
877.034	5022
877.162	5083
877.29	4987
877.418	5045
877.546	5018
877.674	5033
877.802	5037
877.93	5003
878.058	4953
878.185	4847
878.313	4987
878.441	4953
878.568	4778
878.696	4923
878.824	4980
878.951	5010
879.079	5136
879.206	5307
879.333	5086
879.461	4991
879.588	5010
879.715	5117
879.842	5265
879.97	5003
880.097	4774
880.224	4736
880.351	4854
880.478	4877
880.605	4896
880.732	4797
880.859	5124
880.986	4949
881.112	4991
881.239	4820
881.366	4683
881.493	4641
881.619	4569
881.746	4702
881.872	4694
881.999	4694
882.125	4683
882.252	4828
882.378	4892
882.505	4987
882.631	4824
882.757	4744
882.883	4778
883.01	4759
883.136	4763
883.262	4653
883.388	4706
883.514	4843
883.64	4892
883.766	4847
883.892	4683
884.018	4805
884.143	4961
884.269	5094
884.395	4736
884.52	4664
884.646	4736
884.772	4626
884.897	4615
885.023	4721
885.148	4870
885.274	4938
885.399	4850
885.524	4763
885.65	4763
885.775	4805
885.9	4721
886.025	4934
886.15	4831
886.275	4805
886.4	4725
886.525	4763
886.65	4767
886.775	4759
886.9	4908
887.025	5086
887.149	4896
887.274	4714
887.399	4622
887.523	4637
887.648	4664
887.773	4634
887.897	4793
888.021	4858
888.146	4714
888.27	4809
888.395	4942
888.519	4839
888.643	4839
888.767	4881
888.891	4660
889.015	4660
889.139	4714
889.263	4653
889.387	4877
889.511	4896
889.635	4854
889.759	4679
889.883	4672
890.006	4755
890.13	4850
890.254	4649
890.377	4759
890.501	4596
890.624	4573
890.748	4698
890.871	4558
890.995	4485
891.118	4447
891.241	4546
891.364	4577
891.488	4660
891.611	4558
891.734	4584
891.857	4607
891.98	4622
892.103	4679
892.226	4596
892.349	4508
892.471	4398
892.594	4611
892.717	4622
892.839	4588
892.962	4626
893.085	4691
893.207	4630
893.33	4462
893.452	4592
893.575	4721
893.697	4626
893.819	4858
893.941	4828
894.064	4805
894.186	4664
894.308	4558
894.43	4759
894.552	4816
894.674	4820
894.796	4641
894.918	4607
895.04	4656
895.161	4710
895.283	4660
895.405	4592
895.526	4668
895.648	4733
895.769	4710
895.891	4733
896.012	4759
896.134	4771
896.255	4774
896.376	4630
896.498	4660
896.619	4717
896.74	4649
896.861	4698
896.982	4991
897.103	5086
897.224	4824
897.345	4793
897.466	4702
897.587	4793
897.708	4858
897.828	4839
897.949	4679
898.07	4611
898.19	4660
898.311	4835
898.431	4736
898.552	4790
898.672	4889
898.792	4786
898.913	4736
899.033	4656
899.153	4523
899.273	4474
899.393	4516
899.513	4596
899.633	4577
899.753	4626
899.873	4573
899.993	4626
900.113	4523
900.232	4637
900.352	4599
900.472	4554
900.591	4447
900.711	4550
900.83	4432
900.95	4607
901.069	4725
901.189	4527
901.308	4379
901.427	4386
901.546	4386
901.665	4554
901.784	4554
901.904	4470
902.023	4390
902.141	4246
902.26	4196
902.379	4363
902.498	4204
902.617	4268
902.735	4421
902.854	4440
902.973	4447
903.091	4207
903.21	4246
903.328	4295
903.446	4291
903.565	4310
903.683	4413
903.801	4303
903.919	4379
904.038	4478
904.156	4333
904.274	4512
904.392	4497
904.51	4489
904.627	4493
904.745	4626
904.863	4710
904.981	4459
905.098	4390
905.216	4428
905.334	4527
905.451	4512
905.569	4481
905.686	4603
905.803	4649
905.921	4417
906.038	4618
906.155	4538
906.272	4405
906.389	4485
906.506	4424
906.623	4417
906.74	4436
906.857	4341
906.974	4402
907.091	4615
907.208	4698
907.324	4607
907.441	4538
907.557	4428
907.674	4417
907.79	4356
907.907	4409
908.023	4550
908.139	4443
908.256	4466
908.372	4485
908.488	4462
908.604	4417
908.72	4337
908.836	4360
908.952	4405
909.068	4466
909.184	4618
909.3	4523
909.415	4592
909.531	4558
909.647	4409
909.762	4371
909.878	4383
909.993	4462
910.108	4470
910.224	4459
910.339	4558
910.454	4432
910.57	4421
910.685	4337
910.8	4706
910.915	4592
911.03	4481
911.145	4363
911.259	4337
911.374	4421
911.489	4383
911.604	4325
911.718	4204
911.833	4223
911.947	4154
912.062	4074
912.176	4181
912.291	4276
912.405	4291
912.519	4516
912.633	4519
912.748	4436
912.862	4295
912.976	4249
913.09	4082
913.204	4219
913.318	4325
913.431	4421
913.545	4360
913.659	4504
913.772	4386
913.886	4261
914	4238
914.113	4379
914.226	4459
914.34	4447
914.453	4291
914.566	4466
914.68	4337
914.793	4363
914.906	4185
915.019	4200
915.132	4135
915.245	4154
915.358	4219
915.47	4223
915.583	4284
915.696	4306
915.809	4405
915.921	4478
916.034	4318
916.146	4325
916.259	4249
916.371	4402
916.483	4386
916.595	4261
916.708	4409
916.82	4371
916.932	4379
917.044	4284
917.156	4329
917.268	4284
917.38	4291
917.491	4257
917.603	4367
917.715	4440
917.826	4443
917.938	4386
918.049	4268
918.161	4409
918.272	4584
918.384	4577
918.495	4489
918.606	4299
918.717	4211
918.828	4333
918.939	4398
919.05	4306
919.161	4367
919.272	4215
919.383	4272
919.494	4485
919.604	4653
919.715	4474
919.826	4371
919.936	4478
920.047	4527
920.157	4519
920.267	4763
920.378	4596
920.488	4512
920.598	4717
920.708	4923
920.818	4820
920.928	4752
921.038	4991
921.148	4949
921.258	4710
921.368	4596
921.477	4519
921.587	4523
921.697	4386
921.806	4588
921.916	4447
922.025	4276
922.134	4310
922.244	4230
922.353	4341
922.462	4188
922.571	4177
922.68	4025
922.789	4044
922.898	4071
923.007	4013
923.116	4097
923.224	4097
923.333	4112
923.442	4010
923.55	4032
923.659	4059
923.767	4131
923.876	3998
923.984	4143
924.092	3994
924.201	4120
924.309	4158
924.417	4154
924.525	4097
924.633	4082
924.741	5056
924.849	3926
924.956	4124
925.064	3972
925.172	3918
925.279	3994
925.387	4059
925.494	4093
925.602	4196
925.709	4188
925.816	4059
925.924	4139
926.031	4249
926.138	4131
926.245	4196
926.352	4120
926.459	4265
926.566	4333
926.673	4192
926.779	4154
926.886	4154
926.993	4048
927.099	3987
927.206	3983
927.312	4006
927.419	4082
927.525	4032
927.631	4086
927.737	3972
927.843	3979
927.95	3846
928.056	3960
928.162	4002
928.267	4078
928.373	4714
928.479	4139
928.585	3907
928.69	4055
928.796	4124
928.901	4059
929.007	3884
929.112	4036
929.218	3991
929.323	3972
929.428	3983
929.533	4147
929.638	3930
929.743	3991
929.848	4074
929.953	4006
930.058	3964
930.163	3785
930.267	3857
930.372	4002
930.477	3876
930.581	4147
930.685	3975
930.79	3854
930.894	3922
930.998	3884
931.103	3998
931.207	3713
931.311	3736
931.415	3717
931.519	3557
931.623	3564
