Data from test_V78500241_731.txt Node
Date: Fri Mar 25 16:54:05 CST 2022
User: usil
Spectrometer: V785-0024
Trigger mode: 0
Integration Time (sec): 4.000000E-1
Scans to average: 1
Nonlinearity correction enabled: false
Boxcar width: 0
Storing dark spectrum: false
XAxis mode: Wavelengths
Number of Pixels in Spectrum: 1024
>>>>>Begin Spectral Data<<<<<
801.071	8046
801.214	8065
801.356	7917
801.499	7887
801.641	7814
801.783	7830
801.926	8027
802.068	7909
802.211	8020
802.353	7989
802.496	7902
802.638	7894
802.78	7898
802.923	7879
803.065	7887
803.208	7795
803.35	7978
803.492	8134
803.635	8149
803.777	7993
803.919	8092
804.061	8332
804.204	8138
804.346	8058
804.488	7997
804.63	8111
804.773	8027
804.915	8115
805.057	8256
805.199	8168
805.341	8210
805.483	8267
805.626	8145
805.768	8119
805.91	8199
806.052	8221
806.194	8138
806.336	8301
806.478	8123
806.62	8012
806.762	8073
806.904	8187
807.046	8366
807.188	8358
807.33	8313
807.472	8389
807.614	8092
807.756	8130
807.898	8020
808.04	7898
808.182	7944
808.324	7917
808.465	7967
808.607	8035
808.749	8077
808.891	8202
809.033	8305
809.174	8210
809.316	8100
809.458	8016
809.6	8001
809.741	8012
809.883	8073
810.025	8050
810.166	8054
810.308	8084
810.45	8035
810.591	7868
810.733	7727
810.875	7647
811.016	7495
811.158	7460
811.299	7597
811.441	7719
811.582	7674
811.724	7548
811.865	7533
812.007	7544
812.148	7495
812.29	7578
812.431	7708
812.573	7841
812.714	7997
812.855	8100
812.997	8210
813.138	8286
813.279	8164
813.421	8111
813.562	7921
813.703	7974
813.845	7742
813.986	7441
814.127	7297
814.268	7263
814.41	7198
814.551	7110
814.692	7107
814.833	6973
814.974	7103
815.115	7046
815.256	6973
815.397	6928
815.539	6962
815.68	6909
815.821	6798
815.962	6848
816.103	6814
816.244	6749
816.385	6631
816.526	6616
816.666	6483
816.807	6266
816.948	6384
817.089	6471
817.23	6437
817.371	6399
817.512	6414
817.653	6445
817.793	6331
817.934	6414
818.075	6467
818.216	6403
818.356	6380
818.497	6224
818.638	6133
818.778	6190
818.919	6133
819.06	6102
819.2	6300
819.341	6308
819.481	6327
819.622	6574
819.762	6715
819.903	6768
820.043	6608
820.184	6559
820.324	6597
820.465	6707
820.605	6585
820.746	6639
820.886	6498
821.026	6642
821.167	6700
821.307	6772
821.447	6745
821.588	6684
821.728	6593
821.868	6460
822.008	6334
822.149	6304
822.289	6403
822.429	6083
822.569	6095
822.709	6163
822.849	5885
822.99	5916
823.13	5912
823.27	5965
823.41	5790
823.55	5783
823.69	5790
823.83	5707
823.97	5699
824.11	5566
824.25	5463
824.389	5562
824.529	5596
824.669	5562
824.809	5638
824.949	5627
825.089	5596
825.228	5554
825.368	5421
825.508	5349
825.648	5330
825.787	5383
825.927	5410
826.067	5284
826.206	5334
826.346	5364
826.485	5444
826.625	5383
826.765	5581
826.904	5471
827.044	5261
827.183	5189
827.323	5121
827.462	5273
827.601	5143
827.741	5201
827.88	5216
828.02	5109
828.159	5242
828.298	5288
828.437	5341
828.577	5254
828.716	5486
828.855	5242
828.994	5162
829.134	5143
829.273	5178
829.412	5140
829.551	5102
829.69	5105
829.829	5227
829.968	5376
830.107	5242
830.246	5318
830.385	5147
830.524	5136
830.663	5060
830.802	5022
830.941	4896
831.08	4858
831.219	5064
831.357	5018
831.496	5143
831.635	4900
831.774	4873
831.913	4843
832.051	4717
832.19	4744
832.329	4774
832.467	4679
832.606	4668
832.744	4706
832.883	4694
833.022	4698
833.16	4774
833.299	4778
833.437	4816
833.576	4805
833.714	4847
833.852	4885
833.991	4835
834.129	4995
834.267	4927
834.406	4870
834.544	4991
834.682	4976
834.821	4976
834.959	5128
835.097	4972
835.235	5128
835.373	5045
835.511	5045
835.65	5037
835.788	5056
835.926	4877
836.064	4908
836.202	4919
836.34	5189
836.478	5208
836.615	5155
836.753	5227
836.891	5261
837.029	5311
837.167	5170
837.305	5140
837.443	5185
837.58	5079
837.718	5254
837.856	5170
837.993	5185
838.131	5174
838.269	5242
838.406	5181
838.544	5193
838.681	5010
838.819	5014
838.956	4911
839.094	4923
839.231	4984
839.369	5071
839.506	5474
839.643	5273
839.781	5052
839.918	4991
840.055	5052
840.193	5090
840.33	5143
840.467	5189
840.604	5178
840.742	5425
840.879	5083
841.016	5075
841.153	5143
841.29	5360
841.427	5337
841.564	5311
841.701	5349
841.838	5299
841.975	5292
842.112	5273
842.249	5102
842.385	5121
842.522	5341
842.659	5143
842.796	5113
842.933	5174
843.069	5189
843.206	5162
843.343	5277
843.479	5235
843.616	5269
843.752	5014
843.889	5014
844.025	5197
844.162	5075
844.298	5212
844.435	5102
844.571	5025
844.708	5174
844.844	5337
844.98	5330
845.117	5307
845.253	5159
845.389	5105
845.525	5147
845.661	5132
845.798	5006
845.934	5121
846.07	5037
846.206	5170
846.342	5235
846.478	5132
846.614	5018
846.75	4972
846.886	4934
847.022	5140
847.158	4991
847.294	5064
847.429	5090
847.565	4976
847.701	5303
847.837	4847
847.972	4805
848.108	4984
848.244	4953
848.379	4801
848.515	4790
848.65	4702
848.786	4763
848.921	4790
849.057	4873
849.192	4900
849.328	4782
849.463	4786
849.598	4790
849.734	4778
849.869	4679
850.004	4634
850.14	4645
850.275	4554
850.41	4504
850.545	4554
850.68	4603
850.815	4599
850.95	4599
851.085	4809
851.22	4759
851.355	4611
851.49	4687
851.625	4588
851.76	4660
851.895	4554
852.03	4512
852.165	4637
852.299	4698
852.434	4729
852.569	4752
852.703	4698
852.838	4809
852.973	4930
853.107	4949
853.242	4698
853.376	4668
853.511	4535
853.645	4611
853.78	4797
853.914	4725
854.048	4679
854.183	4649
854.317	4687
854.451	4847
854.585	4668
854.72	4664
854.854	4790
854.988	4618
855.122	4675
855.256	4500
855.39	4706
855.524	4744
855.658	4729
855.792	4649
855.926	4656
856.06	4725
856.194	4812
856.327	4702
856.461	4599
856.595	4569
856.729	4611
856.862	4687
856.996	4622
857.13	4729
857.263	4786
857.397	4812
857.53	4645
857.664	4675
857.797	4759
857.931	4767
858.064	4702
858.197	4748
858.331	4611
858.464	4622
858.597	4565
858.731	4675
858.864	4622
858.997	4580
859.13	4626
859.263	4645
859.396	4767
859.529	4584
859.662	4580
859.795	4554
859.928	4592
860.061	4702
860.194	4782
860.327	4577
860.46	4497
860.592	4675
860.725	4691
860.858	4687
860.99	4554
861.123	4546
861.256	4493
861.388	4615
861.521	5452
861.653	4500
861.786	4459
861.918	4424
862.05	4500
862.183	4546
862.315	4565
862.447	4664
862.58	4561
862.712	4402
862.844	4303
862.976	4470
863.108	4462
863.24	4866
863.372	4344
863.504	4459
863.636	4402
863.768	4512
863.9	4436
864.032	4314
864.164	4375
864.296	4478
864.428	4523
864.559	4542
864.691	4447
864.823	4489
864.954	4459
865.086	4493
865.217	4436
865.349	4405
865.48	4455
865.612	4466
865.743	4573
865.875	4489
866.006	4402
866.137	4485
866.269	4428
866.4	4443
866.531	4379
866.662	4428
866.793	4402
866.924	4436
867.055	4485
867.186	4447
867.317	4383
867.448	4352
867.579	4398
867.71	4405
867.841	4348
867.972	4455
868.103	4462
868.233	4466
868.364	4432
868.495	4535
868.625	4626
868.756	4755
868.886	4546
869.017	4588
869.147	4771
869.278	4759
869.408	4649
869.539	4599
869.669	4668
869.799	4656
869.929	4801
870.06	4702
870.19	4930
870.32	4938
870.45	4953
870.58	5018
870.71	5056
870.84	5075
870.97	4930
871.1	4915
871.23	5090
871.36	5143
871.489	5014
871.619	5090
871.749	5094
871.879	5067
872.008	5155
872.138	5094
872.267	4976
872.397	4854
872.526	4801
872.656	4729
872.785	4816
872.915	4915
873.044	4980
873.173	4908
873.303	4961
873.432	4942
873.561	4984
873.69	4866
873.819	4900
873.948	4915
874.077	4729
874.206	4706
874.335	4793
874.464	4881
874.593	5064
874.722	4949
874.851	5071
874.979	5075
875.108	4999
875.237	4930
875.365	4870
875.494	4854
875.623	4968
875.751	4786
875.88	4858
876.008	5018
876.136	5006
876.265	5204
876.393	5273
876.521	5193
876.65	5189
876.778	5162
876.906	5045
877.034	5003
877.162	5033
877.29	5003
877.418	5006
877.546	5060
877.674	5025
877.802	5048
877.93	5006
878.058	4957
878.185	4850
878.313	4980
878.441	4957
878.568	4816
878.696	4885
878.824	4930
878.951	4987
879.079	5159
879.206	5280
879.333	5045
879.461	4930
879.588	4991
879.715	5143
879.842	5136
879.97	5006
880.097	4744
880.224	4740
880.351	4812
880.478	4835
880.605	4809
880.732	4828
880.859	5086
880.986	4873
881.112	4896
881.239	4763
881.366	4660
881.493	4592
881.619	4584
881.746	4641
881.872	4588
881.999	4588
882.125	4660
882.252	4782
882.378	4828
882.505	4949
882.631	4782
882.757	4687
882.883	4729
883.01	4729
883.136	4656
883.262	4592
883.388	4615
883.514	4824
883.64	4839
883.766	4793
883.892	4626
884.018	4714
884.143	4915
884.269	4999
884.395	4679
884.52	4634
884.646	4626
884.772	4554
884.897	4523
885.023	4645
885.148	4801
885.274	4870
885.399	4858
885.524	4706
885.65	4664
885.775	4740
885.9	4675
886.025	4877
886.15	4793
886.275	4763
886.4	4668
886.525	4698
886.65	4733
886.775	4679
886.9	4885
887.025	5018
887.149	4812
887.274	4618
887.399	4558
887.523	4611
887.648	4573
887.773	4596
887.897	4683
888.021	4782
888.146	4664
888.27	4839
888.395	4908
888.519	4801
888.643	4801
888.767	4774
888.891	4634
889.015	4516
889.139	4668
889.263	4618
889.387	4733
889.511	4877
889.635	4767
889.759	4622
889.883	4668
890.006	4691
890.13	4870
890.254	4580
890.377	4714
890.501	4519
890.624	4508
890.748	4664
890.871	4485
890.995	4405
891.118	4367
891.241	4481
891.364	4516
891.488	4622
891.611	4470
891.734	4561
891.857	4603
891.98	4573
892.103	4611
892.226	4577
892.349	4519
892.471	4424
892.594	4497
892.717	4603
892.839	4550
892.962	4588
893.085	4672
893.207	4584
893.33	4432
893.452	4504
893.575	4645
893.697	4645
893.819	4778
893.941	4839
894.064	4771
894.186	4546
894.308	4592
894.43	4752
894.552	4831
894.674	4759
894.796	4527
894.918	4626
895.04	4558
895.161	4675
895.283	4622
895.405	4596
895.526	4618
895.648	4675
895.769	4691
895.891	4744
896.012	4706
896.134	4714
896.255	4641
896.376	4656
896.498	4618
896.619	4653
896.74	4637
896.861	4634
896.982	4892
897.103	5086
897.224	4847
897.345	4725
897.466	4653
897.587	4767
897.708	4866
897.828	4759
897.949	4679
898.07	4561
898.19	4618
898.311	4854
898.431	4653
898.552	4725
898.672	4793
898.792	4801
898.913	4710
899.033	4592
899.153	4542
899.273	4443
899.393	4481
899.513	4535
899.633	4516
899.753	4607
899.873	4485
899.993	4554
900.113	4550
900.232	4573
900.352	4565
900.472	4481
900.591	4352
900.711	4546
900.83	4455
900.95	4630
901.069	4637
901.189	4538
901.308	4390
901.427	4398
901.546	4363
901.665	4535
901.784	4512
901.904	4428
902.023	4356
902.141	4204
902.26	4120
902.379	4318
902.498	4230
902.617	4230
902.735	4333
902.854	4428
902.973	4371
903.091	4181
903.21	4246
903.328	4314
903.446	4238
903.565	4242
903.683	4356
903.801	4272
903.919	4360
904.038	4421
904.156	4295
904.274	4474
904.392	4451
904.51	4413
904.627	4443
904.745	4588
904.863	4683
904.981	4443
905.098	4352
905.216	4360
905.334	4405
905.451	4424
905.569	4379
905.686	4542
905.803	4577
905.921	4363
906.038	4527
906.155	4493
906.272	4386
906.389	4447
906.506	4360
906.623	4371
906.74	4398
906.857	4295
906.974	4398
907.091	4569
907.208	4641
907.324	4596
907.441	4497
907.557	4299
907.674	4318
907.79	4306
907.907	4421
908.023	4519
908.139	4474
908.256	4383
908.372	4493
908.488	4459
908.604	4325
908.72	4299
908.836	4402
908.952	4413
909.068	4440
909.184	4565
909.3	4455
909.415	4550
909.531	4535
909.647	4383
909.762	4386
909.878	4371
909.993	4440
910.108	4432
910.224	4379
910.339	4470
910.454	4383
910.57	4295
910.685	4291
910.8	4630
910.915	4611
911.03	4508
911.145	4333
911.259	4344
911.374	4348
911.489	4310
911.604	4246
911.718	4200
911.833	4181
911.947	4048
912.062	4032
912.176	4200
912.291	4230
912.405	4223
912.519	4462
912.633	4478
912.748	4367
912.862	4280
912.976	4162
913.09	4074
913.204	4162
913.318	4242
913.431	4402
913.545	4375
913.659	4478
913.772	4375
913.886	4238
914	4188
914.113	4344
914.226	4455
914.34	4428
914.453	4192
914.566	4451
914.68	4329
914.793	4314
914.906	4112
915.019	4147
915.132	4097
915.245	4158
915.358	4215
915.47	4219
915.583	4234
915.696	4329
915.809	4379
915.921	4462
916.034	4234
916.146	4253
916.259	4257
916.371	4405
916.483	4344
916.595	4242
916.708	4303
916.82	4261
916.932	4314
917.044	4306
917.156	4405
917.268	4227
917.38	4272
917.491	4276
917.603	4348
917.715	4402
917.826	4478
917.938	4375
918.049	4219
918.161	4394
918.272	4588
918.384	4580
918.495	4394
918.606	4299
918.717	4253
918.828	4276
918.939	4333
919.05	4242
919.161	4310
919.272	4143
919.383	4230
919.494	4443
919.604	4615
919.715	4405
919.826	4348
919.936	4436
920.047	4546
920.157	4516
920.267	4706
920.378	4519
920.488	4531
920.598	4710
920.708	4873
920.818	4736
920.928	4733
921.038	4953
921.148	4870
921.258	4649
921.368	4592
921.477	4485
921.587	4443
921.697	4390
921.806	4519
921.916	4398
922.025	4223
922.134	4306
922.244	4227
922.353	4280
922.462	4150
922.571	4124
922.68	3983
922.789	3964
922.898	4036
923.007	4013
923.116	4101
923.224	4059
923.333	4040
923.442	4013
923.55	3987
923.659	4078
923.767	4101
923.876	3991
923.984	4105
924.092	4010
924.201	4082
924.309	4112
924.417	4109
924.525	4010
924.633	4101
924.741	4904
924.849	3907
924.956	4086
925.064	3911
925.172	3903
925.279	3953
925.387	4025
925.494	4032
925.602	4200
925.709	4154
925.816	4029
925.924	4105
926.031	4223
926.138	4143
926.245	4139
926.352	4116
926.459	4246
926.566	4318
926.673	4128
926.779	4105
926.886	4063
926.993	4021
927.099	3956
927.206	3937
927.312	3991
927.419	4067
927.525	4055
927.631	4063
927.737	3949
927.843	3991
927.95	3827
928.056	3941
928.162	3968
928.267	4074
928.373	4675
928.479	4143
928.585	3873
928.69	4032
928.796	4036
928.901	4010
929.007	3854
929.112	4010
929.218	3975
929.323	3941
929.428	3888
929.533	4150
929.638	3896
929.743	3968
929.848	4013
929.953	4010
930.058	3922
930.163	3774
930.267	3789
930.372	3964
930.477	3808
930.581	4101
930.685	3998
930.79	3812
930.894	3842
930.998	3873
931.103	4025
931.207	3682
931.311	3686
931.415	3652
931.519	3545
931.623	3526
