Data from test_V78500241_325.txt Node
Date: Fri Mar 25 16:51:15 CST 2022
User: usil
Spectrometer: V785-0024
Trigger mode: 0
Integration Time (sec): 4.000000E-1
Scans to average: 1
Nonlinearity correction enabled: false
Boxcar width: 0
Storing dark spectrum: false
XAxis mode: Wavelengths
Number of Pixels in Spectrum: 1024
>>>>>Begin Spectral Data<<<<<
801.071	8096
801.214	8012
801.356	7959
801.499	7906
801.641	7879
801.783	7841
801.926	7970
802.068	8031
802.211	7974
802.353	8001
802.496	7883
802.638	7906
802.78	7947
802.923	7902
803.065	7909
803.208	7860
803.35	7951
803.492	8115
803.635	8115
803.777	8020
803.919	8157
804.061	8457
804.204	8149
804.346	8058
804.488	7967
804.63	8100
804.773	8008
804.915	8103
805.057	8328
805.199	8221
805.341	8180
805.483	8195
805.626	8168
805.768	8027
805.91	8202
806.052	8149
806.194	8058
806.336	8339
806.478	8221
806.62	8153
806.762	8149
806.904	8328
807.046	8484
807.188	8389
807.33	8271
807.472	8294
807.614	8187
807.756	8096
807.898	7993
808.04	7902
808.182	7906
808.324	7978
808.465	7936
808.607	8111
808.749	8077
808.891	8298
809.033	8313
809.174	8202
809.316	8069
809.458	8065
809.6	8020
809.741	8058
809.883	7993
810.025	8100
810.166	8126
810.308	8001
810.45	8012
810.591	7849
810.733	7761
810.875	7681
811.016	7544
811.158	7438
811.299	7590
811.441	7799
811.582	7685
811.724	7567
811.865	7499
812.007	7651
812.148	7681
812.29	7681
812.431	7742
812.573	7875
812.714	7959
812.855	8134
812.997	8218
813.138	8256
813.279	8157
813.421	8115
813.562	8058
813.703	7894
813.845	7757
813.986	7464
814.127	7247
814.268	7297
814.41	7225
814.551	7133
814.692	7217
814.833	7118
814.974	7065
815.115	7072
815.256	6943
815.397	6871
815.539	6954
815.68	6818
815.821	6859
815.962	6916
816.103	6837
816.244	6730
816.385	6662
816.526	6654
816.666	6521
816.807	6338
816.948	6486
817.089	6498
817.23	6521
817.371	6376
817.512	6380
817.653	6456
817.793	6426
817.934	6429
818.075	6498
818.216	6414
818.356	6479
818.497	6197
818.638	6144
818.778	6163
818.919	6106
819.06	6072
819.2	6350
819.341	6353
819.481	6342
819.622	6536
819.762	6764
819.903	6741
820.043	6608
820.184	6570
820.324	6566
820.465	6688
820.605	6654
820.746	6654
820.886	6525
821.026	6623
821.167	6726
821.307	6806
821.447	6776
821.588	6673
821.728	6582
821.868	6502
822.008	6372
822.149	6372
822.289	6372
822.429	6163
822.569	6098
822.709	6117
822.849	5935
822.99	5870
823.13	5935
823.27	5908
823.41	5809
823.55	5805
823.69	5741
823.83	5756
823.97	5661
824.11	5516
824.25	5528
824.389	5547
824.529	5539
824.669	5547
824.809	5680
824.949	5672
825.089	5585
825.228	5577
825.368	5398
825.508	5387
825.648	5349
825.787	5414
825.927	5318
826.067	5303
826.206	5330
826.346	5410
826.485	5398
826.625	5440
826.765	5497
826.904	5478
827.044	5269
827.183	5254
827.323	5090
827.462	5239
827.601	5140
827.741	5181
827.88	5250
828.02	5075
828.159	5269
828.298	5273
828.437	5330
828.577	5269
828.716	5512
828.855	5299
828.994	5216
829.134	5208
829.273	5181
829.412	5136
829.551	5143
829.69	5147
829.829	5277
829.968	5402
830.107	5273
830.246	5288
830.385	5223
830.524	5143
830.663	5109
830.802	4972
830.941	4873
831.08	4885
831.219	4976
831.357	4961
831.496	5170
831.635	4991
831.774	4870
831.913	4797
832.051	4717
832.19	4736
832.329	4885
832.467	4691
832.606	4656
832.744	4748
832.883	4702
833.022	4710
833.16	4809
833.299	4831
833.437	4809
833.576	4793
833.714	4847
833.852	4824
833.991	4896
834.129	5014
834.267	4991
834.406	4885
834.544	4953
834.682	4953
834.821	5003
834.959	5185
835.097	4995
835.235	5136
835.373	5098
835.511	5086
835.65	5048
835.788	4999
835.926	4915
836.064	4870
836.202	4949
836.34	5166
836.478	5239
836.615	5143
836.753	5227
836.891	5277
837.029	5273
837.167	5193
837.305	5147
837.443	5117
837.58	5083
837.718	5288
837.856	5208
837.993	5174
838.131	5254
838.269	5235
838.406	5201
838.544	5204
838.681	5075
838.819	5060
838.956	4881
839.094	4923
839.231	4976
839.369	5105
839.506	5474
839.643	5242
839.781	5086
839.918	5003
840.055	5090
840.193	5102
840.33	5132
840.467	5193
840.604	5147
840.742	5444
840.879	5060
841.016	5094
841.153	5197
841.29	5402
841.427	5349
841.564	5330
841.701	5364
841.838	5254
841.975	5254
842.112	5265
842.249	5121
842.385	5102
842.522	5330
842.659	5124
842.796	5159
842.933	5201
843.069	5178
843.206	5197
843.343	5299
843.479	5208
843.616	5216
843.752	4965
843.889	4995
844.025	5242
844.162	5041
844.298	5227
844.435	5113
844.571	4999
844.708	5174
844.844	5360
844.98	5296
845.117	5315
845.253	5143
845.389	5090
845.525	5185
845.661	5185
845.798	5033
845.934	5170
846.07	5121
846.206	5143
846.342	5269
846.478	5201
846.614	5018
846.75	4968
846.886	4953
847.022	5117
847.158	5006
847.294	5045
847.429	5113
847.565	5033
847.701	5334
847.837	4892
847.972	4828
848.108	4968
848.244	4984
848.379	4782
848.515	4733
848.65	4702
848.786	4740
848.921	4767
849.057	4862
849.192	4915
849.328	4862
849.463	4870
849.598	4774
849.734	4771
849.869	4725
850.004	4672
850.14	4687
850.275	4630
850.41	4558
850.545	4523
850.68	4626
850.815	4637
850.95	4641
851.085	4816
851.22	4782
851.355	4694
851.49	4618
851.625	4660
851.76	4637
851.895	4580
852.03	4542
852.165	4660
852.299	4767
852.434	4805
852.569	4744
852.703	4782
852.838	4801
852.973	4961
853.107	4934
853.242	4752
853.376	4683
853.511	4558
853.645	4603
853.78	4805
853.914	4694
854.048	4740
854.183	4626
854.317	4645
854.451	4877
854.585	4672
854.72	4622
854.854	4778
854.988	4611
855.122	4596
855.256	4577
855.39	4710
855.524	4782
855.658	4710
855.792	4729
855.926	4733
856.06	4736
856.194	4748
856.327	4694
856.461	4622
856.595	4569
856.729	4634
856.862	4748
856.996	4702
857.13	4702
857.263	4744
857.397	4786
857.53	4664
857.664	4767
857.797	4759
857.931	4755
858.064	4687
858.197	4733
858.331	4668
858.464	4558
858.597	4588
858.731	4622
858.864	4649
858.997	4626
859.13	4641
859.263	4679
859.396	4694
859.529	4599
859.662	4573
859.795	4542
859.928	4641
860.061	4740
860.194	4717
860.327	4637
860.46	4607
860.592	4721
860.725	4721
860.858	4668
860.99	4599
861.123	4500
861.256	4527
861.388	4611
861.521	5372
861.653	4523
861.786	4447
861.918	4508
862.05	4531
862.183	4535
862.315	4649
862.447	4618
862.58	4527
862.712	4379
862.844	4352
862.976	4481
863.108	4455
863.24	4809
863.372	4318
863.504	4417
863.636	4417
863.768	4523
863.9	4447
864.032	4375
864.164	4421
864.296	4451
864.428	4508
864.559	4550
864.691	4546
864.823	4500
864.954	4512
865.086	4516
865.217	4447
865.349	4440
865.48	4500
865.612	4481
865.743	4626
865.875	4455
866.006	4421
866.137	4428
866.269	4447
866.4	4443
866.531	4424
866.662	4379
866.793	4398
866.924	4398
867.055	4478
867.186	4462
867.317	4413
867.448	4363
867.579	4436
867.71	4409
867.841	4402
867.972	4455
868.103	4451
868.233	4424
868.364	4470
868.495	4443
868.625	4675
868.756	4771
868.886	4584
869.017	4607
869.147	4805
869.278	4755
869.408	4691
869.539	4687
869.669	4755
869.799	4637
869.929	4767
870.06	4721
870.19	4961
870.32	4930
870.45	4949
870.58	5018
870.71	5083
870.84	5159
870.97	4942
871.1	4919
871.23	5201
871.36	5166
871.489	5014
871.619	5086
871.749	5132
871.879	5140
872.008	5181
872.138	5079
872.267	5018
872.397	4908
872.526	4820
872.656	4717
872.785	4885
872.915	5003
873.044	5025
873.173	4976
873.303	4938
873.432	5022
873.561	4946
873.69	4911
873.819	4847
873.948	4896
874.077	4847
874.206	4733
874.335	4843
874.464	4900
874.593	5060
874.722	4987
874.851	5086
874.979	5029
875.108	5045
875.237	4923
875.365	4896
875.494	4828
875.623	4961
875.751	4831
875.88	4919
876.008	4957
876.136	5029
876.265	5185
876.393	5326
876.521	5277
876.65	5235
876.778	5102
876.906	5083
877.034	5025
877.162	5056
877.29	4984
877.418	5037
877.546	5102
877.674	5041
877.802	5003
877.93	5029
878.058	4892
878.185	4854
878.313	4965
878.441	4968
878.568	4816
878.696	4881
878.824	4934
878.951	4987
879.079	5143
879.206	5250
879.333	5086
879.461	4987
879.588	5018
879.715	5128
879.842	5269
879.97	5014
880.097	4767
880.224	4733
880.351	4843
880.478	4877
880.605	4733
880.732	4809
880.859	5117
880.986	4904
881.112	4892
881.239	4767
881.366	4683
881.493	4637
881.619	4573
881.746	4599
881.872	4664
881.999	4683
882.125	4664
882.252	4797
882.378	4831
882.505	4995
882.631	4847
882.757	4649
882.883	4694
883.01	4752
883.136	4691
883.262	4588
883.388	4675
883.514	4866
883.64	4908
883.766	4786
883.892	4672
884.018	4793
884.143	4911
884.269	4953
884.395	4656
884.52	4596
884.646	4618
884.772	4592
884.897	4516
885.023	4630
885.148	4801
885.274	4908
885.399	4847
885.524	4771
885.65	4698
885.775	4778
885.9	4721
886.025	4892
886.15	4771
886.275	4706
886.4	4672
886.525	4774
886.65	4744
886.775	4736
886.9	4904
887.025	5083
887.149	4793
887.274	4626
887.399	4603
887.523	4630
887.648	4546
887.773	4580
887.897	4736
888.021	4793
888.146	4668
888.27	4797
888.395	4904
888.519	4797
888.643	4782
888.767	4809
888.891	4702
889.015	4656
889.139	4649
889.263	4577
889.387	4767
889.511	4828
889.635	4797
889.759	4656
889.883	4630
890.006	4710
890.13	4858
890.254	4611
890.377	4706
890.501	4516
890.624	4516
890.748	4637
890.871	4500
890.995	4462
891.118	4417
891.241	4519
891.364	4512
891.488	4675
891.611	4481
891.734	4561
891.857	4626
891.98	4558
892.103	4615
892.226	4599
892.349	4542
892.471	4402
892.594	4565
892.717	4592
892.839	4577
892.962	4599
893.085	4656
893.207	4603
893.33	4443
893.452	4531
893.575	4683
893.697	4603
893.819	4790
893.941	4873
894.064	4778
894.186	4607
894.308	4592
894.43	4755
894.552	4828
894.674	4778
894.796	4519
894.918	4626
895.04	4580
895.161	4725
895.283	4656
895.405	4596
895.526	4656
895.648	4668
895.769	4672
895.891	4675
896.012	4748
896.134	4694
896.255	4649
896.376	4626
896.498	4607
896.619	4679
896.74	4615
896.861	4618
896.982	4946
897.103	5033
897.224	4854
897.345	4736
897.466	4653
897.587	4702
897.708	4896
897.828	4774
897.949	4729
898.07	4531
898.19	4656
898.311	4881
898.431	4710
898.552	4763
898.672	4828
898.792	4866
898.913	4721
899.033	4615
899.153	4516
899.273	4459
899.393	4504
899.513	4493
899.633	4550
899.753	4550
899.873	4512
899.993	4542
900.113	4508
900.232	4596
900.352	4531
900.472	4478
900.591	4447
900.711	4531
900.83	4432
900.95	4584
901.069	4683
901.189	4569
901.308	4394
901.427	4329
901.546	4379
901.665	4485
901.784	4516
901.904	4398
902.023	4356
902.141	4227
902.26	4150
902.379	4306
902.498	4268
902.617	4223
902.735	4409
902.854	4390
902.973	4360
903.091	4188
903.21	4219
903.328	4303
903.446	4363
903.565	4276
903.683	4306
903.801	4261
903.919	4405
904.038	4481
904.156	4295
904.274	4421
904.392	4428
904.51	4421
904.627	4455
904.745	4561
904.863	4664
904.981	4424
905.098	4329
905.216	4322
905.334	4451
905.451	4500
905.569	4386
905.686	4596
905.803	4542
905.921	4421
906.038	4561
906.155	4470
906.272	4405
906.389	4478
906.506	4352
906.623	4360
906.74	4344
906.857	4303
906.974	4367
907.091	4535
907.208	4694
907.324	4607
907.441	4535
907.557	4352
907.674	4379
907.79	4341
907.907	4417
908.023	4489
908.139	4466
908.256	4478
908.372	4417
908.488	4489
908.604	4352
908.72	4329
908.836	4428
908.952	4413
909.068	4402
909.184	4569
909.3	4516
909.415	4573
909.531	4565
909.647	4371
909.762	4383
909.878	4379
909.993	4447
910.108	4390
910.224	4405
910.339	4519
910.454	4413
910.57	4394
910.685	4272
910.8	4668
910.915	4649
911.03	4504
911.145	4344
911.259	4291
911.374	4383
911.489	4306
911.604	4303
911.718	4128
911.833	4230
911.947	4097
912.062	4017
912.176	4230
912.291	4211
912.405	4219
912.519	4462
912.633	4531
912.748	4402
912.862	4318
912.976	4204
913.09	4090
913.204	4204
913.318	4242
913.431	4363
913.545	4379
913.659	4424
913.772	4371
913.886	4265
914	4219
914.113	4322
914.226	4474
914.34	4413
914.453	4272
914.566	4466
914.68	4314
914.793	4379
914.906	4166
915.019	4112
915.132	4093
915.245	4181
915.358	4192
915.47	4207
915.583	4268
915.696	4280
915.809	4428
915.921	4447
916.034	4272
916.146	4265
916.259	4188
916.371	4402
916.483	4398
916.595	4261
916.708	4333
916.82	4356
916.932	4367
917.044	4318
917.156	4333
917.268	4253
917.38	4261
917.491	4284
917.603	4329
917.715	4417
917.826	4443
917.938	4322
918.049	4227
918.161	4363
918.272	4561
918.384	4584
918.495	4466
918.606	4352
918.717	4249
918.828	4363
918.939	4356
919.05	4276
919.161	4337
919.272	4090
919.383	4238
919.494	4470
919.604	4641
919.715	4428
919.826	4341
919.936	4443
920.047	4519
920.157	4538
920.267	4721
920.378	4577
920.488	4519
920.598	4694
920.708	4896
920.818	4774
920.928	4736
921.038	4934
921.148	4900
921.258	4637
921.368	4546
921.477	4527
921.587	4451
921.697	4360
921.806	4592
921.916	4386
922.025	4280
922.134	4268
922.244	4246
922.353	4337
922.462	4192
922.571	4181
922.68	3998
922.789	4040
922.898	4013
923.007	3956
923.116	4093
923.224	4097
923.333	4093
923.442	4002
923.55	3979
923.659	4055
923.767	4097
923.876	4006
923.984	4166
924.092	3975
924.201	4109
924.309	4082
924.417	4154
924.525	4105
924.633	4112
924.741	4900
924.849	3968
924.956	4139
925.064	3953
925.172	3979
925.279	3968
925.387	4055
925.494	4074
925.602	4242
925.709	4177
925.816	4029
925.924	4131
926.031	4261
926.138	4154
926.245	4207
926.352	4135
926.459	4253
926.566	4303
926.673	4188
926.779	4071
926.886	4071
926.993	4036
927.099	3979
927.206	3983
927.312	3968
927.419	4063
927.525	4059
927.631	4093
927.737	3964
927.843	3972
927.95	3857
928.056	3953
928.162	4002
928.267	4071
928.373	4672
928.479	4147
928.585	3884
928.69	4029
928.796	4093
928.901	3964
929.007	3823
929.112	4002
929.218	3934
929.323	3972
929.428	3968
929.533	4105
929.638	3953
929.743	4032
929.848	4036
929.953	3987
930.058	3926
930.163	3781
930.267	3804
930.372	3979
930.477	3800
930.581	4120
930.685	3911
930.79	3861
930.894	3899
930.998	3846
931.103	4051
931.207	3724
931.311	3671
931.415	3671
931.519	3523
931.623	3553
