Data from test_V78500241_2551.txt Node
Date: Fri Mar 25 17:06:44 CST 2022
User: usil
Spectrometer: V785-0024
Trigger mode: 0
Integration Time (sec): 4.000000E-1
Scans to average: 1
Nonlinearity correction enabled: false
Boxcar width: 0
Storing dark spectrum: false
XAxis mode: Wavelengths
Number of Pixels in Spectrum: 1024
>>>>>Begin Spectral Data<<<<<
801.071	7993
801.214	8039
801.356	7928
801.499	7769
801.641	7753
801.783	7868
801.926	8005
802.068	7902
802.211	8024
802.353	8024
802.496	7841
802.638	7875
802.78	7936
802.923	8035
803.065	7894
803.208	7864
803.35	7970
803.492	8126
803.635	8183
803.777	8005
803.919	8149
804.061	8454
804.204	8164
804.346	8153
804.488	8027
804.63	8138
804.773	7978
804.915	8164
805.057	8358
805.199	8180
805.341	8202
805.483	8358
805.626	8267
805.768	8134
805.91	8210
806.052	8195
806.194	8088
806.336	8271
806.478	8119
806.62	8005
806.762	8123
806.904	8244
807.046	8434
807.188	8328
807.33	8298
807.472	8237
807.614	8126
807.756	8187
807.898	7967
808.04	7925
808.182	7925
808.324	7902
808.465	7936
808.607	8054
808.749	8195
808.891	8244
809.033	8332
809.174	8240
809.316	8092
809.458	8081
809.6	8001
809.741	8008
809.883	7997
810.025	8123
810.166	8119
810.308	8039
810.45	8012
810.591	7841
810.733	7727
810.875	7674
811.016	7521
811.158	7529
811.299	7624
811.441	7753
811.582	7636
811.724	7601
811.865	7563
812.007	7586
812.148	7597
812.29	7582
812.431	7738
812.573	7875
812.714	7967
812.855	8172
812.997	8187
813.138	8237
813.279	8134
813.421	8084
813.562	7921
813.703	7868
813.845	7772
813.986	7472
814.127	7289
814.268	7247
814.41	7247
814.551	7228
814.692	7198
814.833	7110
814.974	7099
815.115	7175
815.256	6993
815.397	6954
815.539	6973
815.68	6814
815.821	6852
815.962	6833
816.103	6814
816.244	6722
816.385	6631
816.526	6593
816.666	6536
816.807	6277
816.948	6448
817.089	6483
817.23	6448
817.371	6429
817.512	6399
817.653	6414
817.793	6346
817.934	6418
818.075	6479
818.216	6410
818.356	6384
818.497	6270
818.638	6136
818.778	6175
818.919	6110
819.06	6175
819.2	6296
819.341	6380
819.481	6403
819.622	6525
819.762	6764
819.903	6730
820.043	6616
820.184	6612
820.324	6616
820.465	6734
820.605	6745
820.746	6658
820.886	6544
821.026	6726
821.167	6684
821.307	6837
821.447	6802
821.588	6734
821.728	6570
821.868	6490
822.008	6391
822.149	6426
822.289	6350
822.429	6178
822.569	6110
822.709	6182
822.849	5939
822.99	5927
823.13	5980
823.27	5950
823.41	5863
823.55	5767
823.69	5817
823.83	5783
823.97	5680
824.11	5570
824.25	5516
824.389	5566
824.529	5611
824.669	5539
824.809	5634
824.949	5615
825.089	5638
825.228	5585
825.368	5444
825.508	5395
825.648	5345
825.787	5391
825.927	5417
826.067	5315
826.206	5280
826.346	5398
826.485	5417
826.625	5402
826.765	5581
826.904	5482
827.044	5250
827.183	5155
827.323	5151
827.462	5250
827.601	5204
827.741	5216
827.88	5242
828.02	5136
828.159	5269
828.298	5303
828.437	5402
828.577	5284
828.716	5482
828.855	5334
828.994	5231
829.134	5140
829.273	5212
829.412	5075
829.551	5181
829.69	5132
829.829	5269
829.968	5387
830.107	5288
830.246	5299
830.385	5201
830.524	5162
830.663	5071
830.802	5041
830.941	4923
831.08	4831
831.219	4934
831.357	4987
831.496	5109
831.635	4961
831.774	4847
831.913	4908
832.051	4752
832.19	4721
832.329	4790
832.467	4748
832.606	4664
832.744	4706
832.883	4748
833.022	4672
833.16	4793
833.299	4805
833.437	4873
833.576	4816
833.714	4873
833.852	4904
833.991	4843
834.129	4938
834.267	4953
834.406	4942
834.544	4976
834.682	4987
834.821	4999
834.959	5193
835.097	4987
835.235	5128
835.373	5121
835.511	5090
835.65	5045
835.788	4972
835.926	4919
836.064	4858
836.202	4934
836.34	5181
836.478	5185
836.615	5109
836.753	5273
836.891	5307
837.029	5208
837.167	5204
837.305	5170
837.443	5174
837.58	5132
837.718	5258
837.856	5216
837.993	5178
838.131	5174
838.269	5216
838.406	5288
838.544	5193
838.681	5071
838.819	4984
838.956	4927
839.094	4870
839.231	5033
839.369	5071
839.506	5406
839.643	5299
839.781	5045
839.918	4987
840.055	5071
840.193	5094
840.33	5071
840.467	5121
840.604	5189
840.742	5436
840.879	5086
841.016	5109
841.153	5147
841.29	5376
841.427	5330
841.564	5322
841.701	5357
841.838	5326
841.975	5239
842.112	5288
842.249	5147
842.385	5121
842.522	5284
842.659	5147
842.796	5162
842.933	5216
843.069	5174
843.206	5185
843.343	5231
843.479	5292
843.616	5280
843.752	5014
843.889	4999
844.025	5239
844.162	5025
844.298	5216
844.435	5090
844.571	5056
844.708	5185
844.844	5307
844.98	5318
845.117	5337
845.253	5064
845.389	5048
845.525	5185
845.661	5109
845.798	5064
845.934	5083
846.07	5045
846.206	5189
846.342	5299
846.478	5162
846.614	5056
846.75	4949
846.886	4915
847.022	5162
847.158	5041
847.294	5079
847.429	5166
847.565	5086
847.701	5357
847.837	4839
847.972	4793
848.108	4927
848.244	4957
848.379	4805
848.515	4706
848.65	4694
848.786	4733
848.921	4809
849.057	4870
849.192	4911
849.328	4828
849.463	4881
849.598	4847
849.734	4763
849.869	4721
850.004	4622
850.14	4664
850.275	4611
850.41	4504
850.545	4558
850.68	4637
850.815	4630
850.95	4626
851.085	4858
851.22	4736
851.355	4660
851.49	4615
851.625	4634
851.76	4592
851.895	4527
852.03	4561
852.165	4675
852.299	4706
852.434	4835
852.569	4755
852.703	4790
852.838	4809
852.973	4946
853.107	4919
853.242	4729
853.376	4645
853.511	4584
853.645	4611
853.78	4797
853.914	4649
854.048	4656
854.183	4675
854.317	4645
854.451	4828
854.585	4656
854.72	4664
854.854	4763
854.988	4615
855.122	4599
855.256	4550
855.39	4714
855.524	4793
855.658	4675
855.792	4710
855.926	4717
856.06	4782
856.194	4793
856.327	4656
856.461	4618
856.595	4630
856.729	4645
856.862	4748
856.996	4729
857.13	4717
857.263	4744
857.397	4778
857.53	4634
857.664	4740
857.797	4778
857.931	4809
858.064	4702
858.197	4744
858.331	4645
858.464	4607
858.597	4485
858.731	4618
858.864	4660
858.997	4645
859.13	4618
859.263	4660
859.396	4694
859.529	4626
859.662	4588
859.795	4504
859.928	4626
860.061	4778
860.194	4748
860.327	4607
860.46	4588
860.592	4694
860.725	4683
860.858	4717
860.99	4558
861.123	4519
861.256	4535
861.388	4645
861.521	5162
861.653	4523
861.786	4447
861.918	4436
862.05	4580
862.183	4561
862.315	4569
862.447	4664
862.58	4527
862.712	4356
862.844	4299
862.976	4493
863.108	4428
863.24	4744
863.372	4360
863.504	4421
863.636	4348
863.768	4500
863.9	4466
864.032	4333
864.164	4394
864.296	4436
864.428	4546
864.559	4580
864.691	4512
864.823	4500
864.954	4561
865.086	4523
865.217	4485
865.349	4417
865.48	4462
865.612	4455
865.743	4607
865.875	4440
866.006	4409
866.137	4451
866.269	4436
866.4	4466
866.531	4417
866.662	4405
866.793	4390
866.924	4440
867.055	4447
867.186	4432
867.317	4394
867.448	4363
867.579	4383
867.71	4409
867.841	4375
867.972	4459
868.103	4436
868.233	4447
868.364	4462
868.495	4485
868.625	4675
868.756	4774
868.886	4565
869.017	4603
869.147	4752
869.278	4820
869.408	4641
869.539	4615
869.669	4725
869.799	4634
869.929	4767
870.06	4740
870.19	4942
870.32	4919
870.45	4953
870.58	5029
870.71	5071
870.84	5109
870.97	4980
871.1	4870
871.23	5185
871.36	5162
871.489	5006
871.619	5037
871.749	5079
871.879	5132
872.008	5147
872.138	5041
872.267	4968
872.397	4896
872.526	4843
872.656	4710
872.785	4809
872.915	4984
873.044	5052
873.173	4938
873.303	4953
873.432	4995
873.561	4949
873.69	4877
873.819	4866
873.948	4904
874.077	4866
874.206	4774
874.335	4805
874.464	4934
874.593	5102
874.722	4987
874.851	5067
874.979	5105
875.108	5006
875.237	4919
875.365	4850
875.494	4858
875.623	4987
875.751	4847
875.88	4862
876.008	5003
876.136	5010
876.265	5204
876.393	5345
876.521	5246
876.65	5265
876.778	5151
876.906	5090
877.034	5048
877.162	5052
877.29	5006
877.418	5048
877.546	5060
877.674	5022
877.802	5029
877.93	5029
878.058	4923
878.185	4889
878.313	5014
878.441	4961
878.568	4786
878.696	4835
878.824	4942
878.951	5006
879.079	5189
879.206	5273
879.333	5121
879.461	4980
879.588	4976
879.715	5155
879.842	5231
879.97	4984
880.097	4835
880.224	4729
880.351	4782
880.478	4797
880.605	4744
880.732	4805
880.859	5067
880.986	4919
881.112	4908
881.239	4755
881.366	4634
881.493	4634
881.619	4584
881.746	4645
881.872	4675
881.999	4653
882.125	4691
882.252	4759
882.378	4839
882.505	4942
882.631	4828
882.757	4641
882.883	4725
883.01	4733
883.136	4618
883.262	4580
883.388	4615
883.514	4831
883.64	4850
883.766	4828
883.892	4668
884.018	4710
884.143	4854
884.269	4968
884.395	4641
884.52	4641
884.646	4618
884.772	4637
884.897	4527
885.023	4672
885.148	4797
885.274	4835
885.399	4801
885.524	4691
885.65	4702
885.775	4721
885.9	4733
886.025	4881
886.15	4862
886.275	4679
886.4	4634
886.525	4721
886.65	4672
886.775	4675
886.9	4949
887.025	5045
887.149	4793
887.274	4649
887.399	4630
887.523	4611
887.648	4558
887.773	4588
887.897	4805
888.021	4820
888.146	4672
888.27	4816
888.395	4915
888.519	4820
888.643	4786
888.767	4831
888.891	4691
889.015	4592
889.139	4656
889.263	4588
889.387	4736
889.511	4858
889.635	4809
889.759	4653
889.883	4687
890.006	4763
890.13	4805
890.254	4641
890.377	4679
890.501	4508
890.624	4550
890.748	4641
890.871	4459
890.995	4497
891.118	4394
891.241	4485
891.364	4542
891.488	4626
891.611	4512
891.734	4527
891.857	4611
891.98	4550
892.103	4641
892.226	4580
892.349	4493
892.471	4428
892.594	4546
892.717	4592
892.839	4565
892.962	4546
893.085	4668
893.207	4577
893.33	4447
893.452	4500
893.575	4675
893.697	4584
893.819	4752
893.941	4839
894.064	4763
894.186	4584
894.308	4538
894.43	4733
894.552	4820
894.674	4774
894.796	4584
894.918	4577
895.04	4573
895.161	4733
895.283	4698
895.405	4550
895.526	4649
895.648	4698
895.769	4668
895.891	4683
896.012	4748
896.134	4717
896.255	4672
896.376	4664
896.498	4618
896.619	4710
896.74	4618
896.861	4630
896.982	4942
897.103	5052
897.224	4839
897.345	4714
897.466	4691
897.587	4763
897.708	4843
897.828	4774
897.949	4679
898.07	4588
898.19	4611
898.311	4812
898.431	4679
898.552	4729
898.672	4835
898.792	4778
898.913	4729
899.033	4675
899.153	4523
899.273	4398
899.393	4550
899.513	4558
899.633	4542
899.753	4577
899.873	4512
899.993	4588
900.113	4535
900.232	4561
900.352	4508
900.472	4504
900.591	4360
900.711	4489
900.83	4466
900.95	4615
901.069	4672
901.189	4531
901.308	4363
901.427	4299
901.546	4402
901.665	4474
901.784	4550
901.904	4386
902.023	4284
902.141	4223
902.26	4169
902.379	4276
902.498	4249
902.617	4234
902.735	4333
902.854	4371
902.973	4356
903.091	4207
903.21	4230
903.328	4295
903.446	4246
903.565	4272
903.683	4314
903.801	4303
903.919	4383
904.038	4459
904.156	4398
904.274	4462
904.392	4390
904.51	4432
904.627	4451
904.745	4569
904.863	4653
904.981	4390
905.098	4284
905.216	4379
905.334	4432
905.451	4481
905.569	4459
905.686	4527
905.803	4588
905.921	4390
906.038	4500
906.155	4470
906.272	4367
906.389	4504
906.506	4390
906.623	4383
906.74	4409
906.857	4284
906.974	4356
907.091	4527
907.208	4645
907.324	4626
907.441	4554
907.557	4341
907.674	4421
907.79	4348
907.907	4318
908.023	4516
908.139	4519
908.256	4394
908.372	4478
908.488	4424
908.604	4379
908.72	4360
908.836	4402
908.952	4352
909.068	4459
909.184	4538
909.3	4462
909.415	4554
909.531	4580
909.647	4367
909.762	4394
909.878	4386
909.993	4455
910.108	4398
910.224	4360
910.339	4538
910.454	4398
910.57	4333
910.685	4276
910.8	4634
910.915	4596
911.03	4462
911.145	4325
911.259	4310
911.374	4386
911.489	4276
911.604	4295
911.718	4181
911.833	4169
911.947	4090
912.062	4036
912.176	4242
912.291	4261
912.405	4238
912.519	4470
912.633	4497
912.748	4417
912.862	4329
912.976	4204
913.09	4105
913.204	4192
913.318	4268
913.431	4402
913.545	4371
913.659	4466
913.772	4363
913.886	4280
914	4238
914.113	4375
914.226	4424
914.34	4394
914.453	4265
914.566	4405
914.68	4318
914.793	4295
914.906	4158
915.019	4131
915.132	4071
915.245	4166
915.358	4242
915.47	4242
915.583	4287
915.696	4322
915.809	4428
915.921	4383
916.034	4249
916.146	4287
916.259	4215
916.371	4402
916.483	4379
916.595	4306
916.708	4314
916.82	4280
916.932	4329
917.044	4367
917.156	4295
917.268	4287
917.38	4276
917.491	4227
917.603	4348
917.715	4413
917.826	4466
917.938	4322
918.049	4211
918.161	4405
918.272	4569
918.384	4550
918.495	4470
918.606	4322
918.717	4238
918.828	4360
918.939	4367
919.05	4242
919.161	4303
919.272	4112
919.383	4211
919.494	4470
919.604	4622
919.715	4516
919.826	4333
919.936	4424
920.047	4478
920.157	4413
920.267	4714
920.378	4592
920.488	4527
920.598	4763
920.708	4854
920.818	4755
920.928	4729
921.038	4953
921.148	4919
921.258	4618
921.368	4588
921.477	4500
921.587	4470
921.697	4375
921.806	4558
921.916	4447
922.025	4223
922.134	4268
922.244	4234
922.353	4306
922.462	4177
922.571	4147
922.68	3994
922.789	3953
922.898	3994
923.007	3979
923.116	4086
923.224	4048
923.333	4071
923.442	3968
923.55	3964
923.659	4021
923.767	4105
923.876	3972
923.984	4116
924.092	3983
924.201	4071
924.309	4101
924.417	4116
924.525	4048
924.633	4082
924.741	5048
924.849	3896
924.956	4112
925.064	3964
925.172	3937
925.279	3956
925.387	4032
925.494	4055
925.602	4211
925.709	4166
925.816	4036
925.924	4097
926.031	4204
926.138	4173
926.245	4215
926.352	4090
926.459	4261
926.566	4268
926.673	4204
926.779	4074
926.886	4101
926.993	3987
927.099	3941
927.206	3964
927.312	3937
927.419	4032
927.525	4021
927.631	4082
927.737	3945
927.843	3934
927.95	3880
928.056	3911
928.162	4002
928.267	4029
928.373	4573
928.479	4109
928.585	3892
928.69	4017
928.796	4086
928.901	3983
929.007	3819
929.112	4006
929.218	3991
929.323	3964
929.428	3949
929.533	4105
929.638	3861
929.743	3956
929.848	4048
929.953	3979
930.058	3945
930.163	3800
930.267	3823
930.372	3979
930.477	3797
930.581	4086
930.685	3953
930.79	3842
930.894	3884
930.998	3842
931.103	4010
931.207	3705
931.311	3690
931.415	3679
931.519	3496
931.623	3561
