Data from test_V78500241_1426.txt Node
Date: Fri Mar 25 16:58:54 CST 2022
User: usil
Spectrometer: V785-0024
Trigger mode: 0
Integration Time (sec): 4.000000E-1
Scans to average: 1
Nonlinearity correction enabled: false
Boxcar width: 0
Storing dark spectrum: false
XAxis mode: Wavelengths
Number of Pixels in Spectrum: 1024
>>>>>Begin Spectral Data<<<<<
801.071	8020
801.214	7982
801.356	7864
801.499	7860
801.641	7795
801.783	7803
801.926	7947
802.068	7841
802.211	7982
802.353	7982
802.496	7811
802.638	7879
802.78	7894
802.923	7833
803.065	7792
803.208	7795
803.35	7925
803.492	8077
803.635	8081
803.777	7974
803.919	8145
804.061	8389
804.204	8123
804.346	8073
804.488	7925
804.63	8119
804.773	8084
804.915	8073
805.057	8237
805.199	8134
805.341	8225
805.483	8252
805.626	8214
805.768	8073
805.91	8214
806.052	8218
806.194	8096
806.336	8240
806.478	8008
806.62	8084
806.762	8187
806.904	8202
807.046	8442
807.188	8362
807.33	8275
807.472	8320
807.614	8176
807.756	8103
807.898	7997
808.04	7890
808.182	7833
808.324	7902
808.465	8012
808.607	8039
808.749	8092
808.891	8218
809.033	8263
809.174	8187
809.316	8031
809.458	8065
809.6	7978
809.741	7963
809.883	7986
810.025	8024
810.166	8081
810.308	8115
810.45	7997
810.591	7814
810.733	7662
810.875	7693
811.016	7563
811.158	7567
811.299	7620
811.441	7674
811.582	7677
811.724	7632
811.865	7491
812.007	7556
812.148	7563
812.29	7643
812.431	7681
812.573	7822
812.714	7921
812.855	8123
812.997	8214
813.138	8252
813.279	8199
813.421	8187
813.562	8024
813.703	7830
813.845	7700
813.986	7464
814.127	7255
814.268	7221
814.41	7251
814.551	7114
814.692	7240
814.833	7141
814.974	7103
815.115	7053
815.256	6939
815.397	6890
815.539	6962
815.68	6779
815.821	6738
815.962	6825
816.103	6764
816.244	6730
816.385	6642
816.526	6604
816.666	6517
816.807	6292
816.948	6426
817.089	6441
817.23	6399
817.371	6372
817.512	6331
817.653	6372
817.793	6334
817.934	6384
818.075	6448
818.216	6414
818.356	6429
818.497	6232
818.638	6064
818.778	6114
818.919	6133
819.06	6224
819.2	6289
819.341	6285
819.481	6369
819.622	6506
819.762	6715
819.903	6730
820.043	6612
820.184	6551
820.324	6494
820.465	6730
820.605	6627
820.746	6669
820.886	6486
821.026	6696
821.167	6658
821.307	6772
821.447	6715
821.588	6650
821.728	6513
821.868	6517
822.008	6357
822.149	6369
822.289	6327
822.429	6079
822.569	6041
822.709	6129
822.849	5961
822.99	5965
823.13	5851
823.27	5901
823.41	5798
823.55	5771
823.69	5756
823.83	5756
823.97	5703
824.11	5512
824.25	5501
824.389	5535
824.529	5592
824.669	5577
824.809	5657
824.949	5604
825.089	5630
825.228	5520
825.368	5345
825.508	5357
825.648	5315
825.787	5311
825.927	5360
826.067	5288
826.206	5372
826.346	5322
826.485	5372
826.625	5395
826.765	5516
826.904	5459
827.044	5277
827.183	5189
827.323	5090
827.462	5212
827.601	5151
827.741	5174
827.88	5261
828.02	5143
828.159	5220
828.298	5303
828.437	5372
828.577	5322
828.716	5478
828.855	5303
828.994	5136
829.134	5155
829.273	5193
829.412	5143
829.551	5159
829.69	5212
829.829	5216
829.968	5379
830.107	5299
830.246	5326
830.385	5197
830.524	5162
830.663	5094
830.802	4953
830.941	4915
831.08	4900
831.219	5014
831.357	4995
831.496	5189
831.635	4961
831.774	4911
831.913	4839
832.051	4767
832.19	4793
832.329	4828
832.467	4725
832.606	4626
832.744	4771
832.883	4736
833.022	4740
833.16	4839
833.299	4873
833.437	4885
833.576	4858
833.714	4873
833.852	4877
833.991	4911
834.129	4984
834.267	4984
834.406	4968
834.544	5022
834.682	5014
834.821	5022
834.959	5174
835.097	5045
835.235	5231
835.373	5117
835.511	5121
835.65	5086
835.788	5105
835.926	4957
836.064	4892
836.202	4908
836.34	5197
836.478	5258
836.615	5147
836.753	5242
836.891	5322
837.029	5284
837.167	5242
837.305	5216
837.443	5159
837.58	5109
837.718	5296
837.856	5189
837.993	5181
838.131	5265
838.269	5216
838.406	5212
838.544	5220
838.681	5079
838.819	5025
838.956	4961
839.094	4946
839.231	5045
839.369	5086
839.506	5417
839.643	5284
839.781	5086
839.918	5018
840.055	5143
840.193	5117
840.33	5155
840.467	5159
840.604	5197
840.742	5444
840.879	5109
841.016	5113
841.153	5189
841.29	5395
841.427	5379
841.564	5357
841.701	5410
841.838	5315
841.975	5250
842.112	5315
842.249	5155
842.385	5170
842.522	5353
842.659	5216
842.796	5170
842.933	5201
843.069	5193
843.206	5197
843.343	5296
843.479	5212
843.616	5288
843.752	5071
843.889	5029
844.025	5250
844.162	5045
844.298	5246
844.435	5075
844.571	5056
844.708	5246
844.844	5337
844.98	5368
845.117	5296
845.253	5128
845.389	5128
845.525	5170
845.661	5151
845.798	5071
845.934	5166
846.07	5029
846.206	5178
846.342	5315
846.478	5223
846.614	5056
846.75	4980
846.886	4965
847.022	5162
847.158	5048
847.294	5083
847.429	5155
847.565	5079
847.701	5353
847.837	4919
847.972	4835
848.108	4938
848.244	4942
848.379	4805
848.515	4771
848.65	4774
848.786	4778
848.921	4809
849.057	4839
849.192	4892
849.328	4831
849.463	4831
849.598	4828
849.734	4748
849.869	4664
850.004	4664
850.14	4714
850.275	4607
850.41	4580
850.545	4561
850.68	4622
850.815	4656
850.95	4626
851.085	4866
851.22	4805
851.355	4717
851.49	4653
851.625	4683
851.76	4687
851.895	4577
852.03	4592
852.165	4714
852.299	4736
852.434	4797
852.569	4774
852.703	4767
852.838	4873
852.973	4930
853.107	4904
853.242	4710
853.376	4679
853.511	4569
853.645	4615
853.78	4824
853.914	4748
854.048	4683
854.183	4679
854.317	4736
854.451	4877
854.585	4694
854.72	4656
854.854	4782
854.988	4645
855.122	4622
855.256	4573
855.39	4683
855.524	4824
855.658	4748
855.792	4702
855.926	4748
856.06	4774
856.194	4801
856.327	4717
856.461	4603
856.595	4645
856.729	4656
856.862	4733
856.996	4706
857.13	4759
857.263	4755
857.397	4805
857.53	4691
857.664	4698
857.797	4786
857.931	4805
858.064	4740
858.197	4809
858.331	4653
858.464	4618
858.597	4550
858.731	4660
858.864	4664
858.997	4596
859.13	4630
859.263	4691
859.396	4691
859.529	4630
859.662	4550
859.795	4512
859.928	4607
860.061	4786
860.194	4778
860.327	4611
860.46	4653
860.592	4774
860.725	4714
860.858	4725
860.99	4538
861.123	4527
861.256	4542
861.388	4672
861.521	5474
861.653	4485
861.786	4459
861.918	4478
862.05	4485
862.183	4573
862.315	4653
862.447	4637
862.58	4565
862.712	4421
862.844	4306
862.976	4485
863.108	4470
863.24	4938
863.372	4375
863.504	4443
863.636	4459
863.768	4508
863.9	4485
864.032	4398
864.164	4413
864.296	4485
864.428	4611
864.559	4554
864.691	4512
864.823	4523
864.954	4538
865.086	4462
865.217	4535
865.349	4462
865.48	4470
865.612	4535
865.743	4630
865.875	4451
866.006	4436
866.137	4443
866.269	4436
866.4	4470
866.531	4432
866.662	4405
866.793	4455
866.924	4421
867.055	4538
867.186	4474
867.317	4402
867.448	4413
867.579	4379
867.71	4390
867.841	4462
867.972	4485
868.103	4481
868.233	4478
868.364	4451
868.495	4504
868.625	4672
868.756	4782
868.886	4592
869.017	4626
869.147	4793
869.278	4835
869.408	4656
869.539	4664
869.669	4694
869.799	4675
869.929	4725
870.06	4755
870.19	4968
870.32	4892
870.45	4930
870.58	5079
870.71	5086
870.84	5105
870.97	4938
871.1	4919
871.23	5189
871.36	5117
871.489	5045
871.619	5094
871.749	5064
871.879	5071
872.008	5185
872.138	5006
872.267	4961
872.397	4900
872.526	4835
872.656	4744
872.785	4877
872.915	4968
873.044	5022
873.173	4995
873.303	4934
873.432	4980
873.561	4972
873.69	4919
873.819	4877
873.948	4919
874.077	4839
874.206	4797
874.335	4805
874.464	4919
874.593	5086
874.722	4987
874.851	5105
874.979	5102
875.108	5090
875.237	4976
875.365	4847
875.494	4908
875.623	4961
875.751	4847
875.88	4892
876.008	5022
876.136	5113
876.265	5143
876.393	5330
876.521	5318
876.65	5258
876.778	5197
876.906	5045
877.034	5029
877.162	5025
877.29	5048
877.418	5014
877.546	5067
877.674	5079
877.802	5060
877.93	5075
878.058	4938
878.185	4870
878.313	4972
878.441	4949
878.568	4858
878.696	4911
878.824	4957
878.951	5052
879.079	5121
879.206	5296
879.333	5060
879.461	5006
879.588	5022
879.715	5132
879.842	5178
879.97	4995
880.097	4809
880.224	4767
880.351	4831
880.478	4809
880.605	4793
880.732	4759
880.859	5124
880.986	4850
881.112	4949
881.239	4809
881.366	4683
881.493	4641
881.619	4584
881.746	4630
881.872	4691
881.999	4645
882.125	4653
882.252	4767
882.378	4896
882.505	4957
882.631	4748
882.757	4729
882.883	4694
883.01	4714
883.136	4675
883.262	4656
883.388	4641
883.514	4862
883.64	4847
883.766	4816
883.892	4729
884.018	4752
884.143	4942
884.269	5033
884.395	4717
884.52	4603
884.646	4626
884.772	4634
884.897	4615
885.023	4691
885.148	4801
885.274	4900
885.399	4828
885.524	4679
885.65	4687
885.775	4759
885.9	4748
886.025	4889
886.15	4801
886.275	4721
886.4	4653
886.525	4721
886.65	4714
886.775	4656
886.9	4923
887.025	5025
887.149	4828
887.274	4634
887.399	4607
887.523	4580
887.648	4622
887.773	4588
887.897	4767
888.021	4797
888.146	4694
888.27	4820
888.395	4938
888.519	4831
888.643	4843
888.767	4854
888.891	4763
889.015	4618
889.139	4691
889.263	4599
889.387	4790
889.511	4885
889.635	4828
889.759	4611
889.883	4618
890.006	4706
890.13	4820
890.254	4637
890.377	4706
890.501	4592
890.624	4523
890.748	4630
890.871	4523
890.995	4428
891.118	4474
891.241	4565
891.364	4531
891.488	4672
891.611	4443
891.734	4565
891.857	4607
891.98	4554
892.103	4675
892.226	4588
892.349	4565
892.471	4474
892.594	4550
892.717	4637
892.839	4565
892.962	4580
893.085	4687
893.207	4577
893.33	4466
893.452	4531
893.575	4626
893.697	4637
893.819	4797
893.941	4835
894.064	4774
894.186	4573
894.308	4569
894.43	4740
894.552	4797
894.674	4744
894.796	4573
894.918	4577
895.04	4618
895.161	4668
895.283	4637
895.405	4607
895.526	4660
895.648	4717
895.769	4683
895.891	4714
896.012	4729
896.134	4694
896.255	4698
896.376	4679
896.498	4622
896.619	4653
896.74	4656
896.861	4607
896.982	4927
897.103	5086
897.224	4873
897.345	4797
897.466	4645
897.587	4706
897.708	4847
897.828	4816
897.949	4706
898.07	4516
898.19	4653
898.311	4835
898.431	4691
898.552	4736
898.672	4801
898.792	4801
898.913	4740
899.033	4584
899.153	4535
899.273	4440
899.393	4478
899.513	4535
899.633	4519
899.753	4523
899.873	4485
899.993	4599
900.113	4519
900.232	4542
900.352	4531
900.472	4481
900.591	4421
900.711	4462
900.83	4417
900.95	4596
901.069	4656
901.189	4592
901.308	4360
901.427	4333
901.546	4337
901.665	4455
901.784	4535
901.904	4402
902.023	4333
902.141	4173
902.26	4192
902.379	4337
902.498	4284
902.617	4265
902.735	4390
902.854	4413
902.973	4394
903.091	4238
903.21	4265
903.328	4341
903.446	4314
903.565	4284
903.683	4360
903.801	4333
903.919	4478
904.038	4512
904.156	4352
904.274	4466
904.392	4440
904.51	4478
904.627	4489
904.745	4603
904.863	4679
904.981	4512
905.098	4325
905.216	4390
905.334	4451
905.451	4470
905.569	4478
905.686	4569
905.803	4626
905.921	4428
906.038	4573
906.155	4554
906.272	4459
906.389	4531
906.506	4352
906.623	4417
906.74	4413
906.857	4363
906.974	4428
907.091	4622
907.208	4729
907.324	4607
907.441	4573
907.557	4386
907.674	4398
907.79	4344
907.907	4451
908.023	4531
908.139	4523
908.256	4440
908.372	4516
908.488	4470
908.604	4402
908.72	4341
908.836	4379
908.952	4424
909.068	4470
909.184	4542
909.3	4558
909.415	4584
909.531	4618
909.647	4390
909.762	4421
909.878	4379
909.993	4516
910.108	4481
910.224	4478
910.339	4519
910.454	4443
910.57	4375
910.685	4348
910.8	4702
910.915	4656
911.03	4497
911.145	4371
911.259	4390
911.374	4371
911.489	4344
911.604	4280
911.718	4215
911.833	4242
911.947	4105
912.062	4059
912.176	4265
912.291	4253
912.405	4287
912.519	4481
912.633	4504
912.748	4405
912.862	4360
912.976	4230
913.09	4139
913.204	4223
913.318	4268
913.431	4421
913.545	4398
913.659	4451
913.772	4394
913.886	4242
914	4215
914.113	4421
914.226	4489
914.34	4371
914.453	4295
914.566	4462
914.68	4306
914.793	4367
914.906	4192
915.019	4135
915.132	4158
915.245	4238
915.358	4227
915.47	4249
915.583	4287
915.696	4306
915.809	4417
915.921	4455
916.034	4284
916.146	4291
916.259	4249
916.371	4443
916.483	4379
916.595	4306
916.708	4363
916.82	4341
916.932	4360
917.044	4398
917.156	4348
917.268	4284
917.38	4341
917.491	4318
917.603	4390
917.715	4413
917.826	4432
917.938	4402
918.049	4318
918.161	4466
918.272	4588
918.384	4584
918.495	4451
918.606	4325
918.717	4284
918.828	4409
918.939	4371
919.05	4287
919.161	4348
919.272	4109
919.383	4227
919.494	4481
919.604	4675
919.715	4409
919.826	4398
919.936	4478
920.047	4584
920.157	4519
920.267	4710
920.378	4618
920.488	4474
920.598	4736
920.708	4938
920.818	4778
920.928	4797
921.038	4980
921.148	4965
921.258	4656
921.368	4611
921.477	4516
921.587	4516
921.697	4428
921.806	4542
921.916	4478
922.025	4276
922.134	4287
922.244	4230
922.353	4333
922.462	4192
922.571	4188
922.68	4048
922.789	3998
922.898	4078
923.007	4040
923.116	4162
923.224	4055
923.333	4093
923.442	4040
923.55	3987
923.659	4055
923.767	4124
923.876	4048
923.984	4150
924.092	4017
924.201	4090
924.309	4139
924.417	4150
924.525	4063
924.633	4188
924.741	5083
924.849	3945
924.956	4150
925.064	4021
925.172	3918
925.279	3960
925.387	4071
925.494	4044
925.602	4185
925.709	4211
925.816	4017
925.924	4196
926.031	4276
926.138	4181
926.245	4215
926.352	4105
926.459	4341
926.566	4291
926.673	4215
926.779	4116
926.886	4112
926.993	3994
927.099	4051
927.206	3956
927.312	3979
927.419	4063
927.525	4055
927.631	4101
927.737	3926
927.843	4002
927.95	3873
928.056	3960
928.162	4021
928.267	4063
928.373	4618
928.479	4147
928.585	3964
928.69	4063
928.796	4109
928.901	3968
929.007	3892
929.112	4059
929.218	3998
929.323	3972
929.428	3979
929.533	4150
929.638	3934
929.743	3983
929.848	4086
929.953	4036
930.058	3983
930.163	3819
930.267	3846
930.372	4013
930.477	3865
930.581	4135
930.685	3968
930.79	3888
930.894	3941
930.998	3861
931.103	4090
931.207	3720
931.311	3740
931.415	3728
931.519	3542
931.623	3595
