Data from test_V78500241_395.txt Node
Date: Fri Mar 25 16:51:44 CST 2022
User: usil
Spectrometer: V785-0024
Trigger mode: 0
Integration Time (sec): 4.000000E-1
Scans to average: 1
Nonlinearity correction enabled: false
Boxcar width: 0
Storing dark spectrum: false
XAxis mode: Wavelengths
Number of Pixels in Spectrum: 1024
>>>>>Begin Spectral Data<<<<<
801.071	8115
801.214	8024
801.356	7993
801.499	7852
801.641	7860
801.783	7913
801.926	8001
802.068	7940
802.211	8027
802.353	8058
802.496	7852
802.638	7898
802.78	8027
802.923	7955
803.065	7852
803.208	7879
803.35	7940
803.492	8069
803.635	8043
803.777	7997
803.919	8043
804.061	8396
804.204	8168
804.346	8119
804.488	8024
804.63	8100
804.773	8001
804.915	8115
805.057	8286
805.199	8199
805.341	8233
805.483	8298
805.626	8206
805.768	8012
805.91	8107
806.052	8202
806.194	8123
806.336	8301
806.478	8202
806.62	8126
806.762	8172
806.904	8294
807.046	8415
807.188	8370
807.33	8305
807.472	8351
807.614	8134
807.756	8130
807.898	8020
808.04	7917
808.182	8001
808.324	7902
808.465	7967
808.607	8043
808.749	8123
808.891	8138
809.033	8256
809.174	8218
809.316	8073
809.458	7959
809.6	8065
809.741	7982
809.883	8020
810.025	8088
810.166	8081
810.308	8062
810.45	8008
810.591	7909
810.733	7757
810.875	7666
811.016	7499
811.158	7453
811.299	7662
811.441	7765
811.582	7727
811.724	7624
811.865	7575
812.007	7693
812.148	7620
812.29	7590
812.431	7803
812.573	7955
812.714	7986
812.855	8168
812.997	8218
813.138	8362
813.279	8138
813.421	8164
813.562	7989
813.703	7974
813.845	7833
813.986	7540
814.127	7350
814.268	7312
814.41	7270
814.551	7164
814.692	7228
814.833	7099
814.974	7152
815.115	7099
815.256	6977
815.397	6970
815.539	6970
815.68	6818
815.821	6764
815.962	6837
816.103	6787
816.244	6772
816.385	6623
816.526	6623
816.666	6486
816.807	6296
816.948	6429
817.089	6498
817.23	6441
817.371	6418
817.512	6418
817.653	6369
817.793	6410
817.934	6433
818.075	6506
818.216	6433
818.356	6418
818.497	6239
818.638	6148
818.778	6148
818.919	6129
819.06	6155
819.2	6338
819.341	6296
819.481	6410
819.622	6517
819.762	6768
819.903	6703
820.043	6639
820.184	6566
820.324	6563
820.465	6612
820.605	6665
820.746	6620
820.886	6509
821.026	6627
821.167	6768
821.307	6795
821.447	6779
821.588	6662
821.728	6528
821.868	6483
822.008	6327
822.149	6380
822.289	6372
822.429	6155
822.569	6114
822.709	6133
822.849	5939
822.99	5897
823.13	5950
823.27	5935
823.41	5805
823.55	5802
823.69	5844
823.83	5817
823.97	5684
824.11	5581
824.25	5573
824.389	5623
824.529	5600
824.669	5566
824.809	5668
824.949	5703
825.089	5589
825.228	5566
825.368	5448
825.508	5406
825.648	5337
825.787	5398
825.927	5406
826.067	5337
826.206	5307
826.346	5433
826.485	5459
826.625	5440
826.765	5524
826.904	5524
827.044	5345
827.183	5246
827.323	5178
827.462	5318
827.601	5250
827.741	5269
827.88	5277
828.02	5231
828.159	5296
828.298	5341
828.437	5414
828.577	5334
828.716	5512
828.855	5337
828.994	5201
829.134	5239
829.273	5250
829.412	5174
829.551	5208
829.69	5208
829.829	5303
829.968	5372
830.107	5303
830.246	5353
830.385	5231
830.524	5197
830.663	5185
830.802	5056
830.941	4934
831.08	4908
831.219	5071
831.357	5029
831.496	5193
831.635	5045
831.774	4904
831.913	4911
832.051	4812
832.19	4850
832.329	4850
832.467	4740
832.606	4649
832.744	4748
832.883	4744
833.022	4809
833.16	4839
833.299	4889
833.437	4873
833.576	4843
833.714	4904
833.852	4915
833.991	4900
834.129	4972
834.267	4984
834.406	5014
834.544	4999
834.682	5018
834.821	4953
834.959	5208
835.097	5041
835.235	5159
835.373	5136
835.511	5159
835.65	5033
835.788	5086
835.926	4862
836.064	4930
836.202	4980
836.34	5197
836.478	5284
836.615	5181
836.753	5258
836.891	5326
837.029	5303
837.167	5170
837.305	5178
837.443	5197
837.58	5143
837.718	5277
837.856	5227
837.993	5162
838.131	5303
838.269	5250
838.406	5273
838.544	5265
838.681	5098
838.819	5060
838.956	4961
839.094	4972
839.231	5041
839.369	5121
839.506	5493
839.643	5337
839.781	5140
839.918	5064
840.055	5132
840.193	5117
840.33	5170
840.467	5242
840.604	5220
840.742	5528
840.879	5147
841.016	5136
841.153	5189
841.29	5402
841.427	5376
841.564	5391
841.701	5353
841.838	5349
841.975	5284
842.112	5261
842.249	5124
842.385	5117
842.522	5372
842.659	5284
842.796	5204
842.933	5231
843.069	5170
843.206	5178
843.343	5292
843.479	5299
843.616	5292
843.752	5064
843.889	5094
844.025	5231
844.162	5067
844.298	5242
844.435	5094
844.571	5075
844.708	5246
844.844	5391
844.98	5387
845.117	5364
845.253	5193
845.389	5121
845.525	5261
845.661	5235
845.798	5140
845.934	5193
846.07	5121
846.206	5162
846.342	5311
846.478	5235
846.614	5075
846.75	5041
846.886	4987
847.022	5113
847.158	5067
847.294	5067
847.429	5189
847.565	5060
847.701	5341
847.837	4900
847.972	4854
848.108	5041
848.244	5022
848.379	4790
848.515	4790
848.65	4763
848.786	4759
848.921	4877
849.057	4908
849.192	4942
849.328	4797
849.463	4915
849.598	4828
849.734	4752
849.869	4694
850.004	4691
850.14	4740
850.275	4664
850.41	4573
850.545	4569
850.68	4687
850.815	4675
850.95	4725
851.085	4858
851.22	4782
851.355	4710
851.49	4588
851.625	4714
851.76	4694
851.895	4596
852.03	4554
852.165	4717
852.299	4805
852.434	4839
852.569	4793
852.703	4831
852.838	4923
852.973	4972
853.107	4919
853.242	4763
853.376	4725
853.511	4596
853.645	4653
853.78	4812
853.914	4752
854.048	4664
854.183	4706
854.317	4710
854.451	4904
854.585	4759
854.72	4653
854.854	4809
854.988	4626
855.122	4706
855.256	4588
855.39	4679
855.524	4839
855.658	4790
855.792	4755
855.926	4835
856.06	4816
856.194	4835
856.327	4721
856.461	4618
856.595	4668
856.729	4626
856.862	4824
856.996	4771
857.13	4782
857.263	4752
857.397	4873
857.53	4675
857.664	4782
857.797	4767
857.931	4828
858.064	4729
858.197	4816
858.331	4702
858.464	4641
858.597	4573
858.731	4634
858.864	4691
858.997	4634
859.13	4691
859.263	4736
859.396	4771
859.529	4653
859.662	4630
859.795	4580
859.928	4634
860.061	4752
860.194	4782
860.327	4630
860.46	4634
860.592	4782
860.725	4740
860.858	4786
860.99	4603
861.123	4603
861.256	4569
861.388	4660
861.521	5406
861.653	4516
861.786	4504
861.918	4542
862.05	4561
862.183	4573
862.315	4702
862.447	4702
862.58	4607
862.712	4451
862.844	4386
862.976	4531
863.108	4481
863.24	4820
863.372	4379
863.504	4428
863.636	4432
863.768	4542
863.9	4478
864.032	4390
864.164	4405
864.296	4538
864.428	4550
864.559	4588
864.691	4569
864.823	4550
864.954	4573
865.086	4504
865.217	4443
865.349	4447
865.48	4493
865.612	4561
865.743	4672
865.875	4481
866.006	4462
866.137	4485
866.269	4424
866.4	4497
866.531	4424
866.662	4421
866.793	4462
866.924	4440
867.055	4531
867.186	4519
867.317	4451
867.448	4413
867.579	4402
867.71	4459
867.841	4379
867.972	4531
868.103	4500
868.233	4485
868.364	4459
868.495	4527
868.625	4656
868.756	4831
868.886	4565
869.017	4675
869.147	4790
869.278	4816
869.408	4706
869.539	4721
869.669	4778
869.799	4755
869.929	4801
870.06	4717
870.19	4953
870.32	4904
870.45	4942
870.58	5006
870.71	5052
870.84	5159
870.97	4976
871.1	4930
871.23	5121
871.36	5178
871.489	5079
871.619	5094
871.749	5166
871.879	5197
872.008	5231
872.138	5079
872.267	4965
872.397	4934
872.526	4858
872.656	4767
872.785	4820
872.915	5014
873.044	5022
873.173	5003
873.303	4999
873.432	4980
873.561	4995
873.69	4896
873.819	4889
873.948	4911
874.077	4835
874.206	4793
874.335	4854
874.464	4965
874.593	5109
874.722	4965
874.851	5124
874.979	5079
875.108	5067
875.237	4881
875.365	4892
875.494	4930
875.623	5022
875.751	4854
875.88	4923
876.008	5048
876.136	5121
876.265	5231
876.393	5372
876.521	5296
876.65	5269
876.778	5151
876.906	5121
877.034	5006
877.162	5090
877.29	5037
877.418	5083
877.546	5090
877.674	5094
877.802	5033
877.93	5052
878.058	4949
878.185	4885
878.313	4980
878.441	4968
878.568	4847
878.696	4927
878.824	4984
878.951	5003
879.079	5128
879.206	5284
879.333	5132
879.461	4995
879.588	5041
879.715	5189
879.842	5250
879.97	4995
880.097	4820
880.224	4782
880.351	4843
880.478	4862
880.605	4843
880.732	4854
880.859	5128
880.986	4889
881.112	4953
881.239	4816
881.366	4672
881.493	4588
881.619	4573
881.746	4664
881.872	4660
881.999	4698
882.125	4721
882.252	4790
882.378	4866
882.505	4995
882.631	4854
882.757	4729
882.883	4763
883.01	4740
883.136	4736
883.262	4618
883.388	4668
883.514	4820
883.64	4904
883.766	4862
883.892	4725
884.018	4752
884.143	4923
884.269	5010
884.395	4755
884.52	4656
884.646	4683
884.772	4630
884.897	4550
885.023	4691
885.148	4801
885.274	4854
885.399	4839
885.524	4755
885.65	4736
885.775	4805
885.9	4729
886.025	4900
886.15	4801
886.275	4733
886.4	4729
886.525	4710
886.65	4729
886.775	4729
886.9	4930
887.025	5071
887.149	4828
887.274	4653
887.399	4653
887.523	4546
887.648	4626
887.773	4580
887.897	4782
888.021	4774
888.146	4683
888.27	4854
888.395	4946
888.519	4805
888.643	4816
888.767	4850
888.891	4759
889.015	4645
889.139	4710
889.263	4611
889.387	4763
889.511	4900
889.635	4862
889.759	4675
889.883	4683
890.006	4752
890.13	4847
890.254	4649
890.377	4721
890.501	4565
890.624	4561
890.748	4649
890.871	4497
890.995	4462
891.118	4417
891.241	4565
891.364	4615
891.488	4664
891.611	4489
891.734	4527
891.857	4603
891.98	4584
892.103	4675
892.226	4611
892.349	4554
892.471	4478
892.594	4599
892.717	4634
892.839	4592
892.962	4592
893.085	4683
893.207	4672
893.33	4497
893.452	4546
893.575	4679
893.697	4607
893.819	4820
893.941	4858
894.064	4790
894.186	4558
894.308	4580
894.43	4748
894.552	4873
894.674	4786
894.796	4569
894.918	4580
895.04	4561
895.161	4721
895.283	4656
895.405	4588
895.526	4694
895.648	4714
895.769	4702
895.891	4702
896.012	4744
896.134	4664
896.255	4733
896.376	4634
896.498	4607
896.619	4717
896.74	4637
896.861	4630
896.982	4904
897.103	5113
897.224	4877
897.345	4771
897.466	4660
897.587	4740
897.708	4828
897.828	4835
897.949	4649
898.07	4622
898.19	4698
898.311	4843
898.431	4714
898.552	4752
898.672	4870
898.792	4847
898.913	4740
899.033	4634
899.153	4512
899.273	4462
899.393	4497
899.513	4565
899.633	4546
899.753	4569
899.873	4558
899.993	4584
900.113	4535
900.232	4660
900.352	4588
900.472	4565
900.591	4417
900.711	4504
900.83	4470
900.95	4634
901.069	4660
901.189	4497
901.308	4356
901.427	4329
901.546	4443
901.665	4466
901.784	4538
901.904	4344
902.023	4341
902.141	4207
902.26	4192
902.379	4360
902.498	4253
902.617	4204
902.735	4352
902.854	4417
902.973	4367
903.091	4261
903.21	4253
903.328	4325
903.446	4299
903.565	4272
903.683	4360
903.801	4341
903.919	4390
904.038	4493
904.156	4375
904.274	4417
904.392	4451
904.51	4489
904.627	4455
904.745	4538
904.863	4634
904.981	4447
905.098	4303
905.216	4363
905.334	4451
905.451	4447
905.569	4447
905.686	4592
905.803	4607
905.921	4402
906.038	4596
906.155	4481
906.272	4436
906.389	4462
906.506	4383
906.623	4386
906.74	4405
906.857	4348
906.974	4371
907.091	4588
907.208	4721
907.324	4596
907.441	4516
907.557	4337
907.674	4363
907.79	4363
907.907	4436
908.023	4535
908.139	4512
908.256	4421
908.372	4462
908.488	4516
908.604	4352
908.72	4360
908.836	4424
908.952	4367
909.068	4405
909.184	4611
909.3	4478
909.415	4519
909.531	4550
909.647	4402
909.762	4337
909.878	4322
909.993	4493
910.108	4421
910.224	4485
910.339	4481
910.454	4432
910.57	4413
910.685	4337
910.8	4611
910.915	4630
911.03	4542
911.145	4310
911.259	4383
911.374	4413
911.489	4310
911.604	4306
911.718	4181
911.833	4200
911.947	4105
912.062	4090
912.176	4215
912.291	4242
912.405	4253
912.519	4447
912.633	4535
912.748	4363
912.862	4314
912.976	4192
913.09	4112
913.204	4177
913.318	4284
913.431	4348
913.545	4348
913.659	4470
913.772	4322
913.886	4268
914	4211
914.113	4386
914.226	4443
914.34	4371
914.453	4268
914.566	4409
914.68	4333
914.793	4390
914.906	4204
915.019	4162
915.132	4101
915.245	4173
915.358	4196
915.47	4257
915.583	4299
915.696	4284
915.809	4413
915.921	4413
916.034	4268
916.146	4234
916.259	4242
916.371	4398
916.483	4371
916.595	4284
916.708	4341
916.82	4341
916.932	4352
917.044	4329
917.156	4352
917.268	4249
917.38	4276
917.491	4295
917.603	4363
917.715	4421
917.826	4436
917.938	4303
918.049	4287
918.161	4386
918.272	4519
918.384	4596
918.495	4512
918.606	4284
918.717	4242
918.828	4303
918.939	4367
919.05	4272
919.161	4360
919.272	4147
919.383	4196
919.494	4466
919.604	4668
919.715	4440
919.826	4375
919.936	4405
920.047	4527
920.157	4481
920.267	4683
920.378	4561
920.488	4519
920.598	4748
920.708	4900
920.818	4721
920.928	4782
921.038	4976
921.148	4911
921.258	4668
921.368	4531
921.477	4504
921.587	4466
921.697	4421
921.806	4531
921.916	4432
922.025	4257
922.134	4287
922.244	4249
922.353	4310
922.462	4181
922.571	4139
922.68	4017
922.789	3937
922.898	4059
923.007	3975
923.116	4086
923.224	4071
923.333	4097
923.442	3968
923.55	3987
923.659	4025
923.767	4131
923.876	4036
923.984	4162
924.092	3975
924.201	4082
924.309	4112
924.417	4147
924.525	4078
924.633	4143
924.741	5025
924.849	3945
924.956	4147
925.064	4006
925.172	3869
925.279	3934
925.387	4029
925.494	4090
925.602	4215
925.709	4177
925.816	4090
925.924	4173
926.031	4173
926.138	4173
926.245	4227
926.352	4112
926.459	4265
926.566	4363
926.673	4116
926.779	4078
926.886	4082
926.993	4044
927.099	3960
927.206	4025
927.312	4010
927.419	4078
927.525	4029
927.631	4116
927.737	3937
927.843	3968
927.95	3816
928.056	3987
928.162	3949
928.267	4032
928.373	4710
928.479	4120
928.585	3888
928.69	3949
928.796	4067
928.901	3968
929.007	3907
929.112	4025
929.218	4029
929.323	3983
929.428	3949
929.533	4082
929.638	3896
929.743	3975
929.848	4059
929.953	3983
930.058	3934
930.163	3770
930.267	3812
930.372	3964
930.477	3831
930.581	4101
930.685	3907
930.79	3857
930.894	3880
930.998	3857
931.103	4048
931.207	3740
931.311	3690
931.415	3633
931.519	3504
931.623	3572
