Data from test_V78500241_2727.txt Node
Date: Fri Mar 25 17:07:57 CST 2022
User: usil
Spectrometer: V785-0024
Trigger mode: 0
Integration Time (sec): 4.000000E-1
Scans to average: 1
Nonlinearity correction enabled: false
Boxcar width: 0
Storing dark spectrum: false
XAxis mode: Wavelengths
Number of Pixels in Spectrum: 1024
>>>>>Begin Spectral Data<<<<<
801.071	8046
801.214	7947
801.356	7849
801.499	7902
801.641	7761
801.783	7841
801.926	7978
802.068	8001
802.211	7993
802.353	7974
802.496	7921
802.638	7909
802.78	7967
802.923	7852
803.065	7849
803.208	7902
803.35	7921
803.492	8103
803.635	8130
803.777	8024
803.919	8161
804.061	8488
804.204	8115
804.346	8115
804.488	7997
804.63	8145
804.773	8043
804.915	8103
805.057	8301
805.199	8172
805.341	8263
805.483	8248
805.626	8233
805.768	8111
805.91	8267
806.052	8214
806.194	8164
806.336	8332
806.478	8069
806.62	8111
806.762	8096
806.904	8210
807.046	8488
807.188	8400
807.33	8256
807.472	8279
807.614	8195
807.756	8157
807.898	8035
808.04	7917
808.182	7909
808.324	7894
808.465	7921
808.607	8157
808.749	8168
808.891	8290
809.033	8339
809.174	8233
809.316	8134
809.458	8081
809.6	8092
809.741	8043
809.883	8039
810.025	8107
810.166	8058
810.308	8050
810.45	8001
810.591	7921
810.733	7734
810.875	7620
811.016	7476
811.158	7460
811.299	7609
811.441	7795
811.582	7712
811.724	7609
811.865	7537
812.007	7559
812.148	7571
812.29	7651
812.431	7670
812.573	7875
812.714	8001
812.855	8164
812.997	8240
813.138	8332
813.279	8187
813.421	8126
813.562	8054
813.703	7887
813.845	7772
813.986	7453
814.127	7316
814.268	7240
814.41	7168
814.551	7183
814.692	7194
814.833	7137
814.974	7209
815.115	7095
815.256	6966
815.397	6954
815.539	6947
815.68	6810
815.821	6802
815.962	6882
816.103	6878
816.244	6783
816.385	6642
816.526	6604
816.666	6502
816.807	6308
816.948	6433
817.089	6479
817.23	6513
817.371	6365
817.512	6388
817.653	6429
817.793	6391
817.934	6418
818.075	6479
818.216	6475
818.356	6418
818.497	6216
818.638	6095
818.778	6194
818.919	6144
819.06	6129
819.2	6342
819.341	6323
819.481	6350
819.622	6517
819.762	6726
819.903	6719
820.043	6597
820.184	6635
820.324	6532
820.465	6753
820.605	6635
820.746	6650
820.886	6566
821.026	6612
821.167	6787
821.307	6814
821.447	6745
821.588	6665
821.728	6623
821.868	6513
822.008	6357
822.149	6380
822.289	6369
822.429	6144
822.569	6110
822.709	6117
822.849	5912
822.99	5882
823.13	5992
823.27	5904
823.41	5817
823.55	5779
823.69	5760
823.83	5756
823.97	5661
824.11	5532
824.25	5509
824.389	5554
824.529	5604
824.669	5566
824.809	5665
824.949	5657
825.089	5611
825.228	5600
825.368	5425
825.508	5364
825.648	5360
825.787	5387
825.927	5383
826.067	5330
826.206	5280
826.346	5379
826.485	5379
826.625	5406
826.765	5604
826.904	5463
827.044	5220
827.183	5216
827.323	5151
827.462	5242
827.601	5155
827.741	5193
827.88	5227
828.02	5151
828.159	5235
828.298	5311
828.437	5353
828.577	5322
828.716	5493
828.855	5311
828.994	5143
829.134	5159
829.273	5193
829.412	5117
829.551	5140
829.69	5185
829.829	5254
829.968	5360
830.107	5357
830.246	5292
830.385	5204
830.524	5159
830.663	5075
830.802	4957
830.941	4911
831.08	4892
831.219	5003
831.357	5014
831.496	5159
831.635	4930
831.774	4854
831.913	4854
832.051	4752
832.19	4809
832.329	4831
832.467	4687
832.606	4618
832.744	4752
832.883	4759
833.022	4733
833.16	4790
833.299	4843
833.437	4835
833.576	4790
833.714	4843
833.852	4885
833.991	4911
834.129	4938
834.267	4980
834.406	4881
834.544	4946
834.682	4965
834.821	4946
834.959	5128
835.097	4942
835.235	5155
835.373	5064
835.511	5147
835.65	5083
835.788	5064
835.926	4904
836.064	4892
836.202	4885
836.34	5193
836.478	5204
836.615	5121
836.753	5223
836.891	5303
837.029	5250
837.167	5193
837.305	5174
837.443	5162
837.58	5090
837.718	5299
837.856	5220
837.993	5189
838.131	5246
838.269	5181
838.406	5170
838.544	5178
838.681	5071
838.819	4991
838.956	4873
839.094	4908
839.231	4991
839.369	5064
839.506	5410
839.643	5254
839.781	5056
839.918	5014
840.055	5056
840.193	5090
840.33	5098
840.467	5128
840.604	5223
840.742	5452
840.879	5071
841.016	5079
841.153	5105
841.29	5395
841.427	5379
841.564	5330
841.701	5318
841.838	5296
841.975	5273
842.112	5303
842.249	5155
842.385	5117
842.522	5326
842.659	5155
842.796	5098
842.933	5185
843.069	5151
843.206	5162
843.343	5353
843.479	5258
843.616	5292
843.752	5048
843.889	5071
844.025	5204
844.162	4995
844.298	5212
844.435	5117
844.571	5037
844.708	5223
844.844	5299
844.98	5292
845.117	5299
845.253	5151
845.389	5094
845.525	5174
845.661	5136
845.798	5064
845.934	5109
846.07	5048
846.206	5178
846.342	5299
846.478	5193
846.614	4961
846.75	4968
846.886	4911
847.022	5178
847.158	5041
847.294	5045
847.429	5117
847.565	5075
847.701	5292
847.837	4854
847.972	4820
848.108	4999
848.244	4938
848.379	4816
848.515	4759
848.65	4733
848.786	4729
848.921	4801
849.057	4877
849.192	4900
849.328	4801
849.463	4843
849.598	4839
849.734	4763
849.869	4740
850.004	4668
850.14	4694
850.275	4626
850.41	4531
850.545	4542
850.68	4626
850.815	4626
850.95	4672
851.085	4843
851.22	4782
851.355	4637
851.49	4607
851.625	4630
851.76	4660
851.895	4542
852.03	4493
852.165	4637
852.299	4717
852.434	4816
852.569	4698
852.703	4805
852.838	4847
852.973	4968
853.107	4930
853.242	4740
853.376	4702
853.511	4535
853.645	4615
853.78	4831
853.914	4717
854.048	4641
854.183	4672
854.317	4694
854.451	4870
854.585	4653
854.72	4679
854.854	4774
854.988	4596
855.122	4611
855.256	4504
855.39	4653
855.524	4748
855.658	4710
855.792	4736
855.926	4683
856.06	4790
856.194	4778
856.327	4698
856.461	4615
856.595	4588
856.729	4637
856.862	4782
856.996	4698
857.13	4744
857.263	4755
857.397	4793
857.53	4637
857.664	4687
857.797	4786
857.931	4816
858.064	4675
858.197	4702
858.331	4618
858.464	4554
858.597	4504
858.731	4607
858.864	4607
858.997	4584
859.13	4615
859.263	4672
859.396	4694
859.529	4607
859.662	4580
859.795	4538
859.928	4656
860.061	4748
860.194	4759
860.327	4596
860.46	4592
860.592	4710
860.725	4736
860.858	4740
860.99	4577
861.123	4542
861.256	4516
861.388	4573
861.521	5277
861.653	4493
861.786	4459
861.918	4413
862.05	4519
862.183	4497
862.315	4584
862.447	4649
862.58	4538
862.712	4356
862.844	4325
862.976	4443
863.108	4447
863.24	4759
863.372	4344
863.504	4447
863.636	4390
863.768	4447
863.9	4455
864.032	4409
864.164	4447
864.296	4485
864.428	4546
864.559	4554
864.691	4516
864.823	4546
864.954	4485
865.086	4489
865.217	4500
865.349	4409
865.48	4466
865.612	4485
865.743	4599
865.875	4489
866.006	4443
866.137	4421
866.269	4443
866.4	4413
866.531	4398
866.662	4360
866.793	4424
866.924	4413
867.055	4516
867.186	4478
867.317	4443
867.448	4371
867.579	4440
867.71	4405
867.841	4363
867.972	4436
868.103	4497
868.233	4497
868.364	4474
868.495	4558
868.625	4683
868.756	4748
868.886	4542
869.017	4588
869.147	4755
869.278	4736
869.408	4668
869.539	4660
869.669	4725
869.799	4679
869.929	4801
870.06	4717
870.19	4965
870.32	4942
870.45	4949
870.58	4984
870.71	5124
870.84	5079
870.97	4930
871.1	4938
871.23	5143
871.36	5109
871.489	5052
871.619	5045
871.749	5067
871.879	5128
872.008	5151
872.138	5064
872.267	4961
872.397	4870
872.526	4809
872.656	4710
872.785	4809
872.915	4896
873.044	5041
873.173	4938
873.303	4976
873.432	4946
873.561	4980
873.69	4896
873.819	4847
873.948	4896
874.077	4835
874.206	4759
874.335	4816
874.464	4923
874.593	5094
874.722	4968
874.851	5094
874.979	5006
875.108	5025
875.237	4942
875.365	4889
875.494	4862
875.623	4965
875.751	4831
875.88	4862
876.008	4999
876.136	5010
876.265	5193
876.393	5372
876.521	5223
876.65	5159
876.778	5204
876.906	5105
877.034	5025
877.162	5071
877.29	4961
877.418	5033
877.546	5045
877.674	4968
877.802	5033
877.93	4938
878.058	4972
878.185	4824
878.313	4987
878.441	4915
878.568	4801
878.696	4839
878.824	4904
878.951	4968
879.079	5185
879.206	5288
879.333	5105
879.461	4995
879.588	5029
879.715	5147
879.842	5250
879.97	4965
880.097	4771
880.224	4729
880.351	4790
880.478	4824
880.605	4801
880.732	4812
880.859	5067
880.986	4900
881.112	4927
881.239	4824
881.366	4717
881.493	4584
881.619	4588
881.746	4653
881.872	4675
881.999	4626
882.125	4679
882.252	4797
882.378	4835
882.505	4919
882.631	4801
882.757	4691
882.883	4729
883.01	4729
883.136	4649
883.262	4554
883.388	4645
883.514	4778
883.64	4904
883.766	4831
883.892	4675
884.018	4706
884.143	4957
884.269	5033
884.395	4698
884.52	4637
884.646	4634
884.772	4584
884.897	4588
885.023	4664
885.148	4771
885.274	4877
885.399	4816
885.524	4744
885.65	4668
885.775	4755
885.9	4721
886.025	4896
886.15	4759
886.275	4774
886.4	4668
886.525	4687
886.65	4668
886.775	4702
886.9	4938
887.025	5022
887.149	4812
887.274	4626
887.399	4580
887.523	4565
887.648	4573
887.773	4611
887.897	4767
888.021	4801
888.146	4698
888.27	4816
888.395	4930
888.519	4782
888.643	4812
888.767	4854
888.891	4694
889.015	4596
889.139	4649
889.263	4565
889.387	4801
889.511	4881
889.635	4797
889.759	4660
889.883	4668
890.006	4725
890.13	4835
890.254	4622
890.377	4702
890.501	4535
890.624	4535
890.748	4630
890.871	4478
890.995	4417
891.118	4360
891.241	4512
891.364	4580
891.488	4679
891.611	4519
891.734	4546
891.857	4611
891.98	4573
892.103	4653
892.226	4596
892.349	4546
892.471	4413
892.594	4546
892.717	4634
892.839	4577
892.962	4558
893.085	4653
893.207	4584
893.33	4485
893.452	4527
893.575	4672
893.697	4599
893.819	4774
893.941	4816
894.064	4748
894.186	4558
894.308	4558
894.43	4733
894.552	4847
894.674	4733
894.796	4542
894.918	4603
895.04	4538
895.161	4714
895.283	4668
895.405	4637
895.526	4584
895.648	4691
895.769	4683
895.891	4755
896.012	4687
896.134	4755
896.255	4641
896.376	4653
896.498	4603
896.619	4729
896.74	4634
896.861	4637
896.982	4904
897.103	5075
897.224	4816
897.345	4702
897.466	4691
897.587	4706
897.708	4885
897.828	4797
897.949	4664
898.07	4538
898.19	4653
898.311	4843
898.431	4687
898.552	4729
898.672	4877
898.792	4801
898.913	4710
899.033	4584
899.153	4500
899.273	4428
899.393	4493
899.513	4470
899.633	4538
899.753	4622
899.873	4493
899.993	4592
900.113	4565
900.232	4561
900.352	4523
900.472	4447
900.591	4390
900.711	4489
900.83	4375
900.95	4558
901.069	4656
901.189	4497
901.308	4375
901.427	4299
901.546	4383
901.665	4474
901.784	4478
901.904	4413
902.023	4310
902.141	4230
902.26	4173
902.379	4344
902.498	4242
902.617	4207
902.735	4329
902.854	4409
902.973	4371
903.091	4207
903.21	4238
903.328	4272
903.446	4242
903.565	4295
903.683	4348
903.801	4291
903.919	4367
904.038	4424
904.156	4314
904.274	4398
904.392	4432
904.51	4443
904.627	4459
904.745	4577
904.863	4603
904.981	4405
905.098	4356
905.216	4360
905.334	4432
905.451	4459
905.569	4478
905.686	4588
905.803	4550
905.921	4386
906.038	4546
906.155	4527
906.272	4432
906.389	4500
906.506	4348
906.623	4398
906.74	4386
906.857	4341
906.974	4383
907.091	4577
907.208	4706
907.324	4535
907.441	4523
907.557	4356
907.674	4291
907.79	4314
907.907	4394
908.023	4478
908.139	4481
908.256	4402
908.372	4478
908.488	4489
908.604	4356
908.72	4280
908.836	4413
908.952	4409
909.068	4447
909.184	4523
909.3	4523
909.415	4531
909.531	4535
909.647	4318
909.762	4371
909.878	4344
909.993	4432
910.108	4409
910.224	4390
910.339	4523
910.454	4371
910.57	4348
910.685	4287
910.8	4634
910.915	4615
911.03	4489
911.145	4329
911.259	4303
911.374	4409
911.489	4329
911.604	4295
911.718	4181
911.833	4150
911.947	4071
912.062	4067
912.176	4207
912.291	4242
912.405	4253
912.519	4451
912.633	4535
912.748	4386
912.862	4310
912.976	4196
913.09	4109
913.204	4112
913.318	4265
913.431	4348
913.545	4375
913.659	4466
913.772	4360
913.886	4253
914	4238
914.113	4390
914.226	4424
914.34	4413
914.453	4227
914.566	4428
914.68	4303
914.793	4352
914.906	4173
915.019	4093
915.132	4097
915.245	4158
915.358	4192
915.47	4207
915.583	4272
915.696	4325
915.809	4383
915.921	4466
916.034	4280
916.146	4234
916.259	4219
916.371	4341
916.483	4375
916.595	4291
916.708	4379
916.82	4337
916.932	4284
917.044	4299
917.156	4318
917.268	4227
917.38	4291
917.491	4268
917.603	4348
917.715	4432
917.826	4474
917.938	4363
918.049	4276
918.161	4390
918.272	4542
918.384	4580
918.495	4428
918.606	4306
918.717	4265
918.828	4295
918.939	4329
919.05	4261
919.161	4337
919.272	4124
919.383	4253
919.494	4470
919.604	4596
919.715	4443
919.826	4371
919.936	4363
920.047	4519
920.157	4478
920.267	4793
920.378	4546
920.488	4504
920.598	4733
920.708	4862
920.818	4714
920.928	4725
921.038	4930
921.148	4930
921.258	4634
921.368	4584
921.477	4497
921.587	4474
921.697	4379
921.806	4588
921.916	4474
922.025	4268
922.134	4261
922.244	4219
922.353	4405
922.462	4215
922.571	4147
922.68	3991
922.789	3937
922.898	4044
923.007	3972
923.116	4082
923.224	4086
923.333	4071
923.442	3975
923.55	4010
923.659	4097
923.767	4105
923.876	3994
923.984	4131
924.092	3983
924.201	4055
924.309	4101
924.417	4131
924.525	4044
924.633	4082
924.741	4995
924.849	3896
924.956	4158
925.064	3949
925.172	3896
925.279	3972
925.387	4071
925.494	4013
925.602	4238
925.709	4158
925.816	4093
925.924	4101
926.031	4215
926.138	4169
926.245	4185
926.352	4097
926.459	4230
926.566	4287
926.673	4166
926.779	4097
926.886	4055
926.993	4002
927.099	3979
927.206	3960
927.312	3956
927.419	4029
927.525	4036
927.631	4067
927.737	3953
927.843	3937
927.95	3873
928.056	3983
928.162	3994
928.267	4082
928.373	4611
928.479	4112
928.585	3865
928.69	4017
928.796	4139
928.901	3987
929.007	3816
929.112	3987
929.218	3960
929.323	3949
929.428	3964
929.533	4131
929.638	3934
929.743	3937
929.848	4013
929.953	4002
930.058	3911
930.163	3800
930.267	3823
930.372	3979
930.477	3827
930.581	4097
930.685	3972
930.79	3835
930.894	3934
930.998	3865
931.103	4044
931.207	3713
931.311	3724
931.415	3663
931.519	3519
931.623	3553
