Data from test_V78500241_1787.txt Node
Date: Fri Mar 25 17:01:25 CST 2022
User: usil
Spectrometer: V785-0024
Trigger mode: 0
Integration Time (sec): 4.000000E-1
Scans to average: 1
Nonlinearity correction enabled: false
Boxcar width: 0
Storing dark spectrum: false
XAxis mode: Wavelengths
Number of Pixels in Spectrum: 1024
>>>>>Begin Spectral Data<<<<<
801.071	7989
801.214	8001
801.356	7906
801.499	7898
801.641	7776
801.783	7830
801.926	7951
802.068	8035
802.211	7932
802.353	7936
802.496	7898
802.638	7864
802.78	7890
802.923	8005
803.065	7898
803.208	7849
803.35	7932
803.492	8035
803.635	8138
803.777	8069
803.919	8134
804.061	8450
804.204	8119
804.346	8039
804.488	7963
804.63	8069
804.773	8031
804.915	8142
805.057	8263
805.199	8191
805.341	8271
805.483	8298
805.626	8237
805.768	8180
805.91	8210
806.052	8259
806.194	8062
806.336	8317
806.478	8130
806.62	8062
806.762	8149
806.904	8298
807.046	8507
807.188	8381
807.33	8279
807.472	8358
807.614	8199
807.756	8176
807.898	8062
808.04	7860
808.182	7913
808.324	7887
808.465	7936
808.607	8103
808.749	8134
808.891	8263
809.033	8320
809.174	8256
809.316	8134
809.458	8088
809.6	8088
809.741	8081
809.883	8054
810.025	8046
810.166	8092
810.308	8046
810.45	7974
810.591	7875
810.733	7734
810.875	7731
811.016	7556
811.158	7480
811.299	7578
811.441	7746
811.582	7620
811.724	7571
811.865	7590
812.007	7605
812.148	7578
812.29	7712
812.431	7750
812.573	7940
812.714	8008
812.855	8103
812.997	8206
813.138	8396
813.279	8202
813.421	8081
813.562	8012
813.703	7868
813.845	7727
813.986	7419
814.127	7293
814.268	7228
814.41	7282
814.551	7247
814.692	7179
814.833	7137
814.974	7133
815.115	7164
815.256	6939
815.397	6970
815.539	6970
815.68	6833
815.821	6795
815.962	6878
816.103	6818
816.244	6700
816.385	6635
816.526	6608
816.666	6521
816.807	6357
816.948	6456
817.089	6509
817.23	6391
817.371	6433
817.512	6418
817.653	6369
817.793	6380
817.934	6441
818.075	6418
818.216	6403
818.356	6426
818.497	6258
818.638	6186
818.778	6167
818.919	6133
819.06	6205
819.2	6346
819.341	6410
819.481	6376
819.622	6483
819.762	6757
819.903	6715
820.043	6589
820.184	6563
820.324	6642
820.465	6703
820.605	6665
820.746	6635
820.886	6540
821.026	6684
821.167	6700
821.307	6806
821.447	6810
821.588	6631
821.728	6555
821.868	6486
822.008	6331
822.149	6372
822.289	6327
822.429	6045
822.569	6121
822.709	6129
822.849	5961
822.99	5904
823.13	5965
823.27	5889
823.41	5817
823.55	5756
823.69	5783
823.83	5802
823.97	5707
824.11	5592
824.25	5497
824.389	5516
824.529	5570
824.669	5592
824.809	5619
824.949	5688
825.089	5630
825.228	5554
825.368	5379
825.508	5364
825.648	5334
825.787	5402
825.927	5402
826.067	5337
826.206	5326
826.346	5398
826.485	5379
826.625	5448
826.765	5535
826.904	5463
827.044	5288
827.183	5166
827.323	5136
827.462	5284
827.601	5174
827.741	5193
827.88	5242
828.02	5143
828.159	5216
828.298	5277
828.437	5364
828.577	5307
828.716	5524
828.855	5337
828.994	5185
829.134	5151
829.273	5155
829.412	5143
829.551	5170
829.69	5162
829.829	5280
829.968	5345
830.107	5284
830.246	5235
830.385	5201
830.524	5147
830.663	5079
830.802	4968
830.941	4847
831.08	4919
831.219	5014
831.357	4923
831.496	5128
831.635	4927
831.774	4862
831.913	4812
832.051	4759
832.19	4774
832.329	4911
832.467	4733
832.606	4645
832.744	4717
832.883	4790
833.022	4752
833.16	4797
833.299	4839
833.437	4831
833.576	4748
833.714	4850
833.852	4816
833.991	4873
834.129	4984
834.267	4972
834.406	4938
834.544	4968
834.682	4953
834.821	4957
834.959	5136
835.097	5022
835.235	5151
835.373	5090
835.511	5067
835.65	5060
835.788	5003
835.926	4839
836.064	4809
836.202	4911
836.34	5151
836.478	5204
836.615	5117
836.753	5223
836.891	5345
837.029	5246
837.167	5178
837.305	5185
837.443	5208
837.58	5067
837.718	5239
837.856	5185
837.993	5143
838.131	5204
838.269	5147
838.406	5189
838.544	5151
838.681	5048
838.819	5010
838.956	4900
839.094	4904
839.231	5018
839.369	5064
839.506	5406
839.643	5296
839.781	5098
839.918	4968
840.055	5086
840.193	5094
840.33	5143
840.467	5140
840.604	5197
840.742	5444
840.879	5094
841.016	5083
841.153	5151
841.29	5379
841.427	5357
841.564	5322
841.701	5391
841.838	5292
841.975	5197
842.112	5258
842.249	5136
842.385	5102
842.522	5372
842.659	5140
842.796	5174
842.933	5201
843.069	5170
843.206	5166
843.343	5269
843.479	5250
843.616	5246
843.752	5045
843.889	5006
844.025	5227
844.162	5045
844.298	5239
844.435	5067
844.571	4980
844.708	5258
844.844	5303
844.98	5307
845.117	5292
845.253	5220
845.389	5098
845.525	5178
845.661	5098
845.798	5060
845.934	5079
846.07	5056
846.206	5201
846.342	5307
846.478	5197
846.614	4995
846.75	4934
846.886	4961
847.022	5162
847.158	5006
847.294	5029
847.429	5143
847.565	5090
847.701	5303
847.837	4854
847.972	4850
848.108	4953
848.244	4930
848.379	4740
848.515	4736
848.65	4763
848.786	4763
848.921	4793
849.057	4877
849.192	4862
849.328	4801
849.463	4858
849.598	4767
849.734	4790
849.869	4736
850.004	4622
850.14	4668
850.275	4622
850.41	4523
850.545	4573
850.68	4550
850.815	4603
850.95	4641
851.085	4824
851.22	4752
851.355	4645
851.49	4634
851.625	4626
851.76	4653
851.895	4531
852.03	4542
852.165	4687
852.299	4736
852.434	4782
852.569	4763
852.703	4809
852.838	4873
852.973	4976
853.107	4927
853.242	4687
853.376	4683
853.511	4599
853.645	4584
853.78	4797
853.914	4706
854.048	4656
854.183	4618
854.317	4698
854.451	4847
854.585	4687
854.72	4615
854.854	4752
854.988	4634
855.122	4675
855.256	4573
855.39	4687
855.524	4759
855.658	4710
855.792	4656
855.926	4694
856.06	4729
856.194	4763
856.327	4702
856.461	4622
856.595	4603
856.729	4634
856.862	4725
856.996	4717
857.13	4740
857.263	4771
857.397	4820
857.53	4664
857.664	4759
857.797	4782
857.931	4812
858.064	4660
858.197	4786
858.331	4645
858.464	4637
858.597	4497
858.731	4645
858.864	4641
858.997	4573
859.13	4645
859.263	4664
859.396	4675
859.529	4618
859.662	4542
859.795	4535
859.928	4611
860.061	4752
860.194	4763
860.327	4611
860.46	4523
860.592	4698
860.725	4729
860.858	4733
860.99	4523
861.123	4512
861.256	4542
861.388	4607
861.521	5334
861.653	4455
861.786	4402
861.918	4459
862.05	4577
862.183	4554
862.315	4592
862.447	4645
862.58	4542
862.712	4424
862.844	4329
862.976	4508
863.108	4390
863.24	4858
863.372	4325
863.504	4436
863.636	4417
863.768	4470
863.9	4481
864.032	4363
864.164	4398
864.296	4470
864.428	4531
864.559	4565
864.691	4519
864.823	4542
864.954	4481
865.086	4493
865.217	4466
865.349	4375
865.48	4432
865.612	4485
865.743	4577
865.875	4508
866.006	4424
866.137	4451
866.269	4466
866.4	4443
866.531	4428
866.662	4413
866.793	4375
866.924	4436
867.055	4519
867.186	4474
867.317	4459
867.448	4363
867.579	4390
867.71	4367
867.841	4386
867.972	4474
868.103	4436
868.233	4417
868.364	4481
868.495	4516
868.625	4664
868.756	4744
868.886	4558
869.017	4626
869.147	4793
869.278	4790
869.408	4664
869.539	4649
869.669	4721
869.799	4637
869.929	4767
870.06	4706
870.19	4919
870.32	4885
870.45	4976
870.58	5029
870.71	5113
870.84	5045
870.97	4930
871.1	4873
871.23	5117
871.36	5094
871.489	5010
871.619	5056
871.749	5117
871.879	5143
872.008	5140
872.138	5041
872.267	4934
872.397	4900
872.526	4801
872.656	4748
872.785	4797
872.915	4953
873.044	4995
873.173	4953
873.303	4972
873.432	4946
873.561	4999
873.69	4870
873.819	4858
873.948	4923
874.077	4835
874.206	4786
874.335	4828
874.464	4938
874.593	5022
874.722	5006
874.851	5102
874.979	5075
875.108	5045
875.237	4881
875.365	4885
875.494	4870
875.623	4972
875.751	4831
875.88	4847
876.008	4976
876.136	5018
876.265	5239
876.393	5318
876.521	5193
876.65	5307
876.778	5185
876.906	5075
877.034	5048
877.162	5033
877.29	4991
877.418	5048
877.546	5033
877.674	5029
877.802	5006
877.93	5022
878.058	4915
878.185	4892
878.313	4904
878.441	4972
878.568	4755
878.696	4850
878.824	4927
878.951	5048
879.079	5151
879.206	5258
879.333	5064
879.461	4999
879.588	4961
879.715	5075
879.842	5254
879.97	4953
880.097	4759
880.224	4725
880.351	4801
880.478	4790
880.605	4812
880.732	4816
880.859	5102
880.986	4915
881.112	4938
881.239	4797
881.366	4694
881.493	4641
881.619	4603
881.746	4626
881.872	4645
881.999	4687
882.125	4698
882.252	4793
882.378	4858
882.505	4896
882.631	4812
882.757	4645
882.883	4694
883.01	4694
883.136	4675
883.262	4615
883.388	4599
883.514	4828
883.64	4900
883.766	4809
883.892	4679
884.018	4702
884.143	4870
884.269	4991
884.395	4668
884.52	4622
884.646	4691
884.772	4588
884.897	4546
885.023	4653
885.148	4824
885.274	4866
885.399	4790
885.524	4729
885.65	4710
885.775	4740
885.9	4729
886.025	4778
886.15	4809
886.275	4733
886.4	4653
886.525	4744
886.65	4748
886.775	4641
886.9	4885
887.025	5037
887.149	4759
887.274	4645
887.399	4512
887.523	4558
887.648	4580
887.773	4573
887.897	4805
888.021	4793
888.146	4630
888.27	4831
888.395	4904
888.519	4759
888.643	4797
888.767	4854
888.891	4706
889.015	4607
889.139	4634
889.263	4599
889.387	4714
889.511	4850
889.635	4778
889.759	4626
889.883	4618
890.006	4687
890.13	4843
890.254	4599
890.377	4698
890.501	4523
890.624	4519
890.748	4618
890.871	4455
890.995	4470
891.118	4379
891.241	4478
891.364	4531
891.488	4615
891.611	4447
891.734	4493
891.857	4634
891.98	4512
892.103	4656
892.226	4584
892.349	4527
892.471	4402
892.594	4542
892.717	4588
892.839	4584
892.962	4535
893.085	4596
893.207	4554
893.33	4421
893.452	4550
893.575	4679
893.697	4580
893.819	4816
893.941	4805
894.064	4771
894.186	4599
894.308	4558
894.43	4729
894.552	4820
894.674	4729
894.796	4565
894.918	4596
895.04	4519
895.161	4691
895.283	4637
895.405	4561
895.526	4653
895.648	4675
895.769	4683
895.891	4744
896.012	4729
896.134	4717
896.255	4706
896.376	4622
896.498	4618
896.619	4653
896.74	4607
896.861	4656
896.982	4946
897.103	5090
897.224	4828
897.345	4752
897.466	4622
897.587	4710
897.708	4847
897.828	4820
897.949	4645
898.07	4531
898.19	4653
898.311	4812
898.431	4626
898.552	4736
898.672	4797
898.792	4824
898.913	4740
899.033	4607
899.153	4497
899.273	4436
899.393	4485
899.513	4512
899.633	4550
899.753	4542
899.873	4470
899.993	4554
900.113	4485
900.232	4596
900.352	4542
900.472	4535
900.591	4436
900.711	4466
900.83	4447
900.95	4577
901.069	4740
901.189	4531
901.308	4337
901.427	4303
901.546	4386
901.665	4436
901.784	4527
901.904	4383
902.023	4337
902.141	4162
902.26	4204
902.379	4310
902.498	4211
902.617	4261
902.735	4356
902.854	4390
902.973	4356
903.091	4177
903.21	4204
903.328	4318
903.446	4280
903.565	4280
903.683	4344
903.801	4272
903.919	4398
904.038	4432
904.156	4261
904.274	4451
904.392	4424
904.51	4421
904.627	4504
904.745	4561
904.863	4649
904.981	4390
905.098	4337
905.216	4363
905.334	4462
905.451	4455
905.569	4421
905.686	4554
905.803	4561
905.921	4394
906.038	4561
906.155	4459
906.272	4417
906.389	4428
906.506	4356
906.623	4421
906.74	4417
906.857	4253
906.974	4386
907.091	4523
907.208	4740
907.324	4588
907.441	4504
907.557	4253
907.674	4386
907.79	4333
907.907	4360
908.023	4451
908.139	4481
908.256	4405
908.372	4447
908.488	4459
908.604	4325
908.72	4341
908.836	4348
908.952	4348
909.068	4409
909.184	4535
909.3	4478
909.415	4626
909.531	4546
909.647	4360
909.762	4447
909.878	4333
909.993	4421
910.108	4436
910.224	4360
910.339	4478
910.454	4443
910.57	4325
910.685	4318
910.8	4645
910.915	4607
911.03	4497
911.145	4329
911.259	4348
911.374	4352
911.489	4284
911.604	4291
911.718	4169
911.833	4188
911.947	4048
912.062	4017
912.176	4223
912.291	4272
912.405	4287
912.519	4436
912.633	4523
912.748	4367
912.862	4287
912.976	4204
913.09	4055
913.204	4143
913.318	4249
913.431	4394
913.545	4348
913.659	4421
913.772	4329
913.886	4249
914	4185
914.113	4333
914.226	4440
914.34	4360
914.453	4211
914.566	4421
914.68	4280
914.793	4352
914.906	4147
915.019	4048
915.132	4097
915.245	4166
915.358	4207
915.47	4261
915.583	4284
915.696	4291
915.809	4375
915.921	4390
916.034	4261
916.146	4249
916.259	4230
916.371	4383
916.483	4394
916.595	4268
916.708	4352
916.82	4287
916.932	4325
917.044	4291
917.156	4314
917.268	4227
917.38	4249
917.491	4268
917.603	4318
917.715	4390
917.826	4447
917.938	4341
918.049	4215
918.161	4398
918.272	4542
918.384	4504
918.495	4466
918.606	4272
918.717	4268
918.828	4310
918.939	4390
919.05	4204
919.161	4322
919.272	4139
919.383	4238
919.494	4466
919.604	4618
919.715	4402
919.826	4318
919.936	4386
920.047	4588
920.157	4443
920.267	4653
920.378	4523
920.488	4474
920.598	4679
920.708	4908
920.818	4771
920.928	4748
921.038	4927
921.148	4892
921.258	4588
921.368	4558
921.477	4474
921.587	4428
921.697	4383
921.806	4565
921.916	4421
922.025	4291
922.134	4287
922.244	4246
922.353	4360
922.462	4097
922.571	4150
922.68	4002
922.789	3972
922.898	4032
923.007	3979
923.116	4131
923.224	4029
923.333	4074
923.442	3987
923.55	3991
923.659	4029
923.767	4116
923.876	4010
923.984	4097
924.092	4025
924.201	4040
924.309	4082
924.417	4109
924.525	4025
924.633	4097
924.741	5086
924.849	3937
924.956	4090
925.064	3937
925.172	3960
925.279	3964
925.387	4055
925.494	4013
925.602	4196
925.709	4196
925.816	4032
925.924	4074
926.031	4204
926.138	4158
926.245	4207
926.352	4067
926.459	4246
926.566	4310
926.673	4158
926.779	4086
926.886	4078
926.993	3964
927.099	3960
927.206	3918
927.312	3922
927.419	4059
927.525	4021
927.631	4063
927.737	3964
927.843	3960
927.95	3812
928.056	3956
928.162	4029
928.267	4078
928.373	4599
928.479	4128
928.585	3888
928.69	4006
928.796	4055
928.901	3972
929.007	3842
929.112	4013
929.218	3987
929.323	3968
929.428	3926
929.533	4093
929.638	3922
929.743	3922
929.848	4067
929.953	4010
930.058	3926
930.163	3823
930.267	3816
930.372	3983
930.477	3793
930.581	4120
930.685	3968
930.79	3842
930.894	3888
930.998	3865
931.103	4025
931.207	3724
931.311	3774
931.415	3682
931.519	3534
931.623	3534
