Data from test_V78500241_2454.txt Node
Date: Fri Mar 25 17:06:03 CST 2022
User: usil
Spectrometer: V785-0024
Trigger mode: 0
Integration Time (sec): 4.000000E-1
Scans to average: 1
Nonlinearity correction enabled: false
Boxcar width: 0
Storing dark spectrum: false
XAxis mode: Wavelengths
Number of Pixels in Spectrum: 1024
>>>>>Begin Spectral Data<<<<<
801.071	8012
801.214	8027
801.356	7944
801.499	7761
801.641	7753
801.783	7792
801.926	7982
802.068	7967
802.211	8024
802.353	8027
802.496	7742
802.638	7837
802.78	7894
802.923	7837
803.065	7894
803.208	7822
803.35	7997
803.492	8069
803.635	8138
803.777	7974
803.919	8142
804.061	8442
804.204	8199
804.346	8088
804.488	8008
804.63	8092
804.773	8039
804.915	8062
805.057	8320
805.199	8123
805.341	8164
805.483	8339
805.626	8286
805.768	8176
805.91	8233
806.052	8214
806.194	8100
806.336	8305
806.478	8134
806.62	8069
806.762	8088
806.904	8180
807.046	8419
807.188	8370
807.33	8259
807.472	8355
807.614	8210
807.756	8161
807.898	8039
808.04	7906
808.182	7928
808.324	7928
808.465	7898
808.607	8065
808.749	8096
808.891	8267
809.033	8324
809.174	8218
809.316	8081
809.458	8100
809.6	7989
809.741	8073
809.883	8005
810.025	8050
810.166	8134
810.308	8035
810.45	7997
810.591	7852
810.733	7719
810.875	7666
811.016	7525
811.158	7506
811.299	7586
811.441	7753
811.582	7620
811.724	7575
811.865	7597
812.007	7559
812.148	7510
812.29	7647
812.431	7693
812.573	7822
812.714	7989
812.855	8046
812.997	8221
813.138	8309
813.279	8145
813.421	8096
813.562	7974
813.703	7811
813.845	7814
813.986	7441
814.127	7247
814.268	7232
814.41	7217
814.551	7244
814.692	7221
814.833	7145
814.974	7110
815.115	7129
815.256	6920
815.397	6924
815.539	6989
815.68	6848
815.821	6753
815.962	6890
816.103	6798
816.244	6658
816.385	6627
816.526	6639
816.666	6506
816.807	6273
816.948	6448
817.089	6521
817.23	6418
817.371	6452
817.512	6391
817.653	6429
817.793	6300
817.934	6448
818.075	6464
818.216	6399
818.356	6407
818.497	6239
818.638	6079
818.778	6216
818.919	6152
819.06	6159
819.2	6308
819.341	6319
819.481	6372
819.622	6578
819.762	6722
819.903	6734
820.043	6681
820.184	6658
820.324	6604
820.465	6741
820.605	6677
820.746	6681
820.886	6532
821.026	6696
821.167	6681
821.307	6818
821.447	6818
821.588	6635
821.728	6563
821.868	6494
822.008	6281
822.149	6418
822.289	6327
822.429	6163
822.569	6159
822.709	6121
822.849	5935
822.99	5916
823.13	5923
823.27	5931
823.41	5813
823.55	5805
823.69	5764
823.83	5745
823.97	5676
824.11	5539
824.25	5554
824.389	5577
824.529	5551
824.669	5471
824.809	5611
824.949	5680
825.089	5638
825.228	5573
825.368	5436
825.508	5299
825.648	5334
825.787	5372
825.927	5398
826.067	5315
826.206	5311
826.346	5364
826.485	5376
826.625	5395
826.765	5600
826.904	5509
827.044	5254
827.183	5220
827.323	5174
827.462	5239
827.601	5155
827.741	5151
827.88	5189
828.02	5136
828.159	5220
828.298	5288
828.437	5368
828.577	5318
828.716	5436
828.855	5330
828.994	5204
829.134	5185
829.273	5204
829.412	5155
829.551	5136
829.69	5181
829.829	5246
829.968	5406
830.107	5204
830.246	5326
830.385	5220
830.524	5109
830.663	5056
830.802	4991
830.941	4938
831.08	4866
831.219	5025
831.357	4946
831.496	5166
831.635	4923
831.774	4782
831.913	4854
832.051	4721
832.19	4733
832.329	4801
832.467	4721
832.606	4622
832.744	4740
832.883	4725
833.022	4805
833.16	4801
833.299	4839
833.437	4816
833.576	4809
833.714	4885
833.852	4858
833.991	4930
834.129	4984
834.267	4972
834.406	4930
834.544	4972
834.682	4957
834.821	4980
834.959	5109
835.097	4938
835.235	5151
835.373	5102
835.511	5132
835.65	5048
835.788	5025
835.926	4877
836.064	4927
836.202	4927
836.34	5189
836.478	5231
836.615	5174
836.753	5216
836.891	5299
837.029	5273
837.167	5181
837.305	5151
837.443	5166
837.58	5113
837.718	5261
837.856	5223
837.993	5162
838.131	5189
838.269	5220
838.406	5216
838.544	5181
838.681	5014
838.819	4968
838.956	4908
839.094	4843
839.231	5014
839.369	5105
839.506	5512
839.643	5296
839.781	5079
839.918	5025
840.055	5010
840.193	5071
840.33	5067
840.467	5159
840.604	5185
840.742	5452
840.879	5121
841.016	5086
841.153	5140
841.29	5364
841.427	5334
841.564	5330
841.701	5364
841.838	5288
841.975	5223
842.112	5254
842.249	5151
842.385	5121
842.522	5326
842.659	5170
842.796	5098
842.933	5216
843.069	5170
843.206	5136
843.343	5250
843.479	5223
843.616	5288
843.752	5006
843.889	5029
844.025	5261
844.162	5041
844.298	5265
844.435	5064
844.571	5071
844.708	5174
844.844	5318
844.98	5402
845.117	5303
845.253	5117
845.389	5121
845.525	5109
845.661	5143
845.798	5071
845.934	5102
846.07	5064
846.206	5216
846.342	5284
846.478	5201
846.614	5079
846.75	4972
846.886	4965
847.022	5143
847.158	5045
847.294	5025
847.429	5140
847.565	5064
847.701	5318
847.837	4892
847.972	4828
848.108	4987
848.244	4965
848.379	4790
848.515	4725
848.65	4698
848.786	4771
848.921	4786
849.057	4885
849.192	4900
849.328	4797
849.463	4873
849.598	4824
849.734	4812
849.869	4717
850.004	4664
850.14	4675
850.275	4592
850.41	4523
850.545	4569
850.68	4538
850.815	4634
850.95	4660
851.085	4858
851.22	4725
851.355	4675
851.49	4611
851.625	4660
851.76	4630
851.895	4565
852.03	4497
852.165	4630
852.299	4763
852.434	4790
852.569	4736
852.703	4767
852.838	4850
852.973	4923
853.107	4896
853.242	4729
853.376	4656
853.511	4535
853.645	4607
853.78	4809
853.914	4660
854.048	4626
854.183	4660
854.317	4702
854.451	4854
854.585	4656
854.72	4630
854.854	4733
854.988	4626
855.122	4618
855.256	4523
855.39	4702
855.524	4774
855.658	4721
855.792	4698
855.926	4736
856.06	4767
856.194	4828
856.327	4683
856.461	4580
856.595	4634
856.729	4656
856.862	4767
856.996	4645
857.13	4763
857.263	4755
857.397	4797
857.53	4596
857.664	4672
857.797	4759
857.931	4759
858.064	4702
858.197	4793
858.331	4691
858.464	4588
858.597	4546
858.731	4645
858.864	4649
858.997	4622
859.13	4683
859.263	4706
859.396	4725
859.529	4630
859.662	4554
859.795	4535
859.928	4626
860.061	4797
860.194	4771
860.327	4637
860.46	4523
860.592	4740
860.725	4721
860.858	4702
860.99	4603
861.123	4561
861.256	4531
861.388	4573
861.521	5349
861.653	4489
861.786	4421
861.918	4478
862.05	4512
862.183	4550
862.315	4641
862.447	4691
862.58	4561
862.712	4394
862.844	4310
862.976	4462
863.108	4470
863.24	4736
863.372	4360
863.504	4405
863.636	4409
863.768	4459
863.9	4424
864.032	4383
864.164	4474
864.296	4466
864.428	4603
864.559	4542
864.691	4504
864.823	4493
864.954	4512
865.086	4497
865.217	4466
865.349	4424
865.48	4489
865.612	4497
865.743	4596
865.875	4459
866.006	4405
866.137	4432
866.269	4455
866.4	4478
866.531	4402
866.662	4409
866.793	4405
866.924	4424
867.055	4493
867.186	4466
867.317	4398
867.448	4344
867.579	4402
867.71	4398
867.841	4352
867.972	4497
868.103	4436
868.233	4421
868.364	4428
868.495	4447
868.625	4645
868.756	4748
868.886	4538
869.017	4588
869.147	4805
869.278	4782
869.408	4679
869.539	4649
869.669	4706
869.799	4653
869.929	4725
870.06	4752
870.19	4980
870.32	4930
870.45	4961
870.58	5029
870.71	5136
870.84	5064
870.97	4934
871.1	4889
871.23	5147
871.36	5143
871.489	5006
871.619	5075
871.749	5090
871.879	5147
872.008	5147
872.138	5083
872.267	4972
872.397	4873
872.526	4809
872.656	4714
872.785	4843
872.915	4938
873.044	5064
873.173	4938
873.303	4972
873.432	4934
873.561	4949
873.69	4881
873.819	4877
873.948	4904
874.077	4870
874.206	4759
874.335	4820
874.464	4873
874.593	5056
874.722	5003
874.851	5140
874.979	5048
875.108	4984
875.237	4965
875.365	4835
875.494	4927
875.623	4972
875.751	4839
875.88	4892
876.008	4991
876.136	5033
876.265	5178
876.393	5296
876.521	5258
876.65	5204
876.778	5162
876.906	5060
877.034	5060
877.162	5064
877.29	5014
877.418	5006
877.546	5048
877.674	5052
877.802	5033
877.93	4999
878.058	4965
878.185	4896
878.313	4904
878.441	4915
878.568	4831
878.696	4885
878.824	4949
878.951	5018
879.079	5105
879.206	5273
879.333	5121
879.461	4972
879.588	5060
879.715	5136
879.842	5204
879.97	5041
880.097	4816
880.224	4733
880.351	4801
880.478	4873
880.605	4790
880.732	4797
880.859	5113
880.986	4904
881.112	4904
881.239	4755
881.366	4675
881.493	4588
881.619	4588
881.746	4641
881.872	4664
881.999	4691
882.125	4668
882.252	4843
882.378	4847
882.505	4938
882.631	4774
882.757	4679
882.883	4664
883.01	4706
883.136	4694
883.262	4592
883.388	4611
883.514	4755
883.64	4896
883.766	4782
883.892	4664
884.018	4729
884.143	4885
884.269	4972
884.395	4645
884.52	4622
884.646	4649
884.772	4580
884.897	4512
885.023	4664
885.148	4816
885.274	4862
885.399	4816
885.524	4672
885.65	4672
885.775	4793
885.9	4725
886.025	4873
886.15	4774
886.275	4729
886.4	4645
886.525	4740
886.65	4664
886.775	4664
886.9	4915
887.025	5067
887.149	4828
887.274	4672
887.399	4580
887.523	4607
887.648	4599
887.773	4607
887.897	4714
888.021	4778
888.146	4725
888.27	4824
888.395	4923
888.519	4809
888.643	4835
888.767	4831
888.891	4675
889.015	4584
889.139	4645
889.263	4630
889.387	4816
889.511	4850
889.635	4812
889.759	4603
889.883	4603
890.006	4691
890.13	4828
890.254	4626
890.377	4668
890.501	4535
890.624	4531
890.748	4664
890.871	4542
890.995	4459
891.118	4413
891.241	4523
891.364	4527
891.488	4596
891.611	4512
891.734	4504
891.857	4599
891.98	4542
892.103	4649
892.226	4580
892.349	4538
892.471	4447
892.594	4550
892.717	4554
892.839	4542
892.962	4622
893.085	4664
893.207	4577
893.33	4394
893.452	4481
893.575	4664
893.697	4573
893.819	4816
893.941	4816
894.064	4774
894.186	4599
894.308	4599
894.43	4744
894.552	4805
894.674	4725
894.796	4527
894.918	4596
895.04	4573
895.161	4714
895.283	4656
895.405	4523
895.526	4656
895.648	4702
895.769	4664
895.891	4740
896.012	4729
896.134	4725
896.255	4687
896.376	4637
896.498	4641
896.619	4668
896.74	4607
896.861	4618
896.982	4889
897.103	5090
897.224	4839
897.345	4717
897.466	4656
897.587	4736
897.708	4831
897.828	4797
897.949	4702
898.07	4535
898.19	4656
898.311	4843
898.431	4679
898.552	4698
898.672	4839
898.792	4820
898.913	4729
899.033	4615
899.153	4508
899.273	4386
899.393	4527
899.513	4474
899.633	4546
899.753	4558
899.873	4500
899.993	4523
900.113	4580
900.232	4596
900.352	4569
900.472	4523
900.591	4367
900.711	4455
900.83	4462
900.95	4630
901.069	4694
901.189	4531
901.308	4325
901.427	4276
901.546	4455
901.665	4443
901.784	4485
901.904	4386
902.023	4295
902.141	4215
902.26	4158
902.379	4299
902.498	4227
902.617	4234
902.735	4367
902.854	4386
902.973	4325
903.091	4227
903.21	4204
903.328	4314
903.446	4242
903.565	4234
903.683	4299
903.801	4272
903.919	4421
904.038	4402
904.156	4291
904.274	4432
904.392	4409
904.51	4447
904.627	4470
904.745	4523
904.863	4611
904.981	4371
905.098	4314
905.216	4337
905.334	4436
905.451	4405
905.569	4443
905.686	4554
905.803	4554
905.921	4424
906.038	4535
906.155	4440
906.272	4371
906.389	4371
906.506	4337
906.623	4371
906.74	4367
906.857	4299
906.974	4314
907.091	4577
907.208	4641
907.324	4618
907.441	4455
907.557	4303
907.674	4367
907.79	4356
907.907	4402
908.023	4447
908.139	4474
908.256	4440
908.372	4447
908.488	4436
908.604	4390
908.72	4333
908.836	4398
908.952	4409
909.068	4440
909.184	4580
909.3	4466
909.415	4596
909.531	4569
909.647	4375
909.762	4379
909.878	4363
909.993	4451
910.108	4443
910.224	4470
910.339	4478
910.454	4394
910.57	4356
910.685	4306
910.8	4618
910.915	4573
911.03	4481
911.145	4367
911.259	4375
911.374	4371
911.489	4276
911.604	4272
911.718	4158
911.833	4192
911.947	4074
912.062	4059
912.176	4196
912.291	4192
912.405	4215
912.519	4462
912.633	4443
912.748	4356
912.862	4310
912.976	4215
913.09	4082
913.204	4215
913.318	4276
913.431	4424
913.545	4386
913.659	4402
913.772	4329
913.886	4257
914	4227
914.113	4386
914.226	4417
914.34	4371
914.453	4200
914.566	4455
914.68	4322
914.793	4329
914.906	4215
915.019	4131
915.132	4112
915.245	4204
915.358	4211
915.47	4249
915.583	4295
915.696	4303
915.809	4386
915.921	4432
916.034	4238
916.146	4249
916.259	4196
916.371	4386
916.483	4367
916.595	4257
916.708	4314
916.82	4333
916.932	4337
917.044	4352
917.156	4322
917.268	4223
917.38	4291
917.491	4253
917.603	4348
917.715	4436
917.826	4459
917.938	4299
918.049	4272
918.161	4386
918.272	4523
918.384	4512
918.495	4440
918.606	4310
918.717	4246
918.828	4367
918.939	4363
919.05	4265
919.161	4333
919.272	4154
919.383	4223
919.494	4421
919.604	4599
919.715	4440
919.826	4329
919.936	4356
920.047	4512
920.157	4523
920.267	4668
920.378	4546
920.488	4489
920.598	4740
920.708	4873
920.818	4782
920.928	4759
921.038	4957
921.148	4919
921.258	4630
921.368	4546
921.477	4500
921.587	4451
921.697	4356
921.806	4535
921.916	4379
922.025	4303
922.134	4318
922.244	4177
922.353	4337
922.462	4181
922.571	4128
922.68	3983
922.789	3998
922.898	4044
923.007	3964
923.116	4071
923.224	4006
923.333	4090
923.442	3975
923.55	3983
923.659	4055
923.767	4093
923.876	4029
923.984	4112
924.092	3991
924.201	4078
924.309	4063
924.417	4097
924.525	4063
924.633	4105
924.741	4995
924.849	3922
924.956	4101
925.064	3937
925.172	3922
925.279	3953
925.387	4032
925.494	4006
925.602	4177
925.709	4162
925.816	4029
925.924	4169
926.031	4238
926.138	4162
926.245	4192
926.352	4120
926.459	4230
926.566	4325
926.673	4192
926.779	4044
926.886	4093
926.993	3960
927.099	3960
927.206	3975
927.312	3918
927.419	4040
927.525	4017
927.631	4093
927.737	3945
927.843	3960
927.95	3854
928.056	3926
928.162	3994
928.267	4090
928.373	4714
928.479	4101
928.585	3876
928.69	3975
928.796	4074
928.901	3956
929.007	3838
929.112	4017
929.218	4002
929.323	3964
929.428	3899
929.533	4131
929.638	3888
929.743	3949
929.848	4032
929.953	4029
930.058	3941
930.163	3789
930.267	3842
930.372	3975
930.477	3808
930.581	4120
930.685	3960
930.79	3819
930.894	3857
930.998	3827
931.103	4013
931.207	3755
931.311	3698
931.415	3652
931.519	3545
931.623	3545
