Data from test_V78500241_1685.txt Node
Date: Fri Mar 25 17:00:43 CST 2022
User: usil
Spectrometer: V785-0024
Trigger mode: 0
Integration Time (sec): 4.000000E-1
Scans to average: 1
Nonlinearity correction enabled: false
Boxcar width: 0
Storing dark spectrum: false
XAxis mode: Wavelengths
Number of Pixels in Spectrum: 1024
>>>>>Begin Spectral Data<<<<<
801.071	8027
801.214	8001
801.356	7894
801.499	7833
801.641	7761
801.783	7841
801.926	7963
802.068	7967
802.211	7936
802.353	8031
802.496	7826
802.638	7830
802.78	7841
802.923	7871
803.065	7833
803.208	7811
803.35	7986
803.492	8084
803.635	8126
803.777	8024
803.919	8084
804.061	8404
804.204	8096
804.346	8035
804.488	7894
804.63	8046
804.773	8081
804.915	8126
805.057	8305
805.199	8134
805.341	8199
805.483	8271
805.626	8142
805.768	8123
805.91	8218
806.052	8248
806.194	8123
806.336	8317
806.478	8043
806.62	8054
806.762	8157
806.904	8298
807.046	8446
807.188	8351
807.33	8244
807.472	8328
807.614	8195
807.756	8123
807.898	7978
808.04	7807
808.182	7890
808.324	7883
808.465	7951
808.607	7997
808.749	8046
808.891	8210
809.033	8271
809.174	8252
809.316	8081
809.458	8008
809.6	7978
809.741	8043
809.883	8005
810.025	8100
810.166	8024
810.308	8027
810.45	7917
810.591	7795
810.733	7662
810.875	7658
811.016	7544
811.158	7415
811.299	7563
811.441	7662
811.582	7696
811.724	7548
811.865	7556
812.007	7578
812.148	7556
812.29	7575
812.431	7788
812.573	7864
812.714	7932
812.855	8123
812.997	8168
813.138	8286
813.279	8119
813.421	8008
813.562	7944
813.703	7814
813.845	7662
813.986	7430
814.127	7247
814.268	7228
814.41	7194
814.551	7156
814.692	7217
814.833	7061
814.974	7057
815.115	7145
815.256	7069
815.397	6924
815.539	6909
815.68	6802
815.821	6741
815.962	6806
816.103	6772
816.244	6711
816.385	6639
816.526	6601
816.666	6456
816.807	6300
816.948	6388
817.089	6464
817.23	6441
817.371	6350
817.512	6357
817.653	6380
817.793	6388
817.934	6369
818.075	6418
818.216	6395
818.356	6403
818.497	6254
818.638	6155
818.778	6087
818.919	6148
819.06	6133
819.2	6372
819.341	6315
819.481	6338
819.622	6486
819.762	6730
819.903	6696
820.043	6570
820.184	6559
820.324	6582
820.465	6726
820.605	6741
820.746	6642
820.886	6456
821.026	6642
821.167	6711
821.307	6757
821.447	6700
821.588	6627
821.728	6570
821.868	6551
822.008	6281
822.149	6384
822.289	6342
822.429	6110
822.569	6072
822.709	6110
822.849	5980
822.99	5904
823.13	5920
823.27	5946
823.41	5798
823.55	5821
823.69	5729
823.83	5741
823.97	5714
824.11	5539
824.25	5532
824.389	5539
824.529	5566
824.669	5543
824.809	5676
824.949	5684
825.089	5630
825.228	5585
825.368	5402
825.508	5364
825.648	5372
825.787	5395
825.927	5387
826.067	5273
826.206	5360
826.346	5417
826.485	5440
826.625	5459
826.765	5528
826.904	5493
827.044	5242
827.183	5220
827.323	5155
827.462	5246
827.601	5216
827.741	5242
827.88	5280
828.02	5166
828.159	5265
828.298	5345
828.437	5364
828.577	5265
828.716	5535
828.855	5349
828.994	5162
829.134	5212
829.273	5227
829.412	5143
829.551	5189
829.69	5178
829.829	5284
829.968	5372
830.107	5296
830.246	5292
830.385	5227
830.524	5204
830.663	5140
830.802	4984
830.941	4896
831.08	4904
831.219	5037
831.357	5003
831.496	5162
831.635	4946
831.774	4904
831.913	4889
832.051	4763
832.19	4778
832.329	4908
832.467	4797
832.606	4679
832.744	4755
832.883	4740
833.022	4752
833.16	4816
833.299	4870
833.437	4908
833.576	4839
833.714	4850
833.852	4911
833.991	4934
834.129	4987
834.267	4991
834.406	4980
834.544	4995
834.682	4991
834.821	4930
834.959	5239
835.097	5033
835.235	5151
835.373	5109
835.511	5113
835.65	5086
835.788	5060
835.926	4881
836.064	4938
836.202	4930
836.34	5181
836.478	5212
836.615	5174
836.753	5250
836.891	5250
837.029	5212
837.167	5254
837.305	5254
837.443	5178
837.58	5105
837.718	5280
837.856	5242
837.993	5159
838.131	5303
838.269	5288
838.406	5227
838.544	5223
838.681	5094
838.819	5041
838.956	4930
839.094	4942
839.231	5037
839.369	5143
839.506	5444
839.643	5345
839.781	5124
839.918	5045
840.055	5094
840.193	5083
840.33	5117
840.467	5162
840.604	5216
840.742	5452
840.879	5121
841.016	5124
841.153	5136
841.29	5414
841.427	5383
841.564	5303
841.701	5391
841.838	5277
841.975	5265
842.112	5303
842.249	5162
842.385	5136
842.522	5326
842.659	5258
842.796	5212
842.933	5246
843.069	5204
843.206	5212
843.343	5360
843.479	5223
843.616	5296
843.752	5064
843.889	5048
844.025	5292
844.162	5022
844.298	5284
844.435	5083
844.571	5090
844.708	5254
844.844	5250
844.98	5326
845.117	5315
845.253	5113
845.389	5121
845.525	5181
845.661	5181
845.798	5037
845.934	5170
846.07	5098
846.206	5231
846.342	5288
846.478	5166
846.614	5052
846.75	4995
846.886	4976
847.022	5178
847.158	5060
847.294	5090
847.429	5143
847.565	5075
847.701	5395
847.837	4896
847.972	4854
848.108	4957
848.244	4961
848.379	4744
848.515	4702
848.65	4740
848.786	4782
848.921	4786
849.057	4923
849.192	4942
849.328	4896
849.463	4870
849.598	4793
849.734	4774
849.869	4729
850.004	4637
850.14	4687
850.275	4596
850.41	4531
850.545	4554
850.68	4649
850.815	4645
850.95	4637
851.085	4850
851.22	4824
851.355	4675
851.49	4626
851.625	4649
851.76	4664
851.895	4580
852.03	4527
852.165	4702
852.299	4824
852.434	4820
852.569	4786
852.703	4820
852.838	4850
852.973	4957
853.107	4900
853.242	4752
853.376	4672
853.511	4565
853.645	4607
853.78	4805
853.914	4740
854.048	4710
854.183	4691
854.317	4725
854.451	4850
854.585	4679
854.72	4630
854.854	4752
854.988	4645
855.122	4634
855.256	4519
855.39	4717
855.524	4786
855.658	4733
855.792	4744
855.926	4771
856.06	4805
856.194	4797
856.327	4748
856.461	4626
856.595	4592
856.729	4641
856.862	4763
856.996	4733
857.13	4733
857.263	4816
857.397	4816
857.53	4664
857.664	4763
857.797	4797
857.931	4736
858.064	4729
858.197	4748
858.331	4679
858.464	4649
858.597	4569
858.731	4672
858.864	4668
858.997	4577
859.13	4694
859.263	4672
859.396	4752
859.529	4645
859.662	4546
859.795	4542
859.928	4653
860.061	4729
860.194	4790
860.327	4580
860.46	4596
860.592	4733
860.725	4736
860.858	4752
860.99	4653
861.123	4580
861.256	4550
861.388	4668
861.521	5444
861.653	4508
861.786	4443
861.918	4489
862.05	4588
862.183	4554
862.315	4634
862.447	4664
862.58	4603
862.712	4417
862.844	4363
862.976	4508
863.108	4508
863.24	4889
863.372	4363
863.504	4455
863.636	4424
863.768	4485
863.9	4466
864.032	4356
864.164	4421
864.296	4504
864.428	4535
864.559	4573
864.691	4584
864.823	4508
864.954	4455
865.086	4584
865.217	4470
865.349	4428
865.48	4470
865.612	4519
865.743	4679
865.875	4504
866.006	4466
866.137	4489
866.269	4459
866.4	4462
866.531	4413
866.662	4386
866.793	4390
866.924	4455
867.055	4512
867.186	4443
867.317	4390
867.448	4379
867.579	4405
867.71	4402
867.841	4394
867.972	4500
868.103	4443
868.233	4485
868.364	4489
868.495	4512
868.625	4637
868.756	4782
868.886	4554
869.017	4672
869.147	4767
869.278	4790
869.408	4679
869.539	4656
869.669	4744
869.799	4679
869.929	4763
870.06	4763
870.19	4961
870.32	4862
870.45	4957
870.58	5064
870.71	5117
870.84	5166
870.97	4938
871.1	4919
871.23	5143
871.36	5174
871.489	5060
871.619	5098
871.749	5121
871.879	5147
872.008	5216
872.138	5117
872.267	4934
872.397	4915
872.526	4831
872.656	4740
872.785	4843
872.915	4980
873.044	5014
873.173	4949
873.303	4919
873.432	4938
873.561	5075
873.69	4896
873.819	4881
873.948	4930
874.077	4854
874.206	4790
874.335	4835
874.464	4923
874.593	5045
874.722	5010
874.851	5121
874.979	5083
875.108	5022
875.237	4946
875.365	4908
875.494	4927
875.623	4938
875.751	4870
875.88	4850
876.008	4968
876.136	5064
876.265	5189
876.393	5311
876.521	5246
876.65	5269
876.778	5170
876.906	5102
877.034	5025
877.162	5029
877.29	4953
877.418	5090
877.546	5086
877.674	5105
877.802	5045
877.93	5064
878.058	4991
878.185	4946
878.313	4987
878.441	4942
878.568	4839
878.696	4885
878.824	4915
878.951	5037
879.079	5159
879.206	5277
879.333	5102
879.461	5006
879.588	4980
879.715	5162
879.842	5231
879.97	4991
880.097	4790
880.224	4740
880.351	4843
880.478	4793
880.605	4793
880.732	4790
880.859	5052
880.986	4870
881.112	4919
881.239	4801
881.366	4694
881.493	4679
881.619	4603
881.746	4645
881.872	4634
881.999	4645
882.125	4714
882.252	4839
882.378	4828
882.505	4949
882.631	4805
882.757	4694
882.883	4733
883.01	4763
883.136	4691
883.262	4603
883.388	4611
883.514	4839
883.64	4854
883.766	4786
883.892	4668
884.018	4752
884.143	4850
884.269	5033
884.395	4706
884.52	4694
884.646	4675
884.772	4550
884.897	4588
885.023	4668
885.148	4767
885.274	4873
885.399	4805
885.524	4767
885.65	4706
885.775	4809
885.9	4698
886.025	4889
886.15	4816
886.275	4725
886.4	4672
886.525	4744
886.65	4691
886.775	4717
886.9	4900
887.025	4999
887.149	4805
887.274	4683
887.399	4615
887.523	4618
887.648	4615
887.773	4603
887.897	4774
888.021	4763
888.146	4714
888.27	4831
888.395	4904
888.519	4801
888.643	4797
888.767	4843
888.891	4740
889.015	4607
889.139	4687
889.263	4641
889.387	4763
889.511	4877
889.635	4805
889.759	4679
889.883	4679
890.006	4752
890.13	4816
890.254	4618
890.377	4675
890.501	4542
890.624	4538
890.748	4634
890.871	4474
890.995	4470
891.118	4417
891.241	4508
891.364	4523
891.488	4588
891.611	4512
891.734	4558
891.857	4611
891.98	4531
892.103	4656
892.226	4588
892.349	4500
892.471	4390
892.594	4516
892.717	4599
892.839	4580
892.962	4603
893.085	4687
893.207	4637
893.33	4516
893.452	4523
893.575	4645
893.697	4588
893.819	4816
893.941	4831
894.064	4736
894.186	4611
894.308	4554
894.43	4759
894.552	4801
894.674	4763
894.796	4569
894.918	4618
895.04	4588
895.161	4725
895.283	4634
895.405	4607
895.526	4615
895.648	4691
895.769	4710
895.891	4744
896.012	4767
896.134	4710
896.255	4679
896.376	4615
896.498	4622
896.619	4698
896.74	4615
896.861	4645
896.982	4927
897.103	5029
897.224	4850
897.345	4759
897.466	4691
897.587	4717
897.708	4877
897.828	4793
897.949	4710
898.07	4596
898.19	4637
898.311	4820
898.431	4687
898.552	4786
898.672	4790
898.792	4790
898.913	4786
899.033	4596
899.153	4550
899.273	4417
899.393	4531
899.513	4569
899.633	4538
899.753	4550
899.873	4493
899.993	4577
900.113	4565
900.232	4577
900.352	4500
900.472	4474
900.591	4383
900.711	4470
900.83	4451
900.95	4637
901.069	4683
901.189	4542
901.308	4360
901.427	4280
901.546	4356
901.665	4478
901.784	4474
901.904	4344
902.023	4337
902.141	4238
902.26	4124
902.379	4291
902.498	4249
902.617	4261
902.735	4398
902.854	4455
902.973	4325
903.091	4219
903.21	4223
903.328	4314
903.446	4268
903.565	4230
903.683	4291
903.801	4265
903.919	4424
904.038	4466
904.156	4325
904.274	4432
904.392	4405
904.51	4383
904.627	4497
904.745	4550
904.863	4668
904.981	4390
905.098	4329
905.216	4360
905.334	4413
905.451	4462
905.569	4440
905.686	4542
905.803	4538
905.921	4462
906.038	4561
906.155	4500
906.272	4497
906.389	4451
906.506	4356
906.623	4371
906.74	4360
906.857	4276
906.974	4375
907.091	4538
907.208	4721
907.324	4626
907.441	4493
907.557	4341
907.674	4356
907.79	4287
907.907	4379
908.023	4478
908.139	4489
908.256	4447
908.372	4489
908.488	4462
908.604	4352
908.72	4360
908.836	4325
908.952	4367
909.068	4405
909.184	4592
909.3	4489
909.415	4611
909.531	4527
909.647	4402
909.762	4421
909.878	4306
909.993	4459
910.108	4478
910.224	4390
910.339	4493
910.454	4447
910.57	4360
910.685	4344
910.8	4649
910.915	4611
911.03	4497
911.145	4329
911.259	4318
911.374	4310
911.489	4310
911.604	4280
911.718	4211
911.833	4200
911.947	4059
912.062	4032
912.176	4223
912.291	4242
912.405	4314
912.519	4455
912.633	4466
912.748	4383
912.862	4363
912.976	4215
913.09	4116
913.204	4192
913.318	4227
913.431	4398
913.545	4390
913.659	4417
913.772	4356
913.886	4249
914	4181
914.113	4428
914.226	4447
914.34	4344
914.453	4200
914.566	4436
914.68	4284
914.793	4299
914.906	4158
915.019	4139
915.132	4082
915.245	4185
915.358	4234
915.47	4234
915.583	4272
915.696	4295
915.809	4462
915.921	4428
916.034	4280
916.146	4265
916.259	4200
916.371	4371
916.483	4348
916.595	4265
916.708	4310
916.82	4325
916.932	4299
917.044	4341
917.156	4333
917.268	4215
917.38	4230
917.491	4303
917.603	4310
917.715	4459
917.826	4421
917.938	4314
918.049	4234
918.161	4432
918.272	4535
918.384	4512
918.495	4440
918.606	4322
918.717	4246
918.828	4299
918.939	4394
919.05	4242
919.161	4291
919.272	4120
919.383	4207
919.494	4451
919.604	4618
919.715	4413
919.826	4348
919.936	4367
920.047	4493
920.157	4508
920.267	4740
920.378	4493
920.488	4459
920.598	4733
920.708	4919
920.818	4748
920.928	4805
921.038	4927
921.148	4946
921.258	4641
921.368	4592
921.477	4516
921.587	4443
921.697	4386
921.806	4573
921.916	4402
922.025	4242
922.134	4242
922.244	4227
922.353	4306
922.462	4207
922.571	4150
922.68	4032
922.789	3945
922.898	4051
923.007	3994
923.116	4055
923.224	4086
923.333	4078
923.442	3945
923.55	3983
923.659	4074
923.767	4112
923.876	3979
923.984	4116
924.092	3983
924.201	4059
924.309	4093
924.417	4109
924.525	4044
924.633	4097
924.741	4919
924.849	3907
924.956	4139
925.064	3998
925.172	3911
925.279	3922
925.387	4055
925.494	3994
925.602	4188
925.709	4150
925.816	4078
925.924	4154
926.031	4284
926.138	4143
926.245	4207
926.352	4124
926.459	4211
926.566	4299
926.673	4185
926.779	4128
926.886	4086
926.993	3968
927.099	3979
927.206	3937
927.312	3960
927.419	4048
927.525	4025
927.631	4082
927.737	3964
927.843	3960
927.95	3827
928.056	3953
928.162	4010
928.267	4086
928.373	4694
928.479	4097
928.585	3869
928.69	4040
928.796	4082
928.901	3983
929.007	3873
929.112	4040
929.218	3987
929.323	3903
929.428	3964
929.533	4139
929.638	3934
929.743	3937
929.848	4063
929.953	3983
930.058	3896
930.163	3774
930.267	3873
930.372	3975
930.477	3778
930.581	4078
930.685	3930
930.79	3865
930.894	3903
930.998	3846
931.103	4063
931.207	3724
931.311	3705
931.415	3675
931.519	3595
931.623	3492
