Data from test_V78500241_1349.txt Node
Date: Fri Mar 25 16:58:22 CST 2022
User: usil
Spectrometer: V785-0024
Trigger mode: 0
Integration Time (sec): 4.000000E-1
Scans to average: 1
Nonlinearity correction enabled: false
Boxcar width: 0
Storing dark spectrum: false
XAxis mode: Wavelengths
Number of Pixels in Spectrum: 1024
>>>>>Begin Spectral Data<<<<<
801.071	8035
801.214	8035
801.356	7909
801.499	7871
801.641	7792
801.783	7833
801.926	7967
802.068	7940
802.211	7974
802.353	8024
802.496	7822
802.638	7852
802.78	7947
802.923	7917
803.065	7887
803.208	7822
803.35	7993
803.492	8100
803.635	8161
803.777	8107
803.919	8142
804.061	8396
804.204	8206
804.346	8005
804.488	7986
804.63	8103
804.773	8058
804.915	8164
805.057	8320
805.199	8180
805.341	8218
805.483	8328
805.626	8275
805.768	8183
805.91	8225
806.052	8191
806.194	8065
806.336	8187
806.478	8100
806.62	8065
806.762	8119
806.904	8279
807.046	8556
807.188	8377
807.33	8343
807.472	8328
807.614	8206
807.756	8191
807.898	8050
808.04	7940
808.182	7887
808.324	7898
808.465	7906
808.607	8092
808.749	8153
808.891	8225
809.033	8279
809.174	8267
809.316	8130
809.458	8016
809.6	7955
809.741	8024
809.883	7978
810.025	8100
810.166	8077
810.308	8005
810.45	8081
810.591	7890
810.733	7811
810.875	7662
811.016	7613
811.158	7472
811.299	7624
811.441	7666
811.582	7674
811.724	7586
811.865	7552
812.007	7628
812.148	7575
812.29	7613
812.431	7753
812.573	7894
812.714	7993
812.855	8081
812.997	8168
813.138	8301
813.279	8191
813.421	8195
813.562	8035
813.703	7860
813.845	7738
813.986	7419
814.127	7206
814.268	7221
814.41	7168
814.551	7175
814.692	7232
814.833	7072
814.974	7057
815.115	7133
815.256	7012
815.397	6894
815.539	6943
815.68	6878
815.821	6798
815.962	6829
816.103	6848
816.244	6772
816.385	6608
816.526	6642
816.666	6479
816.807	6319
816.948	6452
817.089	6452
817.23	6441
817.371	6399
817.512	6437
817.653	6399
817.793	6346
817.934	6414
818.075	6494
818.216	6467
818.356	6448
818.497	6254
818.638	6152
818.778	6216
818.919	6102
819.06	6129
819.2	6319
819.341	6369
819.481	6380
819.622	6544
819.762	6745
819.903	6738
820.043	6597
820.184	6601
820.324	6540
820.465	6730
820.605	6681
820.746	6658
820.886	6509
821.026	6635
821.167	6715
821.307	6749
821.447	6749
821.588	6623
821.728	6623
821.868	6544
822.008	6304
822.149	6350
822.289	6369
822.429	6171
822.569	6019
822.709	6106
822.849	5942
822.99	5904
823.13	5973
823.27	5893
823.41	5840
823.55	5771
823.69	5767
823.83	5809
823.97	5672
824.11	5585
824.25	5482
824.389	5501
824.529	5627
824.669	5505
824.809	5642
824.949	5649
825.089	5585
825.228	5585
825.368	5421
825.508	5296
825.648	5364
825.787	5395
825.927	5353
826.067	5322
826.206	5277
826.346	5337
826.485	5402
826.625	5433
826.765	5570
826.904	5448
827.044	5292
827.183	5292
827.323	5102
827.462	5246
827.601	5174
827.741	5254
827.88	5223
828.02	5128
828.159	5280
828.298	5337
828.437	5429
828.577	5220
828.716	5490
828.855	5349
828.994	5151
829.134	5136
829.273	5166
829.412	5166
829.551	5136
829.69	5185
829.829	5239
829.968	5360
830.107	5250
830.246	5284
830.385	5178
830.524	5124
830.663	5090
830.802	4991
830.941	4896
831.08	4896
831.219	5003
831.357	4930
831.496	5140
831.635	4942
831.774	4831
831.913	4904
832.051	4752
832.19	4733
832.329	4816
832.467	4694
832.606	4683
832.744	4744
832.883	4702
833.022	4721
833.16	4782
833.299	4782
833.437	4824
833.576	4843
833.714	4862
833.852	4839
833.991	4892
834.129	4946
834.267	4930
834.406	4938
834.544	5010
834.682	4984
834.821	4984
834.959	5155
835.097	4976
835.235	5117
835.373	5048
835.511	5124
835.65	5003
835.788	5003
835.926	4889
836.064	4877
836.202	4930
836.34	5155
836.478	5246
836.615	5086
836.753	5155
836.891	5269
837.029	5220
837.167	5223
837.305	5151
837.443	5136
837.58	5052
837.718	5246
837.856	5239
837.993	5128
838.131	5246
838.269	5239
838.406	5178
838.544	5231
838.681	5033
838.819	5003
838.956	4911
839.094	4904
839.231	4946
839.369	5079
839.506	5395
839.643	5231
839.781	5071
839.918	5006
840.055	5128
840.193	5128
840.33	5151
840.467	5208
840.604	5159
840.742	5429
840.879	5056
841.016	5090
841.153	5140
841.29	5372
841.427	5337
841.564	5322
841.701	5376
841.838	5269
841.975	5223
842.112	5269
842.249	5143
842.385	5117
842.522	5318
842.659	5201
842.796	5193
842.933	5201
843.069	5140
843.206	5193
843.343	5280
843.479	5227
843.616	5265
843.752	5045
843.889	5010
844.025	5242
844.162	5045
844.298	5239
844.435	5094
844.571	5048
844.708	5204
844.844	5303
844.98	5277
845.117	5284
845.253	5117
845.389	5071
845.525	5159
845.661	5159
845.798	4968
845.934	5132
846.07	5033
846.206	5162
846.342	5337
846.478	5159
846.614	5033
846.75	4957
846.886	5010
847.022	5102
847.158	5041
847.294	5079
847.429	5121
847.565	5048
847.701	5360
847.837	4843
847.972	4752
848.108	4930
848.244	4873
848.379	4740
848.515	4714
848.65	4698
848.786	4729
848.921	4774
849.057	4923
849.192	4896
849.328	4790
849.463	4843
849.598	4778
849.734	4782
849.869	4691
850.004	4622
850.14	4656
850.275	4641
850.41	4558
850.545	4573
850.68	4626
850.815	4592
850.95	4615
851.085	4850
851.22	4744
851.355	4717
851.49	4588
851.625	4645
851.76	4634
851.895	4550
852.03	4519
852.165	4687
852.299	4664
852.434	4793
852.569	4767
852.703	4763
852.838	4839
852.973	4991
853.107	4892
853.242	4759
853.376	4626
853.511	4607
853.645	4615
853.78	4752
853.914	4717
854.048	4656
854.183	4649
854.317	4679
854.451	4839
854.585	4668
854.72	4630
854.854	4778
854.988	4577
855.122	4607
855.256	4512
855.39	4714
855.524	4763
855.658	4721
855.792	4687
855.926	4790
856.06	4771
856.194	4812
856.327	4702
856.461	4618
856.595	4691
856.729	4615
856.862	4706
856.996	4706
857.13	4748
857.263	4717
857.397	4793
857.53	4611
857.664	4698
857.797	4729
857.931	4824
858.064	4706
858.197	4729
858.331	4672
858.464	4611
858.597	4519
858.731	4649
858.864	4641
858.997	4573
859.13	4683
859.263	4637
859.396	4694
859.529	4577
859.662	4588
859.795	4565
859.928	4634
860.061	4763
860.194	4820
860.327	4596
860.46	4527
860.592	4694
860.725	4740
860.858	4752
860.99	4580
861.123	4558
861.256	4531
861.388	4634
861.521	5330
861.653	4500
861.786	4440
861.918	4478
862.05	4516
862.183	4569
862.315	4611
862.447	4649
862.58	4527
862.712	4402
862.844	4337
862.976	4538
863.108	4462
863.24	4900
863.372	4314
863.504	4432
863.636	4379
863.768	4443
863.9	4405
864.032	4390
864.164	4394
864.296	4447
864.428	4546
864.559	4512
864.691	4542
864.823	4512
864.954	4512
865.086	4489
865.217	4443
865.349	4436
865.48	4375
865.612	4459
865.743	4592
865.875	4459
866.006	4466
866.137	4462
866.269	4443
866.4	4447
866.531	4413
866.662	4390
866.793	4421
866.924	4413
867.055	4440
867.186	4443
867.317	4394
867.448	4348
867.579	4363
867.71	4424
867.841	4367
867.972	4455
868.103	4466
868.233	4462
868.364	4451
868.495	4504
868.625	4645
868.756	4752
868.886	4561
869.017	4634
869.147	4774
869.278	4721
869.408	4664
869.539	4622
869.669	4683
869.799	4653
869.929	4774
870.06	4725
870.19	4949
870.32	4927
870.45	4976
870.58	4984
870.71	5113
870.84	5102
870.97	4923
871.1	4862
871.23	5121
871.36	5147
871.489	5029
871.619	5022
871.749	5048
871.879	5117
872.008	5159
872.138	5018
872.267	4965
872.397	4870
872.526	4843
872.656	4725
872.785	4797
872.915	4885
873.044	5025
873.173	4873
873.303	4980
873.432	4942
873.561	4938
873.69	4805
873.819	4885
873.948	4911
874.077	4843
874.206	4752
874.335	4809
874.464	4873
874.593	4984
874.722	4953
874.851	5140
874.979	5003
875.108	5006
875.237	4896
875.365	4858
875.494	4930
875.623	4980
875.751	4771
875.88	4873
876.008	5056
876.136	4987
876.265	5235
876.393	5318
876.521	5208
876.65	5216
876.778	5178
876.906	5071
877.034	5018
877.162	5025
877.29	4965
877.418	5041
877.546	5048
877.674	5037
877.802	5022
877.93	4961
878.058	4953
878.185	4839
878.313	4965
878.441	4942
878.568	4740
878.696	4866
878.824	4923
878.951	4961
879.079	5094
879.206	5284
879.333	5041
879.461	5003
879.588	4946
879.715	5151
879.842	5189
879.97	5018
880.097	4733
880.224	4759
880.351	4790
880.478	4809
880.605	4771
880.732	4748
880.859	5052
880.986	4873
881.112	4854
881.239	4755
881.366	4675
881.493	4577
881.619	4550
881.746	4626
881.872	4641
881.999	4691
882.125	4656
882.252	4797
882.378	4831
882.505	4987
882.631	4759
882.757	4679
882.883	4698
883.01	4702
883.136	4660
883.262	4603
883.388	4611
883.514	4793
883.64	4854
883.766	4801
883.892	4645
884.018	4675
884.143	4911
884.269	4961
884.395	4675
884.52	4611
884.646	4603
884.772	4558
884.897	4523
885.023	4618
885.148	4797
885.274	4892
885.399	4755
885.524	4714
885.65	4668
885.775	4733
885.9	4656
886.025	4866
886.15	4752
886.275	4748
886.4	4618
886.525	4725
886.65	4691
886.775	4679
886.9	4896
887.025	5010
887.149	4797
887.274	4611
887.399	4546
887.523	4592
887.648	4554
887.773	4603
887.897	4778
888.021	4801
888.146	4645
888.27	4797
888.395	4908
888.519	4771
888.643	4797
888.767	4847
888.891	4710
889.015	4630
889.139	4668
889.263	4630
889.387	4721
889.511	4820
889.635	4774
889.759	4634
889.883	4592
890.006	4691
890.13	4831
890.254	4649
890.377	4664
890.501	4580
890.624	4500
890.748	4626
890.871	4478
890.995	4409
891.118	4386
891.241	4474
891.364	4535
891.488	4603
891.611	4523
891.734	4527
891.857	4588
891.98	4580
892.103	4637
892.226	4561
892.349	4497
892.471	4394
892.594	4512
892.717	4603
892.839	4565
892.962	4554
893.085	4664
893.207	4599
893.33	4451
893.452	4493
893.575	4634
893.697	4558
893.819	4759
893.941	4771
894.064	4755
894.186	4561
894.308	4569
894.43	4744
894.552	4790
894.674	4721
894.796	4550
894.918	4592
895.04	4542
895.161	4679
895.283	4630
895.405	4550
895.526	4664
895.648	4660
895.769	4683
895.891	4714
896.012	4729
896.134	4717
896.255	4683
896.376	4607
896.498	4645
896.619	4634
896.74	4618
896.861	4634
896.982	4889
897.103	5086
897.224	4858
897.345	4755
897.466	4717
897.587	4714
897.708	4839
897.828	4744
897.949	4725
898.07	4527
898.19	4622
898.311	4816
898.431	4706
898.552	4733
898.672	4733
898.792	4793
898.913	4694
899.033	4588
899.153	4470
899.273	4413
899.393	4481
899.513	4573
899.633	4516
899.753	4485
899.873	4497
899.993	4596
900.113	4542
900.232	4584
900.352	4512
900.472	4455
900.591	4356
900.711	4497
900.83	4424
900.95	4649
901.069	4672
901.189	4546
901.308	4360
901.427	4303
901.546	4371
901.665	4424
901.784	4538
901.904	4394
902.023	4306
902.141	4166
902.26	4181
902.379	4322
902.498	4196
902.617	4166
902.735	4360
902.854	4386
902.973	4367
903.091	4204
903.21	4211
903.328	4299
903.446	4272
903.565	4223
903.683	4356
903.801	4284
903.919	4333
904.038	4363
904.156	4322
904.274	4436
904.392	4379
904.51	4428
904.627	4462
904.745	4592
904.863	4573
904.981	4394
905.098	4322
905.216	4333
905.334	4436
905.451	4428
905.569	4413
905.686	4580
905.803	4573
905.921	4421
906.038	4569
906.155	4508
906.272	4394
906.389	4481
906.506	4375
906.623	4405
906.74	4383
906.857	4303
906.974	4398
907.091	4554
907.208	4634
907.324	4592
907.441	4519
907.557	4329
907.674	4333
907.79	4333
907.907	4390
908.023	4443
908.139	4478
908.256	4447
908.372	4481
908.488	4421
908.604	4314
908.72	4295
908.836	4352
908.952	4390
909.068	4424
909.184	4493
909.3	4459
909.415	4554
909.531	4538
909.647	4363
909.762	4363
909.878	4348
909.993	4402
910.108	4398
910.224	4386
910.339	4470
910.454	4390
910.57	4379
910.685	4306
910.8	4717
910.915	4630
911.03	4516
911.145	4314
911.259	4367
911.374	4337
911.489	4333
911.604	4276
911.718	4112
911.833	4188
911.947	4063
912.062	3994
912.176	4227
912.291	4223
912.405	4234
912.519	4459
912.633	4493
912.748	4367
912.862	4295
912.976	4207
913.09	4109
913.204	4177
913.318	4276
913.431	4390
913.545	4329
913.659	4443
913.772	4341
913.886	4249
914	4238
914.113	4390
914.226	4428
914.34	4394
914.453	4249
914.566	4478
914.68	4318
914.793	4295
914.906	4158
915.019	4131
915.132	4093
915.245	4177
915.358	4200
915.47	4227
915.583	4261
915.696	4280
915.809	4390
915.921	4417
916.034	4295
916.146	4284
916.259	4196
916.371	4333
916.483	4402
916.595	4219
916.708	4306
916.82	4325
916.932	4322
917.044	4303
917.156	4329
917.268	4234
917.38	4287
917.491	4249
917.603	4306
917.715	4402
917.826	4417
917.938	4333
918.049	4234
918.161	4344
918.272	4554
918.384	4569
918.495	4455
918.606	4268
918.717	4211
918.828	4295
918.939	4421
919.05	4238
919.161	4367
919.272	4097
919.383	4242
919.494	4432
919.604	4675
919.715	4424
919.826	4360
919.936	4394
920.047	4504
920.157	4485
920.267	4714
920.378	4561
920.488	4531
920.598	4649
920.708	4885
920.818	4790
920.928	4771
921.038	4942
921.148	4892
921.258	4630
921.368	4550
921.477	4497
921.587	4478
921.697	4405
921.806	4527
921.916	4428
922.025	4284
922.134	4253
922.244	4227
922.353	4310
922.462	4192
922.571	4169
922.68	4006
922.789	3941
922.898	4032
923.007	4002
923.116	4063
923.224	4071
923.333	4051
923.442	3983
923.55	3945
923.659	4017
923.767	4131
923.876	3979
923.984	4162
924.092	4013
924.201	4048
924.309	4116
924.417	4101
924.525	4071
924.633	4128
924.741	5064
924.849	3926
924.956	4093
925.064	3888
925.172	3880
925.279	3953
925.387	4044
925.494	4040
925.602	4162
925.709	4207
925.816	4082
925.924	4135
926.031	4185
926.138	4124
926.245	4215
926.352	4078
926.459	4246
926.566	4333
926.673	4150
926.779	4078
926.886	4112
926.993	3983
927.099	3960
927.206	3983
927.312	3953
927.419	4029
927.525	4002
927.631	4082
927.737	3956
927.843	3907
927.95	3816
928.056	3903
928.162	3983
928.267	4074
928.373	4656
928.479	4112
928.585	3865
928.69	4048
928.796	4116
928.901	3956
929.007	3808
929.112	3949
929.218	3964
929.323	3922
929.428	3926
929.533	4074
929.638	3873
929.743	3983
929.848	4025
929.953	3991
930.058	3945
930.163	3759
930.267	3781
930.372	3991
930.477	3789
930.581	4086
930.685	3907
930.79	3831
930.894	3899
930.998	3865
931.103	4029
931.207	3720
931.311	3698
931.415	3633
931.519	3538
931.623	3580
