Data from test_V78500241_572.txt Node
Date: Fri Mar 25 16:52:58 CST 2022
User: usil
Spectrometer: V785-0024
Trigger mode: 0
Integration Time (sec): 4.000000E-1
Scans to average: 1
Nonlinearity correction enabled: false
Boxcar width: 0
Storing dark spectrum: false
XAxis mode: Wavelengths
Number of Pixels in Spectrum: 1024
>>>>>Begin Spectral Data<<<<<
801.071	8031
801.214	7978
801.356	7890
801.499	7868
801.641	7814
801.783	7795
801.926	7989
802.068	7951
802.211	7997
802.353	7967
802.496	7894
802.638	7837
802.78	7917
802.923	7860
803.065	7772
803.208	7890
803.35	7906
803.492	8050
803.635	8145
803.777	7963
803.919	8126
804.061	8415
804.204	8138
804.346	7963
804.488	7959
804.63	8016
804.773	7921
804.915	8062
805.057	8301
805.199	8202
805.341	8233
805.483	8294
805.626	8195
805.768	8103
805.91	8161
806.052	8221
806.194	8039
806.336	8271
806.478	8130
806.62	8043
806.762	8081
806.904	8259
807.046	8465
807.188	8339
807.33	8248
807.472	8237
807.614	8187
807.756	8111
807.898	7989
808.04	7883
808.182	7906
808.324	7871
808.465	7925
808.607	7928
808.749	8039
808.891	8199
809.033	8286
809.174	8191
809.316	7982
809.458	8046
809.6	8035
809.741	7974
809.883	7974
810.025	8065
810.166	8119
810.308	8035
810.45	8001
810.591	7860
810.733	7734
810.875	7681
811.016	7495
811.158	7502
811.299	7620
811.441	7677
811.582	7643
811.724	7556
811.865	7514
812.007	7616
812.148	7575
812.29	7624
812.431	7723
812.573	7856
812.714	7989
812.855	8138
812.997	8256
813.138	8271
813.279	8240
813.421	8119
813.562	8046
813.703	7879
813.845	7833
813.986	7518
814.127	7289
814.268	7308
814.41	7183
814.551	7152
814.692	7217
814.833	7114
814.974	7095
815.115	7118
815.256	6977
815.397	6905
815.539	6981
815.68	6818
815.821	6814
815.962	6878
816.103	6821
816.244	6730
816.385	6623
816.526	6654
816.666	6513
816.807	6247
816.948	6384
817.089	6460
817.23	6433
817.371	6331
817.512	6414
817.653	6361
817.793	6361
817.934	6410
818.075	6467
818.216	6342
818.356	6414
818.497	6216
818.638	6121
818.778	6155
818.919	6057
819.06	6083
819.2	6289
819.341	6315
819.481	6342
819.622	6475
819.762	6677
819.903	6681
820.043	6578
820.184	6498
820.324	6574
820.465	6662
820.605	6677
820.746	6601
820.886	6429
821.026	6662
821.167	6662
821.307	6760
821.447	6734
821.588	6654
821.728	6509
821.868	6506
822.008	6281
822.149	6327
822.289	6361
822.429	6125
822.569	6079
822.709	6079
822.849	5920
822.99	5855
823.13	5904
823.27	5923
823.41	5786
823.55	5741
823.69	5764
823.83	5805
823.97	5668
824.11	5516
824.25	5547
824.389	5543
824.529	5535
824.669	5467
824.809	5661
824.949	5665
825.089	5623
825.228	5509
825.368	5433
825.508	5296
825.648	5349
825.787	5376
825.927	5341
826.067	5273
826.206	5322
826.346	5410
826.485	5417
826.625	5417
826.765	5558
826.904	5440
827.044	5296
827.183	5223
827.323	5121
827.462	5201
827.601	5128
827.741	5140
827.88	5235
828.02	5121
828.159	5235
828.298	5292
828.437	5357
828.577	5280
828.716	5448
828.855	5337
828.994	5132
829.134	5124
829.273	5197
829.412	5098
829.551	5060
829.69	5185
829.829	5239
829.968	5376
830.107	5162
830.246	5277
830.385	5212
830.524	5086
830.663	5083
830.802	4987
830.941	4889
831.08	4858
831.219	4961
831.357	4930
831.496	5140
831.635	4919
831.774	4839
831.913	4862
832.051	4733
832.19	4721
832.329	4820
832.467	4702
832.606	4615
832.744	4714
832.883	4733
833.022	4725
833.16	4782
833.299	4733
833.437	4797
833.576	4820
833.714	4835
833.852	4877
833.991	4896
834.129	4877
834.267	4919
834.406	4885
834.544	4984
834.682	4953
834.821	4980
834.959	5185
835.097	4991
835.235	5117
835.373	5105
835.511	5117
835.65	5018
835.788	5003
835.926	4927
836.064	4850
836.202	4881
836.34	5147
836.478	5181
836.615	5140
836.753	5185
836.891	5299
837.029	5216
837.167	5273
837.305	5094
837.443	5151
837.58	5056
837.718	5261
837.856	5197
837.993	5189
838.131	5216
838.269	5159
838.406	5193
838.544	5216
838.681	5029
838.819	4980
838.956	4885
839.094	4915
839.231	5018
839.369	5037
839.506	5383
839.643	5258
839.781	5064
839.918	5018
840.055	5083
840.193	5071
840.33	5086
840.467	5170
840.604	5239
840.742	5364
840.879	5075
841.016	5086
841.153	5136
841.29	5387
841.427	5318
841.564	5296
841.701	5334
841.838	5288
841.975	5250
842.112	5265
842.249	5117
842.385	5075
842.522	5284
842.659	5189
842.796	5136
842.933	5201
843.069	5136
843.206	5086
843.343	5299
843.479	5235
843.616	5216
843.752	5037
843.889	5014
844.025	5178
844.162	4991
844.298	5170
844.435	5067
844.571	5048
844.708	5174
844.844	5292
844.98	5376
845.117	5337
845.253	5136
845.389	5086
845.525	5136
845.661	5132
845.798	5067
845.934	5143
846.07	5086
846.206	5155
846.342	5296
846.478	5121
846.614	4999
846.75	5006
846.886	4908
847.022	5143
847.158	5022
847.294	5022
847.429	5109
847.565	5056
847.701	5349
847.837	4854
847.972	4793
848.108	4942
848.244	4858
848.379	4790
848.515	4706
848.65	4706
848.786	4778
848.921	4744
849.057	4850
849.192	4911
849.328	4809
849.463	4858
849.598	4801
849.734	4755
849.869	4641
850.004	4611
850.14	4649
850.275	4580
850.41	4516
850.545	4535
850.68	4641
850.815	4569
850.95	4626
851.085	4862
851.22	4782
851.355	4626
851.49	4554
851.625	4634
851.76	4630
851.895	4523
852.03	4554
852.165	4630
852.299	4706
852.434	4763
852.569	4748
852.703	4771
852.838	4870
852.973	4919
853.107	4908
853.242	4755
853.376	4660
853.511	4550
853.645	4653
853.78	4866
853.914	4729
854.048	4668
854.183	4679
854.317	4721
854.451	4866
854.585	4698
854.72	4630
854.854	4755
854.988	4645
855.122	4679
855.256	4573
855.39	4710
855.524	4782
855.658	4763
855.792	4717
855.926	4767
856.06	4790
856.194	4866
856.327	4721
856.461	4710
856.595	4645
856.729	4645
856.862	4805
856.996	4748
857.13	4763
857.263	4828
857.397	4812
857.53	4729
857.664	4733
857.797	4782
857.931	4805
858.064	4748
858.197	4809
858.331	4710
858.464	4645
858.597	4565
858.731	4672
858.864	4691
858.997	4603
859.13	4714
859.263	4668
859.396	4729
859.529	4675
859.662	4649
859.795	4596
859.928	4694
860.061	4797
860.194	4778
860.327	4672
860.46	4592
860.592	4744
860.725	4771
860.858	4763
860.99	4649
861.123	4565
861.256	4607
861.388	4645
861.521	5478
861.653	4519
861.786	4493
861.918	4504
862.05	4561
862.183	4558
862.315	4672
862.447	4679
862.58	4599
862.712	4413
862.844	4363
862.976	4565
863.108	4474
863.24	4900
863.372	4390
863.504	4459
863.636	4440
863.768	4523
863.9	4474
864.032	4390
864.164	4394
864.296	4538
864.428	4565
864.559	4634
864.691	4580
864.823	4550
864.954	4538
865.086	4558
865.217	4481
865.349	4455
865.48	4500
865.612	4550
865.743	4656
865.875	4466
866.006	4474
866.137	4508
866.269	4459
866.4	4493
866.531	4462
866.662	4402
866.793	4459
866.924	4432
867.055	4542
867.186	4535
867.317	4432
867.448	4379
867.579	4436
867.71	4352
867.841	4371
867.972	4489
868.103	4516
868.233	4474
868.364	4447
868.495	4500
868.625	4710
868.756	4786
868.886	4580
869.017	4649
869.147	4786
869.278	4763
869.408	4740
869.539	4630
869.669	4759
869.799	4653
869.929	4812
870.06	4793
870.19	4965
870.32	4965
870.45	4968
870.58	5033
870.71	5105
870.84	5155
870.97	4927
871.1	4942
871.23	5178
871.36	5189
871.489	5041
871.619	5083
871.749	5067
871.879	5189
872.008	5220
872.138	5086
872.267	5067
872.397	4862
872.526	4831
872.656	4774
872.785	4824
872.915	4930
873.044	5094
873.173	4976
873.303	4984
873.432	5003
873.561	4991
873.69	4915
873.819	4892
873.948	4953
874.077	4885
874.206	4759
874.335	4801
874.464	4949
874.593	5090
874.722	4995
874.851	5140
874.979	5117
875.108	5056
875.237	4927
875.365	4889
875.494	4927
875.623	5037
875.751	4843
875.88	4870
876.008	5052
876.136	5064
876.265	5250
876.393	5372
876.521	5277
876.65	5277
876.778	5151
876.906	5079
877.034	5056
877.162	5022
877.29	5014
877.418	5041
877.546	5071
877.674	5086
877.802	5067
877.93	5048
878.058	4949
878.185	4904
878.313	4972
878.441	4976
878.568	4889
878.696	4904
878.824	5010
878.951	5014
879.079	5151
879.206	5326
879.333	5098
879.461	4999
879.588	5037
879.715	5143
879.842	5204
879.97	5041
880.097	4812
880.224	4763
880.351	4850
880.478	4843
880.605	4824
880.732	4782
880.859	5102
880.986	4923
881.112	4934
881.239	4793
881.366	4725
881.493	4611
881.619	4599
881.746	4683
881.872	4679
881.999	4729
882.125	4668
882.252	4816
882.378	4854
882.505	4980
882.631	4805
882.757	4698
882.883	4702
883.01	4774
883.136	4706
883.262	4645
883.388	4641
883.514	4824
883.64	4908
883.766	4828
883.892	4694
884.018	4778
884.143	4896
884.269	5010
884.395	4691
884.52	4717
884.646	4710
884.772	4618
884.897	4550
885.023	4710
885.148	4843
885.274	4934
885.399	4831
885.524	4752
885.65	4702
885.775	4812
885.9	4725
886.025	4896
886.15	4828
886.275	4744
886.4	4656
886.525	4790
886.65	4725
886.775	4714
886.9	4896
887.025	5086
887.149	4812
887.274	4672
887.399	4615
887.523	4596
887.648	4603
887.773	4603
887.897	4820
888.021	4805
888.146	4736
888.27	4850
888.395	4885
888.519	4820
888.643	4835
888.767	4881
888.891	4675
889.015	4622
889.139	4714
889.263	4702
889.387	4774
889.511	4866
889.635	4805
889.759	4660
889.883	4683
890.006	4744
890.13	4831
890.254	4660
890.377	4725
890.501	4565
890.624	4565
890.748	4645
890.871	4577
890.995	4455
891.118	4413
891.241	4512
891.364	4573
891.488	4603
891.611	4542
891.734	4577
891.857	4641
891.98	4569
892.103	4679
892.226	4626
892.349	4561
892.471	4424
892.594	4538
892.717	4622
892.839	4588
892.962	4584
893.085	4717
893.207	4672
893.33	4485
893.452	4580
893.575	4733
893.697	4596
893.819	4824
893.941	4862
894.064	4809
894.186	4603
894.308	4580
894.43	4725
894.552	4831
894.674	4763
894.796	4603
894.918	4596
895.04	4584
895.161	4714
895.283	4729
895.405	4584
895.526	4710
895.648	4740
895.769	4759
895.891	4748
896.012	4752
896.134	4782
896.255	4710
896.376	4615
896.498	4626
896.619	4698
896.74	4664
896.861	4656
896.982	4987
897.103	5064
897.224	4873
897.345	4835
897.466	4653
897.587	4740
897.708	4930
897.828	4816
897.949	4702
898.07	4561
898.19	4649
898.311	4816
898.431	4714
898.552	4786
898.672	4877
898.792	4797
898.913	4786
899.033	4622
899.153	4535
899.273	4466
899.393	4519
899.513	4508
899.633	4550
899.753	4512
899.873	4538
899.993	4618
900.113	4554
900.232	4615
900.352	4558
900.472	4554
900.591	4443
900.711	4485
900.83	4432
900.95	4637
901.069	4698
901.189	4554
901.308	4383
901.427	4394
901.546	4341
901.665	4504
901.784	4546
901.904	4371
902.023	4291
902.141	4188
902.26	4185
902.379	4383
902.498	4284
902.617	4242
902.735	4360
902.854	4432
902.973	4367
903.091	4268
903.21	4268
903.328	4344
903.446	4276
903.565	4287
903.683	4375
903.801	4303
903.919	4398
904.038	4489
904.156	4348
904.274	4478
904.392	4421
904.51	4478
904.627	4485
904.745	4592
904.863	4626
904.981	4421
905.098	4287
905.216	4383
905.334	4462
905.451	4478
905.569	4443
905.686	4542
905.803	4637
905.921	4436
906.038	4577
906.155	4519
906.272	4390
906.389	4474
906.506	4341
906.623	4371
906.74	4424
906.857	4318
906.974	4398
907.091	4584
907.208	4675
907.324	4656
907.441	4542
907.557	4375
907.674	4363
907.79	4337
907.907	4413
908.023	4474
908.139	4500
908.256	4451
908.372	4512
908.488	4424
908.604	4333
908.72	4333
908.836	4424
908.952	4360
909.068	4436
909.184	4569
909.3	4474
909.415	4561
909.531	4550
909.647	4367
909.762	4398
909.878	4360
909.993	4436
910.108	4417
910.224	4363
910.339	4538
910.454	4413
910.57	4413
910.685	4318
910.8	4675
910.915	4618
911.03	4455
911.145	4341
911.259	4314
911.374	4375
911.489	4306
911.604	4291
911.718	4196
911.833	4211
911.947	4105
912.062	4044
912.176	4223
912.291	4268
912.405	4280
912.519	4485
912.633	4523
912.748	4383
912.862	4291
912.976	4268
913.09	4131
913.204	4154
913.318	4257
913.431	4371
913.545	4390
913.659	4447
913.772	4367
913.886	4344
914	4268
914.113	4379
914.226	4462
914.34	4405
914.453	4249
914.566	4405
914.68	4303
914.793	4272
914.906	4162
915.019	4124
915.132	4093
915.245	4200
915.358	4238
915.47	4249
915.583	4268
915.696	4284
915.809	4443
915.921	4451
916.034	4246
916.146	4257
916.259	4196
916.371	4390
916.483	4386
916.595	4227
916.708	4322
916.82	4348
916.932	4322
917.044	4337
917.156	4352
917.268	4257
917.38	4314
917.491	4299
917.603	4306
917.715	4478
917.826	4421
917.938	4409
918.049	4299
918.161	4341
918.272	4546
918.384	4535
918.495	4485
918.606	4337
918.717	4242
918.828	4348
918.939	4447
919.05	4257
919.161	4344
919.272	4166
919.383	4215
919.494	4466
919.604	4645
919.715	4394
919.826	4333
919.936	4363
920.047	4554
920.157	4478
920.267	4694
920.378	4558
920.488	4504
920.598	4687
920.708	4908
920.818	4771
920.928	4843
921.038	5003
921.148	4877
921.258	4630
921.368	4561
921.477	4550
921.587	4512
921.697	4443
921.806	4538
921.916	4428
922.025	4322
922.134	4318
922.244	4257
922.353	4367
922.462	4246
922.571	4166
922.68	4032
922.789	4074
922.898	4078
923.007	4013
923.116	4154
923.224	4109
923.333	4112
923.442	4036
923.55	4051
923.659	4044
923.767	4150
923.876	4013
923.984	4135
924.092	4044
924.201	4101
924.309	4124
924.417	4158
924.525	4109
924.633	4143
924.741	5132
924.849	4006
924.956	4200
925.064	4013
925.172	3987
925.279	3987
925.387	4071
925.494	4090
925.602	4295
925.709	4246
925.816	4109
925.924	4162
926.031	4284
926.138	4211
926.245	4253
926.352	4131
926.459	4310
926.566	4344
926.673	4234
926.779	4158
926.886	4139
926.993	3983
927.099	4032
927.206	3975
927.312	4021
927.419	4063
927.525	4044
927.631	4173
927.737	3991
927.843	3994
927.95	3918
928.056	4048
928.162	4051
928.267	4128
928.373	4687
928.479	4169
928.585	3884
928.69	4048
928.796	4109
928.901	3979
929.007	3865
929.112	4074
929.218	3987
929.323	3983
929.428	3998
929.533	4166
929.638	3953
929.743	4044
929.848	4093
929.953	4029
930.058	3953
930.163	3781
930.267	3850
930.372	4021
930.477	3880
930.581	4147
930.685	3998
930.79	3876
930.894	3941
930.998	3899
931.103	4109
931.207	3774
931.311	3713
931.415	3724
931.519	3564
931.623	3572
