Data from test_V78500241_2166.txt Node
Date: Fri Mar 25 17:04:03 CST 2022
User: usil
Spectrometer: V785-0024
Trigger mode: 0
Integration Time (sec): 4.000000E-1
Scans to average: 1
Nonlinearity correction enabled: false
Boxcar width: 0
Storing dark spectrum: false
XAxis mode: Wavelengths
Number of Pixels in Spectrum: 1024
>>>>>Begin Spectral Data<<<<<
801.071	8039
801.214	8016
801.356	7909
801.499	7947
801.641	7818
801.783	7830
801.926	8012
802.068	7978
802.211	7982
802.353	8012
802.496	7875
802.638	7944
802.78	7921
802.923	7970
803.065	7887
803.208	7898
803.35	7974
803.492	8142
803.635	8225
803.777	8024
803.919	8100
804.061	8488
804.204	8202
804.346	8119
804.488	8001
804.63	8039
804.773	8027
804.915	8020
805.057	8339
805.199	8180
805.341	8237
805.483	8263
805.626	8240
805.768	8161
805.91	8221
806.052	8237
806.194	8206
806.336	8301
806.478	8130
806.62	8077
806.762	8202
806.904	8267
807.046	8495
807.188	8389
807.33	8305
807.472	8343
807.614	8172
807.756	8233
807.898	8016
808.04	7936
808.182	7921
808.324	7894
808.465	7860
808.607	8130
808.749	8115
808.891	8202
809.033	8301
809.174	8282
809.316	8084
809.458	8073
809.6	8012
809.741	8035
809.883	8027
810.025	8145
810.166	8077
810.308	8027
810.45	8043
810.591	7841
810.733	7780
810.875	7658
811.016	7525
811.158	7464
811.299	7605
811.441	7613
811.582	7670
811.724	7559
811.865	7605
812.007	7601
812.148	7544
812.29	7658
812.431	7765
812.573	7894
812.714	8008
812.855	8195
812.997	8206
813.138	8267
813.279	8183
813.421	8107
813.562	7955
813.703	7788
813.845	7723
813.986	7430
814.127	7251
814.268	7202
814.41	7194
814.551	7217
814.692	7198
814.833	7099
814.974	7084
815.115	7137
815.256	6943
815.397	6985
815.539	6954
815.68	6852
815.821	6757
815.962	6890
816.103	6791
816.244	6738
816.385	6658
816.526	6574
816.666	6513
816.807	6262
816.948	6445
817.089	6467
817.23	6467
817.371	6353
817.512	6361
817.653	6407
817.793	6384
817.934	6388
818.075	6483
818.216	6388
818.356	6460
818.497	6266
818.638	6140
818.778	6182
818.919	6064
819.06	6125
819.2	6369
819.341	6376
819.481	6342
819.622	6547
819.762	6779
819.903	6711
820.043	6585
820.184	6563
820.324	6551
820.465	6764
820.605	6753
820.746	6711
820.886	6536
821.026	6654
821.167	6654
821.307	6715
821.447	6867
821.588	6726
821.728	6665
821.868	6555
822.008	6327
822.149	6437
822.289	6346
822.429	6209
822.569	6117
822.709	6144
822.849	5969
822.99	5920
823.13	5927
823.27	5939
823.41	5866
823.55	5794
823.69	5809
823.83	5726
823.97	5726
824.11	5532
824.25	5532
824.389	5566
824.529	5592
824.669	5562
824.809	5649
824.949	5722
825.089	5657
825.228	5535
825.368	5429
825.508	5376
825.648	5372
825.787	5391
825.927	5417
826.067	5303
826.206	5265
826.346	5383
826.485	5376
826.625	5433
826.765	5604
826.904	5524
827.044	5284
827.183	5250
827.323	5136
827.462	5246
827.601	5212
827.741	5242
827.88	5216
828.02	5147
828.159	5239
828.298	5322
828.437	5395
828.577	5273
828.716	5543
828.855	5391
828.994	5166
829.134	5189
829.273	5185
829.412	5102
829.551	5155
829.69	5162
829.829	5265
829.968	5368
830.107	5292
830.246	5334
830.385	5201
830.524	5079
830.663	5041
830.802	4968
830.941	4866
831.08	4930
831.219	5052
831.357	4972
831.496	5159
831.635	4938
831.774	4892
831.913	4870
832.051	4763
832.19	4729
832.329	4824
832.467	4710
832.606	4592
832.744	4752
832.883	4759
833.022	4763
833.16	4763
833.299	4824
833.437	4839
833.576	4870
833.714	4885
833.852	4870
833.991	4889
834.129	4934
834.267	4972
834.406	4908
834.544	4987
834.682	5003
834.821	5014
834.959	5162
835.097	4999
835.235	5128
835.373	5109
835.511	5098
835.65	5018
835.788	5079
835.926	4911
836.064	4889
836.202	4934
836.34	5151
836.478	5197
836.615	5117
836.753	5223
836.891	5315
837.029	5235
837.167	5166
837.305	5178
837.443	5140
837.58	5094
837.718	5311
837.856	5235
837.993	5193
838.131	5212
838.269	5197
838.406	5201
838.544	5208
838.681	5064
838.819	4987
838.956	4904
839.094	4904
839.231	4953
839.369	5060
839.506	5425
839.643	5299
839.781	5075
839.918	5006
840.055	5102
840.193	5117
840.33	5094
840.467	5147
840.604	5178
840.742	5452
840.879	5121
841.016	5109
841.153	5147
841.29	5337
841.427	5417
841.564	5353
841.701	5398
841.838	5322
841.975	5208
842.112	5307
842.249	5162
842.385	5117
842.522	5353
842.659	5193
842.796	5159
842.933	5216
843.069	5193
843.206	5121
843.343	5337
843.479	5223
843.616	5227
843.752	5056
843.889	4995
844.025	5239
844.162	5033
844.298	5239
844.435	5067
844.571	5010
844.708	5227
844.844	5345
844.98	5322
845.117	5299
845.253	5155
845.389	5162
845.525	5178
845.661	5185
845.798	5029
845.934	5170
846.07	5071
846.206	5231
846.342	5280
846.478	5140
846.614	5041
846.75	4930
846.886	4961
847.022	5109
847.158	5018
847.294	5079
847.429	5109
847.565	5079
847.701	5326
847.837	4797
847.972	4786
848.108	4938
848.244	4949
848.379	4797
848.515	4736
848.65	4729
848.786	4748
848.921	4736
849.057	4889
849.192	4911
849.328	4858
849.463	4873
849.598	4774
849.734	4759
849.869	4679
850.004	4626
850.14	4668
850.275	4618
850.41	4546
850.545	4561
850.68	4573
850.815	4656
850.95	4660
851.085	4870
851.22	4759
851.355	4755
851.49	4596
851.625	4626
851.76	4626
851.895	4561
852.03	4527
852.165	4618
852.299	4721
852.434	4801
852.569	4797
852.703	4755
852.838	4847
852.973	4908
853.107	4908
853.242	4752
853.376	4706
853.511	4546
853.645	4653
853.78	4820
853.914	4675
854.048	4656
854.183	4668
854.317	4660
854.451	4854
854.585	4702
854.72	4603
854.854	4755
854.988	4634
855.122	4603
855.256	4569
855.39	4664
855.524	4774
855.658	4694
855.792	4679
855.926	4744
856.06	4786
856.194	4831
856.327	4706
856.461	4603
856.595	4599
856.729	4637
856.862	4793
856.996	4717
857.13	4725
857.263	4782
857.397	4801
857.53	4672
857.664	4729
857.797	4740
857.931	4767
858.064	4725
858.197	4721
858.331	4710
858.464	4630
858.597	4512
858.731	4611
858.864	4656
858.997	4573
859.13	4656
859.263	4672
859.396	4717
859.529	4561
859.662	4554
859.795	4527
859.928	4592
860.061	4774
860.194	4714
860.327	4599
860.46	4626
860.592	4694
860.725	4717
860.858	4710
860.99	4531
861.123	4535
861.256	4504
861.388	4656
861.521	5433
861.653	4493
861.786	4481
861.918	4481
862.05	4527
862.183	4538
862.315	4577
862.447	4630
862.58	4531
862.712	4386
862.844	4314
862.976	4443
863.108	4443
863.24	4809
863.372	4356
863.504	4424
863.636	4398
863.768	4500
863.9	4390
864.032	4390
864.164	4360
864.296	4443
864.428	4573
864.559	4531
864.691	4531
864.823	4573
864.954	4519
865.086	4485
865.217	4504
865.349	4341
865.48	4508
865.612	4516
865.743	4607
865.875	4481
866.006	4440
866.137	4497
866.269	4417
866.4	4413
866.531	4470
866.662	4428
866.793	4405
866.924	4371
867.055	4535
867.186	4409
867.317	4474
867.448	4375
867.579	4405
867.71	4413
867.841	4386
867.972	4455
868.103	4455
868.233	4459
868.364	4504
868.495	4455
868.625	4656
868.756	4706
868.886	4546
869.017	4637
869.147	4820
869.278	4752
869.408	4649
869.539	4618
869.669	4721
869.799	4637
869.929	4752
870.06	4759
870.19	4934
870.32	4930
870.45	4930
870.58	5022
870.71	5102
870.84	5117
870.97	4923
871.1	4900
871.23	5147
871.36	5136
871.489	5071
871.619	5105
871.749	5086
871.879	5136
872.008	5212
872.138	5014
872.267	4968
872.397	4828
872.526	4767
872.656	4721
872.785	4790
872.915	4972
873.044	4999
873.173	4911
873.303	5014
873.432	4946
873.561	4908
873.69	4885
873.819	4835
873.948	4889
874.077	4797
874.206	4752
874.335	4782
874.464	4919
874.593	5071
874.722	4946
874.851	5090
874.979	5102
875.108	5037
875.237	4911
875.365	4892
875.494	4862
875.623	4953
875.751	4809
875.88	4927
876.008	5003
876.136	5041
876.265	5227
876.393	5307
876.521	5227
876.65	5239
876.778	5201
876.906	5033
877.034	5006
877.162	5086
877.29	5025
877.418	5083
877.546	5086
877.674	5029
877.802	5041
877.93	5064
878.058	4942
878.185	4847
878.313	4961
878.441	4961
878.568	4831
878.696	4896
878.824	4980
878.951	5003
879.079	5143
879.206	5246
879.333	5067
879.461	4999
879.588	4968
879.715	5079
879.842	5189
879.97	4991
880.097	4793
880.224	4759
880.351	4801
880.478	4805
880.605	4797
880.732	4733
880.859	5064
880.986	4862
881.112	4923
881.239	4786
881.366	4736
881.493	4626
881.619	4546
881.746	4649
881.872	4668
881.999	4603
882.125	4653
882.252	4801
882.378	4873
882.505	4946
882.631	4801
882.757	4668
882.883	4759
883.01	4725
883.136	4679
883.262	4577
883.388	4580
883.514	4755
883.64	4904
883.766	4797
883.892	4672
884.018	4679
884.143	4889
884.269	4976
884.395	4755
884.52	4603
884.646	4645
884.772	4630
884.897	4577
885.023	4679
885.148	4797
885.274	4915
885.399	4809
885.524	4702
885.65	4683
885.775	4736
885.9	4717
886.025	4896
886.15	4831
886.275	4729
886.4	4618
886.525	4710
886.65	4668
886.775	4679
886.9	4873
887.025	5045
887.149	4812
887.274	4645
887.399	4626
887.523	4634
887.648	4573
887.773	4569
887.897	4759
888.021	4736
888.146	4679
888.27	4763
888.395	4881
888.519	4752
888.643	4809
888.767	4854
888.891	4664
889.015	4577
889.139	4584
889.263	4622
889.387	4763
889.511	4862
889.635	4824
889.759	4584
889.883	4641
890.006	4733
890.13	4812
890.254	4584
890.377	4634
890.501	4546
890.624	4523
890.748	4637
890.871	4531
890.995	4470
891.118	4409
891.241	4523
891.364	4508
891.488	4626
891.611	4516
891.734	4531
891.857	4599
891.98	4542
892.103	4645
892.226	4592
892.349	4573
892.471	4424
892.594	4527
892.717	4596
892.839	4546
892.962	4607
893.085	4618
893.207	4607
893.33	4474
893.452	4546
893.575	4592
893.697	4577
893.819	4771
893.941	4786
894.064	4790
894.186	4599
894.308	4558
894.43	4702
894.552	4805
894.674	4778
894.796	4577
894.918	4611
895.04	4573
895.161	4702
895.283	4656
895.405	4561
895.526	4626
895.648	4672
895.769	4683
895.891	4714
896.012	4744
896.134	4687
896.255	4615
896.376	4626
896.498	4645
896.619	4778
896.74	4588
896.861	4656
896.982	4881
897.103	5071
897.224	4839
897.345	4725
897.466	4607
897.587	4733
897.708	4866
897.828	4767
897.949	4649
898.07	4508
898.19	4668
898.311	4790
898.431	4653
898.552	4744
898.672	4797
898.792	4820
898.913	4721
899.033	4626
899.153	4500
899.273	4432
899.393	4451
899.513	4512
899.633	4516
899.753	4565
899.873	4493
899.993	4573
900.113	4538
900.232	4580
900.352	4527
900.472	4535
900.591	4413
900.711	4512
900.83	4436
900.95	4615
901.069	4653
901.189	4519
901.308	4367
901.427	4310
901.546	4329
901.665	4500
901.784	4504
901.904	4360
902.023	4310
902.141	4177
902.26	4207
902.379	4287
902.498	4242
902.617	4192
902.735	4417
902.854	4394
902.973	4367
903.091	4196
903.21	4253
903.328	4303
903.446	4276
903.565	4249
903.683	4367
903.801	4242
903.919	4443
904.038	4413
904.156	4276
904.274	4443
904.392	4379
904.51	4424
904.627	4447
904.745	4546
904.863	4649
904.981	4394
905.098	4310
905.216	4379
905.334	4459
905.451	4405
905.569	4421
905.686	4561
905.803	4569
905.921	4421
906.038	4542
906.155	4455
906.272	4462
906.389	4443
906.506	4352
906.623	4379
906.74	4390
906.857	4291
906.974	4379
907.091	4569
907.208	4645
907.324	4550
907.441	4516
907.557	4356
907.674	4341
907.79	4314
907.907	4390
908.023	4485
908.139	4474
908.256	4383
908.372	4459
908.488	4474
908.604	4325
908.72	4310
908.836	4352
908.952	4371
909.068	4409
909.184	4550
909.3	4405
909.415	4527
909.531	4554
909.647	4371
909.762	4348
909.878	4356
909.993	4405
910.108	4409
910.224	4402
910.339	4455
910.454	4413
910.57	4348
910.685	4348
910.8	4607
910.915	4569
911.03	4531
911.145	4329
911.259	4295
911.374	4333
911.489	4322
911.604	4284
911.718	4166
911.833	4200
911.947	4032
912.062	4002
912.176	4223
912.291	4291
912.405	4219
912.519	4424
912.633	4508
912.748	4402
912.862	4314
912.976	4219
913.09	4112
913.204	4223
913.318	4246
913.431	4314
913.545	4360
913.659	4424
913.772	4341
913.886	4238
914	4234
914.113	4356
914.226	4405
914.34	4394
914.453	4280
914.566	4417
914.68	4310
914.793	4261
914.906	4177
915.019	4090
915.132	4071
915.245	4166
915.358	4207
915.47	4211
915.583	4257
915.696	4341
915.809	4432
915.921	4443
916.034	4230
916.146	4219
916.259	4215
916.371	4352
916.483	4348
916.595	4211
916.708	4291
916.82	4341
916.932	4303
917.044	4329
917.156	4352
917.268	4242
917.38	4287
917.491	4257
917.603	4322
917.715	4443
917.826	4428
917.938	4337
918.049	4280
918.161	4394
918.272	4535
918.384	4519
918.495	4462
918.606	4303
918.717	4261
918.828	4306
918.939	4352
919.05	4265
919.161	4360
919.272	4093
919.383	4192
919.494	4481
919.604	4607
919.715	4417
919.826	4306
919.936	4398
920.047	4493
920.157	4470
920.267	4744
920.378	4535
920.488	4508
920.598	4748
920.708	4862
920.818	4752
920.928	4752
921.038	4942
921.148	4915
921.258	4626
921.368	4569
921.477	4432
921.587	4421
921.697	4360
921.806	4599
921.916	4432
922.025	4242
922.134	4227
922.244	4242
922.353	4314
922.462	4158
922.571	4109
922.68	4021
922.789	3953
922.898	4036
923.007	3983
923.116	4135
923.224	4055
923.333	4078
923.442	3968
923.55	3960
923.659	4029
923.767	4059
923.876	3998
923.984	4071
924.092	4021
924.201	4063
924.309	4040
924.417	4090
924.525	4093
924.633	4086
924.741	5037
924.849	3903
924.956	4120
925.064	3949
925.172	3892
925.279	3972
925.387	4036
925.494	4040
925.602	4211
925.709	4128
925.816	3994
925.924	4078
926.031	4246
926.138	4135
926.245	4204
926.352	4090
926.459	4238
926.566	4329
926.673	4135
926.779	4059
926.886	4078
926.993	3983
927.099	3922
927.206	3937
927.312	3941
927.419	4074
927.525	4036
927.631	4044
927.737	3949
927.843	3934
927.95	3823
928.056	3903
928.162	3975
928.267	4044
928.373	4573
928.479	4120
928.585	3869
928.69	3991
928.796	4071
928.901	3979
929.007	3823
929.112	4002
929.218	3953
929.323	3926
929.428	3945
929.533	4074
929.638	3915
929.743	3956
929.848	4051
929.953	3956
930.058	3945
930.163	3732
930.267	3778
930.372	3907
930.477	3789
930.581	4067
930.685	3915
930.79	3812
930.894	3896
930.998	3854
931.103	3998
931.207	3701
931.311	3709
931.415	3671
931.519	3534
931.623	3557
