Data from test_V78500241_2355.txt Node
Date: Fri Mar 25 17:05:22 CST 2022
User: usil
Spectrometer: V785-0024
Trigger mode: 0
Integration Time (sec): 4.000000E-1
Scans to average: 1
Nonlinearity correction enabled: false
Boxcar width: 0
Storing dark spectrum: false
XAxis mode: Wavelengths
Number of Pixels in Spectrum: 1024
>>>>>Begin Spectral Data<<<<<
801.071	7986
801.214	8005
801.356	7826
801.499	7803
801.641	7811
801.783	7811
801.926	7978
802.068	7959
802.211	8024
802.353	8005
802.496	7921
802.638	7860
802.78	7849
802.923	7860
803.065	7792
803.208	7894
803.35	7871
803.492	8062
803.635	8142
803.777	8081
803.919	8054
804.061	8442
804.204	8168
804.346	8031
804.488	7989
804.63	8050
804.773	7982
804.915	8115
805.057	8336
805.199	8164
805.341	8161
805.483	8286
805.626	8267
805.768	8073
805.91	8309
806.052	8214
806.194	8039
806.336	8343
806.478	8077
806.62	8012
806.762	8149
806.904	8206
807.046	8427
807.188	8343
807.33	8317
807.472	8332
807.614	8218
807.756	8168
807.898	7940
808.04	7898
808.182	7822
808.324	7879
808.465	7894
808.607	8123
808.749	8107
808.891	8225
809.033	8339
809.174	8142
809.316	8046
809.458	8031
809.6	8008
809.741	8058
809.883	7970
810.025	8115
810.166	8027
810.308	7982
810.45	8065
810.591	7921
810.733	7715
810.875	7681
811.016	7510
811.158	7537
811.299	7480
811.441	7681
811.582	7647
811.724	7563
811.865	7499
812.007	7559
812.148	7624
812.29	7575
812.431	7738
812.573	7871
812.714	7986
812.855	8164
812.997	8240
813.138	8305
813.279	8183
813.421	8065
813.562	7955
813.703	7849
813.845	7700
813.986	7422
814.127	7247
814.268	7259
814.41	7198
814.551	7213
814.692	7228
814.833	7027
814.974	7145
815.115	7183
815.256	7023
815.397	6928
815.539	6958
815.68	6821
815.821	6768
815.962	6867
816.103	6753
816.244	6677
816.385	6616
816.526	6601
816.666	6494
816.807	6300
816.948	6475
817.089	6475
817.23	6422
817.371	6399
817.512	6353
817.653	6391
817.793	6327
817.934	6448
818.075	6441
818.216	6456
818.356	6445
818.497	6281
818.638	6072
818.778	6125
818.919	6167
819.06	6171
819.2	6323
819.341	6319
819.481	6380
819.622	6502
819.762	6738
819.903	6707
820.043	6593
820.184	6604
820.324	6525
820.465	6627
820.605	6673
820.746	6627
820.886	6521
821.026	6623
821.167	6688
821.307	6818
821.447	6722
821.588	6669
821.728	6604
821.868	6547
822.008	6327
822.149	6372
822.289	6308
822.429	6190
822.569	6121
822.709	6178
822.849	5973
822.99	5958
823.13	5961
823.27	5904
823.41	5821
823.55	5802
823.69	5775
823.83	5710
823.97	5638
824.11	5558
824.25	5490
824.389	5570
824.529	5600
824.669	5551
824.809	5653
824.949	5642
825.089	5596
825.228	5543
825.368	5417
825.508	5372
825.648	5402
825.787	5379
825.927	5436
826.067	5277
826.206	5273
826.346	5391
826.485	5376
826.625	5436
826.765	5573
826.904	5520
827.044	5227
827.183	5162
827.323	5094
827.462	5201
827.601	5166
827.741	5208
827.88	5216
828.02	5117
828.159	5216
828.298	5318
828.437	5383
828.577	5288
828.716	5482
828.855	5334
828.994	5132
829.134	5170
829.273	5197
829.412	5098
829.551	5128
829.69	5170
829.829	5258
829.968	5341
830.107	5265
830.246	5242
830.385	5170
830.524	5117
830.663	5075
830.802	4942
830.941	4892
831.08	4843
831.219	4984
831.357	4953
831.496	5193
831.635	4938
831.774	4873
831.913	4801
832.051	4748
832.19	4733
832.329	4862
832.467	4668
832.606	4714
832.744	4706
832.883	4710
833.022	4660
833.16	4786
833.299	4828
833.437	4805
833.576	4858
833.714	4835
833.852	4900
833.991	4870
834.129	4965
834.267	4972
834.406	4934
834.544	4953
834.682	4976
834.821	4949
834.959	5143
835.097	5010
835.235	5159
835.373	5117
835.511	5132
835.65	4991
835.788	5041
835.926	4889
836.064	4866
836.202	4892
836.34	5151
836.478	5223
836.615	5056
836.753	5197
836.891	5246
837.029	5273
837.167	5212
837.305	5197
837.443	5162
837.58	5090
837.718	5269
837.856	5212
837.993	5143
838.131	5239
838.269	5201
838.406	5212
838.544	5178
838.681	5048
838.819	5041
838.956	4915
839.094	4854
839.231	5006
839.369	5094
839.506	5406
839.643	5254
839.781	5045
839.918	4953
840.055	5056
840.193	5056
840.33	5105
840.467	5151
840.604	5250
840.742	5406
840.879	5094
841.016	5086
841.153	5178
841.29	5387
841.427	5311
841.564	5315
841.701	5368
841.838	5311
841.975	5208
842.112	5265
842.249	5124
842.385	5117
842.522	5299
842.659	5151
842.796	5124
842.933	5143
843.069	5128
843.206	5162
843.343	5292
843.479	5250
843.616	5239
843.752	5025
843.889	4942
844.025	5208
844.162	4976
844.298	5284
844.435	5105
844.571	5037
844.708	5193
844.844	5296
844.98	5303
845.117	5322
845.253	5121
845.389	5128
845.525	5159
845.661	5155
845.798	5041
845.934	5155
846.07	5071
846.206	5235
846.342	5299
846.478	5193
846.614	5018
846.75	4961
846.886	4908
847.022	5132
847.158	4995
847.294	5056
847.429	5098
847.565	5052
847.701	5326
847.837	4892
847.972	4797
848.108	4927
848.244	4968
848.379	4797
848.515	4752
848.65	4774
848.786	4752
848.921	4778
849.057	4828
849.192	4873
849.328	4812
849.463	4809
849.598	4835
849.734	4790
849.869	4698
850.004	4580
850.14	4622
850.275	4607
850.41	4561
850.545	4592
850.68	4618
850.815	4645
850.95	4637
851.085	4816
851.22	4763
851.355	4664
851.49	4649
851.625	4649
851.76	4641
851.895	4538
852.03	4535
852.165	4615
852.299	4694
852.434	4767
852.569	4752
852.703	4774
852.838	4835
852.973	4946
853.107	4889
853.242	4733
853.376	4702
853.511	4565
853.645	4599
853.78	4801
853.914	4672
854.048	4714
854.183	4618
854.317	4744
854.451	4793
854.585	4653
854.72	4626
854.854	4725
854.988	4580
855.122	4634
855.256	4531
855.39	4649
855.524	4782
855.658	4694
855.792	4668
855.926	4744
856.06	4771
856.194	4778
856.327	4687
856.461	4634
856.595	4618
856.729	4603
856.862	4733
856.996	4694
857.13	4755
857.263	4774
857.397	4847
857.53	4630
857.664	4744
857.797	4725
857.931	4797
858.064	4664
858.197	4717
858.331	4637
858.464	4584
858.597	4523
858.731	4653
858.864	4626
858.997	4580
859.13	4656
859.263	4645
859.396	4687
859.529	4611
859.662	4596
859.795	4535
859.928	4630
860.061	4740
860.194	4793
860.327	4618
860.46	4580
860.592	4675
860.725	4698
860.858	4717
860.99	4516
861.123	4516
861.256	4512
861.388	4634
861.521	5170
861.653	4504
861.786	4428
861.918	4462
862.05	4504
862.183	4538
862.315	4626
862.447	4634
862.58	4535
862.712	4394
862.844	4329
862.976	4447
863.108	4440
863.24	4866
863.372	4325
863.504	4402
863.636	4409
863.768	4504
863.9	4405
864.032	4402
864.164	4367
864.296	4436
864.428	4584
864.559	4546
864.691	4519
864.823	4512
864.954	4478
865.086	4550
865.217	4440
865.349	4432
865.48	4455
865.612	4500
865.743	4618
865.875	4428
866.006	4398
866.137	4462
866.269	4421
866.4	4413
866.531	4421
866.662	4363
866.793	4371
866.924	4379
867.055	4485
867.186	4440
867.317	4459
867.448	4383
867.579	4371
867.71	4379
867.841	4341
867.972	4481
868.103	4451
868.233	4436
868.364	4478
868.495	4443
868.625	4660
868.756	4755
868.886	4584
869.017	4599
869.147	4763
869.278	4771
869.408	4664
869.539	4656
869.669	4687
869.799	4637
869.929	4801
870.06	4725
870.19	4976
870.32	4923
870.45	4927
870.58	4968
870.71	5117
870.84	5083
870.97	4934
871.1	4923
871.23	5113
871.36	5113
871.489	5064
871.619	5071
871.749	5121
871.879	5162
872.008	5166
872.138	5025
872.267	4991
872.397	4843
872.526	4831
872.656	4748
872.785	4771
872.915	4938
873.044	5029
873.173	4900
873.303	4927
873.432	4942
873.561	4965
873.69	4854
873.819	4850
873.948	4835
874.077	4812
874.206	4714
874.335	4786
874.464	4965
874.593	5067
874.722	4965
874.851	5079
874.979	5083
875.108	5056
875.237	4881
875.365	4858
875.494	4877
875.623	4984
875.751	4805
875.88	4908
876.008	4976
876.136	5025
876.265	5197
876.393	5318
876.521	5269
876.65	5223
876.778	5159
876.906	5064
877.034	4987
877.162	5006
877.29	4972
877.418	5056
877.546	5010
877.674	5010
877.802	5022
877.93	4991
878.058	4953
878.185	4873
878.313	4938
878.441	4930
878.568	4831
878.696	4870
878.824	4919
878.951	5025
879.079	5121
879.206	5284
879.333	5079
879.461	4919
879.588	4972
879.715	5132
879.842	5181
879.97	5014
880.097	4801
880.224	4740
880.351	4778
880.478	4786
880.605	4744
880.732	4706
880.859	5052
880.986	4854
881.112	4946
881.239	4729
881.366	4675
881.493	4637
881.619	4592
881.746	4599
881.872	4637
881.999	4653
882.125	4672
882.252	4755
882.378	4805
882.505	4953
882.631	4850
882.757	4664
882.883	4782
883.01	4698
883.136	4645
883.262	4580
883.388	4672
883.514	4839
883.64	4866
883.766	4824
883.892	4721
884.018	4729
884.143	4896
884.269	5056
884.395	4675
884.52	4622
884.646	4668
884.772	4603
884.897	4519
885.023	4736
885.148	4862
885.274	4885
885.399	4801
885.524	4755
885.65	4706
885.775	4828
885.9	4683
886.025	4877
886.15	4809
886.275	4759
886.4	4706
886.525	4740
886.65	4752
886.775	4729
886.9	4942
887.025	5045
887.149	4812
887.274	4672
887.399	4668
887.523	4668
887.648	4630
887.773	4618
887.897	4816
888.021	4866
888.146	4668
888.27	4824
888.395	4889
888.519	4831
888.643	4892
888.767	4854
888.891	4721
889.015	4577
889.139	4733
889.263	4691
889.387	4752
889.511	4911
889.635	4889
889.759	4675
889.883	4687
890.006	4767
890.13	4881
890.254	4637
890.377	4698
890.501	4580
890.624	4558
890.748	4668
890.871	4542
890.995	4478
891.118	4432
891.241	4550
891.364	4592
891.488	4706
891.611	4603
891.734	4588
891.857	4649
891.98	4603
892.103	4645
892.226	4580
892.349	4500
892.471	4447
892.594	4561
892.717	4675
892.839	4577
892.962	4596
893.085	4729
893.207	4607
893.33	4478
893.452	4611
893.575	4744
893.697	4615
893.819	4839
893.941	4797
894.064	4759
894.186	4565
894.308	4634
894.43	4733
894.552	4900
894.674	4831
894.796	4561
894.918	4664
895.04	4542
895.161	4736
895.283	4706
895.405	4607
895.526	4630
895.648	4736
895.769	4759
895.891	4771
896.012	4809
896.134	4805
896.255	4710
896.376	4702
896.498	4653
896.619	4679
896.74	4656
896.861	4714
896.982	4930
897.103	5086
897.224	4854
897.345	4748
897.466	4691
897.587	4778
897.708	4930
897.828	4801
897.949	4706
898.07	4573
898.19	4706
898.311	4839
898.431	4717
898.552	4809
898.672	4850
898.792	4801
898.913	4790
899.033	4675
899.153	4542
899.273	4493
899.393	4497
899.513	4573
899.633	4565
899.753	4558
899.873	4577
899.993	4592
900.113	4538
900.232	4626
900.352	4554
900.472	4489
900.591	4436
900.711	4535
900.83	4436
900.95	4603
901.069	4691
901.189	4580
901.308	4424
901.427	4325
901.546	4432
901.665	4466
901.784	4523
901.904	4424
902.023	4322
902.141	4196
902.26	4188
902.379	4306
902.498	4291
902.617	4204
902.735	4440
902.854	4424
902.973	4367
903.091	4257
903.21	4253
903.328	4333
903.446	4333
903.565	4310
903.683	4424
903.801	4337
903.919	4447
904.038	4451
904.156	4333
904.274	4481
904.392	4451
904.51	4470
904.627	4478
904.745	4588
904.863	4653
904.981	4432
905.098	4303
905.216	4409
905.334	4447
905.451	4485
905.569	4466
905.686	4580
905.803	4611
905.921	4447
906.038	4573
906.155	4531
906.272	4443
906.389	4485
906.506	4360
906.623	4459
906.74	4474
906.857	4325
906.974	4356
907.091	4577
907.208	4706
907.324	4630
907.441	4554
907.557	4390
907.674	4363
907.79	4352
907.907	4417
908.023	4497
908.139	4531
908.256	4474
908.372	4451
908.488	4474
908.604	4386
908.72	4341
908.836	4421
908.952	4360
909.068	4470
909.184	4554
909.3	4535
909.415	4580
909.531	4565
909.647	4383
909.762	4398
909.878	4367
909.993	4443
910.108	4447
910.224	4409
910.339	4508
910.454	4470
910.57	4428
910.685	4390
910.8	4717
910.915	4637
911.03	4512
911.145	4383
911.259	4344
911.374	4394
911.489	4325
911.604	4280
911.718	4246
911.833	4192
911.947	4135
912.062	4105
912.176	4261
912.291	4299
912.405	4295
912.519	4497
912.633	4519
912.748	4428
912.862	4318
912.976	4215
913.09	4112
913.204	4177
913.318	4268
913.431	4383
913.545	4390
913.659	4459
913.772	4428
913.886	4257
914	4215
914.113	4417
914.226	4466
914.34	4443
914.453	4242
914.566	4462
914.68	4325
914.793	4352
914.906	4223
915.019	4169
915.132	4097
915.245	4211
915.358	4246
915.47	4234
915.583	4295
915.696	4379
915.809	4371
915.921	4447
916.034	4352
916.146	4295
916.259	4280
916.371	4409
916.483	4424
916.595	4242
916.708	4379
916.82	4322
916.932	4333
917.044	4356
917.156	4348
917.268	4249
917.38	4314
917.491	4325
917.603	4314
917.715	4447
917.826	4516
917.938	4379
918.049	4265
918.161	4451
918.272	4554
918.384	4577
918.495	4523
918.606	4310
918.717	4284
918.828	4371
918.939	4386
919.05	4265
919.161	4299
919.272	4124
919.383	4242
919.494	4451
919.604	4656
919.715	4424
919.826	4402
919.936	4405
920.047	4531
920.157	4569
920.267	4744
920.378	4504
920.488	4542
920.598	4706
920.708	4889
920.818	4771
920.928	4771
921.038	4980
921.148	4953
921.258	4584
921.368	4603
921.477	4538
921.587	4481
921.697	4413
921.806	4569
921.916	4459
922.025	4325
922.134	4280
922.244	4253
922.353	4325
922.462	4185
922.571	4154
922.68	4067
922.789	4048
922.898	4063
923.007	4013
923.116	4101
923.224	4040
923.333	4135
923.442	3987
923.55	3975
923.659	4048
923.767	4082
923.876	3983
923.984	4143
924.092	4051
924.201	4101
924.309	4101
924.417	4154
924.525	4112
924.633	4112
924.741	5090
924.849	3994
924.956	4097
925.064	3979
925.172	3896
925.279	3983
925.387	4093
925.494	4067
925.602	4227
925.709	4139
925.816	4036
925.924	4150
926.031	4204
926.138	4185
926.245	4249
926.352	4128
926.459	4265
926.566	4325
926.673	4185
926.779	4048
926.886	4093
926.993	3994
927.099	4002
927.206	4017
927.312	3937
927.419	4063
927.525	4044
927.631	4090
927.737	4029
927.843	3934
927.95	3861
928.056	3987
928.162	3956
928.267	4059
928.373	4637
928.479	4116
928.585	3861
928.69	4059
928.796	4074
928.901	3968
929.007	3880
929.112	4067
929.218	3998
929.323	3994
929.428	3930
929.533	4158
929.638	3945
929.743	3949
929.848	4059
929.953	3975
930.058	3994
930.163	3816
930.267	3827
930.372	3998
930.477	3838
930.581	4101
930.685	3991
930.79	3884
930.894	3899
930.998	3869
931.103	4078
931.207	3759
931.311	3709
931.415	3690
931.519	3549
931.623	3564
