Data from test_V78500241_381.txt Node
Date: Fri Mar 25 16:51:39 CST 2022
User: usil
Spectrometer: V785-0024
Trigger mode: 0
Integration Time (sec): 4.000000E-1
Scans to average: 1
Nonlinearity correction enabled: false
Boxcar width: 0
Storing dark spectrum: false
XAxis mode: Wavelengths
Number of Pixels in Spectrum: 1024
>>>>>Begin Spectral Data<<<<<
801.071	8123
801.214	8073
801.356	7974
801.499	7921
801.641	7868
801.783	7906
801.926	8027
802.068	8054
802.211	8088
802.353	8027
802.496	7883
802.638	7906
802.78	7978
802.923	8001
803.065	7864
803.208	7978
803.35	8035
803.492	8062
803.635	8073
803.777	8012
803.919	8138
804.061	8507
804.204	8183
804.346	8092
804.488	7986
804.63	8149
804.773	8024
804.915	8142
805.057	8343
805.199	8225
805.341	8206
805.483	8320
805.626	8214
805.768	8149
805.91	8153
806.052	8301
806.194	8195
806.336	8469
806.478	8259
806.62	8134
806.762	8256
806.904	8332
807.046	8541
807.188	8393
807.33	8358
807.472	8389
807.614	8229
807.756	8233
807.898	8092
808.04	7970
808.182	8031
808.324	7989
808.465	8031
808.607	8096
808.749	8221
808.891	8240
809.033	8328
809.174	8256
809.316	8008
809.458	8123
809.6	8024
809.741	8142
809.883	8031
810.025	8119
810.166	8130
810.308	8149
810.45	8096
810.591	7917
810.733	7830
810.875	7769
811.016	7597
811.158	7552
811.299	7753
811.441	7890
811.582	7792
811.724	7666
811.865	7651
812.007	7742
812.148	7677
812.29	7712
812.431	7750
812.573	7986
812.714	8100
812.855	8126
812.997	8225
813.138	8431
813.279	8237
813.421	8145
813.562	8119
813.703	7978
813.845	7864
813.986	7628
814.127	7335
814.268	7312
814.41	7232
814.551	7240
814.692	7255
814.833	7095
814.974	7145
815.115	7141
815.256	6989
815.397	6958
815.539	7015
815.68	6848
815.821	6821
815.962	6924
816.103	6875
816.244	6852
816.385	6650
816.526	6696
816.666	6528
816.807	6365
816.948	6441
817.089	6471
817.23	6467
817.371	6437
817.512	6384
817.653	6490
817.793	6388
817.934	6498
818.075	6509
818.216	6532
818.356	6509
818.497	6327
818.638	6182
818.778	6213
818.919	6155
819.06	6140
819.2	6380
819.341	6365
819.481	6418
819.622	6585
819.762	6772
819.903	6757
820.043	6627
820.184	6593
820.324	6620
820.465	6741
820.605	6757
820.746	6612
820.886	6585
821.026	6738
821.167	6776
821.307	6818
821.447	6818
821.588	6753
821.728	6608
821.868	6525
822.008	6391
822.149	6460
822.289	6361
822.429	6254
822.569	6125
822.709	6159
822.849	6007
822.99	5958
823.13	5946
823.27	5961
823.41	5844
823.55	5855
823.69	5802
823.83	5859
823.97	5684
824.11	5516
824.25	5551
824.389	5554
824.529	5634
824.669	5551
824.809	5649
824.949	5707
825.089	5634
825.228	5623
825.368	5402
825.508	5376
825.648	5299
825.787	5459
825.927	5387
826.067	5379
826.206	5337
826.346	5429
826.485	5433
826.625	5436
826.765	5642
826.904	5493
827.044	5311
827.183	5189
827.323	5189
827.462	5273
827.601	5201
827.741	5239
827.88	5288
828.02	5128
828.159	5288
828.298	5337
828.437	5345
828.577	5311
828.716	5493
828.855	5334
828.994	5170
829.134	5185
829.273	5223
829.412	5117
829.551	5136
829.69	5159
829.829	5296
829.968	5433
830.107	5280
830.246	5280
830.385	5212
830.524	5151
830.663	5124
830.802	4995
830.941	4908
831.08	4911
831.219	5014
831.357	5025
831.496	5201
831.635	4980
831.774	4881
831.913	4892
832.051	4782
832.19	4736
832.329	4843
832.467	4660
832.606	4675
832.744	4767
832.883	4763
833.022	4736
833.16	4816
833.299	4885
833.437	4828
833.576	4877
833.714	4858
833.852	4911
833.991	4934
834.129	4987
834.267	4949
834.406	4976
834.544	4991
834.682	4987
834.821	4980
834.959	5174
835.097	4984
835.235	5166
835.373	5113
835.511	5086
835.65	5045
835.788	5022
835.926	4938
836.064	4904
836.202	4938
836.34	5216
836.478	5273
836.615	5212
836.753	5220
836.891	5315
837.029	5261
837.167	5178
837.305	5223
837.443	5124
837.58	5083
837.718	5273
837.856	5239
837.993	5185
838.131	5261
838.269	5265
838.406	5204
838.544	5204
838.681	5056
838.819	5056
838.956	4968
839.094	4938
839.231	4968
839.369	5075
839.506	5482
839.643	5307
839.781	5117
839.918	5079
840.055	5117
840.193	5121
840.33	5132
840.467	5162
840.604	5208
840.742	5410
840.879	5090
841.016	5121
841.153	5201
841.29	5448
841.427	5395
841.564	5372
841.701	5417
841.838	5296
841.975	5242
842.112	5284
842.249	5140
842.385	5143
842.522	5349
842.659	5189
842.796	5170
842.933	5220
843.069	5181
843.206	5178
843.343	5341
843.479	5261
843.616	5231
843.752	5060
843.889	5056
844.025	5258
844.162	5094
844.298	5277
844.435	5109
844.571	5079
844.708	5208
844.844	5326
844.98	5353
845.117	5318
845.253	5212
845.389	5105
845.525	5185
845.661	5170
845.798	5045
845.934	5162
846.07	5064
846.206	5242
846.342	5292
846.478	5170
846.614	5064
846.75	4961
846.886	4953
847.022	5136
847.158	5060
847.294	5071
847.429	5136
847.565	5048
847.701	5368
847.837	4820
847.972	4812
848.108	4972
848.244	4984
848.379	4831
848.515	4733
848.65	4774
848.786	4763
848.921	4881
849.057	4847
849.192	4911
849.328	4835
849.463	4858
849.598	4831
849.734	4755
849.869	4691
850.004	4664
850.14	4714
850.275	4630
850.41	4546
850.545	4580
850.68	4641
850.815	4656
850.95	4668
851.085	4896
851.22	4752
851.355	4702
851.49	4679
851.625	4634
851.76	4630
851.895	4573
852.03	4519
852.165	4668
852.299	4729
852.434	4805
852.569	4778
852.703	4790
852.838	4885
852.973	4949
853.107	4953
853.242	4752
853.376	4694
853.511	4599
853.645	4645
853.78	4824
853.914	4672
854.048	4725
854.183	4683
854.317	4687
854.451	4892
854.585	4660
854.72	4668
854.854	4767
854.988	4626
855.122	4675
855.256	4550
855.39	4660
855.524	4797
855.658	4733
855.792	4710
855.926	4698
856.06	4767
856.194	4854
856.327	4736
856.461	4634
856.595	4660
856.729	4664
856.862	4759
856.996	4694
857.13	4755
857.263	4843
857.397	4824
857.53	4660
857.664	4710
857.797	4748
857.931	4733
858.064	4679
858.197	4759
858.331	4656
858.464	4588
858.597	4546
858.731	4641
858.864	4634
858.997	4615
859.13	4698
859.263	4656
859.396	4725
859.529	4577
859.662	4573
859.795	4607
859.928	4679
860.061	4774
860.194	4740
860.327	4618
860.46	4603
860.592	4694
860.725	4725
860.858	4717
860.99	4611
861.123	4512
861.256	4550
861.388	4653
861.521	5341
861.653	4519
861.786	4466
861.918	4504
862.05	4546
862.183	4588
862.315	4664
862.447	4656
862.58	4523
862.712	4413
862.844	4360
862.976	4470
863.108	4466
863.24	4790
863.372	4303
863.504	4447
863.636	4402
863.768	4516
863.9	4447
864.032	4371
864.164	4436
864.296	4470
864.428	4550
864.559	4611
864.691	4554
864.823	4554
864.954	4508
865.086	4493
865.217	4485
865.349	4424
865.48	4462
865.612	4466
865.743	4687
865.875	4508
866.006	4474
866.137	4470
866.269	4481
866.4	4440
866.531	4451
866.662	4462
866.793	4462
866.924	4424
867.055	4478
867.186	4440
867.317	4409
867.448	4417
867.579	4413
867.71	4428
867.841	4356
867.972	4478
868.103	4489
868.233	4478
868.364	4470
868.495	4535
868.625	4653
868.756	4786
868.886	4580
869.017	4626
869.147	4824
869.278	4816
869.408	4725
869.539	4687
869.669	4721
869.799	4687
869.929	4828
870.06	4740
870.19	4942
870.32	4972
870.45	4946
870.58	5014
870.71	5143
870.84	5098
870.97	4987
871.1	4919
871.23	5143
871.36	5151
871.489	5079
871.619	5102
871.749	5143
871.879	5147
872.008	5162
872.138	5075
872.267	5003
872.397	4816
872.526	4828
872.656	4717
872.785	4870
872.915	4946
873.044	5094
873.173	4930
873.303	4957
873.432	4999
873.561	4938
873.69	4847
873.819	4858
873.948	4919
874.077	4835
874.206	4809
874.335	4835
874.464	4961
874.593	5041
874.722	4946
874.851	5117
874.979	5079
875.108	5075
875.237	4904
875.365	4892
875.494	4953
875.623	4991
875.751	4858
875.88	4904
876.008	5006
876.136	5071
876.265	5185
876.393	5303
876.521	5292
876.65	5208
876.778	5170
876.906	5113
877.034	5094
877.162	5098
877.29	5048
877.418	5075
877.546	5033
877.674	5071
877.802	5048
877.93	5025
878.058	4980
878.185	4881
878.313	5003
878.441	4900
878.568	4786
878.696	4881
878.824	4953
878.951	5037
879.079	5159
879.206	5284
879.333	5075
879.461	5014
879.588	5022
879.715	5143
879.842	5246
879.97	4999
880.097	4805
880.224	4755
880.351	4809
880.478	4847
880.605	4782
880.732	4782
880.859	5056
880.986	4953
881.112	4911
881.239	4812
881.366	4710
881.493	4622
881.619	4584
881.746	4641
881.872	4656
881.999	4679
882.125	4679
882.252	4759
882.378	4843
882.505	5006
882.631	4782
882.757	4683
882.883	4691
883.01	4736
883.136	4626
883.262	4656
883.388	4630
883.514	4771
883.64	4870
883.766	4778
883.892	4653
884.018	4748
884.143	4835
884.269	5003
884.395	4706
884.52	4618
884.646	4683
884.772	4584
884.897	4588
885.023	4687
885.148	4786
885.274	4866
885.399	4797
885.524	4763
885.65	4729
885.775	4752
885.9	4702
886.025	4870
886.15	4801
886.275	4736
886.4	4687
886.525	4759
886.65	4725
886.775	4668
886.9	4938
887.025	5048
887.149	4782
887.274	4649
887.399	4599
887.523	4573
887.648	4603
887.773	4580
887.897	4725
888.021	4767
888.146	4653
888.27	4820
888.395	4866
888.519	4812
888.643	4812
888.767	4881
888.891	4717
889.015	4607
889.139	4668
889.263	4558
889.387	4778
889.511	4850
889.635	4809
889.759	4714
889.883	4653
890.006	4740
890.13	4862
890.254	4653
890.377	4668
890.501	4569
890.624	4523
890.748	4660
890.871	4535
890.995	4428
891.118	4394
891.241	4535
891.364	4558
891.488	4645
891.611	4538
891.734	4516
891.857	4626
891.98	4630
892.103	4592
892.226	4645
892.349	4519
892.471	4436
892.594	4542
892.717	4584
892.839	4577
892.962	4615
893.085	4706
893.207	4596
893.33	4455
893.452	4527
893.575	4653
893.697	4592
893.819	4752
893.941	4828
894.064	4797
894.186	4588
894.308	4592
894.43	4748
894.552	4854
894.674	4752
894.796	4607
894.918	4531
895.04	4565
895.161	4710
895.283	4649
895.405	4573
895.526	4653
895.648	4736
895.769	4740
895.891	4698
896.012	4763
896.134	4736
896.255	4645
896.376	4641
896.498	4630
896.619	4717
896.74	4626
896.861	4664
896.982	4949
897.103	5124
897.224	4793
897.345	4748
897.466	4698
897.587	4698
897.708	4892
897.828	4812
897.949	4668
898.07	4508
898.19	4580
898.311	4850
898.431	4725
898.552	4759
898.672	4759
898.792	4797
898.913	4778
899.033	4603
899.153	4489
899.273	4424
899.393	4497
899.513	4565
899.633	4554
899.753	4531
899.873	4466
899.993	4561
900.113	4542
900.232	4626
900.352	4558
900.472	4485
900.591	4413
900.711	4523
900.83	4402
900.95	4641
901.069	4721
901.189	4523
901.308	4409
901.427	4341
901.546	4394
901.665	4519
901.784	4512
901.904	4375
902.023	4314
902.141	4238
902.26	4173
902.379	4265
902.498	4276
902.617	4287
902.735	4394
902.854	4405
902.973	4405
903.091	4204
903.21	4253
903.328	4291
903.446	4280
903.565	4272
903.683	4363
903.801	4314
903.919	4390
904.038	4447
904.156	4303
904.274	4504
904.392	4436
904.51	4451
904.627	4527
904.745	4588
904.863	4626
904.981	4409
905.098	4306
905.216	4398
905.334	4402
905.451	4417
905.569	4455
905.686	4592
905.803	4554
905.921	4409
906.038	4523
906.155	4512
906.272	4390
906.389	4485
906.506	4367
906.623	4367
906.74	4421
906.857	4325
906.974	4424
907.091	4561
907.208	4706
907.324	4573
907.441	4508
907.557	4375
907.674	4375
907.79	4337
907.907	4402
908.023	4508
908.139	4462
908.256	4443
908.372	4527
908.488	4485
908.604	4341
908.72	4306
908.836	4371
908.952	4367
909.068	4409
909.184	4577
909.3	4451
909.415	4550
909.531	4546
909.647	4337
909.762	4398
909.878	4371
909.993	4462
910.108	4402
910.224	4398
910.339	4451
910.454	4398
910.57	4360
910.685	4325
910.8	4679
910.915	4603
911.03	4478
911.145	4341
911.259	4344
911.374	4379
911.489	4291
911.604	4287
911.718	4185
911.833	4200
911.947	4120
912.062	4002
912.176	4227
912.291	4295
912.405	4272
912.519	4462
912.633	4519
912.748	4360
912.862	4356
912.976	4185
913.09	4112
913.204	4173
913.318	4246
913.431	4348
913.545	4383
913.659	4409
913.772	4318
913.886	4223
914	4238
914.113	4402
914.226	4409
914.34	4405
914.453	4257
914.566	4443
914.68	4363
914.793	4314
914.906	4185
915.019	4101
915.132	4086
915.245	4185
915.358	4246
915.47	4219
915.583	4280
915.696	4265
915.809	4436
915.921	4398
916.034	4272
916.146	4234
916.259	4246
916.371	4413
916.483	4402
916.595	4280
916.708	4299
916.82	4322
916.932	4333
917.044	4352
917.156	4329
917.268	4211
917.38	4227
917.491	4261
917.603	4310
917.715	4402
917.826	4424
917.938	4360
918.049	4249
918.161	4413
918.272	4512
918.384	4569
918.495	4481
918.606	4276
918.717	4230
918.828	4325
918.939	4386
919.05	4268
919.161	4371
919.272	4154
919.383	4219
919.494	4447
919.604	4672
919.715	4466
919.826	4341
919.936	4383
920.047	4542
920.157	4516
920.267	4675
920.378	4573
920.488	4497
920.598	4710
920.708	4927
920.818	4729
920.928	4729
921.038	4896
921.148	4961
921.258	4607
921.368	4523
921.477	4497
921.587	4497
921.697	4436
921.806	4527
921.916	4421
922.025	4257
922.134	4265
922.244	4204
922.353	4329
922.462	4188
922.571	4109
922.68	4006
922.789	3987
922.898	4051
923.007	4013
923.116	4124
923.224	4059
923.333	4101
923.442	3953
923.55	3979
923.659	4021
923.767	4071
923.876	4010
923.984	4109
924.092	3979
924.201	4097
924.309	4112
924.417	4109
924.525	4029
924.633	4071
924.741	4866
924.849	3896
924.956	4124
925.064	3998
925.172	3922
925.279	4013
925.387	4063
925.494	4055
925.602	4227
925.709	4173
925.816	4013
925.924	4135
926.031	4204
926.138	4200
926.245	4219
926.352	4105
926.459	4238
926.566	4344
926.673	4181
926.779	4071
926.886	4128
926.993	4021
927.099	4029
927.206	3945
927.312	3937
927.419	4086
927.525	4051
927.631	4078
927.737	3972
927.843	3907
927.95	3838
928.056	3983
928.162	4002
928.267	4116
928.373	4679
928.479	4166
928.585	3888
928.69	4032
928.796	4097
928.901	4029
929.007	3812
929.112	3987
929.218	4002
929.323	3945
929.428	3953
929.533	4139
929.638	3899
929.743	3968
929.848	4044
929.953	3964
930.058	3937
930.163	3770
930.267	3838
930.372	3968
930.477	3808
930.581	4090
930.685	3968
930.79	3812
930.894	3907
930.998	3869
931.103	4063
931.207	3705
931.311	3686
931.415	3717
931.519	3542
931.623	3526
