Data from test_V78500241_2787.txt Node
Date: Fri Mar 25 17:08:22 CST 2022
User: usil
Spectrometer: V785-0024
Trigger mode: 0
Integration Time (sec): 4.000000E-1
Scans to average: 1
Nonlinearity correction enabled: false
Boxcar width: 0
Storing dark spectrum: false
XAxis mode: Wavelengths
Number of Pixels in Spectrum: 1024
>>>>>Begin Spectral Data<<<<<
801.071	7993
801.214	8016
801.356	7837
801.499	7856
801.641	7814
801.783	7852
801.926	8016
802.068	7894
802.211	7963
802.353	8020
802.496	7906
802.638	7879
802.78	8005
802.923	7917
803.065	7902
803.208	7871
803.35	7940
803.492	8065
803.635	8123
803.777	8073
803.919	8180
804.061	8412
804.204	8119
804.346	8073
804.488	7967
804.63	8119
804.773	8008
804.915	8145
805.057	8191
805.199	8119
805.341	8221
805.483	8259
805.626	8271
805.768	8138
805.91	8206
806.052	8187
806.194	8115
806.336	8282
806.478	8126
806.62	8092
806.762	8130
806.904	8309
807.046	8427
807.188	8362
807.33	8286
807.472	8400
807.614	8119
807.756	8138
807.898	8073
808.04	7890
808.182	7909
808.324	7947
808.465	7906
808.607	8130
808.749	8142
808.891	8263
809.033	8324
809.174	8172
809.316	8016
809.458	8062
809.6	7997
809.741	8130
809.883	8065
810.025	8058
810.166	8077
810.308	7978
810.45	7997
810.591	7913
810.733	7708
810.875	7685
811.016	7563
811.158	7499
811.299	7624
811.441	7742
811.582	7689
811.724	7567
811.865	7567
812.007	7556
812.148	7624
812.29	7689
812.431	7772
812.573	7811
812.714	7955
812.855	8115
812.997	8202
813.138	8233
813.279	8107
813.421	8157
813.562	8031
813.703	7833
813.845	7788
813.986	7445
814.127	7324
814.268	7228
814.41	7213
814.551	7206
814.692	7217
814.833	7000
814.974	7076
815.115	7149
815.256	6932
815.397	6958
815.539	6882
815.68	6829
815.821	6810
815.962	6894
816.103	6814
816.244	6772
816.385	6627
816.526	6635
816.666	6433
816.807	6315
816.948	6426
817.089	6506
817.23	6391
817.371	6380
817.512	6304
817.653	6384
817.793	6304
817.934	6445
818.075	6475
818.216	6426
818.356	6395
818.497	6232
818.638	6167
818.778	6163
818.919	6163
819.06	6155
819.2	6342
819.341	6296
819.481	6338
819.622	6563
819.762	6749
819.903	6787
820.043	6639
820.184	6578
820.324	6620
820.465	6665
820.605	6707
820.746	6589
820.886	6471
821.026	6650
821.167	6722
821.307	6783
821.447	6738
821.588	6673
821.728	6646
821.868	6490
822.008	6311
822.149	6372
822.289	6357
822.429	6155
822.569	6095
822.709	6117
822.849	5927
822.99	5908
823.13	5961
823.27	5920
823.41	5767
823.55	5790
823.69	5760
823.83	5779
823.97	5684
824.11	5539
824.25	5528
824.389	5547
824.529	5543
824.669	5478
824.809	5665
824.949	5684
825.089	5604
825.228	5592
825.368	5471
825.508	5337
825.648	5383
825.787	5368
825.927	5395
826.067	5277
826.206	5311
826.346	5406
826.485	5436
826.625	5376
826.765	5543
826.904	5497
827.044	5212
827.183	5212
827.323	5132
827.462	5254
827.601	5223
827.741	5208
827.88	5250
828.02	5132
828.159	5227
828.298	5311
828.437	5383
828.577	5296
828.716	5478
828.855	5318
828.994	5132
829.134	5128
829.273	5166
829.412	5181
829.551	5136
829.69	5117
829.829	5235
829.968	5364
830.107	5265
830.246	5315
830.385	5181
830.524	5117
830.663	5083
830.802	5003
830.941	4908
831.08	4885
831.219	5025
831.357	4961
831.496	5109
831.635	4911
831.774	4843
831.913	4839
832.051	4759
832.19	4740
832.329	4839
832.467	4664
832.606	4664
832.744	4721
832.883	4736
833.022	4752
833.16	4831
833.299	4850
833.437	4854
833.576	4801
833.714	4839
833.852	4850
833.991	4927
834.129	4968
834.267	4919
834.406	4896
834.544	4976
834.682	4987
834.821	5006
834.959	5151
835.097	4957
835.235	5121
835.373	5083
835.511	5147
835.65	4999
835.788	5014
835.926	4923
836.064	4881
836.202	4919
836.34	5159
836.478	5208
836.615	5098
836.753	5212
836.891	5307
837.029	5261
837.167	5223
837.305	5136
837.443	5117
837.58	5052
837.718	5227
837.856	5159
837.993	5170
838.131	5223
838.269	5197
838.406	5204
838.544	5181
838.681	5060
838.819	5029
838.956	4885
839.094	4904
839.231	4961
839.369	5052
839.506	5425
839.643	5258
839.781	5045
839.918	4984
840.055	5052
840.193	5083
840.33	5105
840.467	5143
840.604	5189
840.742	5433
840.879	5067
841.016	5094
841.153	5151
841.29	5341
841.427	5330
841.564	5318
841.701	5379
841.838	5349
841.975	5250
842.112	5246
842.249	5121
842.385	5109
842.522	5322
842.659	5223
842.796	5143
842.933	5220
843.069	5132
843.206	5147
843.343	5360
843.479	5208
843.616	5265
843.752	5037
843.889	4995
844.025	5235
844.162	5048
844.298	5212
844.435	5094
844.571	5060
844.708	5204
844.844	5357
844.98	5353
845.117	5246
845.253	5166
845.389	5098
845.525	5136
845.661	5174
845.798	5018
845.934	5117
846.07	5033
846.206	5178
846.342	5315
846.478	5174
846.614	5006
846.75	4934
846.886	4915
847.022	5143
847.158	5056
847.294	5075
847.429	5090
847.565	5071
847.701	5318
847.837	4854
847.972	4786
848.108	4911
848.244	4904
848.379	4786
848.515	4729
848.65	4771
848.786	4698
848.921	4763
849.057	4892
849.192	4934
849.328	4801
849.463	4816
849.598	4824
849.734	4744
849.869	4691
850.004	4630
850.14	4702
850.275	4626
850.41	4588
850.545	4603
850.68	4607
850.815	4649
850.95	4649
851.085	4850
851.22	4744
851.355	4656
851.49	4584
851.625	4634
851.76	4580
851.895	4546
852.03	4516
852.165	4660
852.299	4706
852.434	4782
852.569	4702
852.703	4778
852.838	4923
852.973	4915
853.107	4911
853.242	4714
853.376	4672
853.511	4523
853.645	4649
853.78	4831
853.914	4683
854.048	4653
854.183	4656
854.317	4679
854.451	4816
854.585	4702
854.72	4588
854.854	4767
854.988	4607
855.122	4622
855.256	4497
855.39	4656
855.524	4793
855.658	4698
855.792	4683
855.926	4740
856.06	4771
856.194	4797
856.327	4687
856.461	4550
856.595	4565
856.729	4588
856.862	4755
856.996	4687
857.13	4748
857.263	4763
857.397	4797
857.53	4626
857.664	4733
857.797	4812
857.931	4774
858.064	4645
858.197	4733
858.331	4611
858.464	4618
858.597	4523
858.731	4611
858.864	4645
858.997	4569
859.13	4637
859.263	4634
859.396	4683
859.529	4565
859.662	4558
859.795	4542
859.928	4637
860.061	4721
860.194	4786
860.327	4565
860.46	4580
860.592	4721
860.725	4714
860.858	4744
860.99	4592
861.123	4535
861.256	4512
861.388	4618
861.521	5315
861.653	4516
861.786	4443
861.918	4447
862.05	4508
862.183	4535
862.315	4592
862.447	4641
862.58	4546
862.712	4421
862.844	4341
862.976	4470
863.108	4447
863.24	4729
863.372	4310
863.504	4447
863.636	4421
863.768	4481
863.9	4417
864.032	4383
864.164	4352
864.296	4466
864.428	4478
864.559	4603
864.691	4538
864.823	4573
864.954	4535
865.086	4466
865.217	4493
865.349	4405
865.48	4462
865.612	4489
865.743	4569
865.875	4493
866.006	4462
866.137	4455
866.269	4466
866.4	4462
866.531	4402
866.662	4405
866.793	4421
866.924	4398
867.055	4459
867.186	4443
867.317	4451
867.448	4363
867.579	4428
867.71	4360
867.841	4409
867.972	4466
868.103	4481
868.233	4440
868.364	4432
868.495	4485
868.625	4641
868.756	4706
868.886	4546
869.017	4634
869.147	4771
869.278	4786
869.408	4649
869.539	4645
869.669	4710
869.799	4702
869.929	4801
870.06	4694
870.19	4953
870.32	4965
870.45	4904
870.58	5056
870.71	5083
870.84	5048
870.97	4949
871.1	4908
871.23	5113
871.36	5075
871.489	4999
871.619	5075
871.749	5102
871.879	5140
872.008	5174
872.138	5086
872.267	5018
872.397	4835
872.526	4820
872.656	4740
872.785	4801
872.915	4976
873.044	5003
873.173	4904
873.303	4995
873.432	4949
873.561	4938
873.69	4870
873.819	4900
873.948	4930
874.077	4839
874.206	4759
874.335	4805
874.464	4949
874.593	5075
874.722	4987
874.851	5071
874.979	5048
875.108	5029
875.237	4927
875.365	4820
875.494	4858
875.623	4972
875.751	4824
875.88	4911
876.008	4972
876.136	5048
876.265	5223
876.393	5349
876.521	5254
876.65	5189
876.778	5132
876.906	5086
877.034	5037
877.162	5102
877.29	5003
877.418	5060
877.546	5048
877.674	5029
877.802	5029
877.93	5041
878.058	4991
878.185	4805
878.313	4961
878.441	4915
878.568	4752
878.696	4892
878.824	4976
878.951	4980
879.079	5140
879.206	5284
879.333	5071
879.461	4968
879.588	5018
879.715	5075
879.842	5197
879.97	5025
880.097	4786
880.224	4752
880.351	4824
880.478	4828
880.605	4782
880.732	4801
880.859	5121
880.986	4835
881.112	4885
881.239	4759
881.366	4687
881.493	4615
881.619	4592
881.746	4645
881.872	4664
881.999	4634
882.125	4630
882.252	4782
882.378	4839
882.505	4934
882.631	4736
882.757	4664
882.883	4733
883.01	4733
883.136	4675
883.262	4580
883.388	4603
883.514	4809
883.64	4892
883.766	4782
883.892	4687
884.018	4721
884.143	4927
884.269	4995
884.395	4626
884.52	4561
884.646	4656
884.772	4588
884.897	4592
885.023	4675
885.148	4793
885.274	4870
885.399	4801
885.524	4744
885.65	4660
885.775	4717
885.9	4748
886.025	4835
886.15	4717
886.275	4725
886.4	4668
886.525	4714
886.65	4755
886.775	4717
886.9	4839
887.025	5022
887.149	4778
887.274	4683
887.399	4611
887.523	4626
887.648	4588
887.773	4607
887.897	4763
888.021	4763
888.146	4672
888.27	4809
888.395	4949
888.519	4797
888.643	4850
888.767	4873
888.891	4675
889.015	4626
889.139	4641
889.263	4611
889.387	4744
889.511	4870
889.635	4793
889.759	4630
889.883	4618
890.006	4763
890.13	4835
890.254	4592
890.377	4675
890.501	4542
890.624	4527
890.748	4683
890.871	4462
890.995	4432
891.118	4436
891.241	4523
891.364	4508
891.488	4660
891.611	4459
891.734	4577
891.857	4577
891.98	4550
892.103	4618
892.226	4611
892.349	4493
892.471	4424
892.594	4527
892.717	4607
892.839	4558
892.962	4565
893.085	4664
893.207	4645
893.33	4413
893.452	4512
893.575	4649
893.697	4637
893.819	4835
893.941	4854
894.064	4801
894.186	4584
894.308	4561
894.43	4752
894.552	4835
894.674	4675
894.796	4527
894.918	4630
895.04	4607
895.161	4702
895.283	4668
895.405	4588
895.526	4634
895.648	4664
895.769	4679
895.891	4706
896.012	4771
896.134	4714
896.255	4656
896.376	4634
896.498	4618
896.619	4641
896.74	4653
896.861	4641
896.982	4927
897.103	5067
897.224	4850
897.345	4778
897.466	4622
897.587	4706
897.708	4839
897.828	4710
897.949	4641
898.07	4573
898.19	4615
898.311	4797
898.431	4710
898.552	4706
898.672	4763
898.792	4801
898.913	4729
899.033	4649
899.153	4519
899.273	4417
899.393	4474
899.513	4512
899.633	4512
899.753	4561
899.873	4519
899.993	4542
900.113	4542
900.232	4630
900.352	4554
900.472	4508
900.591	4352
900.711	4504
900.83	4459
900.95	4622
901.069	4664
901.189	4519
901.308	4344
901.427	4314
901.546	4436
901.665	4455
901.784	4546
901.904	4398
902.023	4284
902.141	4207
902.26	4120
902.379	4318
902.498	4265
902.617	4223
902.735	4360
902.854	4424
902.973	4360
903.091	4253
903.21	4227
903.328	4310
903.446	4291
903.565	4253
903.683	4333
903.801	4242
903.919	4398
904.038	4451
904.156	4299
904.274	4455
904.392	4398
904.51	4398
904.627	4493
904.745	4561
904.863	4668
904.981	4421
905.098	4249
905.216	4390
905.334	4447
905.451	4436
905.569	4432
905.686	4569
905.803	4550
905.921	4405
906.038	4512
906.155	4493
906.272	4383
906.389	4508
906.506	4367
906.623	4386
906.74	4375
906.857	4310
906.974	4398
907.091	4558
907.208	4645
907.324	4558
907.441	4546
907.557	4352
907.674	4379
907.79	4322
907.907	4417
908.023	4455
908.139	4459
908.256	4417
908.372	4474
908.488	4481
908.604	4371
908.72	4303
908.836	4383
908.952	4409
909.068	4421
909.184	4542
909.3	4489
909.415	4561
909.531	4554
909.647	4322
909.762	4383
909.878	4360
909.993	4432
910.108	4474
910.224	4405
910.339	4523
910.454	4409
910.57	4394
910.685	4329
910.8	4668
910.915	4626
911.03	4462
911.145	4310
911.259	4337
911.374	4356
911.489	4246
911.604	4272
911.718	4131
911.833	4173
911.947	4082
912.062	4055
912.176	4227
912.291	4230
912.405	4261
912.519	4481
912.633	4489
912.748	4390
912.862	4272
912.976	4200
913.09	4116
913.204	4166
913.318	4257
913.431	4352
913.545	4329
913.659	4432
913.772	4352
913.886	4219
914	4257
914.113	4356
914.226	4417
914.34	4386
914.453	4207
914.566	4447
914.68	4238
914.793	4303
914.906	4181
915.019	4105
915.132	4059
915.245	4207
915.358	4177
915.47	4219
915.583	4280
915.696	4295
915.809	4451
915.921	4436
916.034	4253
916.146	4249
916.259	4211
916.371	4394
916.483	4314
916.595	4272
916.708	4322
916.82	4341
916.932	4329
917.044	4291
917.156	4325
917.268	4249
917.38	4322
917.491	4280
917.603	4306
917.715	4386
917.826	4462
917.938	4325
918.049	4261
918.161	4409
918.272	4596
918.384	4565
918.495	4424
918.606	4303
918.717	4246
918.828	4348
918.939	4363
919.05	4261
919.161	4333
919.272	4116
919.383	4223
919.494	4481
919.604	4687
919.715	4459
919.826	4363
919.936	4402
920.047	4512
920.157	4512
920.267	4649
920.378	4558
920.488	4519
920.598	4729
920.708	4877
920.818	4755
920.928	4729
921.038	4934
921.148	4938
921.258	4641
921.368	4561
921.477	4485
921.587	4459
921.697	4371
921.806	4561
921.916	4367
922.025	4257
922.134	4322
922.244	4192
922.353	4325
922.462	4223
922.571	4116
922.68	3975
922.789	3941
922.898	4093
923.007	4006
923.116	4086
923.224	4044
923.333	4116
923.442	3949
923.55	3994
923.659	4013
923.767	4082
923.876	4036
923.984	4097
924.092	4006
924.201	4071
924.309	4017
924.417	4124
924.525	4059
924.633	4147
924.741	4911
924.849	3873
924.956	4116
925.064	3964
925.172	3899
925.279	3926
925.387	4051
925.494	4063
925.602	4223
925.709	4196
925.816	4021
925.924	4105
926.031	4253
926.138	4169
926.245	4181
926.352	4067
926.459	4223
926.566	4306
926.673	4086
926.779	4105
926.886	4086
926.993	4010
927.099	3972
927.206	3941
927.312	3918
927.419	4090
927.525	4025
927.631	4029
927.737	3960
927.843	3964
927.95	3896
928.056	3907
928.162	3998
928.267	4040
928.373	4710
928.479	4116
928.585	3873
928.69	3987
928.796	4071
928.901	3968
929.007	3842
929.112	4032
929.218	3987
929.323	3903
929.428	3968
929.533	4109
929.638	3884
929.743	3918
929.848	4036
929.953	3975
930.058	3953
930.163	3778
930.267	3812
930.372	3934
930.477	3823
930.581	4086
930.685	3926
930.79	3838
930.894	3850
930.998	3804
931.103	4021
931.207	3713
931.311	3652
931.415	3690
931.519	3568
931.623	3545
