Data from test_V78500241_504.txt Node
Date: Fri Mar 25 16:52:30 CST 2022
User: usil
Spectrometer: V785-0024
Trigger mode: 0
Integration Time (sec): 4.000000E-1
Scans to average: 1
Nonlinearity correction enabled: false
Boxcar width: 0
Storing dark spectrum: false
XAxis mode: Wavelengths
Number of Pixels in Spectrum: 1024
>>>>>Begin Spectral Data<<<<<
801.071	8058
801.214	8016
801.356	7875
801.499	7814
801.641	7845
801.783	7822
801.926	7963
802.068	7989
802.211	8020
802.353	8062
802.496	7875
802.638	7879
802.78	7898
802.923	7970
803.065	7864
803.208	7841
803.35	7940
803.492	8031
803.635	8107
803.777	8027
803.919	8145
804.061	8484
804.204	8145
804.346	7989
804.488	7902
804.63	8043
804.773	8046
804.915	8107
805.057	8313
805.199	8183
805.341	8298
805.483	8282
805.626	8145
805.768	8039
805.91	8195
806.052	8206
806.194	8111
806.336	8324
806.478	8138
806.62	8123
806.762	8180
806.904	8240
807.046	8446
807.188	8351
807.33	8248
807.472	8355
807.614	8084
807.756	8069
807.898	8012
808.04	7887
808.182	7917
808.324	7955
808.465	7898
808.607	8016
808.749	8088
808.891	8279
809.033	8229
809.174	8259
809.316	8077
809.458	8046
809.6	7997
809.741	8096
809.883	8046
810.025	8096
810.166	8157
810.308	8054
810.45	7982
810.591	7875
810.733	7719
810.875	7662
811.016	7594
811.158	7548
811.299	7609
811.441	7803
811.582	7651
811.724	7613
811.865	7575
812.007	7601
812.148	7613
812.29	7620
812.431	7734
812.573	7944
812.714	8054
812.855	8138
812.997	8263
813.138	8313
813.279	8244
813.421	8237
813.562	8092
813.703	7944
813.845	7833
813.986	7666
814.127	7346
814.268	7312
814.41	7232
814.551	7175
814.692	7164
814.833	7069
814.974	7122
815.115	7175
815.256	6962
815.397	6970
815.539	6920
815.68	6806
815.821	6818
815.962	6856
816.103	6882
816.244	6798
816.385	6639
816.526	6688
816.666	6528
816.807	6292
816.948	6429
817.089	6517
817.23	6464
817.371	6372
817.512	6338
817.653	6361
817.793	6342
817.934	6467
818.075	6464
818.216	6380
818.356	6426
818.497	6262
818.638	6159
818.778	6194
818.919	6155
819.06	6220
819.2	6350
819.341	6296
819.481	6357
819.622	6513
819.762	6753
819.903	6703
820.043	6623
820.184	6544
820.324	6464
820.465	6684
820.605	6658
820.746	6616
820.886	6452
821.026	6707
821.167	6715
821.307	6806
821.447	6753
821.588	6662
821.728	6589
821.868	6475
822.008	6361
822.149	6315
822.289	6403
822.429	6155
822.569	6140
822.709	6129
822.849	5950
822.99	5901
823.13	5897
823.27	5977
823.41	5794
823.55	5775
823.69	5752
823.83	5798
823.97	5688
824.11	5543
824.25	5532
824.389	5570
824.529	5589
824.669	5558
824.809	5646
824.949	5642
825.089	5649
825.228	5608
825.368	5452
825.508	5330
825.648	5383
825.787	5398
825.927	5360
826.067	5315
826.206	5296
826.346	5383
826.485	5395
826.625	5414
826.765	5539
826.904	5455
827.044	5265
827.183	5204
827.323	5117
827.462	5284
827.601	5204
827.741	5189
827.88	5201
828.02	5132
828.159	5269
828.298	5277
828.437	5398
828.577	5334
828.716	5436
828.855	5368
828.994	5204
829.134	5193
829.273	5212
829.412	5155
829.551	5124
829.69	5193
829.829	5265
829.968	5391
830.107	5265
830.246	5345
830.385	5201
830.524	5140
830.663	5071
830.802	4995
830.941	4919
831.08	4847
831.219	5052
831.357	4968
831.496	5166
831.635	4927
831.774	4877
831.913	4831
832.051	4706
832.19	4736
832.329	4843
832.467	4683
832.606	4637
832.744	4683
832.883	4748
833.022	4740
833.16	4816
833.299	4870
833.437	4812
833.576	4873
833.714	4881
833.852	4862
833.991	4908
834.129	4995
834.267	5014
834.406	4927
834.544	4991
834.682	4927
834.821	4961
834.959	5197
835.097	5041
835.235	5155
835.373	5109
835.511	5124
835.65	5033
835.788	5006
835.926	4946
836.064	4870
836.202	4976
836.34	5109
836.478	5258
836.615	5136
836.753	5242
836.891	5292
837.029	5273
837.167	5124
837.305	5147
837.443	5098
837.58	5102
837.718	5235
837.856	5212
837.993	5204
838.131	5223
838.269	5216
838.406	5242
838.544	5220
838.681	5098
838.819	5048
838.956	4949
839.094	4892
839.231	5010
839.369	5105
839.506	5440
839.643	5265
839.781	5071
839.918	5025
840.055	5071
840.193	5090
840.33	5159
840.467	5159
840.604	5166
840.742	5471
840.879	5086
841.016	5143
841.153	5162
841.29	5372
841.427	5364
841.564	5360
841.701	5440
841.838	5318
841.975	5326
842.112	5261
842.249	5159
842.385	5140
842.522	5318
842.659	5170
842.796	5147
842.933	5208
843.069	5140
843.206	5193
843.343	5311
843.479	5216
843.616	5307
843.752	5094
843.889	5018
844.025	5178
844.162	5086
844.298	5189
844.435	5079
844.571	5079
844.708	5185
844.844	5288
844.98	5299
845.117	5280
845.253	5170
845.389	5090
845.525	5185
845.661	5235
845.798	5079
845.934	5124
846.07	5094
846.206	5239
846.342	5292
846.478	5159
846.614	5064
846.75	4919
846.886	4919
847.022	5170
847.158	5006
847.294	5022
847.429	5124
847.565	5075
847.701	5307
847.837	4885
847.972	4870
848.108	4995
848.244	4904
848.379	4824
848.515	4748
848.65	4733
848.786	4782
848.921	4805
849.057	4831
849.192	4896
849.328	4828
849.463	4892
849.598	4763
849.734	4786
849.869	4687
850.004	4664
850.14	4736
850.275	4607
850.41	4558
850.545	4580
850.68	4626
850.815	4672
850.95	4622
851.085	4843
851.22	4763
851.355	4679
851.49	4618
851.625	4611
851.76	4698
851.895	4596
852.03	4580
852.165	4675
852.299	4752
852.434	4862
852.569	4767
852.703	4778
852.838	4839
852.973	4968
853.107	4908
853.242	4759
853.376	4653
853.511	4584
853.645	4656
853.78	4824
853.914	4717
854.048	4752
854.183	4687
854.317	4710
854.451	4919
854.585	4691
854.72	4702
854.854	4862
854.988	4679
855.122	4698
855.256	4558
855.39	4759
855.524	4870
855.658	4755
855.792	4790
855.926	4774
856.06	4835
856.194	4847
856.327	4767
856.461	4717
856.595	4637
856.729	4645
856.862	4748
856.996	4778
857.13	4740
857.263	4858
857.397	4831
857.53	4698
857.664	4797
857.797	4801
857.931	4843
858.064	4733
858.197	4850
858.331	4710
858.464	4653
858.597	4542
858.731	4710
858.864	4694
858.997	4622
859.13	4672
859.263	4694
859.396	4698
859.529	4618
859.662	4622
859.795	4561
859.928	4679
860.061	4805
860.194	4812
860.327	4691
860.46	4664
860.592	4759
860.725	4778
860.858	4767
860.99	4626
861.123	4535
861.256	4573
861.388	4664
861.521	5357
861.653	4550
861.786	4500
861.918	4523
862.05	4596
862.183	4599
862.315	4660
862.447	4706
862.58	4596
862.712	4451
862.844	4405
862.976	4569
863.108	4500
863.24	4782
863.372	4363
863.504	4462
863.636	4424
863.768	4523
863.9	4447
864.032	4379
864.164	4466
864.296	4535
864.428	4611
864.559	4569
864.691	4561
864.823	4554
864.954	4497
865.086	4535
865.217	4500
865.349	4459
865.48	4485
865.612	4519
865.743	4626
865.875	4550
866.006	4516
866.137	4455
866.269	4485
866.4	4466
866.531	4459
866.662	4405
866.793	4462
866.924	4474
867.055	4497
867.186	4512
867.317	4443
867.448	4383
867.579	4428
867.71	4413
867.841	4440
867.972	4500
868.103	4516
868.233	4538
868.364	4470
868.495	4519
868.625	4679
868.756	4767
868.886	4584
869.017	4622
869.147	4786
869.278	4812
869.408	4691
869.539	4706
869.669	4790
869.799	4679
869.929	4835
870.06	4733
870.19	4987
870.32	4965
870.45	4957
870.58	5060
870.71	5071
870.84	5227
870.97	4953
871.1	4957
871.23	5193
871.36	5166
871.489	5086
871.619	5117
871.749	5121
871.879	5117
872.008	5162
872.138	5170
872.267	5033
872.397	4877
872.526	4866
872.656	4763
872.785	4820
872.915	4961
873.044	5105
873.173	4987
873.303	4987
873.432	4904
873.561	4980
873.69	4904
873.819	4934
873.948	4923
874.077	4824
874.206	4790
874.335	4850
874.464	4984
874.593	5090
874.722	4968
874.851	5189
874.979	5132
875.108	5102
875.237	5022
875.365	4976
875.494	4946
875.623	5003
875.751	4927
875.88	4915
876.008	5014
876.136	5010
876.265	5258
876.393	5406
876.521	5372
876.65	5277
876.778	5197
876.906	5143
877.034	5029
877.162	5075
877.29	5048
877.418	5098
877.546	5052
877.674	5094
877.802	5151
877.93	5109
878.058	4999
878.185	4881
878.313	5025
878.441	4991
878.568	4850
878.696	4934
878.824	4991
878.951	5006
879.079	5170
879.206	5341
879.333	5067
879.461	5048
879.588	5052
879.715	5147
879.842	5216
879.97	5056
880.097	4820
880.224	4805
880.351	4862
880.478	4885
880.605	4847
880.732	4850
880.859	5136
880.986	4930
881.112	4957
881.239	4797
881.366	4706
881.493	4634
881.619	4637
881.746	4702
881.872	4687
881.999	4706
882.125	4710
882.252	4816
882.378	4843
882.505	4995
882.631	4835
882.757	4729
882.883	4801
883.01	4778
883.136	4679
883.262	4645
883.388	4653
883.514	4843
883.64	4858
883.766	4790
883.892	4675
884.018	4740
884.143	4904
884.269	5010
884.395	4698
884.52	4679
884.646	4668
884.772	4630
884.897	4565
885.023	4672
885.148	4801
885.274	4862
885.399	4824
885.524	4710
885.65	4748
885.775	4793
885.9	4782
886.025	4877
886.15	4839
886.275	4744
886.4	4664
886.525	4793
886.65	4710
886.775	4733
886.9	4980
887.025	5052
887.149	4752
887.274	4660
887.399	4615
887.523	4599
887.648	4615
887.773	4611
887.897	4816
888.021	4752
888.146	4675
888.27	4870
888.395	4934
888.519	4839
888.643	4866
888.767	4858
888.891	4660
889.015	4653
889.139	4656
889.263	4622
889.387	4816
889.511	4835
889.635	4805
889.759	4653
889.883	4729
890.006	4782
890.13	4866
890.254	4714
890.377	4694
890.501	4580
890.624	4535
890.748	4656
890.871	4527
890.995	4451
891.118	4402
891.241	4569
891.364	4596
891.488	4710
891.611	4516
891.734	4596
891.857	4588
891.98	4573
892.103	4691
892.226	4630
892.349	4538
892.471	4508
892.594	4580
892.717	4611
892.839	4569
892.962	4580
893.085	4683
893.207	4592
893.33	4478
893.452	4580
893.575	4694
893.697	4675
893.819	4786
893.941	4892
894.064	4752
894.186	4584
894.308	4580
894.43	4733
894.552	4839
894.674	4767
894.796	4546
894.918	4694
895.04	4569
895.161	4725
895.283	4710
895.405	4554
895.526	4649
895.648	4714
895.769	4698
895.891	4725
896.012	4771
896.134	4759
896.255	4710
896.376	4683
896.498	4675
896.619	4694
896.74	4592
896.861	4672
896.982	4957
897.103	5086
897.224	4843
897.345	4778
897.466	4691
897.587	4721
897.708	4885
897.828	4835
897.949	4725
898.07	4607
898.19	4664
898.311	4854
898.431	4725
898.552	4767
898.672	4835
898.792	4892
898.913	4805
899.033	4683
899.153	4542
899.273	4432
899.393	4531
899.513	4523
899.633	4569
899.753	4573
899.873	4542
899.993	4630
900.113	4558
900.232	4569
900.352	4554
900.472	4554
900.591	4443
900.711	4516
900.83	4459
900.95	4641
901.069	4702
901.189	4603
901.308	4379
901.427	4367
901.546	4417
901.665	4512
901.784	4527
901.904	4428
902.023	4379
902.141	4230
902.26	4215
902.379	4356
902.498	4204
902.617	4238
902.735	4413
902.854	4421
902.973	4409
903.091	4272
903.21	4242
903.328	4356
903.446	4318
903.565	4322
903.683	4390
903.801	4344
903.919	4375
904.038	4451
904.156	4352
904.274	4447
904.392	4428
904.51	4455
904.627	4478
904.745	4569
904.863	4634
904.981	4440
905.098	4314
905.216	4383
905.334	4508
905.451	4451
905.569	4489
905.686	4607
905.803	4599
905.921	4413
906.038	4580
906.155	4478
906.272	4447
906.389	4462
906.506	4428
906.623	4341
906.74	4436
906.857	4284
906.974	4375
907.091	4607
907.208	4702
907.324	4630
907.441	4485
907.557	4398
907.674	4352
907.79	4329
907.907	4436
908.023	4493
908.139	4424
908.256	4436
908.372	4459
908.488	4462
908.604	4390
908.72	4352
908.836	4417
908.952	4386
909.068	4489
909.184	4599
909.3	4451
909.415	4622
909.531	4558
909.647	4390
909.762	4375
909.878	4371
909.993	4478
910.108	4424
910.224	4409
910.339	4512
910.454	4470
910.57	4417
910.685	4325
910.8	4653
910.915	4599
911.03	4523
911.145	4299
911.259	4398
911.374	4417
911.489	4318
911.604	4284
911.718	4196
911.833	4227
911.947	4093
912.062	4059
912.176	4253
912.291	4268
912.405	4299
912.519	4489
912.633	4504
912.748	4383
912.862	4306
912.976	4230
913.09	4135
913.204	4150
913.318	4249
913.431	4383
913.545	4383
913.659	4466
913.772	4424
913.886	4204
914	4265
914.113	4394
914.226	4424
914.34	4436
914.453	4253
914.566	4443
914.68	4341
914.793	4287
914.906	4177
915.019	4139
915.132	4082
915.245	4227
915.358	4242
915.47	4291
915.583	4310
915.696	4337
915.809	4424
915.921	4478
916.034	4276
916.146	4280
916.259	4272
916.371	4394
916.483	4375
916.595	4257
916.708	4329
916.82	4337
916.932	4367
917.044	4375
917.156	4356
917.268	4230
917.38	4318
917.491	4284
917.603	4337
917.715	4436
917.826	4462
917.938	4371
918.049	4284
918.161	4417
918.272	4577
918.384	4546
918.495	4432
918.606	4276
918.717	4234
918.828	4398
918.939	4390
919.05	4284
919.161	4310
919.272	4154
919.383	4200
919.494	4424
919.604	4675
919.715	4440
919.826	4375
919.936	4459
920.047	4523
920.157	4500
920.267	4721
920.378	4611
920.488	4489
920.598	4725
920.708	4858
920.818	4790
920.928	4740
921.038	5018
921.148	4877
921.258	4653
921.368	4573
921.477	4546
921.587	4493
921.697	4344
921.806	4535
921.916	4417
922.025	4261
922.134	4341
922.244	4280
922.353	4344
922.462	4204
922.571	4188
922.68	3998
922.789	3994
922.898	4044
923.007	3998
923.116	4105
923.224	4086
923.333	4124
923.442	4021
923.55	3994
923.659	4055
923.767	4139
923.876	4040
923.984	4112
924.092	4021
924.201	4093
924.309	4143
924.417	4154
924.525	4097
924.633	4166
924.741	5075
924.849	3964
924.956	4154
925.064	3979
925.172	3922
925.279	3979
925.387	4143
925.494	4097
925.602	4246
925.709	4227
925.816	4055
925.924	4177
926.031	4257
926.138	4211
926.245	4166
926.352	4090
926.459	4306
926.566	4333
926.673	4154
926.779	4082
926.886	4143
926.993	3979
927.099	3983
927.206	3956
927.312	3953
927.419	4025
927.525	4002
927.631	4147
927.737	3975
927.843	3918
927.95	3857
928.056	3968
928.162	4017
928.267	4086
928.373	4729
928.479	4120
928.585	3896
928.69	3987
928.796	4112
928.901	3953
929.007	3793
929.112	4021
929.218	4002
929.323	3956
929.428	3991
929.533	4101
929.638	3937
929.743	3926
929.848	4078
929.953	4044
930.058	3937
930.163	3816
930.267	3816
930.372	4025
930.477	3850
930.581	4109
930.685	3956
930.79	3797
930.894	3899
930.998	3903
931.103	4067
931.207	3747
931.311	3713
931.415	3682
931.519	3515
931.623	3553
