Data from test_V78500241_427.txt Node
Date: Fri Mar 25 16:51:58 CST 2022
User: usil
Spectrometer: V785-0024
Trigger mode: 0
Integration Time (sec): 4.000000E-1
Scans to average: 1
Nonlinearity correction enabled: false
Boxcar width: 0
Storing dark spectrum: false
XAxis mode: Wavelengths
Number of Pixels in Spectrum: 1024
>>>>>Begin Spectral Data<<<<<
801.071	8119
801.214	7989
801.356	7928
801.499	7890
801.641	7841
801.783	7879
801.926	8058
802.068	7993
802.211	8012
802.353	7993
802.496	7917
802.638	7898
802.78	7879
802.923	7940
803.065	7890
803.208	7898
803.35	7944
803.492	8016
803.635	8115
803.777	7932
803.919	8157
804.061	8381
804.204	8115
804.346	8046
804.488	7959
804.63	7997
804.773	7989
804.915	8081
805.057	8320
805.199	8180
805.341	8256
805.483	8279
805.626	8191
805.768	7982
805.91	8172
806.052	8164
806.194	8027
806.336	8415
806.478	8115
806.62	8088
806.762	8183
806.904	8233
807.046	8480
807.188	8385
807.33	8275
807.472	8290
807.614	8168
807.756	8202
807.898	8027
808.04	7849
808.182	7944
808.324	7970
808.465	7925
808.607	8069
808.749	8130
808.891	8218
809.033	8301
809.174	8218
809.316	8012
809.458	8035
809.6	7959
809.741	8031
809.883	8073
810.025	8050
810.166	8103
810.308	8043
810.45	8084
810.591	7826
810.733	7734
810.875	7700
811.016	7502
811.158	7495
811.299	7628
811.441	7830
811.582	7738
811.724	7613
811.865	7559
812.007	7616
812.148	7643
812.29	7704
812.431	7837
812.573	7887
812.714	8046
812.855	8138
812.997	8279
813.138	8393
813.279	8237
813.421	8161
813.562	8046
813.703	7974
813.845	7811
813.986	7480
814.127	7400
814.268	7331
814.41	7266
814.551	7240
814.692	7244
814.833	7133
814.974	7118
815.115	7126
815.256	6981
815.397	6943
815.539	6954
815.68	6863
815.821	6806
815.962	6920
816.103	6840
816.244	6772
816.385	6654
816.526	6635
816.666	6509
816.807	6391
816.948	6528
817.089	6445
817.23	6448
817.371	6365
817.512	6414
817.653	6346
817.793	6391
817.934	6418
818.075	6498
818.216	6456
818.356	6475
818.497	6228
818.638	6102
818.778	6178
818.919	6083
819.06	6129
819.2	6304
819.341	6296
819.481	6376
819.622	6566
819.762	6818
819.903	6681
820.043	6601
820.184	6582
820.324	6623
820.465	6715
820.605	6589
820.746	6635
820.886	6559
821.026	6707
821.167	6715
821.307	6810
821.447	6802
821.588	6681
821.728	6559
821.868	6528
822.008	6338
822.149	6445
822.289	6410
822.429	6194
822.569	6064
822.709	6136
822.849	5996
822.99	5942
823.13	5912
823.27	6045
823.41	5828
823.55	5874
823.69	5840
823.83	5874
823.97	5653
824.11	5608
824.25	5562
824.389	5596
824.529	5596
824.669	5558
824.809	5695
824.949	5649
825.089	5653
825.228	5619
825.368	5482
825.508	5410
825.648	5387
825.787	5417
825.927	5402
826.067	5387
826.206	5395
826.346	5429
826.485	5444
826.625	5482
826.765	5611
826.904	5554
827.044	5269
827.183	5239
827.323	5128
827.462	5292
827.601	5201
827.741	5250
827.88	5254
828.02	5102
828.159	5292
828.298	5364
828.437	5395
828.577	5345
828.716	5528
828.855	5345
828.994	5204
829.134	5201
829.273	5273
829.412	5220
829.551	5105
829.69	5204
829.829	5258
829.968	5429
830.107	5273
830.246	5349
830.385	5220
830.524	5197
830.663	5109
830.802	5006
830.941	4949
831.08	4877
831.219	4991
831.357	5056
831.496	5208
831.635	4961
831.774	4896
831.913	4911
832.051	4759
832.19	4782
832.329	4911
832.467	4786
832.606	4615
832.744	4793
832.883	4816
833.022	4744
833.16	4805
833.299	4885
833.437	4816
833.576	4831
833.714	4889
833.852	4892
833.991	4911
834.129	4995
834.267	4980
834.406	4949
834.544	5064
834.682	5010
834.821	4999
834.959	5220
835.097	5025
835.235	5185
835.373	5185
835.511	5208
835.65	5071
835.788	5037
835.926	4976
836.064	4938
836.202	5006
836.34	5208
836.478	5269
836.615	5185
836.753	5269
836.891	5322
837.029	5311
837.167	5204
837.305	5201
837.443	5220
837.58	5132
837.718	5269
837.856	5242
837.993	5204
838.131	5254
838.269	5269
838.406	5235
838.544	5223
838.681	5094
838.819	5064
838.956	4976
839.094	4942
839.231	5014
839.369	5124
839.506	5433
839.643	5315
839.781	5102
839.918	5075
840.055	5140
840.193	5121
840.33	5136
840.467	5178
840.604	5220
840.742	5471
840.879	5174
841.016	5151
841.153	5201
841.29	5383
841.427	5364
841.564	5330
841.701	5387
841.838	5280
841.975	5242
842.112	5299
842.249	5174
842.385	5109
842.522	5387
842.659	5258
842.796	5239
842.933	5216
843.069	5128
843.206	5220
843.343	5318
843.479	5341
843.616	5341
843.752	5067
843.889	5064
844.025	5273
844.162	5086
844.298	5280
844.435	5151
844.571	5090
844.708	5280
844.844	5296
844.98	5330
845.117	5334
845.253	5128
845.389	5117
845.525	5159
845.661	5174
845.798	5121
845.934	5159
846.07	5159
846.206	5212
846.342	5315
846.478	5181
846.614	5048
846.75	4972
846.886	5003
847.022	5121
847.158	5056
847.294	5056
847.429	5174
847.565	5113
847.701	5341
847.837	4877
847.972	4877
848.108	4987
848.244	4957
848.379	4862
848.515	4763
848.65	4771
848.786	4790
848.921	4839
849.057	4866
849.192	4927
849.328	4881
849.463	4881
849.598	4805
849.734	4850
849.869	4729
850.004	4649
850.14	4698
850.275	4653
850.41	4565
850.545	4630
850.68	4577
850.815	4645
850.95	4634
851.085	4870
851.22	4752
851.355	4698
851.49	4702
851.625	4698
851.76	4683
851.895	4611
852.03	4542
852.165	4691
852.299	4774
852.434	4763
852.569	4771
852.703	4824
852.838	4934
852.973	4968
853.107	4961
853.242	4771
853.376	4733
853.511	4611
853.645	4664
853.78	4820
853.914	4660
854.048	4736
854.183	4729
854.317	4767
854.451	4896
854.585	4675
854.72	4656
854.854	4805
854.988	4630
855.122	4664
855.256	4554
855.39	4694
855.524	4858
855.658	4763
855.792	4736
855.926	4755
856.06	4752
856.194	4839
856.327	4733
856.461	4649
856.595	4649
856.729	4626
856.862	4755
856.996	4725
857.13	4782
857.263	4782
857.397	4831
857.53	4710
857.664	4752
857.797	4763
857.931	4812
858.064	4725
858.197	4801
858.331	4694
858.464	4687
858.597	4508
858.731	4668
858.864	4733
858.997	4634
859.13	4694
859.263	4687
859.396	4729
859.529	4599
859.662	4618
859.795	4588
859.928	4675
860.061	4828
860.194	4831
860.327	4653
860.46	4611
860.592	4755
860.725	4748
860.858	4755
860.99	4649
861.123	4592
861.256	4561
861.388	4618
861.521	5474
861.653	4523
861.786	4481
861.918	4516
862.05	4561
862.183	4546
862.315	4683
862.447	4694
862.58	4542
862.712	4455
862.844	4367
862.976	4508
863.108	4474
863.24	4752
863.372	4363
863.504	4508
863.636	4436
863.768	4527
863.9	4485
864.032	4383
864.164	4462
864.296	4489
864.428	4580
864.559	4584
864.691	4588
864.823	4527
864.954	4531
865.086	4535
865.217	4462
865.349	4413
865.48	4459
865.612	4531
865.743	4683
865.875	4493
866.006	4447
866.137	4516
866.269	4462
866.4	4523
866.531	4500
866.662	4394
866.793	4428
866.924	4424
867.055	4493
867.186	4478
867.317	4497
867.448	4379
867.579	4421
867.71	4447
867.841	4394
867.972	4478
868.103	4447
868.233	4470
868.364	4561
868.495	4542
868.625	4641
868.756	4820
868.886	4615
869.017	4691
869.147	4763
869.278	4816
869.408	4672
869.539	4664
869.669	4774
869.799	4687
869.929	4744
870.06	4748
870.19	4938
870.32	4923
870.45	4991
870.58	5083
870.71	5159
870.84	5113
870.97	4946
871.1	4942
871.23	5147
871.36	5121
871.489	5025
871.619	5079
871.749	5162
871.879	5140
872.008	5178
872.138	5132
872.267	4991
872.397	4896
872.526	4824
872.656	4767
872.785	4812
872.915	4953
873.044	5033
873.173	5003
873.303	5018
873.432	5022
873.561	5003
873.69	4885
873.819	4915
873.948	4927
874.077	4839
874.206	4782
874.335	4801
874.464	4915
874.593	5067
874.722	5045
874.851	5174
874.979	5041
875.108	5098
875.237	4942
875.365	4930
875.494	4900
875.623	4980
875.751	4843
875.88	4957
876.008	5006
876.136	5083
876.265	5254
876.393	5395
876.521	5246
876.65	5239
876.778	5212
876.906	5132
877.034	5102
877.162	5048
877.29	5064
877.418	5086
877.546	5064
877.674	5037
877.802	5056
877.93	5010
878.058	4999
878.185	4873
878.313	5010
878.441	4957
878.568	4793
878.696	4900
878.824	4976
878.951	5048
879.079	5159
879.206	5303
879.333	5128
879.461	5037
879.588	5067
879.715	5159
879.842	5220
879.97	5048
880.097	4809
880.224	4790
880.351	4831
880.478	4835
880.605	4812
880.732	4820
880.859	5086
880.986	4934
881.112	4923
881.239	4839
881.366	4683
881.493	4656
881.619	4630
881.746	4683
881.872	4675
881.999	4637
882.125	4717
882.252	4778
882.378	4843
882.505	5048
882.631	4809
882.757	4706
882.883	4805
883.01	4763
883.136	4683
883.262	4630
883.388	4691
883.514	4892
883.64	4938
883.766	4778
883.892	4717
884.018	4698
884.143	4877
884.269	5029
884.395	4717
884.52	4622
884.646	4645
884.772	4565
884.897	4599
885.023	4687
885.148	4793
885.274	4892
885.399	4854
885.524	4706
885.65	4702
885.775	4805
885.9	4725
886.025	4915
886.15	4767
886.275	4744
886.4	4740
886.525	4790
886.65	4729
886.775	4736
886.9	4927
887.025	5033
887.149	4801
887.274	4694
887.399	4622
887.523	4656
887.648	4592
887.773	4645
887.897	4774
888.021	4797
888.146	4774
888.27	4812
888.395	4942
888.519	4793
888.643	4877
888.767	4839
888.891	4694
889.015	4577
889.139	4694
889.263	4615
889.387	4793
889.511	4892
889.635	4870
889.759	4687
889.883	4668
890.006	4736
890.13	4873
890.254	4683
890.377	4668
890.501	4565
890.624	4550
890.748	4637
890.871	4504
890.995	4462
891.118	4405
891.241	4535
891.364	4546
891.488	4611
891.611	4538
891.734	4558
891.857	4641
891.98	4573
892.103	4698
892.226	4596
892.349	4538
892.471	4455
892.594	4584
892.717	4630
892.839	4577
892.962	4618
893.085	4687
893.207	4668
893.33	4497
893.452	4500
893.575	4664
893.697	4664
893.819	4816
893.941	4828
894.064	4793
894.186	4580
894.308	4592
894.43	4763
894.552	4862
894.674	4782
894.796	4535
894.918	4615
895.04	4550
895.161	4733
895.283	4717
895.405	4626
895.526	4653
895.648	4725
895.769	4714
895.891	4801
896.012	4755
896.134	4740
896.255	4736
896.376	4603
896.498	4622
896.619	4653
896.74	4611
896.861	4588
896.982	4919
897.103	5022
897.224	4843
897.345	4752
897.466	4679
897.587	4717
897.708	4839
897.828	4763
897.949	4634
898.07	4596
898.19	4725
898.311	4816
898.431	4687
898.552	4771
898.672	4877
898.792	4797
898.913	4717
899.033	4653
899.153	4569
899.273	4443
899.393	4493
899.513	4550
899.633	4538
899.753	4569
899.873	4470
899.993	4622
900.113	4561
900.232	4611
900.352	4554
900.472	4512
900.591	4390
900.711	4512
900.83	4466
900.95	4622
901.069	4736
901.189	4546
901.308	4383
901.427	4291
901.546	4344
901.665	4462
901.784	4527
901.904	4402
902.023	4367
902.141	4185
902.26	4196
902.379	4306
902.498	4246
902.617	4230
902.735	4333
902.854	4386
902.973	4405
903.091	4242
903.21	4219
903.328	4344
903.446	4295
903.565	4272
903.683	4371
903.801	4329
903.919	4413
904.038	4474
904.156	4344
904.274	4466
904.392	4409
904.51	4421
904.627	4489
904.745	4584
904.863	4641
904.981	4421
905.098	4322
905.216	4379
905.334	4428
905.451	4405
905.569	4485
905.686	4538
905.803	4596
905.921	4405
906.038	4538
906.155	4500
906.272	4390
906.389	4481
906.506	4337
906.623	4383
906.74	4409
906.857	4287
906.974	4390
907.091	4538
907.208	4706
907.324	4649
907.441	4519
907.557	4356
907.674	4375
907.79	4333
907.907	4390
908.023	4440
908.139	4478
908.256	4443
908.372	4447
908.488	4436
908.604	4356
908.72	4310
908.836	4383
908.952	4394
909.068	4432
909.184	4546
909.3	4466
909.415	4584
909.531	4573
909.647	4390
909.762	4352
909.878	4337
909.993	4443
910.108	4413
910.224	4405
910.339	4432
910.454	4360
910.57	4329
910.685	4337
910.8	4664
910.915	4580
911.03	4474
911.145	4402
911.259	4375
911.374	4428
911.489	4314
911.604	4295
911.718	4162
911.833	4238
911.947	4109
912.062	4044
912.176	4207
912.291	4257
912.405	4257
912.519	4504
912.633	4489
912.748	4379
912.862	4276
912.976	4211
913.09	4112
913.204	4158
913.318	4234
913.431	4386
913.545	4386
913.659	4474
913.772	4325
913.886	4284
914	4299
914.113	4447
914.226	4451
914.34	4421
914.453	4265
914.566	4436
914.68	4272
914.793	4348
914.906	4124
915.019	4147
915.132	4086
915.245	4207
915.358	4230
915.47	4253
915.583	4253
915.696	4329
915.809	4440
915.921	4413
916.034	4268
916.146	4249
916.259	4219
916.371	4367
916.483	4375
916.595	4268
916.708	4306
916.82	4344
916.932	4371
917.044	4325
917.156	4363
917.268	4276
917.38	4265
917.491	4295
917.603	4348
917.715	4443
917.826	4447
917.938	4344
918.049	4257
918.161	4417
918.272	4504
918.384	4554
918.495	4413
918.606	4303
918.717	4284
918.828	4329
918.939	4386
919.05	4291
919.161	4371
919.272	4154
919.383	4242
919.494	4462
919.604	4630
919.715	4451
919.826	4375
919.936	4432
920.047	4527
920.157	4478
920.267	4736
920.378	4538
920.488	4519
920.598	4691
920.708	4908
920.818	4771
920.928	4797
921.038	4968
921.148	4934
921.258	4630
921.368	4592
921.477	4554
921.587	4485
921.697	4421
921.806	4558
921.916	4428
922.025	4272
922.134	4230
922.244	4257
922.353	4344
922.462	4143
922.571	4097
922.68	4067
922.789	3998
922.898	4063
923.007	3991
923.116	4086
923.224	4059
923.333	4101
923.442	4013
923.55	4029
923.659	4025
923.767	4112
923.876	4006
923.984	4120
924.092	3960
924.201	4074
924.309	4101
924.417	4150
924.525	4059
924.633	4112
924.741	5121
924.849	3934
924.956	4101
925.064	3975
925.172	3907
925.279	3956
925.387	4025
925.494	4078
925.602	4257
925.709	4109
925.816	4025
925.924	4101
926.031	4257
926.138	4173
926.245	4173
926.352	4067
926.459	4249
926.566	4352
926.673	4162
926.779	4101
926.886	4109
926.993	4021
927.099	3960
927.206	3945
927.312	3922
927.419	4036
927.525	4044
927.631	4124
927.737	3956
927.843	3956
927.95	3922
928.056	3979
928.162	3991
928.267	4078
928.373	4668
928.479	4105
928.585	3903
928.69	4029
928.796	4090
928.901	3991
929.007	3865
929.112	3979
929.218	4002
929.323	3934
929.428	3937
929.533	4112
929.638	3899
929.743	3956
929.848	4025
929.953	4013
930.058	3911
930.163	3781
930.267	3835
930.372	4013
930.477	3804
930.581	4097
930.685	3972
930.79	3819
930.894	3918
930.998	3892
931.103	4025
931.207	3675
931.311	3690
931.415	3656
931.519	3500
931.623	3564
