Data from test_V78500241_2595.txt Node
Date: Fri Mar 25 17:07:02 CST 2022
User: usil
Spectrometer: V785-0024
Trigger mode: 0
Integration Time (sec): 4.000000E-1
Scans to average: 1
Nonlinearity correction enabled: false
Boxcar width: 0
Storing dark spectrum: false
XAxis mode: Wavelengths
Number of Pixels in Spectrum: 1024
>>>>>Begin Spectral Data<<<<<
801.071	8027
801.214	8046
801.356	7879
801.499	7871
801.641	7757
801.783	7814
801.926	7982
802.068	7970
802.211	7928
802.353	8016
802.496	7913
802.638	7940
802.78	7849
802.923	7913
803.065	7913
803.208	7803
803.35	7947
803.492	8024
803.635	8149
803.777	8001
803.919	8176
804.061	8351
804.204	8172
804.346	8005
804.488	7997
804.63	8100
804.773	7959
804.915	8134
805.057	8324
805.199	8138
805.341	8286
805.483	8305
805.626	8248
805.768	8210
805.91	8202
806.052	8161
806.194	8092
806.336	8301
806.478	8126
806.62	8084
806.762	8134
806.904	8221
807.046	8438
807.188	8343
807.33	8336
807.472	8317
807.614	8191
807.756	8172
807.898	8039
808.04	7932
808.182	7887
808.324	7906
808.465	7963
808.607	8088
808.749	8058
808.891	8252
809.033	8328
809.174	8191
809.316	8130
809.458	8001
809.6	8054
809.741	8069
809.883	7978
810.025	8130
810.166	8123
810.308	8005
810.45	8005
810.591	7875
810.733	7746
810.875	7666
811.016	7628
811.158	7453
811.299	7548
811.441	7727
811.582	7727
811.724	7578
811.865	7567
812.007	7525
812.148	7628
812.29	7556
812.431	7723
812.573	7913
812.714	7982
812.855	8145
812.997	8202
813.138	8282
813.279	8191
813.421	8065
813.562	7963
813.703	7856
813.845	7750
813.986	7396
814.127	7297
814.268	7259
814.41	7225
814.551	7221
814.692	7251
814.833	7129
814.974	7152
815.115	7118
815.256	6989
815.397	6844
815.539	6916
815.68	6810
815.821	6779
815.962	6814
816.103	6844
816.244	6722
816.385	6612
816.526	6589
816.666	6486
816.807	6323
816.948	6403
817.089	6441
817.23	6456
817.371	6441
817.512	6422
817.653	6414
817.793	6292
817.934	6429
818.075	6486
818.216	6380
818.356	6380
818.497	6224
818.638	6117
818.778	6133
818.919	6171
819.06	6159
819.2	6353
819.341	6346
819.481	6357
819.622	6551
819.762	6726
819.903	6741
820.043	6642
820.184	6589
820.324	6620
820.465	6662
820.605	6692
820.746	6665
820.886	6483
821.026	6654
821.167	6730
821.307	6844
821.447	6772
821.588	6688
821.728	6570
821.868	6513
822.008	6338
822.149	6460
822.289	6391
822.429	6186
822.569	6117
822.709	6190
822.849	5901
822.99	5958
823.13	5992
823.27	5961
823.41	5798
823.55	5790
823.69	5809
823.83	5779
823.97	5646
824.11	5589
824.25	5528
824.389	5562
824.529	5634
824.669	5547
824.809	5676
824.949	5680
825.089	5676
825.228	5634
825.368	5482
825.508	5337
825.648	5406
825.787	5440
825.927	5463
826.067	5357
826.206	5345
826.346	5440
826.485	5452
826.625	5455
826.765	5627
826.904	5516
827.044	5277
827.183	5227
827.323	5201
827.462	5277
827.601	5235
827.741	5250
827.88	5246
828.02	5124
828.159	5299
828.298	5360
828.437	5429
828.577	5318
828.716	5452
828.855	5364
828.994	5223
829.134	5204
829.273	5220
829.412	5155
829.551	5174
829.69	5235
829.829	5299
829.968	5440
830.107	5318
830.246	5265
830.385	5170
830.524	5181
830.663	5140
830.802	4984
830.941	4965
831.08	4911
831.219	5060
831.357	5022
831.496	5147
831.635	4938
831.774	4889
831.913	4908
832.051	4809
832.19	4782
832.329	4877
832.467	4687
832.606	4672
832.744	4748
832.883	4786
833.022	4797
833.16	4824
833.299	4835
833.437	4904
833.576	4858
833.714	4908
833.852	4927
833.991	4942
834.129	4949
834.267	4946
834.406	4877
834.544	5022
834.682	5041
834.821	5018
834.959	5185
835.097	5029
835.235	5201
835.373	5140
835.511	5166
835.65	5105
835.788	5094
835.926	4923
836.064	4896
836.202	4984
836.34	5189
836.478	5280
836.615	5147
836.753	5254
836.891	5353
837.029	5341
837.167	5208
837.305	5220
837.443	5201
837.58	5147
837.718	5273
837.856	5212
837.993	5185
838.131	5273
838.269	5269
838.406	5239
838.544	5250
838.681	4999
838.819	5060
838.956	4938
839.094	4949
839.231	5033
839.369	5151
839.506	5486
839.643	5303
839.781	5124
839.918	5052
840.055	5113
840.193	5132
840.33	5151
840.467	5166
840.604	5216
840.742	5471
840.879	5136
841.016	5155
841.153	5185
841.29	5459
841.427	5383
841.564	5341
841.701	5391
841.838	5360
841.975	5250
842.112	5284
842.249	5193
842.385	5189
842.522	5341
842.659	5189
842.796	5162
842.933	5235
843.069	5204
843.206	5197
843.343	5311
843.479	5254
843.616	5330
843.752	5048
843.889	5056
844.025	5242
844.162	5075
844.298	5265
844.435	5151
844.571	5075
844.708	5231
844.844	5376
844.98	5322
845.117	5307
845.253	5185
845.389	5128
845.525	5242
845.661	5201
845.798	5033
845.934	5143
846.07	5071
846.206	5273
846.342	5284
846.478	5250
846.614	5109
846.75	4980
846.886	4953
847.022	5159
847.158	5018
847.294	5067
847.429	5147
847.565	5075
847.701	5379
847.837	4915
847.972	4889
848.108	5022
848.244	4987
848.379	4809
848.515	4740
848.65	4744
848.786	4752
848.921	4816
849.057	4896
849.192	4938
849.328	4828
849.463	4862
849.598	4809
849.734	4782
849.869	4702
850.004	4637
850.14	4691
850.275	4755
850.41	4546
850.545	4580
850.68	4599
850.815	4702
850.95	4649
851.085	4824
851.22	4831
851.355	4733
851.49	4611
851.625	4675
851.76	4706
851.895	4656
852.03	4569
852.165	4668
852.299	4755
852.434	4790
852.569	4771
852.703	4839
852.838	4866
852.973	4987
853.107	4946
853.242	4816
853.376	4668
853.511	4527
853.645	4664
853.78	4843
853.914	4694
854.048	4729
854.183	4664
854.317	4702
854.451	4889
854.585	4683
854.72	4634
854.854	4782
854.988	4645
855.122	4668
855.256	4569
855.39	4702
855.524	4835
855.658	4687
855.792	4717
855.926	4790
856.06	4778
856.194	4812
856.327	4725
856.461	4645
856.595	4683
856.729	4641
856.862	4778
856.996	4752
857.13	4740
857.263	4793
857.397	4782
857.53	4687
857.664	4767
857.797	4797
857.931	4801
858.064	4687
858.197	4790
858.331	4656
858.464	4626
858.597	4565
858.731	4645
858.864	4687
858.997	4641
859.13	4710
859.263	4729
859.396	4744
859.529	4664
859.662	4554
859.795	4558
859.928	4630
860.061	4790
860.194	4759
860.327	4626
860.46	4588
860.592	4725
860.725	4763
860.858	4763
860.99	4607
861.123	4558
861.256	4580
861.388	4668
861.521	5414
861.653	4538
861.786	4455
861.918	4489
862.05	4596
862.183	4603
862.315	4668
862.447	4740
862.58	4573
862.712	4443
862.844	4352
862.976	4523
863.108	4508
863.24	4790
863.372	4436
863.504	4436
863.636	4451
863.768	4519
863.9	4424
864.032	4424
864.164	4432
864.296	4497
864.428	4558
864.559	4618
864.691	4565
864.823	4618
864.954	4516
865.086	4542
865.217	4481
865.349	4421
865.48	4493
865.612	4527
865.743	4653
865.875	4500
866.006	4474
866.137	4493
866.269	4527
866.4	4466
866.531	4440
866.662	4428
866.793	4462
866.924	4413
867.055	4478
867.186	4470
867.317	4405
867.448	4360
867.579	4367
867.71	4428
867.841	4394
867.972	4561
868.103	4493
868.233	4497
868.364	4508
868.495	4516
868.625	4710
868.756	4778
868.886	4569
869.017	4645
869.147	4809
869.278	4767
869.408	4752
869.539	4702
869.669	4714
869.799	4714
869.929	4839
870.06	4752
870.19	4995
870.32	4980
870.45	4942
870.58	5048
870.71	5136
870.84	5113
870.97	5014
871.1	4934
871.23	5113
871.36	5113
871.489	5048
871.619	5033
871.749	5155
871.879	5128
872.008	5220
872.138	5083
872.267	4968
872.397	4892
872.526	4812
872.656	4767
872.785	4812
872.915	5064
873.044	5109
873.173	4949
873.303	4984
873.432	4984
873.561	4953
873.69	4885
873.819	4873
873.948	5003
874.077	4831
874.206	4805
874.335	4824
874.464	4987
874.593	5090
874.722	5029
874.851	5121
874.979	5098
875.108	5052
875.237	4942
875.365	4881
875.494	4908
875.623	5033
875.751	4858
875.88	4885
876.008	5006
876.136	5105
876.265	5201
876.393	5341
876.521	5265
876.65	5227
876.778	5174
876.906	5098
877.034	5098
877.162	5033
877.29	5060
877.418	5075
877.546	5052
877.674	5056
877.802	5056
877.93	5025
878.058	4961
878.185	4927
878.313	4976
878.441	4961
878.568	4839
878.696	4923
878.824	4953
878.951	5052
879.079	5208
879.206	5334
879.333	5056
879.461	4984
879.588	5025
879.715	5113
879.842	5284
879.97	5037
880.097	4744
880.224	4759
880.351	4816
880.478	4850
880.605	4805
880.732	4866
880.859	5117
880.986	4942
881.112	4904
881.239	4812
881.366	4683
881.493	4637
881.619	4584
881.746	4698
881.872	4698
881.999	4649
882.125	4733
882.252	4847
882.378	4820
882.505	4961
882.631	4801
882.757	4668
882.883	4729
883.01	4694
883.136	4698
883.262	4630
883.388	4664
883.514	4862
883.64	4854
883.766	4793
883.892	4687
884.018	4763
884.143	4927
884.269	5052
884.395	4656
884.52	4649
884.646	4637
884.772	4584
884.897	4596
885.023	4683
885.148	4790
885.274	4866
885.399	4824
885.524	4763
885.65	4736
885.775	4706
885.9	4717
886.025	4858
886.15	4805
886.275	4714
886.4	4721
886.525	4740
886.65	4748
886.775	4778
886.9	4972
887.025	5079
887.149	4824
887.274	4710
887.399	4615
887.523	4641
887.648	4615
887.773	4573
887.897	4771
888.021	4778
888.146	4687
888.27	4866
888.395	4949
888.519	4850
888.643	4831
888.767	4847
888.891	4721
889.015	4622
889.139	4683
889.263	4615
889.387	4793
889.511	4820
889.635	4854
889.759	4653
889.883	4740
890.006	4733
890.13	4870
890.254	4599
890.377	4664
890.501	4523
890.624	4497
890.748	4630
890.871	4580
890.995	4421
891.118	4386
891.241	4500
891.364	4577
891.488	4622
891.611	4531
891.734	4573
891.857	4641
891.98	4637
892.103	4649
892.226	4615
892.349	4599
892.471	4462
892.594	4535
892.717	4577
892.839	4615
892.962	4596
893.085	4634
893.207	4607
893.33	4481
893.452	4580
893.575	4675
893.697	4630
893.819	4805
893.941	4881
894.064	4828
894.186	4656
894.308	4577
894.43	4778
894.552	4778
894.674	4793
894.796	4569
894.918	4653
895.04	4577
895.161	4733
895.283	4683
895.405	4618
895.526	4656
895.648	4675
895.769	4679
895.891	4714
896.012	4729
896.134	4729
896.255	4752
896.376	4679
896.498	4558
896.619	4679
896.74	4645
896.861	4634
896.982	4938
897.103	5117
897.224	4831
897.345	4805
897.466	4694
897.587	4714
897.708	4824
897.828	4824
897.949	4630
898.07	4573
898.19	4664
898.311	4824
898.431	4675
898.552	4767
898.672	4805
898.792	4812
898.913	4733
899.033	4656
899.153	4558
899.273	4443
899.393	4516
899.513	4565
899.633	4512
899.753	4561
899.873	4561
899.993	4580
900.113	4542
900.232	4599
900.352	4554
900.472	4481
900.591	4424
900.711	4527
900.83	4451
900.95	4630
901.069	4706
901.189	4554
901.308	4360
901.427	4360
901.546	4375
901.665	4489
901.784	4497
901.904	4413
902.023	4348
902.141	4200
902.26	4215
902.379	4329
902.498	4227
902.617	4249
902.735	4363
902.854	4394
902.973	4360
903.091	4246
903.21	4268
903.328	4333
903.446	4299
903.565	4291
903.683	4363
903.801	4287
903.919	4447
904.038	4474
904.156	4337
904.274	4417
904.392	4443
904.51	4489
904.627	4485
904.745	4588
904.863	4634
904.981	4405
905.098	4295
905.216	4371
905.334	4417
905.451	4447
905.569	4402
905.686	4550
905.803	4588
905.921	4390
906.038	4542
906.155	4519
906.272	4386
906.389	4440
906.506	4367
906.623	4348
906.74	4417
906.857	4367
906.974	4383
907.091	4546
907.208	4656
907.324	4596
907.441	4489
907.557	4360
907.674	4325
907.79	4318
907.907	4417
908.023	4466
908.139	4481
908.256	4470
908.372	4508
908.488	4432
908.604	4337
908.72	4310
908.836	4386
908.952	4367
909.068	4424
909.184	4573
909.3	4542
909.415	4577
909.531	4569
909.647	4379
909.762	4375
909.878	4329
909.993	4421
910.108	4424
910.224	4394
910.339	4493
910.454	4428
910.57	4386
910.685	4303
910.8	4656
910.915	4588
911.03	4508
911.145	4325
911.259	4337
911.374	4379
911.489	4306
911.604	4284
911.718	4223
911.833	4223
911.947	4078
912.062	4097
912.176	4246
912.291	4234
912.405	4265
912.519	4478
912.633	4535
912.748	4356
912.862	4348
912.976	4223
913.09	4116
913.204	4215
913.318	4246
913.431	4371
913.545	4356
913.659	4455
913.772	4398
913.886	4253
914	4219
914.113	4371
914.226	4447
914.34	4386
914.453	4211
914.566	4436
914.68	4329
914.793	4295
914.906	4192
915.019	4101
915.132	4124
915.245	4166
915.358	4234
915.47	4265
915.583	4325
915.696	4344
915.809	4432
915.921	4421
916.034	4295
916.146	4272
916.259	4223
916.371	4432
916.483	4348
916.595	4238
916.708	4306
916.82	4325
916.932	4329
917.044	4348
917.156	4344
917.268	4246
917.38	4287
917.491	4276
917.603	4348
917.715	4417
917.826	4455
917.938	4375
918.049	4272
918.161	4394
918.272	4573
918.384	4588
918.495	4535
918.606	4306
918.717	4276
918.828	4348
918.939	4409
919.05	4268
919.161	4360
919.272	4139
919.383	4265
919.494	4432
919.604	4615
919.715	4375
919.826	4367
919.936	4409
920.047	4512
920.157	4550
920.267	4706
920.378	4512
920.488	4478
920.598	4683
920.708	4866
920.818	4763
920.928	4767
921.038	4949
921.148	4911
921.258	4672
921.368	4577
921.477	4489
921.587	4443
921.697	4352
921.806	4519
921.916	4402
922.025	4223
922.134	4280
922.244	4253
922.353	4310
922.462	4185
922.571	4116
922.68	4021
922.789	3998
922.898	4025
923.007	4017
923.116	4143
923.224	4093
923.333	4093
923.442	3998
923.55	4032
923.659	4036
923.767	4101
923.876	4006
923.984	4116
924.092	4017
924.201	4109
924.309	4101
924.417	4112
924.525	4067
924.633	4105
924.741	5045
924.849	3937
924.956	4124
925.064	3968
925.172	3915
925.279	3998
925.387	4093
925.494	4036
925.602	4188
925.709	4253
925.816	4044
925.924	4128
926.031	4169
926.138	4166
926.245	4200
926.352	4120
926.459	4227
926.566	4337
926.673	4154
926.779	4093
926.886	4101
926.993	3975
927.099	3949
927.206	3956
927.312	3994
927.419	4078
927.525	4029
927.631	4105
927.737	3991
927.843	3922
927.95	3850
928.056	3926
928.162	3975
928.267	4044
928.373	4618
928.479	4097
928.585	3884
928.69	4029
928.796	4040
928.901	3975
929.007	3869
929.112	3987
929.218	3972
929.323	3968
929.428	3941
929.533	4093
929.638	3937
929.743	3964
929.848	4032
929.953	3964
930.058	3949
930.163	3770
930.267	3823
930.372	4002
930.477	3812
930.581	4093
930.685	3915
930.79	3808
930.894	3911
930.998	3857
931.103	4055
931.207	3709
931.311	3690
931.415	3686
931.519	3519
931.623	3576
