Data from test_V78500241_576.txt Node
Date: Fri Mar 25 16:53:00 CST 2022
User: usil
Spectrometer: V785-0024
Trigger mode: 0
Integration Time (sec): 4.000000E-1
Scans to average: 1
Nonlinearity correction enabled: false
Boxcar width: 0
Storing dark spectrum: false
XAxis mode: Wavelengths
Number of Pixels in Spectrum: 1024
>>>>>Begin Spectral Data<<<<<
801.071	7986
801.214	7974
801.356	7860
801.499	7833
801.641	7784
801.783	7833
801.926	8054
802.068	8008
802.211	7928
802.353	7970
802.496	7967
802.638	7906
802.78	7879
802.923	7917
803.065	7841
803.208	7784
803.35	7909
803.492	8054
803.635	8107
803.777	8005
803.919	8096
804.061	8347
804.204	8100
804.346	8035
804.488	7963
804.63	8092
804.773	7959
804.915	8107
805.057	8214
805.199	8130
805.341	8305
805.483	8275
805.626	8244
805.768	8031
805.91	8229
806.052	8206
806.194	8016
806.336	8256
806.478	8130
806.62	8069
806.762	8084
806.904	8206
807.046	8454
807.188	8279
807.33	8275
807.472	8374
807.614	8180
807.756	8126
807.898	7955
808.04	7837
808.182	7955
808.324	7852
808.465	7868
808.607	8100
808.749	8050
808.891	8202
809.033	8256
809.174	8142
809.316	8130
809.458	8050
809.6	8020
809.741	7989
809.883	8016
810.025	8134
810.166	8100
810.308	8008
810.45	8024
810.591	7807
810.733	7753
810.875	7597
811.016	7499
811.158	7529
811.299	7567
811.441	7803
811.582	7670
811.724	7582
811.865	7556
812.007	7502
812.148	7632
812.29	7613
812.431	7719
812.573	7883
812.714	7944
812.855	8134
812.997	8221
813.138	8343
813.279	8176
813.421	8214
813.562	8054
813.703	7909
813.845	7818
813.986	7472
814.127	7293
814.268	7293
814.41	7168
814.551	7164
814.692	7198
814.833	7137
814.974	7095
815.115	7118
815.256	6977
815.397	6947
815.539	6958
815.68	6905
815.821	6772
815.962	6905
816.103	6894
816.244	6700
816.385	6593
816.526	6597
816.666	6506
816.807	6304
816.948	6391
817.089	6467
817.23	6395
817.371	6418
817.512	6414
817.653	6388
817.793	6384
817.934	6429
818.075	6479
818.216	6410
818.356	6445
818.497	6270
818.638	6129
818.778	6129
818.919	6121
819.06	6114
819.2	6353
819.341	6342
819.481	6334
819.622	6509
819.762	6741
819.903	6700
820.043	6578
820.184	6616
820.324	6635
820.465	6692
820.605	6608
820.746	6616
820.886	6479
821.026	6631
821.167	6673
821.307	6753
821.447	6791
821.588	6601
821.728	6525
821.868	6433
822.008	6277
822.149	6395
822.289	6357
822.429	6091
822.569	6087
822.709	6072
822.849	5958
822.99	5859
823.13	5927
823.27	5863
823.41	5714
823.55	5764
823.69	5805
823.83	5786
823.97	5649
824.11	5528
824.25	5478
824.389	5589
824.529	5615
824.669	5478
824.809	5634
824.949	5623
825.089	5642
825.228	5509
825.368	5383
825.508	5357
825.648	5357
825.787	5349
825.927	5322
826.067	5242
826.206	5315
826.346	5349
826.485	5360
826.625	5364
826.765	5539
826.904	5448
827.044	5299
827.183	5204
827.323	5151
827.462	5208
827.601	5140
827.741	5166
827.88	5235
828.02	5151
828.159	5231
828.298	5235
828.437	5326
828.577	5280
828.716	5444
828.855	5334
828.994	5166
829.134	5128
829.273	5170
829.412	5170
829.551	5136
829.69	5181
829.829	5193
829.968	5334
830.107	5250
830.246	5235
830.385	5128
830.524	5162
830.663	5064
830.802	4953
830.941	4858
831.08	4919
831.219	5025
831.357	4949
831.496	5185
831.635	4923
831.774	4866
831.913	4885
832.051	4733
832.19	4763
832.329	4858
832.467	4649
832.606	4637
832.744	4774
832.883	4752
833.022	4721
833.16	4820
833.299	4767
833.437	4839
833.576	4839
833.714	4843
833.852	4839
833.991	4877
834.129	4938
834.267	4915
834.406	4873
834.544	4953
834.682	4999
834.821	4942
834.959	5140
835.097	4999
835.235	5147
835.373	5117
835.511	5086
835.65	5083
835.788	5048
835.926	4923
836.064	4870
836.202	4930
836.34	5147
836.478	5284
836.615	5159
836.753	5166
836.891	5265
837.029	5250
837.167	5151
837.305	5159
837.443	5136
837.58	5094
837.718	5162
837.856	5208
837.993	5128
838.131	5258
838.269	5201
838.406	5223
838.544	5155
838.681	5048
838.819	5006
838.956	4877
839.094	4934
839.231	5006
839.369	5113
839.506	5436
839.643	5284
839.781	5105
839.918	5006
840.055	5098
840.193	5083
840.33	5079
840.467	5143
840.604	5197
840.742	5421
840.879	5098
841.016	5079
841.153	5143
841.29	5364
841.427	5345
841.564	5315
841.701	5383
841.838	5284
841.975	5239
842.112	5246
842.249	5147
842.385	5151
842.522	5277
842.659	5117
842.796	5132
842.933	5212
843.069	5147
843.206	5155
843.343	5353
843.479	5208
843.616	5269
843.752	5025
843.889	5006
844.025	5212
844.162	5018
844.298	5231
844.435	5075
844.571	5010
844.708	5212
844.844	5307
844.98	5334
845.117	5326
845.253	5147
845.389	5105
845.525	5109
845.661	5124
845.798	4991
845.934	5105
846.07	5006
846.206	5231
846.342	5277
846.478	5140
846.614	5006
846.75	4987
846.886	4911
847.022	5143
847.158	5022
847.294	5045
847.429	5079
847.565	5064
847.701	5273
847.837	4831
847.972	4782
848.108	4980
848.244	4923
848.379	4771
848.515	4702
848.65	4740
848.786	4767
848.921	4805
849.057	4862
849.192	4896
849.328	4790
849.463	4797
849.598	4759
849.734	4755
849.869	4664
850.004	4645
850.14	4679
850.275	4580
850.41	4531
850.545	4611
850.68	4561
850.815	4630
850.95	4615
851.085	4816
851.22	4755
851.355	4717
851.49	4569
851.625	4630
851.76	4615
851.895	4512
852.03	4538
852.165	4645
852.299	4660
852.434	4771
852.569	4748
852.703	4740
852.838	4889
852.973	4957
853.107	4938
853.242	4740
853.376	4630
853.511	4527
853.645	4580
853.78	4771
853.914	4683
854.048	4656
854.183	4656
854.317	4683
854.451	4847
854.585	4694
854.72	4702
854.854	4759
854.988	4565
855.122	4649
855.256	4519
855.39	4664
855.524	4786
855.658	4698
855.792	4672
855.926	4733
856.06	4744
856.194	4824
856.327	4615
856.461	4607
856.595	4596
856.729	4630
856.862	4706
856.996	4679
857.13	4706
857.263	4740
857.397	4774
857.53	4603
857.664	4687
857.797	4740
857.931	4767
858.064	4679
858.197	4729
858.331	4634
858.464	4622
858.597	4485
858.731	4592
858.864	4615
858.997	4516
859.13	4641
859.263	4637
859.396	4675
859.529	4596
859.662	4607
859.795	4519
859.928	4615
860.061	4702
860.194	4714
860.327	4599
860.46	4561
860.592	4698
860.725	4717
860.858	4729
860.99	4577
861.123	4519
861.256	4481
861.388	4592
861.521	5467
861.653	4485
861.786	4432
861.918	4436
862.05	4459
862.183	4508
862.315	4580
862.447	4656
862.58	4554
862.712	4417
862.844	4352
862.976	4447
863.108	4421
863.24	4847
863.372	4291
863.504	4424
863.636	4421
863.768	4459
863.9	4474
864.032	4337
864.164	4421
864.296	4432
864.428	4550
864.559	4527
864.691	4500
864.823	4504
864.954	4466
865.086	4508
865.217	4432
865.349	4405
865.48	4459
865.612	4489
865.743	4622
865.875	4485
866.006	4386
866.137	4485
866.269	4497
866.4	4440
866.531	4447
866.662	4440
866.793	4424
866.924	4440
867.055	4512
867.186	4485
867.317	4356
867.448	4413
867.579	4379
867.71	4375
867.841	4325
867.972	4466
868.103	4443
868.233	4493
868.364	4451
868.495	4466
868.625	4630
868.756	4717
868.886	4569
869.017	4630
869.147	4786
869.278	4717
869.408	4634
869.539	4615
869.669	4679
869.799	4672
869.929	4733
870.06	4755
870.19	4934
870.32	4946
870.45	4949
870.58	5022
870.71	5071
870.84	5094
870.97	4930
871.1	4889
871.23	5162
871.36	5121
871.489	5029
871.619	5079
871.749	5102
871.879	5136
872.008	5201
872.138	5045
872.267	5029
872.397	4858
872.526	4793
872.656	4733
872.785	4771
872.915	4915
873.044	5029
873.173	4927
873.303	4953
873.432	4942
873.561	4930
873.69	4904
873.819	4812
873.948	4900
874.077	4828
874.206	4805
874.335	4740
874.464	4881
874.593	5056
874.722	4919
874.851	5098
874.979	5018
875.108	5052
875.237	4870
875.365	4873
875.494	4854
875.623	4927
875.751	4786
875.88	4866
876.008	4953
876.136	5022
876.265	5208
876.393	5349
876.521	5151
876.65	5231
876.778	5185
876.906	5037
877.034	5041
877.162	5045
877.29	4980
877.418	5060
877.546	5045
877.674	5029
877.802	5018
877.93	4976
878.058	4904
878.185	4854
878.313	4965
878.441	4942
878.568	4778
878.696	4896
878.824	4976
878.951	5018
879.079	5113
879.206	5269
879.333	5098
879.461	4980
879.588	5010
879.715	5079
879.842	5235
879.97	4976
880.097	4824
880.224	4748
880.351	4790
880.478	4793
880.605	4782
880.732	4752
880.859	5079
880.986	4877
881.112	4957
881.239	4790
881.366	4717
881.493	4618
881.619	4622
881.746	4675
881.872	4656
881.999	4668
882.125	4714
882.252	4767
882.378	4809
882.505	4999
882.631	4759
882.757	4653
882.883	4736
883.01	4710
883.136	4721
883.262	4607
883.388	4611
883.514	4839
883.64	4881
883.766	4793
883.892	4694
884.018	4679
884.143	4908
884.269	4995
884.395	4649
884.52	4588
884.646	4675
884.772	4573
884.897	4599
885.023	4672
885.148	4790
885.274	4831
885.399	4828
885.524	4717
885.65	4698
885.775	4748
885.9	4714
886.025	4892
886.15	4774
886.275	4656
886.4	4668
886.525	4694
886.65	4668
886.775	4660
886.9	4915
887.025	5003
887.149	4797
887.274	4588
887.399	4538
887.523	4622
887.648	4573
887.773	4573
887.897	4767
888.021	4763
888.146	4675
888.27	4786
888.395	4889
888.519	4843
888.643	4820
888.767	4790
888.891	4744
889.015	4596
889.139	4630
889.263	4542
889.387	4748
889.511	4858
889.635	4782
889.759	4618
889.883	4649
890.006	4714
890.13	4835
890.254	4603
890.377	4687
890.501	4542
890.624	4493
890.748	4637
890.871	4550
890.995	4394
891.118	4413
891.241	4500
891.364	4519
891.488	4641
891.611	4565
891.734	4519
891.857	4603
891.98	4531
892.103	4645
892.226	4592
892.349	4550
892.471	4413
892.594	4481
892.717	4565
892.839	4611
892.962	4554
893.085	4603
893.207	4584
893.33	4462
893.452	4523
893.575	4656
893.697	4584
893.819	4759
893.941	4759
894.064	4744
894.186	4577
894.308	4561
894.43	4698
894.552	4797
894.674	4755
894.796	4577
894.918	4603
895.04	4538
895.161	4675
895.283	4618
895.405	4599
895.526	4622
895.648	4679
895.769	4645
895.891	4706
896.012	4733
896.134	4714
896.255	4603
896.376	4630
896.498	4611
896.619	4645
896.74	4550
896.861	4630
896.982	4942
897.103	5094
897.224	4870
897.345	4740
897.466	4683
897.587	4729
897.708	4862
897.828	4771
897.949	4634
898.07	4580
898.19	4634
898.311	4835
898.431	4645
898.552	4710
898.672	4858
898.792	4790
898.913	4736
899.033	4618
899.153	4516
899.273	4474
899.393	4443
899.513	4519
899.633	4508
899.753	4588
899.873	4497
899.993	4580
900.113	4561
900.232	4611
900.352	4512
900.472	4481
900.591	4402
900.711	4481
900.83	4466
900.95	4573
901.069	4694
901.189	4577
901.308	4348
901.427	4337
901.546	4409
901.665	4519
901.784	4504
901.904	4424
902.023	4329
902.141	4135
902.26	4162
902.379	4375
902.498	4246
902.617	4223
902.735	4371
902.854	4432
902.973	4409
903.091	4227
903.21	4268
903.328	4318
903.446	4291
903.565	4337
903.683	4413
903.801	4306
903.919	4432
904.038	4497
904.156	4348
904.274	4512
904.392	4436
904.51	4478
904.627	4500
904.745	4622
904.863	4641
904.981	4421
905.098	4367
905.216	4413
905.334	4447
905.451	4474
905.569	4481
905.686	4588
905.803	4626
905.921	4443
906.038	4615
906.155	4561
906.272	4417
906.389	4512
906.506	4409
906.623	4409
906.74	4390
906.857	4367
906.974	4394
907.091	4592
907.208	4721
907.324	4626
907.441	4489
907.557	4402
907.674	4375
907.79	4363
907.907	4470
908.023	4500
908.139	4500
908.256	4428
908.372	4459
908.488	4462
908.604	4402
908.72	4337
908.836	4398
908.952	4394
909.068	4485
909.184	4603
909.3	4500
909.415	4634
909.531	4603
909.647	4390
909.762	4417
909.878	4405
909.993	4428
910.108	4432
910.224	4489
910.339	4516
910.454	4421
910.57	4402
910.685	4329
910.8	4683
910.915	4645
911.03	4542
911.145	4367
911.259	4371
911.374	4409
911.489	4371
911.604	4329
911.718	4185
911.833	4257
911.947	4120
912.062	4074
912.176	4227
912.291	4314
912.405	4253
912.519	4489
912.633	4573
912.748	4402
912.862	4360
912.976	4268
913.09	4124
913.204	4207
913.318	4272
913.431	4424
913.545	4386
913.659	4508
913.772	4360
913.886	4280
914	4246
914.113	4432
914.226	4462
914.34	4428
914.453	4265
914.566	4497
914.68	4363
914.793	4363
914.906	4196
915.019	4154
915.132	4093
915.245	4215
915.358	4200
915.47	4299
915.583	4310
915.696	4337
915.809	4447
915.921	4478
916.034	4306
916.146	4318
916.259	4230
916.371	4398
916.483	4371
916.595	4306
916.708	4394
916.82	4375
916.932	4363
917.044	4398
917.156	4344
917.268	4230
917.38	4253
917.491	4318
917.603	4371
917.715	4428
917.826	4462
917.938	4375
918.049	4257
918.161	4424
918.272	4569
918.384	4569
918.495	4474
918.606	4356
918.717	4276
918.828	4383
918.939	4424
919.05	4299
919.161	4344
919.272	4154
919.383	4249
919.494	4489
919.604	4634
919.715	4462
919.826	4367
919.936	4428
920.047	4573
920.157	4485
920.267	4755
920.378	4588
920.488	4512
920.598	4778
920.708	4858
920.818	4778
920.928	4767
921.038	5014
921.148	4984
921.258	4634
921.368	4577
921.477	4508
921.587	4478
921.697	4417
921.806	4569
921.916	4417
922.025	4306
922.134	4341
922.244	4272
922.353	4379
922.462	4257
922.571	4169
922.68	4063
922.789	4017
922.898	4078
923.007	4021
923.116	4116
923.224	4112
923.333	4097
923.442	4059
923.55	3972
923.659	4112
923.767	4124
923.876	4059
923.984	4109
924.092	3994
924.201	4105
924.309	4143
924.417	4177
924.525	4048
924.633	4124
924.741	5109
924.849	3956
924.956	4158
925.064	3991
925.172	3960
925.279	3998
925.387	4097
925.494	4055
925.602	4242
925.709	4242
925.816	4120
925.924	4192
926.031	4261
926.138	4192
926.245	4162
926.352	4139
926.459	4272
926.566	4356
926.673	4211
926.779	4109
926.886	4055
926.993	4013
927.099	3972
927.206	3983
927.312	3964
927.419	4105
927.525	4071
927.631	4082
927.737	3934
927.843	3994
927.95	3861
928.056	3953
928.162	4025
928.267	4124
928.373	4702
928.479	4150
928.585	3915
928.69	4025
928.796	4093
928.901	3972
929.007	3941
929.112	4055
929.218	4025
929.323	3979
929.428	4017
929.533	4185
929.638	3953
929.743	3979
929.848	4112
929.953	4071
930.058	3949
930.163	3827
930.267	3850
930.372	4002
930.477	3835
930.581	4105
930.685	3983
930.79	3861
930.894	3896
930.998	3896
931.103	4067
931.207	3728
931.311	3690
931.415	3720
931.519	3576
931.623	3534
