Data from test_V78500241_495.txt Node
Date: Fri Mar 25 16:52:26 CST 2022
User: usil
Spectrometer: V785-0024
Trigger mode: 0
Integration Time (sec): 4.000000E-1
Scans to average: 1
Nonlinearity correction enabled: false
Boxcar width: 0
Storing dark spectrum: false
XAxis mode: Wavelengths
Number of Pixels in Spectrum: 1024
>>>>>Begin Spectral Data<<<<<
801.071	8092
801.214	7940
801.356	7890
801.499	7811
801.641	7795
801.783	7894
801.926	7982
802.068	7925
802.211	8016
802.353	7974
802.496	7849
802.638	7898
802.78	7925
802.923	7909
803.065	7856
803.208	7807
803.35	7963
803.492	8039
803.635	8065
803.777	7986
803.919	8107
804.061	8454
804.204	8119
804.346	8024
804.488	7955
804.63	8024
804.773	7997
804.915	8031
805.057	8252
805.199	8111
805.341	8259
805.483	8256
805.626	8142
805.768	8039
805.91	8111
806.052	8206
806.194	8062
806.336	8263
806.478	8157
806.62	8065
806.762	8130
806.904	8294
807.046	8370
807.188	8305
807.33	8259
807.472	8229
807.614	8157
807.756	8077
807.898	8016
808.04	7868
808.182	7913
808.324	7894
808.465	7940
808.607	8096
808.749	8065
808.891	8176
809.033	8252
809.174	8195
809.316	8012
809.458	7974
809.6	8008
809.741	8084
809.883	8027
810.025	8153
810.166	8077
810.308	7978
810.45	8008
810.591	7906
810.733	7772
810.875	7700
811.016	7601
811.158	7544
811.299	7636
811.441	7814
811.582	7727
811.724	7597
811.865	7643
812.007	7681
812.148	7563
812.29	7674
812.431	7837
812.573	7982
812.714	8062
812.855	8157
812.997	8221
813.138	8370
813.279	8286
813.421	8252
813.562	8103
813.703	7978
813.845	7879
813.986	7575
814.127	7407
814.268	7358
814.41	7232
814.551	7183
814.692	7217
814.833	7107
814.974	7114
815.115	7164
815.256	7019
815.397	6954
815.539	6989
815.68	6867
815.821	6821
815.962	6977
816.103	6875
816.244	6726
816.385	6654
816.526	6604
816.666	6559
816.807	6346
816.948	6475
817.089	6559
817.23	6452
817.371	6372
817.512	6414
817.653	6380
817.793	6365
817.934	6426
818.075	6479
818.216	6395
818.356	6407
818.497	6323
818.638	6171
818.778	6182
818.919	6125
819.06	6186
819.2	6338
819.341	6338
819.481	6357
819.622	6467
819.762	6764
819.903	6776
820.043	6658
820.184	6620
820.324	6597
820.465	6642
820.605	6646
820.746	6589
820.886	6471
821.026	6700
821.167	6692
821.307	6787
821.447	6745
821.588	6738
821.728	6555
821.868	6490
822.008	6331
822.149	6448
822.289	6391
822.429	6159
822.569	6121
822.709	6106
822.849	5996
822.99	5958
823.13	5939
823.27	5927
823.41	5874
823.55	5767
823.69	5786
823.83	5844
823.97	5661
824.11	5615
824.25	5516
824.389	5566
824.529	5589
824.669	5543
824.809	5623
824.949	5672
825.089	5619
825.228	5551
825.368	5433
825.508	5364
825.648	5353
825.787	5391
825.927	5417
826.067	5330
826.206	5368
826.346	5417
826.485	5421
826.625	5436
826.765	5524
826.904	5524
827.044	5277
827.183	5204
827.323	5155
827.462	5220
827.601	5174
827.741	5166
827.88	5231
828.02	5109
828.159	5265
828.298	5326
828.437	5406
828.577	5296
828.716	5505
828.855	5337
828.994	5162
829.134	5166
829.273	5159
829.412	5109
829.551	5143
829.69	5166
829.829	5265
829.968	5368
830.107	5242
830.246	5322
830.385	5170
830.524	5105
830.663	5083
830.802	5006
830.941	4938
831.08	4919
831.219	5041
831.357	4953
831.496	5162
831.635	4946
831.774	4831
831.913	4877
832.051	4729
832.19	4721
832.329	4816
832.467	4710
832.606	4679
832.744	4694
832.883	4744
833.022	4774
833.16	4835
833.299	4854
833.437	4881
833.576	4870
833.714	4877
833.852	4915
833.991	4843
834.129	4949
834.267	4980
834.406	5022
834.544	5064
834.682	4984
834.821	4999
834.959	5166
835.097	4949
835.235	5178
835.373	5124
835.511	5136
835.65	5037
835.788	5045
835.926	4877
836.064	4915
836.202	4923
836.34	5178
836.478	5239
836.615	5181
836.753	5254
836.891	5277
837.029	5273
837.167	5239
837.305	5159
837.443	5166
837.58	5098
837.718	5334
837.856	5227
837.993	5159
838.131	5246
838.269	5265
838.406	5246
838.544	5189
838.681	5056
838.819	5041
838.956	4919
839.094	4923
839.231	4980
839.369	5102
839.506	5417
839.643	5273
839.781	5090
839.918	5067
840.055	5109
840.193	5052
840.33	5132
840.467	5128
840.604	5155
840.742	5440
840.879	5121
841.016	5098
841.153	5155
841.29	5353
841.427	5368
841.564	5303
841.701	5376
841.838	5318
841.975	5235
842.112	5273
842.249	5151
842.385	5113
842.522	5334
842.659	5204
842.796	5136
842.933	5239
843.069	5170
843.206	5140
843.343	5299
843.479	5284
843.616	5296
843.752	5018
843.889	5079
844.025	5246
844.162	5010
844.298	5151
844.435	5067
844.571	5098
844.708	5220
844.844	5307
844.98	5345
845.117	5326
845.253	5170
845.389	5086
845.525	5204
845.661	5147
845.798	5041
845.934	5151
846.07	5056
846.206	5151
846.342	5284
846.478	5151
846.614	5014
846.75	4980
846.886	4972
847.022	5159
847.158	5041
847.294	5117
847.429	5136
847.565	5075
847.701	5341
847.837	4862
847.972	4828
848.108	4995
848.244	4930
848.379	4839
848.515	4755
848.65	4702
848.786	4820
848.921	4797
849.057	4862
849.192	4896
849.328	4767
849.463	4892
849.598	4828
849.734	4797
849.869	4702
850.004	4615
850.14	4649
850.275	4660
850.41	4558
850.545	4588
850.68	4615
850.815	4653
850.95	4683
851.085	4843
851.22	4759
851.355	4672
851.49	4634
851.625	4637
851.76	4683
851.895	4516
852.03	4500
852.165	4656
852.299	4733
852.434	4805
852.569	4744
852.703	4816
852.838	4843
852.973	4987
853.107	4957
853.242	4774
853.376	4675
853.511	4565
853.645	4637
853.78	4801
853.914	4691
854.048	4694
854.183	4664
854.317	4714
854.451	4850
854.585	4698
854.72	4607
854.854	4771
854.988	4622
855.122	4649
855.256	4573
855.39	4698
855.524	4793
855.658	4755
855.792	4656
855.926	4694
856.06	4793
856.194	4847
856.327	4710
856.461	4660
856.595	4607
856.729	4698
856.862	4767
856.996	4694
857.13	4755
857.263	4801
857.397	4797
857.53	4656
857.664	4763
857.797	4759
857.931	4793
858.064	4694
858.197	4793
858.331	4679
858.464	4645
858.597	4519
858.731	4653
858.864	4634
858.997	4611
859.13	4675
859.263	4721
859.396	4706
859.529	4656
859.662	4554
859.795	4523
859.928	4607
860.061	4786
860.194	4774
860.327	4615
860.46	4599
860.592	4774
860.725	4717
860.858	4752
860.99	4599
861.123	4535
861.256	4531
861.388	4634
861.521	5353
861.653	4489
861.786	4455
861.918	4462
862.05	4516
862.183	4538
862.315	4565
862.447	4649
862.58	4565
862.712	4417
862.844	4375
862.976	4474
863.108	4474
863.24	4740
863.372	4310
863.504	4436
863.636	4443
863.768	4474
863.9	4405
864.032	4341
864.164	4398
864.296	4428
864.428	4618
864.559	4584
864.691	4561
864.823	4573
864.954	4500
865.086	4512
865.217	4436
865.349	4398
865.48	4497
865.612	4500
865.743	4672
865.875	4523
866.006	4478
866.137	4462
866.269	4432
866.4	4519
866.531	4417
866.662	4402
866.793	4417
866.924	4436
867.055	4459
867.186	4443
867.317	4436
867.448	4386
867.579	4413
867.71	4447
867.841	4367
867.972	4497
868.103	4462
868.233	4478
868.364	4459
868.495	4512
868.625	4675
868.756	4736
868.886	4592
869.017	4622
869.147	4748
869.278	4767
869.408	4721
869.539	4664
869.669	4672
869.799	4668
869.929	4710
870.06	4721
870.19	5022
870.32	4877
870.45	4938
870.58	5006
870.71	5143
870.84	5014
870.97	4976
871.1	4915
871.23	5170
871.36	5140
871.489	4987
871.619	5113
871.749	5117
871.879	5136
872.008	5193
872.138	5045
872.267	5048
872.397	4850
872.526	4839
872.656	4748
872.785	4828
872.915	4953
873.044	5018
873.173	5010
873.303	4904
873.432	4961
873.561	4999
873.69	4889
873.819	4877
873.948	4892
874.077	4854
874.206	4767
874.335	4843
874.464	4934
874.593	5094
874.722	4972
874.851	5098
874.979	5090
875.108	5121
875.237	4896
875.365	4862
875.494	4896
875.623	5041
875.751	4786
875.88	4919
876.008	4968
876.136	5029
876.265	5197
876.393	5318
876.521	5216
876.65	5292
876.778	5113
876.906	5117
877.034	5056
877.162	5048
877.29	4987
877.418	5079
877.546	5075
877.674	5079
877.802	5029
877.93	5037
878.058	4949
878.185	4919
878.313	4949
878.441	4957
878.568	4828
878.696	4858
878.824	4987
878.951	4972
879.079	5105
879.206	5345
879.333	5140
879.461	4957
879.588	4984
879.715	5136
879.842	5216
879.97	5006
880.097	4755
880.224	4797
880.351	4820
880.478	4862
880.605	4778
880.732	4831
880.859	5105
880.986	4938
881.112	4881
881.239	4786
881.366	4694
881.493	4634
881.619	4603
881.746	4653
881.872	4660
881.999	4622
882.125	4706
882.252	4801
882.378	4744
882.505	4972
882.631	4862
882.757	4664
882.883	4774
883.01	4725
883.136	4687
883.262	4637
883.388	4592
883.514	4828
883.64	4877
883.766	4828
883.892	4672
884.018	4725
884.143	4877
884.269	5010
884.395	4721
884.52	4641
884.646	4618
884.772	4596
884.897	4535
885.023	4641
885.148	4748
885.274	4843
885.399	4858
885.524	4748
885.65	4668
885.775	4759
885.9	4706
886.025	4828
886.15	4850
886.275	4694
886.4	4714
886.525	4744
886.65	4675
886.775	4664
886.9	4896
887.025	5075
887.149	4854
887.274	4653
887.399	4565
887.523	4565
887.648	4656
887.773	4588
887.897	4744
888.021	4812
888.146	4679
888.27	4843
888.395	4881
888.519	4812
888.643	4824
888.767	4831
888.891	4656
889.015	4634
889.139	4694
889.263	4634
889.387	4786
889.511	4877
889.635	4824
889.759	4634
889.883	4656
890.006	4736
890.13	4816
890.254	4607
890.377	4694
890.501	4519
890.624	4558
890.748	4660
890.871	4535
890.995	4481
891.118	4386
891.241	4569
891.364	4538
891.488	4641
891.611	4550
891.734	4542
891.857	4588
891.98	4573
892.103	4618
892.226	4641
892.349	4538
892.471	4409
892.594	4554
892.717	4626
892.839	4516
892.962	4630
893.085	4664
893.207	4626
893.33	4451
893.452	4512
893.575	4645
893.697	4554
893.819	4782
893.941	4862
894.064	4771
894.186	4622
894.308	4565
894.43	4740
894.552	4793
894.674	4740
894.796	4538
894.918	4588
895.04	4546
895.161	4714
895.283	4687
895.405	4573
895.526	4618
895.648	4687
895.769	4721
895.891	4752
896.012	4729
896.134	4759
896.255	4706
896.376	4641
896.498	4668
896.619	4733
896.74	4622
896.861	4630
896.982	4919
897.103	5094
897.224	4831
897.345	4714
897.466	4656
897.587	4717
897.708	4801
897.828	4771
897.949	4679
898.07	4626
898.19	4637
898.311	4797
898.431	4656
898.552	4714
898.672	4812
898.792	4767
898.913	4778
899.033	4626
899.153	4512
899.273	4436
899.393	4500
899.513	4516
899.633	4558
899.753	4538
899.873	4546
899.993	4527
900.113	4504
900.232	4584
900.352	4596
900.472	4516
900.591	4371
900.711	4451
900.83	4398
900.95	4630
901.069	4721
901.189	4577
901.308	4398
901.427	4329
901.546	4409
901.665	4561
901.784	4523
901.904	4428
902.023	4348
902.141	4227
902.26	4158
902.379	4253
902.498	4253
902.617	4223
902.735	4356
902.854	4367
902.973	4367
903.091	4204
903.21	4200
903.328	4322
903.446	4268
903.565	4272
903.683	4333
903.801	4276
903.919	4413
904.038	4462
904.156	4329
904.274	4424
904.392	4360
904.51	4405
904.627	4474
904.745	4618
904.863	4634
904.981	4390
905.098	4348
905.216	4329
905.334	4409
905.451	4497
905.569	4455
905.686	4535
905.803	4573
905.921	4436
906.038	4573
906.155	4485
906.272	4421
906.389	4451
906.506	4356
906.623	4367
906.74	4341
906.857	4295
906.974	4375
907.091	4558
907.208	4641
907.324	4630
907.441	4516
907.557	4383
907.674	4386
907.79	4379
907.907	4386
908.023	4516
908.139	4497
908.256	4459
908.372	4447
908.488	4485
908.604	4394
908.72	4344
908.836	4367
908.952	4379
909.068	4417
909.184	4542
909.3	4531
909.415	4626
909.531	4542
909.647	4344
909.762	4386
909.878	4337
909.993	4459
910.108	4405
910.224	4375
910.339	4402
910.454	4394
910.57	4367
910.685	4329
910.8	4626
910.915	4607
911.03	4500
911.145	4379
911.259	4337
911.374	4375
911.489	4318
911.604	4310
911.718	4166
911.833	4207
911.947	4078
912.062	4029
912.176	4215
912.291	4253
912.405	4242
912.519	4405
912.633	4489
912.748	4386
912.862	4310
912.976	4242
913.09	4055
913.204	4185
913.318	4246
913.431	4356
913.545	4344
913.659	4455
913.772	4405
913.886	4268
914	4211
914.113	4421
914.226	4428
914.34	4398
914.453	4230
914.566	4421
914.68	4314
914.793	4310
914.906	4147
915.019	4059
915.132	4074
915.245	4166
915.358	4215
915.47	4257
915.583	4284
915.696	4272
915.809	4386
915.921	4371
916.034	4257
916.146	4265
916.259	4253
916.371	4413
916.483	4363
916.595	4249
916.708	4318
916.82	4284
916.932	4333
917.044	4341
917.156	4322
917.268	4246
917.38	4280
917.491	4249
917.603	4314
917.715	4424
917.826	4447
917.938	4371
918.049	4284
918.161	4390
918.272	4554
918.384	4531
918.495	4481
918.606	4253
918.717	4234
918.828	4314
918.939	4428
919.05	4295
919.161	4310
919.272	4128
919.383	4211
919.494	4462
919.604	4653
919.715	4428
919.826	4348
919.936	4398
920.047	4554
920.157	4516
920.267	4679
920.378	4531
920.488	4504
920.598	4736
920.708	4862
920.818	4752
920.928	4759
921.038	4953
921.148	4919
921.258	4664
921.368	4546
921.477	4542
921.587	4455
921.697	4390
921.806	4504
921.916	4455
922.025	4287
922.134	4306
922.244	4246
922.353	4344
922.462	4128
922.571	4181
922.68	3960
922.789	4036
922.898	4044
923.007	4029
923.116	4086
923.224	4078
923.333	4116
923.442	3991
923.55	3979
923.659	3994
923.767	4044
923.876	4002
923.984	4105
924.092	4006
924.201	4093
924.309	4063
924.417	4105
924.525	4048
924.633	4105
924.741	5079
924.849	3915
924.956	4120
925.064	3968
925.172	3911
925.279	3918
925.387	4044
925.494	4067
925.602	4185
925.709	4207
925.816	4013
925.924	4131
926.031	4219
926.138	4173
926.245	4223
926.352	4105
926.459	4246
926.566	4322
926.673	4181
926.779	4097
926.886	4097
926.993	3949
927.099	3972
927.206	3937
927.312	3937
927.419	4071
927.525	4036
927.631	4093
927.737	3949
927.843	3953
927.95	3854
928.056	3930
928.162	3998
928.267	4044
928.373	4698
928.479	4101
928.585	3865
928.69	4040
928.796	4032
928.901	3964
929.007	3827
929.112	3979
929.218	4002
929.323	3926
929.428	3937
929.533	4097
929.638	3926
929.743	3991
929.848	4055
929.953	4025
930.058	3903
930.163	3800
930.267	3793
930.372	3983
930.477	3842
930.581	4147
930.685	3979
930.79	3808
930.894	3888
930.998	3854
931.103	3983
931.207	3713
931.311	3675
931.415	3701
931.519	3515
931.623	3572
