Data from test_V78500241_2715.txt Node
Date: Fri Mar 25 17:07:52 CST 2022
User: usil
Spectrometer: V785-0024
Trigger mode: 0
Integration Time (sec): 4.000000E-1
Scans to average: 1
Nonlinearity correction enabled: false
Boxcar width: 0
Storing dark spectrum: false
XAxis mode: Wavelengths
Number of Pixels in Spectrum: 1024
>>>>>Begin Spectral Data<<<<<
801.071	8016
801.214	7959
801.356	7852
801.499	7944
801.641	7822
801.783	7792
801.926	8005
802.068	7989
802.211	8024
802.353	7993
802.496	7898
802.638	7864
802.78	7921
802.923	7909
803.065	7906
803.208	7906
803.35	7894
803.492	8142
803.635	8153
803.777	8043
803.919	8221
804.061	8370
804.204	8142
804.346	8088
804.488	7940
804.63	8134
804.773	7986
804.915	8077
805.057	8294
805.199	8130
805.341	8229
805.483	8267
805.626	8267
805.768	8119
805.91	8134
806.052	8202
806.194	8130
806.336	8317
806.478	8107
806.62	8058
806.762	8103
806.904	8183
807.046	8503
807.188	8446
807.33	8332
807.472	8404
807.614	8187
807.756	8199
807.898	7993
808.04	7883
808.182	7898
808.324	7925
808.465	7955
808.607	8115
808.749	8168
808.891	8237
809.033	8259
809.174	8275
809.316	8035
809.458	8046
809.6	8062
809.741	8046
809.883	8050
810.025	8100
810.166	8096
810.308	8012
810.45	7967
810.591	7852
810.733	7708
810.875	7666
811.016	7529
811.158	7510
811.299	7651
811.441	7708
811.582	7742
811.724	7590
811.865	7502
812.007	7552
812.148	7628
812.29	7632
812.431	7746
812.573	7837
812.714	8073
812.855	8172
812.997	8225
813.138	8347
813.279	8130
813.421	8111
813.562	8058
813.703	7849
813.845	7769
813.986	7483
814.127	7274
814.268	7263
814.41	7198
814.551	7187
814.692	7247
814.833	7000
814.974	7034
815.115	7057
815.256	6951
815.397	6886
815.539	6939
815.68	6932
815.821	6795
815.962	6886
816.103	6787
816.244	6677
816.385	6623
816.526	6620
816.666	6494
816.807	6300
816.948	6403
817.089	6456
817.23	6441
817.371	6407
817.512	6376
817.653	6388
817.793	6331
817.934	6376
818.075	6471
818.216	6407
818.356	6403
818.497	6258
818.638	6152
818.778	6178
818.919	6136
819.06	6136
819.2	6357
819.341	6285
819.481	6292
819.622	6517
819.762	6757
819.903	6711
820.043	6601
820.184	6566
820.324	6601
820.465	6623
820.605	6696
820.746	6681
820.886	6551
821.026	6654
821.167	6730
821.307	6829
821.447	6779
821.588	6627
821.728	6578
821.868	6483
822.008	6311
822.149	6353
822.289	6311
822.429	6186
822.569	6079
822.709	6102
822.849	5889
822.99	5920
823.13	5863
823.27	5916
823.41	5752
823.55	5699
823.69	5741
823.83	5794
823.97	5611
824.11	5535
824.25	5516
824.389	5551
824.529	5551
824.669	5532
824.809	5611
824.949	5668
825.089	5589
825.228	5570
825.368	5425
825.508	5376
825.648	5315
825.787	5391
825.927	5360
826.067	5318
826.206	5284
826.346	5398
826.485	5372
826.625	5417
826.765	5535
826.904	5459
827.044	5250
827.183	5197
827.323	5109
827.462	5242
827.601	5174
827.741	5178
827.88	5181
828.02	5113
828.159	5280
828.298	5277
828.437	5330
828.577	5239
828.716	5444
828.855	5334
828.994	5174
829.134	5159
829.273	5181
829.412	5151
829.551	5083
829.69	5151
829.829	5204
829.968	5357
830.107	5284
830.246	5265
830.385	5193
830.524	5162
830.663	5045
830.802	4934
830.941	4866
831.08	4877
831.219	4946
831.357	4987
831.496	5170
831.635	4927
831.774	4843
831.913	4793
832.051	4771
832.19	4763
832.329	4782
832.467	4706
832.606	4618
832.744	4656
832.883	4664
833.022	4790
833.16	4835
833.299	4847
833.437	4793
833.576	4889
833.714	4835
833.852	4896
833.991	4900
834.129	4995
834.267	4987
834.406	4942
834.544	5041
834.682	4961
834.821	5003
834.959	5136
835.097	4987
835.235	5181
835.373	5140
835.511	5132
835.65	5041
835.788	5041
835.926	4930
836.064	4908
836.202	4938
836.34	5181
836.478	5239
836.615	5174
836.753	5223
836.891	5307
837.029	5288
837.167	5216
837.305	5204
837.443	5147
837.58	5162
837.718	5246
837.856	5216
837.993	5124
838.131	5311
838.269	5231
838.406	5258
838.544	5231
838.681	5075
838.819	4980
838.956	4961
839.094	4896
839.231	4995
839.369	5132
839.506	5444
839.643	5315
839.781	5155
839.918	5064
840.055	5143
840.193	5132
840.33	5143
840.467	5155
840.604	5235
840.742	5482
840.879	5132
841.016	5105
841.153	5204
841.29	5417
841.427	5379
841.564	5379
841.701	5387
841.838	5341
841.975	5280
842.112	5311
842.249	5201
842.385	5121
842.522	5372
842.659	5204
842.796	5174
842.933	5288
843.069	5231
843.206	5189
843.343	5360
843.479	5258
843.616	5239
843.752	5052
843.889	5045
844.025	5299
844.162	5029
844.298	5273
844.435	5147
844.571	5083
844.708	5242
844.844	5341
844.98	5357
845.117	5357
845.253	5208
845.389	5128
845.525	5212
845.661	5197
845.798	5102
845.934	5147
846.07	5048
846.206	5269
846.342	5326
846.478	5216
846.614	5067
846.75	5014
846.886	4984
847.022	5124
847.158	5064
847.294	5079
847.429	5090
847.565	5045
847.701	5376
847.837	4873
847.972	4858
848.108	4968
848.244	4961
848.379	4843
848.515	4816
848.65	4755
848.786	4774
848.921	4786
849.057	4873
849.192	4908
849.328	4835
849.463	4904
849.598	4797
849.734	4774
849.869	4736
850.004	4702
850.14	4721
850.275	4653
850.41	4561
850.545	4599
850.68	4672
850.815	4637
850.95	4702
851.085	4866
851.22	4755
851.355	4649
851.49	4664
851.625	4687
851.76	4653
851.895	4561
852.03	4607
852.165	4653
852.299	4744
852.434	4812
852.569	4820
852.703	4797
852.838	4850
852.973	4896
853.107	4911
853.242	4771
853.376	4729
853.511	4577
853.645	4660
853.78	4831
853.914	4710
854.048	4691
854.183	4672
854.317	4748
854.451	4919
854.585	4702
854.72	4694
854.854	4824
854.988	4656
855.122	4664
855.256	4489
855.39	4683
855.524	4831
855.658	4752
855.792	4725
855.926	4759
856.06	4721
856.194	4797
856.327	4721
856.461	4668
856.595	4630
856.729	4668
856.862	4744
856.996	4744
857.13	4778
857.263	4801
857.397	4790
857.53	4721
857.664	4805
857.797	4793
857.931	4763
858.064	4759
858.197	4793
858.331	4656
858.464	4637
858.597	4588
858.731	4630
858.864	4679
858.997	4653
859.13	4710
859.263	4778
859.396	4755
859.529	4618
859.662	4580
859.795	4561
859.928	4694
860.061	4771
860.194	4744
860.327	4668
860.46	4634
860.592	4736
860.725	4668
860.858	4793
860.99	4618
861.123	4474
861.256	4550
861.388	4649
861.521	5280
861.653	4531
861.786	4451
861.918	4500
862.05	4550
862.183	4599
862.315	4626
862.447	4710
862.58	4603
862.712	4462
862.844	4344
862.976	4459
863.108	4466
863.24	4801
863.372	4383
863.504	4451
863.636	4417
863.768	4504
863.9	4493
864.032	4383
864.164	4459
864.296	4478
864.428	4573
864.559	4611
864.691	4561
864.823	4542
864.954	4512
865.086	4519
865.217	4508
865.349	4421
865.48	4447
865.612	4538
865.743	4694
865.875	4516
866.006	4485
866.137	4462
866.269	4440
866.4	4455
866.531	4436
866.662	4424
866.793	4402
866.924	4447
867.055	4512
867.186	4474
867.317	4405
867.448	4409
867.579	4432
867.71	4409
867.841	4413
867.972	4462
868.103	4447
868.233	4504
868.364	4508
868.495	4535
868.625	4725
868.756	4767
868.886	4577
869.017	4615
869.147	4778
869.278	4763
869.408	4683
869.539	4664
869.669	4736
869.799	4679
869.929	4820
870.06	4782
870.19	4961
870.32	4972
870.45	4976
870.58	5006
870.71	5090
870.84	5159
870.97	4987
871.1	4942
871.23	5174
871.36	5136
871.489	5102
871.619	5048
871.749	5155
871.879	5079
872.008	5170
872.138	5083
872.267	4987
872.397	4854
872.526	4778
872.656	4752
872.785	4870
872.915	4972
873.044	5052
873.173	4915
873.303	4984
873.432	4934
873.561	4995
873.69	4896
873.819	4915
873.948	4930
874.077	4835
874.206	4797
874.335	4850
874.464	4934
874.593	5102
874.722	4976
874.851	5094
874.979	5090
875.108	5090
875.237	5010
875.365	4885
875.494	4961
875.623	5045
875.751	4873
875.88	4892
876.008	5014
876.136	5090
876.265	5223
876.393	5349
876.521	5250
876.65	5303
876.778	5216
876.906	5121
877.034	5045
877.162	5079
877.29	5033
877.418	5117
877.546	5067
877.674	5041
877.802	5018
877.93	5067
878.058	4987
878.185	4904
878.313	4968
878.441	4968
878.568	4812
878.696	4877
878.824	4991
878.951	5003
879.079	5113
879.206	5345
879.333	5136
879.461	5018
879.588	4987
879.715	5159
879.842	5280
879.97	5006
880.097	4828
880.224	4790
880.351	4790
880.478	4858
880.605	4824
880.732	4767
880.859	5124
880.986	4934
881.112	4984
881.239	4828
881.366	4714
881.493	4675
881.619	4588
881.746	4641
881.872	4664
881.999	4683
882.125	4721
882.252	4790
882.378	4809
882.505	4991
882.631	4805
882.757	4698
882.883	4793
883.01	4725
883.136	4706
883.262	4607
883.388	4668
883.514	4839
883.64	4885
883.766	4831
883.892	4698
884.018	4759
884.143	4889
884.269	5033
884.395	4698
884.52	4622
884.646	4679
884.772	4675
884.897	4577
885.023	4729
885.148	4824
885.274	4930
885.399	4839
885.524	4733
885.65	4721
885.775	4759
885.9	4729
886.025	4847
886.15	4828
886.275	4725
886.4	4668
886.525	4675
886.65	4687
886.775	4733
886.9	4949
887.025	5029
887.149	4831
887.274	4687
887.399	4592
887.523	4653
887.648	4615
887.773	4626
887.897	4786
888.021	4809
888.146	4698
888.27	4835
888.395	4923
888.519	4809
888.643	4843
888.767	4847
888.891	4706
889.015	4637
889.139	4683
889.263	4683
889.387	4797
889.511	4877
889.635	4816
889.759	4683
889.883	4668
890.006	4759
890.13	4870
890.254	4649
890.377	4691
890.501	4550
890.624	4546
890.748	4672
890.871	4489
890.995	4459
891.118	4379
891.241	4565
891.364	4599
891.488	4645
891.611	4504
891.734	4554
891.857	4611
891.98	4588
892.103	4679
892.226	4615
892.349	4592
892.471	4443
892.594	4508
892.717	4580
892.839	4607
892.962	4584
893.085	4634
893.207	4649
893.33	4489
893.452	4527
893.575	4706
893.697	4596
893.819	4793
893.941	4843
894.064	4786
894.186	4615
894.308	4569
894.43	4729
894.552	4835
894.674	4755
894.796	4584
894.918	4599
895.04	4596
895.161	4721
895.283	4668
895.405	4607
895.526	4649
895.648	4668
895.769	4702
895.891	4706
896.012	4733
896.134	4759
896.255	4694
896.376	4645
896.498	4660
896.619	4729
896.74	4672
896.861	4645
896.982	4976
897.103	5079
897.224	4809
897.345	4763
897.466	4675
897.587	4767
897.708	4873
897.828	4831
897.949	4679
898.07	4584
898.19	4622
898.311	4858
898.431	4736
898.552	4782
898.672	4828
898.792	4812
898.913	4748
899.033	4668
899.153	4504
899.273	4436
899.393	4519
899.513	4527
899.633	4485
899.753	4558
899.873	4569
899.993	4596
900.113	4527
900.232	4588
900.352	4592
900.472	4516
900.591	4451
900.711	4508
900.83	4443
900.95	4607
901.069	4664
901.189	4554
901.308	4363
901.427	4318
901.546	4344
901.665	4451
901.784	4596
901.904	4447
902.023	4352
902.141	4219
902.26	4188
902.379	4325
902.498	4284
902.617	4227
902.735	4367
902.854	4363
902.973	4375
903.091	4204
903.21	4238
903.328	4246
903.446	4295
903.565	4246
903.683	4363
903.801	4280
903.919	4386
904.038	4432
904.156	4348
904.274	4436
904.392	4432
904.51	4440
904.627	4497
904.745	4592
904.863	4664
904.981	4383
905.098	4348
905.216	4394
905.334	4409
905.451	4447
905.569	4466
905.686	4542
905.803	4577
905.921	4436
906.038	4550
906.155	4527
906.272	4432
906.389	4459
906.506	4348
906.623	4398
906.74	4459
906.857	4325
906.974	4409
907.091	4618
907.208	4714
907.324	4599
907.441	4508
907.557	4356
907.674	4341
907.79	4299
907.907	4383
908.023	4451
908.139	4516
908.256	4421
908.372	4459
908.488	4436
908.604	4375
908.72	4318
908.836	4379
908.952	4405
909.068	4428
909.184	4588
909.3	4447
909.415	4588
909.531	4584
909.647	4367
909.762	4383
909.878	4363
909.993	4478
910.108	4413
910.224	4405
910.339	4497
910.454	4455
910.57	4386
910.685	4325
910.8	4660
910.915	4588
911.03	4493
911.145	4341
911.259	4306
911.374	4402
911.489	4337
911.604	4310
911.718	4207
911.833	4261
911.947	4063
912.062	4090
912.176	4215
912.291	4242
912.405	4276
912.519	4459
912.633	4489
912.748	4360
912.862	4344
912.976	4238
913.09	4055
913.204	4158
913.318	4272
913.431	4394
913.545	4386
913.659	4504
913.772	4360
913.886	4219
914	4211
914.113	4402
914.226	4428
914.34	4402
914.453	4230
914.566	4478
914.68	4306
914.793	4344
914.906	4162
915.019	4116
915.132	4067
915.245	4147
915.358	4200
915.47	4257
915.583	4265
915.696	4291
915.809	4424
915.921	4409
916.034	4284
916.146	4249
916.259	4227
916.371	4333
916.483	4402
916.595	4227
916.708	4322
916.82	4318
916.932	4325
917.044	4390
917.156	4341
917.268	4242
917.38	4280
917.491	4272
917.603	4329
917.715	4405
917.826	4417
917.938	4360
918.049	4234
918.161	4394
918.272	4596
918.384	4500
918.495	4474
918.606	4261
918.717	4211
918.828	4356
918.939	4371
919.05	4318
919.161	4356
919.272	4147
919.383	4234
919.494	4421
919.604	4615
919.715	4440
919.826	4348
919.936	4436
920.047	4542
920.157	4481
920.267	4729
920.378	4538
920.488	4527
920.598	4687
920.708	4915
920.818	4736
920.928	4790
921.038	4995
921.148	4961
921.258	4637
921.368	4561
921.477	4516
921.587	4497
921.697	4363
921.806	4580
921.916	4440
922.025	4276
922.134	4272
922.244	4272
922.353	4314
922.462	4177
922.571	4128
922.68	4013
922.789	3994
922.898	4044
923.007	3998
923.116	4116
923.224	4017
923.333	4063
923.442	4013
923.55	4002
923.659	4036
923.767	4120
923.876	4048
923.984	4086
924.092	3964
924.201	4044
924.309	4116
924.417	4067
924.525	4082
924.633	4109
924.741	5094
924.849	3918
924.956	4120
925.064	3972
925.172	3896
925.279	3945
925.387	4055
925.494	4051
925.602	4169
925.709	4177
925.816	4071
925.924	4101
926.031	4242
926.138	4169
926.245	4200
926.352	4093
926.459	4265
926.566	4287
926.673	4166
926.779	4105
926.886	4090
926.993	3953
927.099	3972
927.206	3968
927.312	3953
927.419	4032
927.525	4029
927.631	4101
927.737	3953
927.843	3941
927.95	3850
928.056	3968
928.162	3949
928.267	4025
928.373	4637
928.479	4147
928.585	3850
928.69	4010
928.796	4040
928.901	3949
929.007	3907
929.112	4017
929.218	3975
929.323	3930
929.428	3903
929.533	4135
929.638	3926
929.743	3964
929.848	4029
929.953	4025
930.058	3880
930.163	3747
930.267	3800
930.372	3934
930.477	3793
930.581	4048
930.685	3915
930.79	3850
930.894	3903
930.998	3876
931.103	4013
931.207	3709
931.311	3705
931.415	3694
931.519	3557
931.623	3568
