Data from test_V78500241_1250.txt Node
Date: Fri Mar 25 16:57:41 CST 2022
User: usil
Spectrometer: V785-0024
Trigger mode: 0
Integration Time (sec): 4.000000E-1
Scans to average: 1
Nonlinearity correction enabled: false
Boxcar width: 0
Storing dark spectrum: false
XAxis mode: Wavelengths
Number of Pixels in Spectrum: 1024
>>>>>Begin Spectral Data<<<<<
801.071	8084
801.214	7974
801.356	7898
801.499	7830
801.641	7826
801.783	7830
801.926	7989
802.068	7970
802.211	7967
802.353	7860
802.496	7841
802.638	7841
802.78	7936
802.923	7997
803.065	7833
803.208	7890
803.35	7902
803.492	8100
803.635	8168
803.777	8039
803.919	8142
804.061	8514
804.204	8187
804.346	8073
804.488	7967
804.63	8149
804.773	8039
804.915	8081
805.057	8309
805.199	8214
805.341	8252
805.483	8298
805.626	8271
805.768	8153
805.91	8259
806.052	8263
806.194	8126
806.336	8191
806.478	8054
806.62	8054
806.762	8138
806.904	8317
807.046	8438
807.188	8404
807.33	8229
807.472	8305
807.614	8157
807.756	8149
807.898	8005
808.04	7856
808.182	7906
808.324	7906
808.465	7921
808.607	8119
808.749	8058
808.891	8111
809.033	8210
809.174	8210
809.316	8031
809.458	7993
809.6	7951
809.741	7982
809.883	8031
810.025	7967
810.166	8088
810.308	7997
810.45	8016
810.591	7879
810.733	7689
810.875	7636
811.016	7544
811.158	7441
811.299	7643
811.441	7719
811.582	7655
811.724	7613
811.865	7502
812.007	7575
812.148	7662
812.29	7582
812.431	7750
812.573	7845
812.714	7883
812.855	8069
812.997	8199
813.138	8237
813.279	8187
813.421	8115
813.562	8005
813.703	7864
813.845	7708
813.986	7491
814.127	7183
814.268	7194
814.41	7213
814.551	7160
814.692	7152
814.833	7103
814.974	7080
815.115	7183
815.256	7004
815.397	6909
815.539	6977
815.68	6806
815.821	6768
815.962	6852
816.103	6798
816.244	6738
816.385	6585
816.526	6642
816.666	6429
816.807	6323
816.948	6395
817.089	6426
817.23	6452
817.371	6391
817.512	6395
817.653	6357
817.793	6334
817.934	6448
818.075	6437
818.216	6426
818.356	6350
818.497	6235
818.638	6152
818.778	6114
818.919	6148
819.06	6201
819.2	6308
819.341	6300
819.481	6395
819.622	6536
819.762	6711
819.903	6681
820.043	6570
820.184	6578
820.324	6555
820.465	6703
820.605	6620
820.746	6662
820.886	6525
821.026	6635
821.167	6650
821.307	6738
821.447	6745
821.588	6623
821.728	6559
821.868	6464
822.008	6334
822.149	6353
822.289	6304
822.429	6144
822.569	6098
822.709	6182
822.849	5950
822.99	5847
823.13	5904
823.27	5954
823.41	5809
823.55	5828
823.69	5722
823.83	5771
823.97	5592
824.11	5482
824.25	5497
824.389	5512
824.529	5535
824.669	5497
824.809	5649
824.949	5695
825.089	5634
825.228	5532
825.368	5417
825.508	5330
825.648	5318
825.787	5398
825.927	5364
826.067	5284
826.206	5303
826.346	5360
826.485	5387
826.625	5417
826.765	5520
826.904	5471
827.044	5239
827.183	5136
827.323	5124
827.462	5299
827.601	5208
827.741	5197
827.88	5174
828.02	5159
828.159	5265
828.298	5288
828.437	5353
828.577	5261
828.716	5471
828.855	5326
828.994	5201
829.134	5185
829.273	5258
829.412	5132
829.551	5178
829.69	5216
829.829	5265
829.968	5383
830.107	5288
830.246	5326
830.385	5212
830.524	5178
830.663	5094
830.802	4987
830.941	4911
831.08	4862
831.219	4961
831.357	5018
831.496	5193
831.635	4904
831.774	4892
831.913	4870
832.051	4752
832.19	4759
832.329	4786
832.467	4740
832.606	4672
832.744	4733
832.883	4759
833.022	4748
833.16	4786
833.299	4866
833.437	4854
833.576	4885
833.714	4850
833.852	4896
833.991	4908
834.129	4976
834.267	4949
834.406	4961
834.544	5014
834.682	5045
834.821	5041
834.959	5189
835.097	5003
835.235	5124
835.373	5124
835.511	5140
835.65	5094
835.788	5067
835.926	4927
836.064	4862
836.202	4942
836.34	5159
836.478	5273
836.615	5159
836.753	5216
836.891	5330
837.029	5292
837.167	5254
837.305	5170
837.443	5193
837.58	5117
837.718	5292
837.856	5239
837.993	5231
838.131	5311
838.269	5258
838.406	5227
838.544	5246
838.681	5067
838.819	5056
838.956	4942
839.094	4949
839.231	4995
839.369	5109
839.506	5433
839.643	5345
839.781	5086
839.918	5071
840.055	5109
840.193	5113
840.33	5105
840.467	5208
840.604	5216
840.742	5459
840.879	5067
841.016	5121
841.153	5178
841.29	5417
841.427	5379
841.564	5345
841.701	5421
841.838	5261
841.975	5261
842.112	5239
842.249	5189
842.385	5155
842.522	5341
842.659	5201
842.796	5181
842.933	5223
843.069	5239
843.206	5166
843.343	5303
843.479	5261
843.616	5239
843.752	5075
843.889	5041
844.025	5261
844.162	5071
844.298	5212
844.435	5067
844.571	5052
844.708	5197
844.844	5326
844.98	5387
845.117	5391
845.253	5162
845.389	5071
845.525	5140
845.661	5143
845.798	5079
845.934	5151
846.07	5010
846.206	5204
846.342	5299
846.478	5246
846.614	5048
846.75	4953
846.886	4953
847.022	5136
847.158	5041
847.294	5029
847.429	5083
847.565	5052
847.701	5391
847.837	4889
847.972	4797
848.108	4957
848.244	4961
848.379	4839
848.515	4771
848.65	4767
848.786	4759
848.921	4771
849.057	4927
849.192	4942
849.328	4774
849.463	4812
849.598	4755
849.734	4774
849.869	4710
850.004	4611
850.14	4675
850.275	4592
850.41	4569
850.545	4660
850.68	4611
850.815	4615
850.95	4664
851.085	4835
851.22	4782
851.355	4694
851.49	4668
851.625	4679
851.76	4641
851.895	4637
852.03	4538
852.165	4592
852.299	4759
852.434	4862
852.569	4797
852.703	4782
852.838	4892
852.973	4934
853.107	4881
853.242	4774
853.376	4656
853.511	4584
853.645	4653
853.78	4839
853.914	4748
854.048	4694
854.183	4664
854.317	4725
854.451	4820
854.585	4721
854.72	4675
854.854	4752
854.988	4615
855.122	4748
855.256	4538
855.39	4653
855.524	4778
855.658	4740
855.792	4752
855.926	4786
856.06	4797
856.194	4782
856.327	4725
856.461	4649
856.595	4664
856.729	4691
856.862	4790
856.996	4702
857.13	4736
857.263	4725
857.397	4782
857.53	4637
857.664	4702
857.797	4790
857.931	4793
858.064	4736
858.197	4790
858.331	4664
858.464	4656
858.597	4523
858.731	4607
858.864	4691
858.997	4649
859.13	4656
859.263	4725
859.396	4714
859.529	4622
859.662	4626
859.795	4569
859.928	4664
860.061	4774
860.194	4816
860.327	4637
860.46	4607
860.592	4698
860.725	4740
860.858	4717
860.99	4592
861.123	4565
861.256	4554
861.388	4634
861.521	5292
861.653	4497
861.786	4512
861.918	4489
862.05	4550
862.183	4584
862.315	4645
862.447	4698
862.58	4573
862.712	4390
862.844	4367
862.976	4459
863.108	4535
863.24	4919
863.372	4363
863.504	4447
863.636	4413
863.768	4519
863.9	4402
864.032	4390
864.164	4504
864.296	4432
864.428	4618
864.559	4565
864.691	4558
864.823	4538
864.954	4516
865.086	4554
865.217	4523
865.349	4432
865.48	4462
865.612	4538
865.743	4656
865.875	4466
866.006	4432
866.137	4489
866.269	4474
866.4	4447
866.531	4485
866.662	4447
866.793	4398
866.924	4424
867.055	4538
867.186	4470
867.317	4462
867.448	4318
867.579	4371
867.71	4451
867.841	4383
867.972	4493
868.103	4527
868.233	4497
868.364	4466
868.495	4474
868.625	4668
868.756	4774
868.886	4615
869.017	4596
869.147	4801
869.278	4820
869.408	4717
869.539	4626
869.669	4740
869.799	4672
869.929	4736
870.06	4729
870.19	4995
870.32	4885
870.45	4976
870.58	5018
870.71	5094
870.84	5140
870.97	4965
871.1	4999
871.23	5151
871.36	5132
871.489	5052
871.619	5079
871.749	5090
871.879	5151
872.008	5170
872.138	5105
872.267	4957
872.397	4843
872.526	4793
872.656	4733
872.785	4793
872.915	4957
873.044	5071
873.173	4934
873.303	4991
873.432	4957
873.561	4972
873.69	4885
873.819	4904
873.948	4911
874.077	4824
874.206	4759
874.335	4793
874.464	4953
874.593	5079
874.722	4953
874.851	5117
874.979	5048
875.108	4995
875.237	4889
875.365	4900
875.494	4919
875.623	4972
875.751	4847
875.88	4900
876.008	4980
876.136	5018
876.265	5280
876.393	5318
876.521	5307
876.65	5254
876.778	5181
876.906	5128
877.034	5022
877.162	5033
877.29	4980
877.418	5075
877.546	5071
877.674	5067
877.802	5052
877.93	4999
878.058	4976
878.185	4923
878.313	4999
878.441	5010
878.568	4824
878.696	4892
878.824	4976
878.951	5022
879.079	5185
879.206	5258
879.333	5105
879.461	4968
879.588	5029
879.715	5174
879.842	5204
879.97	5022
880.097	4831
880.224	4748
880.351	4748
880.478	4835
880.605	4801
880.732	4809
880.859	5121
880.986	4900
881.112	4942
881.239	4809
881.366	4653
881.493	4622
881.619	4588
881.746	4660
881.872	4683
881.999	4675
882.125	4717
882.252	4809
882.378	4843
882.505	4965
882.631	4797
882.757	4698
882.883	4736
883.01	4714
883.136	4660
883.262	4592
883.388	4626
883.514	4809
883.64	4866
883.766	4778
883.892	4672
884.018	4702
884.143	4934
884.269	5041
884.395	4706
884.52	4649
884.646	4664
884.772	4672
884.897	4565
885.023	4679
885.148	4831
885.274	4896
885.399	4812
885.524	4706
885.65	4653
885.775	4755
885.9	4691
886.025	4900
886.15	4816
886.275	4736
886.4	4649
886.525	4752
886.65	4683
886.775	4721
886.9	4900
887.025	5048
887.149	4847
887.274	4649
887.399	4573
887.523	4607
887.648	4634
887.773	4592
887.897	4755
888.021	4748
888.146	4675
888.27	4847
888.395	4896
888.519	4843
888.643	4793
888.767	4850
888.891	4694
889.015	4599
889.139	4714
889.263	4622
889.387	4767
889.511	4858
889.635	4824
889.759	4649
889.883	4683
890.006	4721
890.13	4858
890.254	4622
890.377	4717
890.501	4577
890.624	4516
890.748	4664
890.871	4535
890.995	4500
891.118	4455
891.241	4523
891.364	4561
891.488	4672
891.611	4500
891.734	4550
891.857	4672
891.98	4584
892.103	4675
892.226	4588
892.349	4561
892.471	4405
892.594	4565
892.717	4641
892.839	4535
892.962	4558
893.085	4702
893.207	4618
893.33	4478
893.452	4554
893.575	4714
893.697	4546
893.819	4801
893.941	4843
894.064	4801
894.186	4580
894.308	4584
894.43	4675
894.552	4839
894.674	4736
894.796	4527
894.918	4577
895.04	4584
895.161	4729
895.283	4691
895.405	4580
895.526	4611
895.648	4736
895.769	4714
895.891	4729
896.012	4744
896.134	4675
896.255	4679
896.376	4664
896.498	4668
896.619	4698
896.74	4569
896.861	4596
896.982	4930
897.103	5075
897.224	4835
897.345	4736
897.466	4714
897.587	4733
897.708	4820
897.828	4828
897.949	4664
898.07	4596
898.19	4653
898.311	4911
898.431	4668
898.552	4790
898.672	4824
898.792	4812
898.913	4782
899.033	4653
899.153	4531
899.273	4489
899.393	4470
899.513	4569
899.633	4546
899.753	4558
899.873	4550
899.993	4584
900.113	4535
900.232	4569
900.352	4535
900.472	4466
900.591	4421
900.711	4516
900.83	4428
900.95	4599
901.069	4706
901.189	4588
901.308	4367
901.427	4360
901.546	4375
901.665	4504
901.784	4489
901.904	4367
902.023	4337
902.141	4207
902.26	4162
902.379	4333
902.498	4253
902.617	4238
902.735	4432
902.854	4405
902.973	4344
903.091	4196
903.21	4223
903.328	4287
903.446	4314
903.565	4303
903.683	4356
903.801	4303
903.919	4421
904.038	4432
904.156	4280
904.274	4436
904.392	4363
904.51	4379
904.627	4508
904.745	4550
904.863	4622
904.981	4405
905.098	4306
905.216	4375
905.334	4470
905.451	4474
905.569	4481
905.686	4607
905.803	4592
905.921	4405
906.038	4550
906.155	4451
906.272	4390
906.389	4455
906.506	4318
906.623	4375
906.74	4398
906.857	4386
906.974	4386
907.091	4599
907.208	4683
907.324	4584
907.441	4504
907.557	4318
907.674	4386
907.79	4306
907.907	4459
908.023	4447
908.139	4497
908.256	4436
908.372	4508
908.488	4462
908.604	4405
908.72	4303
908.836	4337
908.952	4394
909.068	4455
909.184	4580
909.3	4474
909.415	4607
909.531	4535
909.647	4348
909.762	4394
909.878	4344
909.993	4474
910.108	4398
910.224	4432
910.339	4493
910.454	4413
910.57	4379
910.685	4329
910.8	4679
910.915	4599
911.03	4512
911.145	4314
911.259	4363
911.374	4360
911.489	4287
911.604	4291
911.718	4196
911.833	4276
911.947	4097
912.062	3998
912.176	4227
912.291	4253
912.405	4261
912.519	4481
912.633	4500
912.748	4325
912.862	4333
912.976	4230
913.09	4101
913.204	4196
913.318	4265
913.431	4356
913.545	4344
913.659	4417
913.772	4333
913.886	4257
914	4234
914.113	4375
914.226	4417
914.34	4421
914.453	4257
914.566	4447
914.68	4291
914.793	4375
914.906	4139
915.019	4143
915.132	4120
915.245	4207
915.358	4249
915.47	4261
915.583	4268
915.696	4314
915.809	4409
915.921	4409
916.034	4246
916.146	4284
916.259	4234
916.371	4413
916.483	4375
916.595	4333
916.708	4310
916.82	4352
916.932	4352
917.044	4325
917.156	4367
917.268	4234
917.38	4291
917.491	4253
917.603	4348
917.715	4451
917.826	4383
917.938	4306
918.049	4253
918.161	4398
918.272	4523
918.384	4538
918.495	4443
918.606	4299
918.717	4238
918.828	4333
918.939	4371
919.05	4230
919.161	4386
919.272	4166
919.383	4234
919.494	4428
919.604	4634
919.715	4451
919.826	4398
919.936	4394
920.047	4531
920.157	4497
920.267	4641
920.378	4531
920.488	4504
920.598	4736
920.708	4881
920.818	4801
920.928	4755
921.038	4934
921.148	4915
921.258	4596
921.368	4588
921.477	4500
921.587	4493
921.697	4375
921.806	4535
921.916	4455
922.025	4246
922.134	4268
922.244	4261
922.353	4352
922.462	4162
922.571	4090
922.68	4006
922.789	3968
922.898	4029
923.007	4021
923.116	4105
923.224	4051
923.333	4021
923.442	3972
923.55	3907
923.659	4013
923.767	4124
923.876	3994
923.984	4131
924.092	4002
924.201	4059
924.309	4097
924.417	4120
924.525	4017
924.633	4109
924.741	5067
924.849	3926
924.956	4078
925.064	3941
925.172	3899
925.279	4006
925.387	4029
925.494	4067
925.602	4181
925.709	4219
925.816	4006
925.924	4135
926.031	4169
926.138	4181
926.245	4158
926.352	4090
926.459	4234
926.566	4306
926.673	4105
926.779	4071
926.886	4097
926.993	3979
927.099	3964
927.206	3975
927.312	3911
927.419	4040
927.525	4071
927.631	4082
927.737	3960
927.843	3941
927.95	3888
928.056	3941
928.162	3956
928.267	4029
928.373	4660
928.479	4105
928.585	3831
928.69	4029
928.796	4063
928.901	3987
929.007	3831
929.112	3953
929.218	3964
929.323	3945
929.428	3956
929.533	4093
929.638	3876
929.743	3937
929.848	4013
929.953	3983
930.058	3918
930.163	3766
930.267	3842
930.372	4013
930.477	3800
930.581	4078
930.685	3964
930.79	3865
930.894	3880
930.998	3838
931.103	4059
931.207	3781
931.311	3709
931.415	3652
931.519	3492
931.623	3545
