Data from test_V78500241_1692.txt Node
Date: Fri Mar 25 17:00:46 CST 2022
User: usil
Spectrometer: V785-0024
Trigger mode: 0
Integration Time (sec): 4.000000E-1
Scans to average: 1
Nonlinearity correction enabled: false
Boxcar width: 0
Storing dark spectrum: false
XAxis mode: Wavelengths
Number of Pixels in Spectrum: 1024
>>>>>Begin Spectral Data<<<<<
801.071	8027
801.214	8016
801.356	7868
801.499	7822
801.641	7784
801.783	7849
801.926	7871
802.068	7986
802.211	7909
802.353	7947
802.496	7856
802.638	7856
802.78	7875
802.923	7963
803.065	7887
803.208	7875
803.35	7982
803.492	8081
803.635	8168
803.777	7963
803.919	8088
804.061	8488
804.204	8176
804.346	8115
804.488	7997
804.63	8119
804.773	7993
804.915	8111
805.057	8309
805.199	8142
805.341	8210
805.483	8271
805.626	8191
805.768	8130
805.91	8267
806.052	8229
806.194	8183
806.336	8275
806.478	8005
806.62	8077
806.762	8161
806.904	8221
807.046	8457
807.188	8408
807.33	8324
807.472	8317
807.614	8183
807.756	8187
807.898	8001
808.04	7814
808.182	7925
808.324	7868
808.465	7925
808.607	8096
808.749	8145
808.891	8164
809.033	8294
809.174	8168
809.316	8088
809.458	8103
809.6	7993
809.741	8016
809.883	7993
810.025	8111
810.166	8020
810.308	8073
810.45	8027
810.591	7913
810.733	7761
810.875	7700
811.016	7571
811.158	7483
811.299	7609
811.441	7689
811.582	7643
811.724	7605
811.865	7434
812.007	7605
812.148	7514
812.29	7670
812.431	7750
812.573	7883
812.714	8024
812.855	8126
812.997	8229
813.138	8358
813.279	8161
813.421	8065
813.562	7940
813.703	7765
813.845	7788
813.986	7476
814.127	7236
814.268	7171
814.41	7225
814.551	7099
814.692	7228
814.833	7069
814.974	7069
815.115	7129
815.256	6970
815.397	6913
815.539	6890
815.68	6795
815.821	6776
815.962	6856
816.103	6833
816.244	6688
816.385	6623
816.526	6597
816.666	6445
816.807	6342
816.948	6369
817.089	6460
817.23	6414
817.371	6350
817.512	6331
817.653	6380
817.793	6353
817.934	6399
818.075	6456
818.216	6426
818.356	6399
818.497	6167
818.638	6129
818.778	6152
818.919	6136
819.06	6201
819.2	6311
819.341	6315
819.481	6311
819.622	6490
819.762	6700
819.903	6707
820.043	6604
820.184	6559
820.324	6612
820.465	6658
820.605	6639
820.746	6616
820.886	6585
821.026	6639
821.167	6669
821.307	6825
821.447	6715
821.588	6635
821.728	6547
821.868	6498
822.008	6338
822.149	6334
822.289	6311
822.429	6110
822.569	6079
822.709	6106
822.849	5969
822.99	5904
823.13	5946
823.27	5946
823.41	5805
823.55	5794
823.69	5748
823.83	5783
823.97	5665
824.11	5566
824.25	5455
824.389	5585
824.529	5623
824.669	5501
824.809	5623
824.949	5604
825.089	5657
825.228	5539
825.368	5364
825.508	5292
825.648	5364
825.787	5376
825.927	5376
826.067	5246
826.206	5296
826.346	5379
826.485	5376
826.625	5383
826.765	5516
826.904	5395
827.044	5277
827.183	5185
827.323	5132
827.462	5231
827.601	5102
827.741	5174
827.88	5235
828.02	5071
828.159	5204
828.298	5315
828.437	5406
828.577	5296
828.716	5486
828.855	5292
828.994	5128
829.134	5166
829.273	5208
829.412	5136
829.551	5056
829.69	5189
829.829	5239
829.968	5330
830.107	5299
830.246	5197
830.385	5204
830.524	5151
830.663	5041
830.802	4957
830.941	4892
831.08	4892
831.219	4987
831.357	4984
831.496	5117
831.635	4908
831.774	4797
831.913	4839
832.051	4706
832.19	4755
832.329	4843
832.467	4710
832.606	4645
832.744	4714
832.883	4740
833.022	4698
833.16	4767
833.299	4835
833.437	4782
833.576	4809
833.714	4866
833.852	4854
833.991	4858
834.129	4946
834.267	4934
834.406	4889
834.544	4930
834.682	4984
834.821	4957
834.959	5174
835.097	4987
835.235	5140
835.373	5105
835.511	5060
835.65	5018
835.788	5037
835.926	4873
836.064	4881
836.202	4900
836.34	5166
836.478	5239
836.615	5086
836.753	5216
836.891	5318
837.029	5185
837.167	5201
837.305	5193
837.443	5181
837.58	5064
837.718	5223
837.856	5178
837.993	5075
838.131	5223
838.269	5223
838.406	5204
838.544	5181
838.681	5029
838.819	4984
838.956	4858
839.094	4911
839.231	4991
839.369	5067
839.506	5379
839.643	5258
839.781	5067
839.918	5003
840.055	5098
840.193	5147
840.33	5113
840.467	5178
840.604	5231
840.742	5421
840.879	5048
841.016	5067
841.153	5155
841.29	5368
841.427	5414
841.564	5239
841.701	5307
841.838	5170
841.975	5193
842.112	5277
842.249	5117
842.385	5174
842.522	5334
842.659	5132
842.796	5147
842.933	5162
843.069	5124
843.206	5151
843.343	5265
843.479	5258
843.616	5261
843.752	5041
843.889	5014
844.025	5178
844.162	5018
844.298	5269
844.435	5102
844.571	5014
844.708	5162
844.844	5296
844.98	5368
845.117	5273
845.253	5166
845.389	5079
845.525	5098
845.661	5147
845.798	5029
845.934	5117
846.07	5060
846.206	5197
846.342	5334
846.478	5140
846.614	5037
846.75	4946
846.886	4946
847.022	5124
847.158	5018
847.294	5056
847.429	5113
847.565	5056
847.701	5315
847.837	4831
847.972	4790
848.108	4919
848.244	4919
848.379	4748
848.515	4793
848.65	4717
848.786	4679
848.921	4763
849.057	4835
849.192	4896
849.328	4736
849.463	4820
849.598	4782
849.734	4721
849.869	4668
850.004	4599
850.14	4691
850.275	4592
850.41	4531
850.545	4546
850.68	4561
850.815	4622
850.95	4596
851.085	4801
851.22	4733
851.355	4656
851.49	4577
851.625	4580
851.76	4645
851.895	4535
852.03	4508
852.165	4672
852.299	4744
852.434	4694
852.569	4714
852.703	4786
852.838	4816
852.973	4942
853.107	4934
853.242	4748
853.376	4664
853.511	4512
853.645	4580
853.78	4717
853.914	4706
854.048	4664
854.183	4630
854.317	4694
854.451	4850
854.585	4630
854.72	4626
854.854	4748
854.988	4542
855.122	4596
855.256	4527
855.39	4630
855.524	4763
855.658	4702
855.792	4672
855.926	4778
856.06	4778
856.194	4786
856.327	4668
856.461	4615
856.595	4588
856.729	4618
856.862	4702
856.996	4664
857.13	4706
857.263	4710
857.397	4759
857.53	4649
857.664	4714
857.797	4755
857.931	4744
858.064	4721
858.197	4759
858.331	4641
858.464	4546
858.597	4538
858.731	4622
858.864	4599
858.997	4580
859.13	4645
859.263	4660
859.396	4710
859.529	4519
859.662	4550
859.795	4535
859.928	4634
860.061	4752
860.194	4740
860.327	4641
860.46	4535
860.592	4721
860.725	4694
860.858	4748
860.99	4542
861.123	4466
861.256	4538
861.388	4656
861.521	5258
861.653	4489
861.786	4462
861.918	4440
862.05	4478
862.183	4523
862.315	4535
862.447	4649
862.58	4546
862.712	4432
862.844	4333
862.976	4489
863.108	4485
863.24	4862
863.372	4314
863.504	4421
863.636	4417
863.768	4470
863.9	4417
864.032	4367
864.164	4424
864.296	4455
864.428	4512
864.559	4561
864.691	4558
864.823	4508
864.954	4519
865.086	4497
865.217	4462
865.349	4417
865.48	4390
865.612	4500
865.743	4603
865.875	4443
866.006	4413
866.137	4523
866.269	4451
866.4	4413
866.531	4428
866.662	4428
866.793	4360
866.924	4379
867.055	4516
867.186	4455
867.317	4428
867.448	4405
867.579	4394
867.71	4379
867.841	4360
867.972	4493
868.103	4466
868.233	4493
868.364	4459
868.495	4462
868.625	4645
868.756	4710
868.886	4573
869.017	4584
869.147	4774
869.278	4824
869.408	4656
869.539	4649
869.669	4698
869.799	4653
869.929	4721
870.06	4694
870.19	4980
870.32	4911
870.45	4927
870.58	5003
870.71	5105
870.84	5045
870.97	4934
871.1	4881
871.23	5143
871.36	5105
871.489	5067
871.619	5064
871.749	5083
871.879	5147
872.008	5113
872.138	5029
872.267	4938
872.397	4843
872.526	4820
872.656	4683
872.785	4782
872.915	4915
873.044	4972
873.173	4896
873.303	5003
873.432	4946
873.561	4923
873.69	4870
873.819	4839
873.948	4889
874.077	4793
874.206	4774
874.335	4831
874.464	4915
874.593	5094
874.722	4946
874.851	5041
874.979	5037
875.108	5022
875.237	4923
875.365	4850
875.494	4870
875.623	4957
875.751	4858
875.88	4854
876.008	4934
876.136	5010
876.265	5201
876.393	5322
876.521	5261
876.65	5204
876.778	5132
876.906	5102
877.034	4987
877.162	5060
877.29	4980
877.418	5060
877.546	5033
877.674	5025
877.802	5018
877.93	5037
878.058	4885
878.185	4839
878.313	4968
878.441	4938
878.568	4824
878.696	4885
878.824	4908
878.951	4961
879.079	5132
879.206	5292
879.333	5064
879.461	4968
879.588	4980
879.715	5102
879.842	5201
879.97	5014
880.097	4847
880.224	4774
880.351	4828
880.478	4847
880.605	4790
880.732	4774
880.859	5098
880.986	4900
881.112	4870
881.239	4790
881.366	4675
881.493	4622
881.619	4538
881.746	4618
881.872	4626
881.999	4588
882.125	4694
882.252	4790
882.378	4824
882.505	4938
882.631	4763
882.757	4698
882.883	4653
883.01	4668
883.136	4721
883.262	4615
883.388	4622
883.514	4801
883.64	4873
883.766	4767
883.892	4637
884.018	4733
884.143	4919
884.269	4968
884.395	4611
884.52	4584
884.646	4641
884.772	4561
884.897	4580
885.023	4675
885.148	4809
885.274	4850
885.399	4812
885.524	4733
885.65	4683
885.775	4702
885.9	4694
886.025	4896
886.15	4793
886.275	4702
886.4	4645
886.525	4675
886.65	4706
886.775	4653
886.9	4828
887.025	5056
887.149	4767
887.274	4592
887.399	4577
887.523	4645
887.648	4519
887.773	4561
887.897	4774
888.021	4790
888.146	4668
888.27	4828
888.395	4892
888.519	4793
888.643	4744
888.767	4812
888.891	4618
889.015	4626
889.139	4656
889.263	4588
889.387	4725
889.511	4801
889.635	4835
889.759	4675
889.883	4618
890.006	4729
890.13	4763
890.254	4603
890.377	4710
890.501	4519
890.624	4546
890.748	4656
890.871	4519
890.995	4455
891.118	4322
891.241	4474
891.364	4546
891.488	4615
891.611	4523
891.734	4485
891.857	4569
891.98	4550
892.103	4607
892.226	4630
892.349	4519
892.471	4436
892.594	4569
892.717	4592
892.839	4561
892.962	4649
893.085	4706
893.207	4561
893.33	4497
893.452	4481
893.575	4694
893.697	4569
893.819	4820
893.941	4831
894.064	4782
894.186	4599
894.308	4565
894.43	4786
894.552	4816
894.674	4774
894.796	4569
894.918	4573
895.04	4569
895.161	4729
895.283	4694
895.405	4542
895.526	4645
895.648	4668
895.769	4679
895.891	4675
896.012	4710
896.134	4744
896.255	4679
896.376	4599
896.498	4630
896.619	4656
896.74	4596
896.861	4660
896.982	4915
897.103	5022
897.224	4790
897.345	4729
897.466	4702
897.587	4694
897.708	4797
897.828	4752
897.949	4637
898.07	4554
898.19	4672
898.311	4820
898.431	4649
898.552	4714
898.672	4805
898.792	4786
898.913	4793
899.033	4626
899.153	4474
899.273	4428
899.393	4519
899.513	4535
899.633	4519
899.753	4512
899.873	4527
899.993	4569
900.113	4531
900.232	4573
900.352	4527
900.472	4462
900.591	4413
900.711	4474
900.83	4470
900.95	4584
901.069	4733
901.189	4481
901.308	4367
901.427	4299
901.546	4344
901.665	4504
901.784	4542
901.904	4417
902.023	4287
902.141	4223
902.26	4185
902.379	4318
902.498	4234
902.617	4272
902.735	4348
902.854	4363
902.973	4322
903.091	4181
903.21	4181
903.328	4268
903.446	4291
903.565	4265
903.683	4314
903.801	4303
903.919	4360
904.038	4451
904.156	4276
904.274	4402
904.392	4367
904.51	4398
904.627	4451
904.745	4596
904.863	4588
904.981	4390
905.098	4287
905.216	4337
905.334	4424
905.451	4424
905.569	4432
905.686	4527
905.803	4538
905.921	4424
906.038	4546
906.155	4478
906.272	4356
906.389	4428
906.506	4299
906.623	4402
906.74	4409
906.857	4295
906.974	4337
907.091	4538
907.208	4626
907.324	4531
907.441	4554
907.557	4322
907.674	4348
907.79	4306
907.907	4398
908.023	4493
908.139	4466
908.256	4409
908.372	4455
908.488	4459
908.604	4375
908.72	4341
908.836	4348
908.952	4379
909.068	4421
909.184	4573
909.3	4451
909.415	4569
909.531	4554
909.647	4303
909.762	4436
909.878	4322
909.993	4462
910.108	4409
910.224	4440
910.339	4443
910.454	4394
910.57	4413
910.685	4265
910.8	4603
910.915	4573
911.03	4493
911.145	4344
911.259	4261
911.374	4383
911.489	4310
911.604	4291
911.718	4188
911.833	4173
911.947	4021
912.062	4029
912.176	4219
912.291	4234
912.405	4257
912.519	4481
912.633	4421
912.748	4363
912.862	4394
912.976	4227
913.09	4086
913.204	4131
913.318	4253
913.431	4333
913.545	4356
913.659	4371
913.772	4379
913.886	4238
914	4173
914.113	4337
914.226	4459
914.34	4371
914.453	4192
914.566	4451
914.68	4303
914.793	4329
914.906	4147
915.019	4128
915.132	4093
915.245	4147
915.358	4215
915.47	4230
915.583	4291
915.696	4329
915.809	4371
915.921	4413
916.034	4291
916.146	4261
916.259	4223
916.371	4386
916.483	4333
916.595	4219
916.708	4299
916.82	4375
916.932	4265
917.044	4367
917.156	4325
917.268	4207
917.38	4249
917.491	4291
917.603	4276
917.715	4428
917.826	4417
917.938	4360
918.049	4261
918.161	4379
918.272	4558
918.384	4531
918.495	4466
918.606	4276
918.717	4284
918.828	4360
918.939	4337
919.05	4249
919.161	4322
919.272	4116
919.383	4211
919.494	4443
919.604	4653
919.715	4413
919.826	4344
919.936	4398
920.047	4523
920.157	4421
920.267	4698
920.378	4516
920.488	4462
920.598	4691
920.708	4870
920.818	4816
920.928	4771
921.038	4923
921.148	4881
921.258	4634
921.368	4561
921.477	4512
921.587	4470
921.697	4367
921.806	4561
921.916	4424
922.025	4268
922.134	4284
922.244	4215
922.353	4329
922.462	4135
922.571	4185
922.68	3979
922.789	3949
922.898	4055
923.007	3941
923.116	4120
923.224	4093
923.333	4082
923.442	3987
923.55	3949
923.659	4025
923.767	4063
923.876	4017
923.984	4109
924.092	3979
924.201	4067
924.309	4116
924.417	4112
924.525	4055
924.633	4078
924.741	4870
924.849	3922
924.956	4154
925.064	4013
925.172	3865
925.279	3937
925.387	4044
925.494	4055
925.602	4204
925.709	4173
925.816	4040
925.924	4074
926.031	4242
926.138	4143
926.245	4211
926.352	4055
926.459	4207
926.566	4325
926.673	4139
926.779	4101
926.886	4078
926.993	3968
927.099	3930
927.206	3941
927.312	3907
927.419	4090
927.525	4013
927.631	4044
927.737	3968
927.843	3899
927.95	3827
928.056	3960
928.162	3956
928.267	4051
928.373	4683
928.479	4090
928.585	3926
928.69	4013
928.796	4059
928.901	3960
929.007	3827
929.112	3983
929.218	3994
929.323	3987
929.428	3960
929.533	4093
929.638	3892
929.743	3960
929.848	4002
929.953	4010
930.058	3918
930.163	3774
930.267	3854
930.372	3994
930.477	3819
930.581	4078
930.685	3953
930.79	3831
930.894	3915
930.998	3850
931.103	4021
931.207	3698
931.311	3690
931.415	3679
931.519	3492
931.623	3545
