Data from test_V78500241_1324.txt Node
Date: Fri Mar 25 16:58:12 CST 2022
User: usil
Spectrometer: V785-0024
Trigger mode: 0
Integration Time (sec): 4.000000E-1
Scans to average: 1
Nonlinearity correction enabled: false
Boxcar width: 0
Storing dark spectrum: false
XAxis mode: Wavelengths
Number of Pixels in Spectrum: 1024
>>>>>Begin Spectral Data<<<<<
801.071	8016
801.214	8024
801.356	7917
801.499	7845
801.641	7750
801.783	7784
801.926	7955
802.068	7898
802.211	7947
802.353	7974
802.496	7845
802.638	7925
802.78	7875
802.923	7902
803.065	7894
803.208	7826
803.35	7947
803.492	8103
803.635	8153
803.777	8039
803.919	8126
804.061	8461
804.204	8138
804.346	8020
804.488	7913
804.63	8126
804.773	8050
804.915	8134
805.057	8362
805.199	8134
805.341	8172
805.483	8286
805.626	8263
805.768	8111
805.91	8183
806.052	8214
806.194	8050
806.336	8294
806.478	8031
806.62	8069
806.762	8149
806.904	8267
807.046	8442
807.188	8305
807.33	8259
807.472	8259
807.614	8103
807.756	8134
807.898	7989
808.04	7871
808.182	7902
808.324	7909
808.465	7868
808.607	8092
808.749	8092
808.891	8123
809.033	8290
809.174	8183
809.316	8024
809.458	8001
809.6	7940
809.741	7993
809.883	8005
810.025	8157
810.166	8058
810.308	8062
810.45	8008
810.591	7860
810.733	7731
810.875	7658
811.016	7518
811.158	7453
811.299	7632
811.441	7738
811.582	7685
811.724	7597
811.865	7502
812.007	7559
812.148	7575
812.29	7586
812.431	7727
812.573	7883
812.714	8024
812.855	8145
812.997	8126
813.138	8336
813.279	8240
813.421	8088
813.562	8035
813.703	7940
813.845	7750
813.986	7529
814.127	7270
814.268	7187
814.41	7221
814.551	7156
814.692	7190
814.833	7057
814.974	7091
815.115	7099
815.256	6920
815.397	6962
815.539	6993
815.68	6772
815.821	6787
815.962	6818
816.103	6840
816.244	6673
816.385	6623
816.526	6593
816.666	6452
816.807	6243
816.948	6410
817.089	6437
817.23	6479
817.371	6395
817.512	6357
817.653	6380
817.793	6350
817.934	6353
818.075	6399
818.216	6403
818.356	6395
818.497	6209
818.638	6076
818.778	6106
818.919	6121
819.06	6178
819.2	6338
819.341	6296
819.481	6338
819.622	6502
819.762	6669
819.903	6722
820.043	6551
820.184	6570
820.324	6547
820.465	6703
820.605	6658
820.746	6658
820.886	6486
821.026	6665
821.167	6730
821.307	6814
821.447	6840
821.588	6589
821.728	6525
821.868	6467
822.008	6338
822.149	6300
822.289	6285
822.429	6133
822.569	6076
822.709	6106
822.849	5916
822.99	5889
823.13	5901
823.27	5882
823.41	5779
823.55	5779
823.69	5767
823.83	5745
823.97	5638
824.11	5505
824.25	5486
824.389	5539
824.529	5535
824.669	5535
824.809	5596
824.949	5566
825.089	5554
825.228	5497
825.368	5307
825.508	5288
825.648	5288
825.787	5379
825.927	5357
826.067	5311
826.206	5269
826.346	5360
826.485	5391
826.625	5417
826.765	5551
826.904	5448
827.044	5246
827.183	5193
827.323	5098
827.462	5250
827.601	5155
827.741	5166
827.88	5212
828.02	5102
828.159	5246
828.298	5315
828.437	5357
828.577	5273
828.716	5535
828.855	5315
828.994	5201
829.134	5170
829.273	5189
829.412	5136
829.551	5193
829.69	5151
829.829	5227
829.968	5376
830.107	5261
830.246	5273
830.385	5185
830.524	5212
830.663	5094
830.802	5010
830.941	4915
831.08	4900
831.219	4984
831.357	5025
831.496	5185
831.635	4904
831.774	4858
831.913	4850
832.051	4744
832.19	4771
832.329	4850
832.467	4733
832.606	4683
832.744	4748
832.883	4694
833.022	4733
833.16	4786
833.299	4881
833.437	4870
833.576	4862
833.714	4930
833.852	4927
833.991	4854
834.129	4984
834.267	4995
834.406	4919
834.544	5033
834.682	4972
834.821	4972
834.959	5204
835.097	4980
835.235	5155
835.373	5105
835.511	5102
835.65	5079
835.788	5064
835.926	4915
836.064	4900
836.202	4930
836.34	5216
836.478	5239
836.615	5124
836.753	5280
836.891	5265
837.029	5334
837.167	5250
837.305	5189
837.443	5216
837.58	5132
837.718	5250
837.856	5170
837.993	5159
838.131	5288
838.269	5242
838.406	5185
838.544	5246
838.681	5071
838.819	5014
838.956	4919
839.094	4930
839.231	4961
839.369	5083
839.506	5452
839.643	5322
839.781	5075
839.918	5052
840.055	5140
840.193	5174
840.33	5128
840.467	5159
840.604	5201
840.742	5421
840.879	5117
841.016	5102
841.153	5201
841.29	5379
841.427	5334
841.564	5322
841.701	5357
841.838	5364
841.975	5227
842.112	5273
842.249	5147
842.385	5140
842.522	5353
842.659	5189
842.796	5151
842.933	5288
843.069	5185
843.206	5201
843.343	5322
843.479	5204
843.616	5254
843.752	5033
843.889	5048
844.025	5239
844.162	5048
844.298	5273
844.435	5109
844.571	5071
844.708	5239
844.844	5322
844.98	5307
845.117	5318
845.253	5098
845.389	5124
845.525	5159
845.661	5170
845.798	5117
845.934	5117
846.07	5109
846.206	5185
846.342	5318
846.478	5216
846.614	5086
846.75	4972
846.886	4930
847.022	5140
847.158	5025
847.294	5075
847.429	5086
847.565	5090
847.701	5368
847.837	4885
847.972	4824
848.108	4972
848.244	4942
848.379	4763
848.515	4809
848.65	4748
848.786	4763
848.921	4790
849.057	4870
849.192	4919
849.328	4843
849.463	4843
849.598	4790
849.734	4828
849.869	4725
850.004	4603
850.14	4653
850.275	4577
850.41	4611
850.545	4634
850.68	4653
850.815	4691
850.95	4622
851.085	4866
851.22	4767
851.355	4691
851.49	4615
851.625	4630
851.76	4615
851.895	4577
852.03	4561
852.165	4687
852.299	4729
852.434	4824
852.569	4793
852.703	4820
852.838	4873
852.973	4980
853.107	4923
853.242	4790
853.376	4679
853.511	4523
853.645	4607
853.78	4820
853.914	4706
854.048	4687
854.183	4706
854.317	4729
854.451	4850
854.585	4721
854.72	4672
854.854	4797
854.988	4626
855.122	4694
855.256	4538
855.39	4702
855.524	4797
855.658	4839
855.792	4740
855.926	4767
856.06	4790
856.194	4835
856.327	4710
856.461	4634
856.595	4653
856.729	4599
856.862	4755
856.996	4694
857.13	4755
857.263	4771
857.397	4774
857.53	4714
857.664	4710
857.797	4858
857.931	4778
858.064	4672
858.197	4752
858.331	4710
858.464	4615
858.597	4512
858.731	4626
858.864	4645
858.997	4599
859.13	4691
859.263	4702
859.396	4729
859.529	4596
859.662	4615
859.795	4550
859.928	4641
860.061	4740
860.194	4812
860.327	4653
860.46	4603
860.592	4736
860.725	4767
860.858	4733
860.99	4626
861.123	4569
861.256	4512
861.388	4622
861.521	5216
861.653	4462
861.786	4474
861.918	4493
862.05	4531
862.183	4546
862.315	4622
862.447	4725
862.58	4550
862.712	4394
862.844	4383
862.976	4508
863.108	4489
863.24	4908
863.372	4363
863.504	4440
863.636	4432
863.768	4466
863.9	4455
864.032	4352
864.164	4405
864.296	4493
864.428	4580
864.559	4573
864.691	4588
864.823	4550
864.954	4554
865.086	4519
865.217	4474
865.349	4497
865.48	4466
865.612	4497
865.743	4622
865.875	4580
866.006	4470
866.137	4527
866.269	4447
866.4	4493
866.531	4409
866.662	4428
866.793	4386
866.924	4459
867.055	4531
867.186	4462
867.317	4447
867.448	4386
867.579	4394
867.71	4413
867.841	4390
867.972	4516
868.103	4470
868.233	4504
868.364	4443
868.495	4500
868.625	4729
868.756	4839
868.886	4569
869.017	4626
869.147	4801
869.278	4797
869.408	4653
869.539	4622
869.669	4744
869.799	4706
869.929	4786
870.06	4759
870.19	4949
870.32	4896
870.45	4881
870.58	5064
870.71	5151
870.84	5151
870.97	4972
871.1	4930
871.23	5143
871.36	5155
871.489	5056
871.619	5079
871.749	5079
871.879	5121
872.008	5189
872.138	5048
872.267	5029
872.397	4885
872.526	4809
872.656	4767
872.785	4782
872.915	4999
873.044	5010
873.173	4930
873.303	4976
873.432	4987
873.561	4972
873.69	4873
873.819	4858
873.948	4934
874.077	4889
874.206	4797
874.335	4797
874.464	4965
874.593	5075
874.722	5003
874.851	5147
874.979	5090
875.108	5064
875.237	4965
875.365	4873
875.494	4870
875.623	4961
875.751	4839
875.88	4908
876.008	4972
876.136	5048
876.265	5216
876.393	5341
876.521	5280
876.65	5227
876.778	5151
876.906	5113
877.034	5064
877.162	5033
877.29	5022
877.418	5037
877.546	5075
877.674	5067
877.802	5083
877.93	5075
878.058	4938
878.185	4900
878.313	4965
878.441	5033
878.568	4835
878.696	4873
878.824	4972
878.951	5029
879.079	5174
879.206	5322
879.333	5075
879.461	4991
879.588	5025
879.715	5105
879.842	5231
879.97	4972
880.097	4793
880.224	4778
880.351	4824
880.478	4828
880.605	4812
880.732	4782
880.859	5132
880.986	4892
881.112	4919
881.239	4805
881.366	4687
881.493	4622
881.619	4596
881.746	4656
881.872	4721
881.999	4668
882.125	4714
882.252	4828
882.378	4858
882.505	4953
882.631	4828
882.757	4675
882.883	4755
883.01	4729
883.136	4675
883.262	4668
883.388	4611
883.514	4778
883.64	4866
883.766	4771
883.892	4679
884.018	4687
884.143	4919
884.269	4984
884.395	4698
884.52	4645
884.646	4641
884.772	4645
884.897	4569
885.023	4714
885.148	4767
885.274	4873
885.399	4831
885.524	4729
885.65	4717
885.775	4755
885.9	4725
886.025	4812
886.15	4816
886.275	4706
886.4	4668
886.525	4774
886.65	4710
886.775	4679
886.9	4934
887.025	5041
887.149	4801
887.274	4683
887.399	4615
887.523	4603
887.648	4592
887.773	4649
887.897	4774
888.021	4812
888.146	4656
888.27	4816
888.395	4892
888.519	4828
888.643	4782
888.767	4828
888.891	4691
889.015	4599
889.139	4668
889.263	4645
889.387	4767
889.511	4843
889.635	4816
889.759	4603
889.883	4611
890.006	4736
890.13	4812
890.254	4645
890.377	4694
890.501	4577
890.624	4531
890.748	4622
890.871	4569
890.995	4497
891.118	4436
891.241	4527
891.364	4554
891.488	4634
891.611	4519
891.734	4554
891.857	4561
891.98	4554
892.103	4637
892.226	4592
892.349	4519
892.471	4409
892.594	4538
892.717	4561
892.839	4577
892.962	4596
893.085	4660
893.207	4573
893.33	4474
893.452	4561
893.575	4641
893.697	4592
893.819	4778
893.941	4797
894.064	4774
894.186	4615
894.308	4561
894.43	4725
894.552	4847
894.674	4790
894.796	4584
894.918	4607
895.04	4588
895.161	4691
895.283	4675
895.405	4592
895.526	4637
895.648	4710
895.769	4691
895.891	4752
896.012	4790
896.134	4793
896.255	4641
896.376	4668
896.498	4618
896.619	4683
896.74	4599
896.861	4649
896.982	4911
897.103	5037
897.224	4866
897.345	4714
897.466	4645
897.587	4763
897.708	4889
897.828	4763
897.949	4664
898.07	4599
898.19	4630
898.311	4820
898.431	4721
898.552	4782
898.672	4843
898.792	4809
898.913	4771
899.033	4626
899.153	4504
899.273	4436
899.393	4500
899.513	4558
899.633	4531
899.753	4531
899.873	4462
899.993	4573
900.113	4516
900.232	4603
900.352	4558
900.472	4500
900.591	4398
900.711	4474
900.83	4443
900.95	4656
901.069	4679
901.189	4554
901.308	4371
901.427	4341
901.546	4405
901.665	4436
901.784	4519
901.904	4436
902.023	4333
902.141	4200
902.26	4147
902.379	4348
902.498	4253
902.617	4246
902.735	4390
902.854	4386
902.973	4329
903.091	4207
903.21	4200
903.328	4337
903.446	4291
903.565	4287
903.683	4360
903.801	4325
903.919	4390
904.038	4443
904.156	4360
904.274	4497
904.392	4462
904.51	4443
904.627	4451
904.745	4588
904.863	4645
904.981	4424
905.098	4337
905.216	4394
905.334	4466
905.451	4474
905.569	4455
905.686	4584
905.803	4565
905.921	4451
906.038	4630
906.155	4508
906.272	4409
906.389	4516
906.506	4390
906.623	4363
906.74	4390
906.857	4360
906.974	4451
907.091	4618
907.208	4706
907.324	4656
907.441	4558
907.557	4402
907.674	4383
907.79	4405
907.907	4428
908.023	4516
908.139	4493
908.256	4436
908.372	4527
908.488	4516
908.604	4383
908.72	4344
908.836	4417
908.952	4394
909.068	4478
909.184	4603
909.3	4554
909.415	4580
909.531	4626
909.647	4371
909.762	4398
909.878	4375
909.993	4459
910.108	4519
910.224	4455
910.339	4561
910.454	4421
910.57	4440
910.685	4344
910.8	4710
910.915	4611
911.03	4493
911.145	4398
911.259	4386
911.374	4379
911.489	4341
911.604	4337
911.718	4219
911.833	4257
911.947	4112
912.062	4071
912.176	4204
912.291	4268
912.405	4280
912.519	4516
912.633	4466
912.748	4386
912.862	4371
912.976	4268
913.09	4143
913.204	4207
913.318	4295
913.431	4337
913.545	4417
913.659	4485
913.772	4440
913.886	4329
914	4303
914.113	4440
914.226	4489
914.34	4436
914.453	4246
914.566	4478
914.68	4348
914.793	4360
914.906	4181
915.019	4169
915.132	4082
915.245	4242
915.358	4287
915.47	4272
915.583	4306
915.696	4337
915.809	4432
915.921	4485
916.034	4306
916.146	4287
916.259	4295
916.371	4383
916.483	4394
916.595	4272
916.708	4402
916.82	4371
916.932	4341
917.044	4390
917.156	4348
917.268	4238
917.38	4265
917.491	4356
917.603	4356
917.715	4447
917.826	4478
917.938	4344
918.049	4207
918.161	4447
918.272	4599
918.384	4550
918.495	4459
918.606	4291
918.717	4268
918.828	4379
918.939	4424
919.05	4322
919.161	4325
919.272	4185
919.383	4265
919.494	4443
919.604	4630
919.715	4428
919.826	4413
919.936	4428
920.047	4584
920.157	4504
920.267	4729
920.378	4500
920.488	4516
920.598	4782
920.708	4930
920.818	4778
920.928	4820
921.038	4965
921.148	4961
921.258	4698
921.368	4550
921.477	4500
921.587	4462
921.697	4402
921.806	4558
921.916	4455
922.025	4314
922.134	4303
922.244	4268
922.353	4348
922.462	4211
922.571	4192
922.68	4006
922.789	3987
922.898	4105
923.007	3945
923.116	4135
923.224	4071
923.333	4135
923.442	4025
923.55	3998
923.659	4059
923.767	4124
923.876	4025
923.984	4131
924.092	4013
924.201	4116
924.309	4120
924.417	4093
924.525	4097
924.633	4143
924.741	5052
924.849	3934
924.956	4158
925.064	4017
925.172	3930
925.279	3994
925.387	4086
925.494	4048
925.602	4246
925.709	4181
925.816	4059
925.924	4173
926.031	4211
926.138	4154
926.245	4227
926.352	4082
926.459	4344
926.566	4322
926.673	4177
926.779	4036
926.886	4105
926.993	4036
927.099	3964
927.206	3915
927.312	3941
927.419	4097
927.525	4048
927.631	4112
927.737	3972
927.843	3953
927.95	3869
928.056	3956
928.162	4017
928.267	4078
928.373	4714
928.479	4109
928.585	3884
928.69	4082
928.796	4086
928.901	4010
929.007	3876
929.112	4097
929.218	4021
929.323	4013
929.428	3926
929.533	4135
929.638	3956
929.743	4021
929.848	4093
929.953	4078
930.058	3960
930.163	3827
930.267	3850
930.372	3994
930.477	3819
930.581	4120
930.685	3968
930.79	3857
930.894	3934
930.998	3888
931.103	4036
931.207	3720
931.311	3747
931.415	3686
931.519	3538
931.623	3580
