Data from test_V78500241_2542.txt Node
Date: Fri Mar 25 17:06:40 CST 2022
User: usil
Spectrometer: V785-0024
Trigger mode: 0
Integration Time (sec): 4.000000E-1
Scans to average: 1
Nonlinearity correction enabled: false
Boxcar width: 0
Storing dark spectrum: false
XAxis mode: Wavelengths
Number of Pixels in Spectrum: 1024
>>>>>Begin Spectral Data<<<<<
801.071	8035
801.214	8031
801.356	7818
801.499	7814
801.641	7746
801.783	7814
801.926	7902
802.068	7928
802.211	8001
802.353	8046
802.496	7757
802.638	7772
802.78	7883
802.923	7868
803.065	7845
803.208	7841
803.35	7940
803.492	8035
803.635	8039
803.777	7993
803.919	8081
804.061	8404
804.204	8115
804.346	8062
804.488	7875
804.63	8054
804.773	7967
804.915	8115
805.057	8305
805.199	8115
805.341	8168
805.483	8202
805.626	8252
805.768	8088
805.91	8218
806.052	8172
806.194	8050
806.336	8351
806.478	8119
806.62	8012
806.762	8100
806.904	8218
807.046	8415
807.188	8412
807.33	8370
807.472	8237
807.614	8142
807.756	8123
807.898	8008
808.04	7940
808.182	7814
808.324	7871
808.465	7887
808.607	8092
808.749	8084
808.891	8202
809.033	8317
809.174	8202
809.316	7986
809.458	8111
809.6	8012
809.741	7978
809.883	8027
810.025	8062
810.166	8046
810.308	8008
810.45	7986
810.591	7852
810.733	7693
810.875	7578
811.016	7468
811.158	7495
811.299	7544
811.441	7742
811.582	7696
811.724	7590
811.865	7556
812.007	7639
812.148	7578
812.29	7674
812.431	7719
812.573	7849
812.714	7959
812.855	8142
812.997	8210
813.138	8301
813.279	8123
813.421	8126
813.562	7967
813.703	7837
813.845	7780
813.986	7426
814.127	7270
814.268	7232
814.41	7206
814.551	7164
814.692	7228
814.833	7168
814.974	7149
815.115	7202
815.256	7019
815.397	6920
815.539	6985
815.68	6859
815.821	6802
815.962	6901
816.103	6798
816.244	6806
816.385	6677
816.526	6604
816.666	6528
816.807	6395
816.948	6502
817.089	6486
817.23	6460
817.371	6429
817.512	6448
817.653	6426
817.793	6395
817.934	6460
818.075	6513
818.216	6422
818.356	6429
818.497	6308
818.638	6163
818.778	6197
818.919	6155
819.06	6186
819.2	6342
819.341	6395
819.481	6395
819.622	6559
819.762	6783
819.903	6772
820.043	6612
820.184	6608
820.324	6585
820.465	6711
820.605	6734
820.746	6722
820.886	6551
821.026	6715
821.167	6753
821.307	6871
821.447	6795
821.588	6749
821.728	6585
821.868	6551
822.008	6361
822.149	6445
822.289	6426
822.429	6163
822.569	6136
822.709	6178
822.849	5980
822.99	5980
823.13	6015
823.27	5984
823.41	5855
823.55	5832
823.69	5786
823.83	5828
823.97	5748
824.11	5547
824.25	5573
824.389	5570
824.529	5581
824.669	5604
824.809	5646
824.949	5680
825.089	5657
825.228	5562
825.368	5436
825.508	5334
825.648	5406
825.787	5410
825.927	5452
826.067	5303
826.206	5326
826.346	5391
826.485	5429
826.625	5421
826.765	5566
826.904	5520
827.044	5239
827.183	5235
827.323	5166
827.462	5315
827.601	5185
827.741	5235
827.88	5216
828.02	5132
828.159	5261
828.298	5315
828.437	5372
828.577	5315
828.716	5543
828.855	5318
828.994	5197
829.134	5185
829.273	5201
829.412	5140
829.551	5220
829.69	5151
829.829	5269
829.968	5349
830.107	5277
830.246	5334
830.385	5189
830.524	5174
830.663	5090
830.802	4999
830.941	4877
831.08	4854
831.219	4984
831.357	5010
831.496	5201
831.635	4953
831.774	4870
831.913	4870
832.051	4748
832.19	4782
832.329	4862
832.467	4702
832.606	4630
832.744	4767
832.883	4801
833.022	4748
833.16	4824
833.299	4900
833.437	4809
833.576	4870
833.714	4870
833.852	4927
833.991	4930
834.129	4965
834.267	4984
834.406	4911
834.544	5006
834.682	5022
834.821	4980
834.959	5204
835.097	4957
835.235	5174
835.373	5075
835.511	5166
835.65	5033
835.788	5064
835.926	4968
836.064	4934
836.202	5014
836.34	5231
836.478	5288
836.615	5185
836.753	5235
836.891	5315
837.029	5311
837.167	5216
837.305	5147
837.443	5162
837.58	5128
837.718	5318
837.856	5212
837.993	5193
838.131	5280
838.269	5231
838.406	5265
838.544	5227
838.681	5094
838.819	5048
838.956	4938
839.094	4946
839.231	4980
839.369	5132
839.506	5448
839.643	5273
839.781	5075
839.918	5056
840.055	5105
840.193	5083
840.33	5113
840.467	5159
840.604	5220
840.742	5444
840.879	5143
841.016	5140
841.153	5140
841.29	5360
841.427	5318
841.564	5303
841.701	5376
841.838	5315
841.975	5223
842.112	5242
842.249	5189
842.385	5086
842.522	5341
842.659	5212
842.796	5170
842.933	5216
843.069	5181
843.206	5185
843.343	5322
843.479	5227
843.616	5265
843.752	5060
843.889	5090
844.025	5258
844.162	5041
844.298	5216
844.435	5109
844.571	5090
844.708	5208
844.844	5353
844.98	5379
845.117	5315
845.253	5162
845.389	5109
845.525	5166
845.661	5212
845.798	5155
845.934	5136
846.07	5067
846.206	5242
846.342	5280
846.478	5208
846.614	5071
846.75	5037
846.886	4946
847.022	5159
847.158	5056
847.294	5102
847.429	5090
847.565	5090
847.701	5315
847.837	4870
847.972	4835
848.108	4953
848.244	5003
848.379	4790
848.515	4740
848.65	4740
848.786	4725
848.921	4816
849.057	4904
849.192	4968
849.328	4850
849.463	4877
849.598	4824
849.734	4778
849.869	4755
850.004	4694
850.14	4675
850.275	4626
850.41	4569
850.545	4615
850.68	4653
850.815	4679
850.95	4675
851.085	4892
851.22	4748
851.355	4710
851.49	4615
851.625	4653
851.76	4630
851.895	4577
852.03	4607
852.165	4714
852.299	4755
852.434	4793
852.569	4805
852.703	4759
852.838	4847
852.973	4976
853.107	4957
853.242	4744
853.376	4691
853.511	4577
853.645	4645
853.78	4805
853.914	4672
854.048	4702
854.183	4694
854.317	4694
854.451	4892
854.585	4694
854.72	4645
854.854	4744
854.988	4599
855.122	4641
855.256	4546
855.39	4645
855.524	4805
855.658	4744
855.792	4694
855.926	4767
856.06	4782
856.194	4820
856.327	4672
856.461	4664
856.595	4618
856.729	4611
856.862	4763
856.996	4748
857.13	4733
857.263	4790
857.397	4858
857.53	4691
857.664	4740
857.797	4774
857.931	4771
858.064	4687
858.197	4744
858.331	4664
858.464	4637
858.597	4584
858.731	4653
858.864	4660
858.997	4626
859.13	4733
859.263	4721
859.396	4675
859.529	4626
859.662	4584
859.795	4531
859.928	4656
860.061	4820
860.194	4831
860.327	4611
860.46	4527
860.592	4733
860.725	4694
860.858	4778
860.99	4569
861.123	4592
861.256	4588
861.388	4649
861.521	5162
861.653	4485
861.786	4493
861.918	4497
862.05	4535
862.183	4634
862.315	4656
862.447	4660
862.58	4554
862.712	4421
862.844	4341
862.976	4519
863.108	4462
863.24	4786
863.372	4386
863.504	4424
863.636	4443
863.768	4504
863.9	4443
864.032	4371
864.164	4413
864.296	4508
864.428	4580
864.559	4558
864.691	4508
864.823	4512
864.954	4485
865.086	4523
865.217	4478
865.349	4432
865.48	4470
865.612	4466
865.743	4634
865.875	4508
866.006	4478
866.137	4451
866.269	4451
866.4	4443
866.531	4428
866.662	4390
866.793	4455
866.924	4485
867.055	4519
867.186	4481
867.317	4455
867.448	4413
867.579	4424
867.71	4386
867.841	4390
867.972	4474
868.103	4428
868.233	4428
868.364	4455
868.495	4485
868.625	4683
868.756	4725
868.886	4527
869.017	4622
869.147	4790
869.278	4816
869.408	4675
869.539	4634
869.669	4744
869.799	4645
869.929	4812
870.06	4771
870.19	4957
870.32	4930
870.45	4949
870.58	5071
870.71	5102
870.84	5151
870.97	4999
871.1	4919
871.23	5170
871.36	5174
871.489	5056
871.619	5105
871.749	5109
871.879	5143
872.008	5216
872.138	5128
872.267	4984
872.397	4870
872.526	4870
872.656	4714
872.785	4809
872.915	5003
873.044	5041
873.173	4949
873.303	4972
873.432	4942
873.561	4984
873.69	4946
873.819	4911
873.948	4930
874.077	4850
874.206	4774
874.335	4828
874.464	4930
874.593	5109
874.722	5003
874.851	5140
874.979	5086
875.108	5037
875.237	4908
875.365	4934
875.494	4885
875.623	4976
875.751	4866
875.88	4881
876.008	4949
876.136	5041
876.265	5216
876.393	5337
876.521	5280
876.65	5277
876.778	5193
876.906	5094
877.034	5045
877.162	5014
877.29	5003
877.418	5056
877.546	5045
877.674	5060
877.802	5109
877.93	5025
878.058	4957
878.185	4930
878.313	5003
878.441	4987
878.568	4809
878.696	4919
878.824	4995
878.951	4991
879.079	5155
879.206	5288
879.333	5102
879.461	5060
879.588	5003
879.715	5090
879.842	5181
879.97	4972
880.097	4801
880.224	4755
880.351	4839
880.478	4809
880.605	4797
880.732	4858
880.859	5109
880.986	4953
881.112	4892
881.239	4778
881.366	4675
881.493	4687
881.619	4577
881.746	4664
881.872	4675
881.999	4675
882.125	4664
882.252	4774
882.378	4850
882.505	4965
882.631	4812
882.757	4683
882.883	4759
883.01	4771
883.136	4687
883.262	4554
883.388	4596
883.514	4816
883.64	4858
883.766	4786
883.892	4694
884.018	4725
884.143	4889
884.269	5067
884.395	4691
884.52	4641
884.646	4618
884.772	4596
884.897	4546
885.023	4687
885.148	4812
885.274	4847
885.399	4824
885.524	4744
885.65	4691
885.775	4752
885.9	4660
886.025	4900
886.15	4828
886.275	4706
886.4	4664
886.525	4710
886.65	4675
886.775	4786
886.9	4885
887.025	5033
887.149	4816
887.274	4668
887.399	4561
887.523	4622
887.648	4618
887.773	4599
887.897	4824
888.021	4786
888.146	4691
888.27	4828
888.395	4904
888.519	4824
888.643	4866
888.767	4873
888.891	4702
889.015	4637
889.139	4675
889.263	4645
889.387	4748
889.511	4938
889.635	4805
889.759	4649
889.883	4729
890.006	4771
890.13	4835
890.254	4596
890.377	4710
890.501	4588
890.624	4550
890.748	4634
890.871	4535
890.995	4459
891.118	4341
891.241	4523
891.364	4512
891.488	4618
891.611	4531
891.734	4508
891.857	4634
891.98	4558
892.103	4687
892.226	4611
892.349	4523
892.471	4508
892.594	4542
892.717	4569
892.839	4573
892.962	4603
893.085	4653
893.207	4565
893.33	4497
893.452	4535
893.575	4660
893.697	4558
893.819	4778
893.941	4870
894.064	4797
894.186	4588
894.308	4573
894.43	4752
894.552	4793
894.674	4714
894.796	4573
894.918	4558
895.04	4588
895.161	4641
895.283	4679
895.405	4618
895.526	4577
895.648	4675
895.769	4683
895.891	4691
896.012	4721
896.134	4683
896.255	4698
896.376	4694
896.498	4573
896.619	4691
896.74	4596
896.861	4710
896.982	4927
897.103	5124
897.224	4801
897.345	4733
897.466	4683
897.587	4733
897.708	4854
897.828	4790
897.949	4649
898.07	4569
898.19	4630
898.311	4801
898.431	4649
898.552	4714
898.672	4812
898.792	4782
898.913	4767
899.033	4649
899.153	4504
899.273	4443
899.393	4508
899.513	4535
899.633	4558
899.753	4588
899.873	4523
899.993	4615
900.113	4516
900.232	4592
900.352	4550
900.472	4493
900.591	4402
900.711	4489
900.83	4409
900.95	4618
901.069	4691
901.189	4599
901.308	4363
901.427	4341
901.546	4417
901.665	4417
901.784	4504
901.904	4451
902.023	4322
902.141	4169
902.26	4192
902.379	4314
902.498	4192
902.617	4234
902.735	4421
902.854	4402
902.973	4367
903.091	4242
903.21	4246
903.328	4291
903.446	4249
903.565	4253
903.683	4341
903.801	4291
903.919	4363
904.038	4478
904.156	4322
904.274	4462
904.392	4440
904.51	4443
904.627	4455
904.745	4554
904.863	4573
904.981	4409
905.098	4306
905.216	4398
905.334	4436
905.451	4447
905.569	4485
905.686	4607
905.803	4565
905.921	4451
906.038	4565
906.155	4485
906.272	4375
906.389	4455
906.506	4337
906.623	4390
906.74	4348
906.857	4333
906.974	4375
907.091	4554
907.208	4691
907.324	4573
907.441	4497
907.557	4360
907.674	4356
907.79	4306
907.907	4390
908.023	4489
908.139	4481
908.256	4409
908.372	4443
908.488	4459
908.604	4383
908.72	4333
908.836	4344
908.952	4383
909.068	4481
909.184	4584
909.3	4500
909.415	4580
909.531	4584
909.647	4405
909.762	4352
909.878	4371
909.993	4413
910.108	4375
910.224	4398
910.339	4481
910.454	4402
910.57	4413
910.685	4318
910.8	4672
910.915	4580
911.03	4523
911.145	4333
911.259	4398
911.374	4440
911.489	4333
911.604	4265
911.718	4188
911.833	4173
911.947	4082
912.062	3983
912.176	4219
912.291	4227
912.405	4272
912.519	4432
912.633	4497
912.748	4371
912.862	4344
912.976	4207
913.09	4097
913.204	4188
913.318	4204
913.431	4390
913.545	4367
913.659	4421
913.772	4371
913.886	4261
914	4230
914.113	4386
914.226	4443
914.34	4394
914.453	4238
914.566	4432
914.68	4272
914.793	4299
914.906	4143
915.019	4169
915.132	4048
915.245	4200
915.358	4211
915.47	4238
915.583	4280
915.696	4310
915.809	4451
915.921	4440
916.034	4261
916.146	4295
916.259	4219
916.371	4344
916.483	4352
916.595	4249
916.708	4303
916.82	4314
916.932	4291
917.044	4360
917.156	4325
917.268	4223
917.38	4268
917.491	4261
917.603	4314
917.715	4417
917.826	4424
917.938	4371
918.049	4219
918.161	4390
918.272	4523
918.384	4550
918.495	4443
918.606	4261
918.717	4227
918.828	4306
918.939	4322
919.05	4242
919.161	4314
919.272	4131
919.383	4265
919.494	4436
919.604	4641
919.715	4405
919.826	4383
919.936	4398
920.047	4542
920.157	4497
920.267	4679
920.378	4546
920.488	4523
920.598	4694
920.708	4892
920.818	4755
920.928	4763
921.038	4942
921.148	4873
921.258	4596
921.368	4569
921.477	4527
921.587	4466
921.697	4383
921.806	4538
921.916	4436
922.025	4249
922.134	4249
922.244	4223
922.353	4333
922.462	4135
922.571	4097
922.68	4002
922.789	3979
922.898	4025
923.007	3968
923.116	4105
923.224	4071
923.333	4082
923.442	3983
923.55	4013
923.659	3994
923.767	4078
923.876	4010
923.984	4105
924.092	3998
924.201	4055
924.309	4063
924.417	4120
924.525	4013
924.633	4112
924.741	5064
924.849	3907
924.956	4105
925.064	3960
925.172	3873
925.279	3926
925.387	4021
925.494	4013
925.602	4196
925.709	4139
925.816	4071
925.924	4147
926.031	4207
926.138	4120
926.245	4211
926.352	4078
926.459	4234
926.566	4303
926.673	4162
926.779	4093
926.886	4055
926.993	3979
927.099	3956
927.206	3953
927.312	3994
927.419	4063
927.525	4002
927.631	4055
927.737	3968
927.843	3953
927.95	3854
928.056	3956
928.162	3975
928.267	4090
928.373	4580
928.479	4135
928.585	3880
928.69	3987
928.796	4078
928.901	3949
929.007	3857
929.112	4021
929.218	3979
929.323	3956
929.428	3899
929.533	4097
929.638	3873
929.743	3926
929.848	4063
929.953	4021
930.058	3922
930.163	3789
930.267	3816
930.372	3987
930.477	3789
930.581	4090
930.685	3960
930.79	3808
930.894	3911
930.998	3793
931.103	4055
931.207	3728
931.311	3728
931.415	3652
931.519	3549
931.623	3564
