Data from test_V78500241_2642.txt Node
Date: Fri Mar 25 17:07:22 CST 2022
User: usil
Spectrometer: V785-0024
Trigger mode: 0
Integration Time (sec): 4.000000E-1
Scans to average: 1
Nonlinearity correction enabled: false
Boxcar width: 0
Storing dark spectrum: false
XAxis mode: Wavelengths
Number of Pixels in Spectrum: 1024
>>>>>Begin Spectral Data<<<<<
801.071	8069
801.214	8012
801.356	7932
801.499	7833
801.641	7811
801.783	7807
801.926	7921
802.068	7932
802.211	7921
802.353	7978
802.496	7913
802.638	7803
802.78	7849
802.923	7947
803.065	7875
803.208	7841
803.35	7898
803.492	8073
803.635	8172
803.777	7967
803.919	8100
804.061	8446
804.204	8164
804.346	8046
804.488	7963
804.63	8084
804.773	8001
804.915	8069
805.057	8313
805.199	8237
805.341	8153
805.483	8294
805.626	8164
805.768	8157
805.91	8202
806.052	8153
806.194	8100
806.336	8286
806.478	8088
806.62	7989
806.762	8069
806.904	8244
807.046	8511
807.188	8377
807.33	8256
807.472	8328
807.614	8183
807.756	8164
807.898	8050
808.04	7879
808.182	7883
808.324	7837
808.465	7917
808.607	8081
808.749	8096
808.891	8164
809.033	8324
809.174	8176
809.316	8050
809.458	8058
809.6	8012
809.741	7982
809.883	8046
810.025	8138
810.166	8119
810.308	8027
810.45	8012
810.591	7871
810.733	7795
810.875	7655
811.016	7529
811.158	7453
811.299	7620
811.441	7746
811.582	7704
811.724	7605
811.865	7540
812.007	7624
812.148	7518
812.29	7620
812.431	7708
812.573	7940
812.714	8027
812.855	8161
812.997	8153
813.138	8313
813.279	8164
813.421	8039
813.562	7978
813.703	7887
813.845	7769
813.986	7422
814.127	7263
814.268	7206
814.41	7194
814.551	7190
814.692	7255
814.833	7126
814.974	7084
815.115	7095
815.256	6947
815.397	6920
815.539	6897
815.68	6821
815.821	6734
815.962	6818
816.103	6776
816.244	6646
816.385	6688
816.526	6593
816.666	6509
816.807	6296
816.948	6498
817.089	6437
817.23	6452
817.371	6323
817.512	6391
817.653	6410
817.793	6350
817.934	6410
818.075	6464
818.216	6429
818.356	6391
818.497	6270
818.638	6091
818.778	6163
818.919	6110
819.06	6125
819.2	6361
819.341	6334
819.481	6369
819.622	6559
819.762	6707
819.903	6703
820.043	6551
820.184	6585
820.324	6555
820.465	6726
820.605	6768
820.746	6665
820.886	6544
821.026	6703
821.167	6787
821.307	6787
821.447	6802
821.588	6753
821.728	6601
821.868	6483
822.008	6369
822.149	6399
822.289	6391
822.429	6201
822.569	6053
822.709	6155
822.849	5939
822.99	5920
823.13	5916
823.27	5897
823.41	5847
823.55	5798
823.69	5764
823.83	5767
823.97	5699
824.11	5524
824.25	5474
824.389	5604
824.529	5543
824.669	5573
824.809	5600
824.949	5623
825.089	5585
825.228	5543
825.368	5387
825.508	5360
825.648	5326
825.787	5368
825.927	5368
826.067	5296
826.206	5227
826.346	5379
826.485	5417
826.625	5383
826.765	5589
826.904	5493
827.044	5307
827.183	5204
827.323	5147
827.462	5216
827.601	5143
827.741	5178
827.88	5227
828.02	5117
828.159	5235
828.298	5288
828.437	5364
828.577	5349
828.716	5459
828.855	5357
828.994	5140
829.134	5109
829.273	5216
829.412	5128
829.551	5075
829.69	5178
829.829	5204
829.968	5349
830.107	5277
830.246	5280
830.385	5227
830.524	5174
830.663	5064
830.802	4991
830.941	4904
831.08	4797
831.219	4972
831.357	4927
831.496	5170
831.635	4919
831.774	4870
831.913	4831
832.051	4740
832.19	4725
832.329	4839
832.467	4664
832.606	4649
832.744	4675
832.883	4725
833.022	4706
833.16	4847
833.299	4847
833.437	4843
833.576	4771
833.714	4881
833.852	4892
833.991	4862
834.129	4923
834.267	4908
834.406	4911
834.544	4961
834.682	4980
834.821	4934
834.959	5151
835.097	4972
835.235	5113
835.373	5041
835.511	5140
835.65	5067
835.788	5014
835.926	4900
836.064	4873
836.202	4881
836.34	5174
836.478	5216
836.615	5113
836.753	5261
836.891	5258
837.029	5273
837.167	5166
837.305	5162
837.443	5121
837.58	5094
837.718	5258
837.856	5197
837.993	5124
838.131	5231
838.269	5227
838.406	5178
838.544	5201
838.681	5090
838.819	4976
838.956	4870
839.094	4892
839.231	4949
839.369	5098
839.506	5501
839.643	5265
839.781	5029
839.918	4999
840.055	5132
840.193	5079
840.33	5048
840.467	5109
840.604	5185
840.742	5455
840.879	5113
841.016	5098
841.153	5136
841.29	5398
841.427	5299
841.564	5326
841.701	5341
841.838	5261
841.975	5204
842.112	5265
842.249	5124
842.385	5162
842.522	5372
842.659	5143
842.796	5128
842.933	5201
843.069	5140
843.206	5166
843.343	5341
843.479	5212
843.616	5231
843.752	5052
843.889	5018
844.025	5231
844.162	5048
844.298	5223
844.435	5083
844.571	5056
844.708	5166
844.844	5303
844.98	5376
845.117	5292
845.253	5128
845.389	5105
845.525	5140
845.661	5132
845.798	5014
845.934	5143
846.07	5033
846.206	5197
846.342	5250
846.478	5113
846.614	5029
846.75	5018
846.886	4949
847.022	5166
847.158	5037
847.294	5102
847.429	5121
847.565	5014
847.701	5376
847.837	4843
847.972	4812
848.108	4904
848.244	4908
848.379	4767
848.515	4752
848.65	4740
848.786	4714
848.921	4714
849.057	4885
849.192	4908
849.328	4828
849.463	4809
849.598	4782
849.734	4729
849.869	4656
850.004	4622
850.14	4656
850.275	4622
850.41	4546
850.545	4535
850.68	4611
850.815	4615
850.95	4637
851.085	4866
851.22	4755
851.355	4679
851.49	4592
851.625	4641
851.76	4645
851.895	4531
852.03	4550
852.165	4592
852.299	4714
852.434	4748
852.569	4725
852.703	4752
852.838	4892
852.973	4915
853.107	4911
853.242	4755
853.376	4687
853.511	4611
853.645	4599
853.78	4801
853.914	4626
854.048	4687
854.183	4653
854.317	4687
854.451	4835
854.585	4672
854.72	4630
854.854	4763
854.988	4618
855.122	4607
855.256	4508
855.39	4615
855.524	4752
855.658	4706
855.792	4649
855.926	4694
856.06	4835
856.194	4752
856.327	4683
856.461	4626
856.595	4596
856.729	4611
856.862	4778
856.996	4668
857.13	4714
857.263	4744
857.397	4805
857.53	4656
857.664	4721
857.797	4748
857.931	4729
858.064	4721
858.197	4755
858.331	4656
858.464	4596
858.597	4485
858.731	4626
858.864	4653
858.997	4584
859.13	4641
859.263	4653
859.396	4668
859.529	4599
859.662	4554
859.795	4535
859.928	4664
860.061	4782
860.194	4748
860.327	4611
860.46	4580
860.592	4675
860.725	4736
860.858	4691
860.99	4542
861.123	4489
861.256	4489
861.388	4607
861.521	5357
861.653	4481
861.786	4428
861.918	4459
862.05	4542
862.183	4516
862.315	4580
862.447	4634
862.58	4500
862.712	4402
862.844	4325
862.976	4421
863.108	4447
863.24	4755
863.372	4310
863.504	4428
863.636	4383
863.768	4478
863.9	4447
864.032	4280
864.164	4394
864.296	4485
864.428	4516
864.559	4588
864.691	4538
864.823	4538
864.954	4531
865.086	4542
865.217	4478
865.349	4402
865.48	4443
865.612	4489
865.743	4622
865.875	4436
866.006	4421
866.137	4466
866.269	4417
866.4	4443
866.531	4386
866.662	4367
866.793	4428
866.924	4409
867.055	4481
867.186	4459
867.317	4367
867.448	4383
867.579	4394
867.71	4409
867.841	4421
867.972	4497
868.103	4474
868.233	4432
868.364	4451
868.495	4508
868.625	4634
868.756	4771
868.886	4565
869.017	4630
869.147	4740
869.278	4755
869.408	4683
869.539	4645
869.669	4721
869.799	4687
869.929	4767
870.06	4721
870.19	4938
870.32	4908
870.45	4968
870.58	4957
870.71	5124
870.84	5083
870.97	4892
871.1	4923
871.23	5155
871.36	5128
871.489	5006
871.619	5025
871.749	5056
871.879	5109
872.008	5189
872.138	5037
872.267	4980
872.397	4843
872.526	4786
872.656	4698
872.785	4839
872.915	4896
873.044	4995
873.173	4927
873.303	4949
873.432	4949
873.561	4915
873.69	4850
873.819	4885
873.948	4839
874.077	4820
874.206	4744
874.335	4778
874.464	4923
874.593	5052
874.722	4965
874.851	5048
874.979	5086
875.108	5018
875.237	4889
875.365	4862
875.494	4870
875.623	4999
875.751	4782
875.88	4904
876.008	4976
876.136	4965
876.265	5189
876.393	5299
876.521	5280
876.65	5235
876.778	5151
876.906	5102
877.034	5014
877.162	5071
877.29	4976
877.418	5048
877.546	5075
877.674	5018
877.802	5014
877.93	4987
878.058	4919
878.185	4870
878.313	4946
878.441	4873
878.568	4812
878.696	4816
878.824	4919
878.951	5029
879.079	5098
879.206	5269
879.333	5090
879.461	4987
879.588	4984
879.715	5128
879.842	5201
879.97	5010
880.097	4801
880.224	4710
880.351	4843
880.478	4805
880.605	4824
880.732	4805
880.859	5090
880.986	4889
881.112	4892
881.239	4816
881.366	4687
881.493	4634
881.619	4592
881.746	4637
881.872	4641
881.999	4668
882.125	4706
882.252	4816
882.378	4820
882.505	4946
882.631	4835
882.757	4668
882.883	4706
883.01	4763
883.136	4714
883.262	4611
883.388	4653
883.514	4866
883.64	4908
883.766	4805
883.892	4691
884.018	4748
884.143	4919
884.269	5064
884.395	4714
884.52	4729
884.646	4714
884.772	4611
884.897	4565
885.023	4664
885.148	4797
885.274	4900
885.399	4831
885.524	4782
885.65	4725
885.775	4790
885.9	4687
886.025	4900
886.15	4828
886.275	4767
886.4	4763
886.525	4767
886.65	4683
886.775	4771
886.9	4930
887.025	5075
887.149	4900
887.274	4691
887.399	4611
887.523	4592
887.648	4634
887.773	4618
887.897	4816
888.021	4816
888.146	4694
888.27	4858
888.395	4942
888.519	4835
888.643	4889
888.767	4873
888.891	4725
889.015	4618
889.139	4656
889.263	4653
889.387	4790
889.511	4881
889.635	4877
889.759	4691
889.883	4698
890.006	4733
890.13	4850
890.254	4641
890.377	4736
890.501	4584
890.624	4565
890.748	4679
890.871	4531
890.995	4474
891.118	4386
891.241	4554
891.364	4558
891.488	4649
891.611	4523
891.734	4577
891.857	4599
891.98	4580
892.103	4653
892.226	4683
892.349	4535
892.471	4478
892.594	4569
892.717	4694
892.839	4577
892.962	4637
893.085	4736
893.207	4622
893.33	4470
893.452	4596
893.575	4694
893.697	4615
893.819	4786
893.941	4904
894.064	4809
894.186	4622
894.308	4599
894.43	4755
894.552	4812
894.674	4778
894.796	4641
894.918	4634
895.04	4558
895.161	4767
895.283	4702
895.405	4599
895.526	4641
895.648	4714
895.769	4698
895.891	4774
896.012	4793
896.134	4805
896.255	4729
896.376	4725
896.498	4645
896.619	4702
896.74	4660
896.861	4714
896.982	4976
897.103	5117
897.224	4892
897.345	4725
897.466	4717
897.587	4805
897.708	4930
897.828	4782
897.949	4717
898.07	4599
898.19	4672
898.311	4889
898.431	4645
898.552	4771
898.672	4843
898.792	4801
898.913	4793
899.033	4637
899.153	4538
899.273	4504
899.393	4569
899.513	4516
899.633	4546
899.753	4622
899.873	4573
899.993	4618
900.113	4565
900.232	4649
900.352	4577
900.472	4535
900.591	4466
900.711	4497
900.83	4470
900.95	4645
901.069	4710
901.189	4607
901.308	4367
901.427	4375
901.546	4417
901.665	4447
901.784	4542
901.904	4421
902.023	4333
902.141	4276
902.26	4196
902.379	4318
902.498	4265
902.617	4238
902.735	4398
902.854	4478
902.973	4390
903.091	4276
903.21	4272
903.328	4356
903.446	4291
903.565	4322
903.683	4356
903.801	4314
903.919	4443
904.038	4485
904.156	4322
904.274	4481
904.392	4428
904.51	4428
904.627	4519
904.745	4607
904.863	4679
904.981	4413
905.098	4314
905.216	4383
905.334	4462
905.451	4447
905.569	4447
905.686	4577
905.803	4618
905.921	4443
906.038	4577
906.155	4504
906.272	4447
906.389	4493
906.506	4413
906.623	4451
906.74	4489
906.857	4325
906.974	4390
907.091	4622
907.208	4702
907.324	4649
907.441	4531
907.557	4375
907.674	4390
907.79	4314
907.907	4451
908.023	4512
908.139	4516
908.256	4447
908.372	4466
908.488	4523
908.604	4333
908.72	4375
908.836	4383
908.952	4375
909.068	4478
909.184	4599
909.3	4455
909.415	4588
909.531	4546
909.647	4344
909.762	4466
909.878	4390
909.993	4493
910.108	4402
910.224	4455
910.339	4489
910.454	4447
910.57	4367
910.685	4344
910.8	4653
910.915	4664
911.03	4523
911.145	4295
911.259	4363
911.374	4383
911.489	4306
911.604	4295
911.718	4246
911.833	4181
911.947	4112
912.062	4097
912.176	4238
912.291	4314
912.405	4276
912.519	4497
912.633	4523
912.748	4405
912.862	4333
912.976	4230
913.09	4105
913.204	4204
913.318	4276
913.431	4398
913.545	4409
913.659	4470
913.772	4417
913.886	4268
914	4261
914.113	4383
914.226	4447
914.34	4421
914.453	4337
914.566	4459
914.68	4314
914.793	4348
914.906	4177
915.019	4147
915.132	4097
915.245	4215
915.358	4261
915.47	4227
915.583	4265
915.696	4329
915.809	4432
915.921	4424
916.034	4276
916.146	4287
916.259	4230
916.371	4386
916.483	4379
916.595	4284
916.708	4360
916.82	4367
916.932	4318
917.044	4341
917.156	4329
917.268	4261
917.38	4257
917.491	4291
917.603	4352
917.715	4451
917.826	4462
917.938	4383
918.049	4268
918.161	4443
918.272	4603
918.384	4546
918.495	4462
918.606	4333
918.717	4280
918.828	4367
918.939	4383
919.05	4318
919.161	4337
919.272	4181
919.383	4314
919.494	4466
919.604	4645
919.715	4500
919.826	4390
919.936	4424
920.047	4554
920.157	4493
920.267	4706
920.378	4603
920.488	4485
920.598	4714
920.708	4915
920.818	4786
920.928	4805
921.038	4972
921.148	4919
921.258	4672
921.368	4584
921.477	4531
921.587	4485
921.697	4394
921.806	4538
921.916	4424
922.025	4276
922.134	4265
922.244	4257
922.353	4322
922.462	4158
922.571	4162
922.68	4051
922.789	3991
922.898	4044
923.007	4002
923.116	4147
923.224	4105
923.333	4086
923.442	3975
923.55	3983
923.659	4059
923.767	4101
923.876	4013
923.984	4185
924.092	4017
924.201	4116
924.309	4109
924.417	4143
924.525	4059
924.633	4135
924.741	5056
924.849	3953
924.956	4147
925.064	3991
925.172	3949
925.279	3991
925.387	4059
925.494	4048
925.602	4238
925.709	4173
925.816	4082
925.924	4143
926.031	4219
926.138	4188
926.245	4246
926.352	4120
926.459	4234
926.566	4291
926.673	4204
926.779	4093
926.886	4074
926.993	3991
927.099	3956
927.206	4006
927.312	4010
927.419	4090
927.525	4071
927.631	4124
927.737	3945
927.843	3972
927.95	3846
928.056	3968
928.162	3960
928.267	4097
928.373	4596
928.479	4135
928.585	3884
928.69	4082
928.796	4135
928.901	3987
929.007	3873
929.112	3994
929.218	3964
929.323	3941
929.428	3964
929.533	4112
929.638	3915
929.743	3968
929.848	4101
929.953	4013
930.058	3937
930.163	3816
930.267	3857
930.372	4025
930.477	3781
930.581	4101
930.685	3964
930.79	3880
930.894	3899
930.998	3873
931.103	4055
931.207	3762
931.311	3698
931.415	3698
931.519	3504
931.623	3618
