Data from test_V78500241_305.txt Node
Date: Fri Mar 25 16:51:07 CST 2022
User: usil
Spectrometer: V785-0024
Trigger mode: 0
Integration Time (sec): 4.000000E-1
Scans to average: 1
Nonlinearity correction enabled: false
Boxcar width: 0
Storing dark spectrum: false
XAxis mode: Wavelengths
Number of Pixels in Spectrum: 1024
>>>>>Begin Spectral Data<<<<<
801.071	8065
801.214	8043
801.356	7871
801.499	7871
801.641	7845
801.783	7913
801.926	8031
802.068	7982
802.211	8012
802.353	8058
802.496	7925
802.638	7951
802.78	7967
802.923	7963
803.065	7879
803.208	7894
803.35	7928
803.492	8054
803.635	8111
803.777	7967
803.919	8130
804.061	8522
804.204	8225
804.346	8096
804.488	8001
804.63	8088
804.773	8027
804.915	8046
805.057	8248
805.199	8157
805.341	8164
805.483	8279
805.626	8130
805.768	8077
805.91	8218
806.052	8199
806.194	8107
806.336	8275
806.478	8161
806.62	8115
806.762	8176
806.904	8240
807.046	8537
807.188	8423
807.33	8328
807.472	8305
807.614	8130
807.756	8168
807.898	7986
808.04	7830
808.182	7921
808.324	8005
808.465	7967
808.607	8035
808.749	8134
808.891	8214
809.033	8298
809.174	8161
809.316	7989
809.458	8058
809.6	8035
809.741	8054
809.883	7974
810.025	8142
810.166	8119
810.308	8062
810.45	8054
810.591	7868
810.733	7795
810.875	7662
811.016	7556
811.158	7491
811.299	7708
811.441	7765
811.582	7693
811.724	7563
811.865	7559
812.007	7620
812.148	7628
812.29	7628
812.431	7715
812.573	7898
812.714	7925
812.855	8092
812.997	8123
813.138	8298
813.279	8214
813.421	8107
813.562	8016
813.703	7814
813.845	7757
813.986	7525
814.127	7194
814.268	7297
814.41	7236
814.551	7244
814.692	7240
814.833	7027
814.974	7149
815.115	7099
815.256	7000
815.397	6954
815.539	6913
815.68	6798
815.821	6821
815.962	6844
816.103	6829
816.244	6696
816.385	6700
816.526	6635
816.666	6547
816.807	6308
816.948	6429
817.089	6467
817.23	6448
817.371	6460
817.512	6388
817.653	6384
817.793	6437
817.934	6395
818.075	6426
818.216	6471
818.356	6395
818.497	6247
818.638	6114
818.778	6140
818.919	6117
819.06	6125
819.2	6289
819.341	6380
819.481	6376
819.622	6551
819.762	6734
819.903	6696
820.043	6597
820.184	6563
820.324	6601
820.465	6620
820.605	6719
820.746	6673
820.886	6483
821.026	6623
821.167	6703
821.307	6787
821.447	6768
821.588	6646
821.728	6559
821.868	6525
822.008	6353
822.149	6426
822.289	6414
822.429	6197
822.569	6087
822.709	6140
822.849	5923
822.99	5889
823.13	5916
823.27	5973
823.41	5786
823.55	5752
823.69	5748
823.83	5726
823.97	5699
824.11	5554
824.25	5539
824.389	5608
824.529	5611
824.669	5551
824.809	5615
824.949	5630
825.089	5630
825.228	5551
825.368	5410
825.508	5330
825.648	5364
825.787	5417
825.927	5364
826.067	5273
826.206	5239
826.346	5379
826.485	5391
826.625	5406
826.765	5547
826.904	5471
827.044	5280
827.183	5223
827.323	5109
827.462	5231
827.601	5128
827.741	5185
827.88	5162
828.02	5147
828.159	5235
828.298	5284
828.437	5357
828.577	5261
828.716	5471
828.855	5303
828.994	5151
829.134	5178
829.273	5212
829.412	5178
829.551	5159
829.69	5185
829.829	5258
829.968	5395
830.107	5246
830.246	5299
830.385	5132
830.524	5151
830.663	5067
830.802	4976
830.941	4870
831.08	4900
831.219	5010
831.357	4911
831.496	5147
831.635	4923
831.774	4854
831.913	4824
832.051	4717
832.19	4706
832.329	4892
832.467	4710
832.606	4698
832.744	4687
832.883	4714
833.022	4721
833.16	4839
833.299	4809
833.437	4847
833.576	4828
833.714	4892
833.852	4824
833.991	4915
834.129	4953
834.267	4968
834.406	4889
834.544	4991
834.682	4980
834.821	4934
834.959	5159
835.097	4972
835.235	5147
835.373	5086
835.511	5143
835.65	5037
835.788	5041
835.926	4934
836.064	4862
836.202	4923
836.34	5170
836.478	5235
836.615	5102
836.753	5246
836.891	5341
837.029	5231
837.167	5231
837.305	5197
837.443	5136
837.58	5102
837.718	5299
837.856	5204
837.993	5193
838.131	5280
838.269	5208
838.406	5197
838.544	5208
838.681	5064
838.819	5037
838.956	4915
839.094	4911
839.231	4995
839.369	5060
839.506	5425
839.643	5326
839.781	5060
839.918	5048
840.055	5090
840.193	5083
840.33	5162
840.467	5147
840.604	5162
840.742	5501
840.879	5079
841.016	5121
841.153	5181
841.29	5383
841.427	5322
841.564	5296
841.701	5318
841.838	5261
841.975	5261
842.112	5246
842.249	5136
842.385	5132
842.522	5334
842.659	5178
842.796	5178
842.933	5201
843.069	5197
843.206	5155
843.343	5322
843.479	5242
843.616	5242
843.752	5010
843.889	5079
844.025	5235
844.162	5022
844.298	5239
844.435	5098
844.571	5067
844.708	5185
844.844	5265
844.98	5318
845.117	5288
845.253	5132
845.389	5083
845.525	5174
845.661	5185
845.798	5064
845.934	5204
846.07	5033
846.206	5231
846.342	5273
846.478	5201
846.614	5029
846.75	5025
846.886	4942
847.022	5121
847.158	5056
847.294	5067
847.429	5124
847.565	5071
847.701	5330
847.837	4885
847.972	4812
848.108	4957
848.244	4923
848.379	4793
848.515	4763
848.65	4679
848.786	4691
848.921	4797
849.057	4870
849.192	4889
849.328	4824
849.463	4866
849.598	4797
849.734	4763
849.869	4679
850.004	4618
850.14	4675
850.275	4615
850.41	4584
850.545	4584
850.68	4588
850.815	4569
850.95	4649
851.085	4866
851.22	4786
851.355	4706
851.49	4615
851.625	4599
851.76	4622
851.895	4565
852.03	4508
852.165	4634
852.299	4691
852.434	4755
852.569	4714
852.703	4790
852.838	4820
852.973	4923
853.107	4976
853.242	4752
853.376	4683
853.511	4523
853.645	4615
853.78	4809
853.914	4687
854.048	4698
854.183	4649
854.317	4702
854.451	4835
854.585	4702
854.72	4637
854.854	4771
854.988	4603
855.122	4649
855.256	4485
855.39	4660
855.524	4797
855.658	4744
855.792	4717
855.926	4771
856.06	4691
856.194	4809
856.327	4706
856.461	4588
856.595	4615
856.729	4592
856.862	4759
856.996	4691
857.13	4729
857.263	4774
857.397	4820
857.53	4660
857.664	4759
857.797	4797
857.931	4733
858.064	4717
858.197	4755
858.331	4675
858.464	4588
858.597	4500
858.731	4664
858.864	4615
858.997	4630
859.13	4656
859.263	4694
859.396	4687
859.529	4618
859.662	4607
859.795	4523
859.928	4607
860.061	4752
860.194	4736
860.327	4622
860.46	4550
860.592	4710
860.725	4733
860.858	4736
860.99	4592
861.123	4577
861.256	4523
861.388	4607
861.521	5296
861.653	4478
861.786	4455
861.918	4493
862.05	4516
862.183	4523
862.315	4622
862.447	4694
862.58	4577
862.712	4398
862.844	4333
862.976	4432
863.108	4512
863.24	4877
863.372	4333
863.504	4409
863.636	4440
863.768	4519
863.9	4413
864.032	4402
864.164	4371
864.296	4432
864.428	4573
864.559	4554
864.691	4554
864.823	4538
864.954	4459
865.086	4558
865.217	4451
865.349	4424
865.48	4405
865.612	4504
865.743	4653
865.875	4451
866.006	4405
866.137	4451
866.269	4447
866.4	4474
866.531	4440
866.662	4409
866.793	4394
866.924	4432
867.055	4474
867.186	4462
867.317	4394
867.448	4386
867.579	4413
867.71	4428
867.841	4375
867.972	4478
868.103	4527
868.233	4470
868.364	4424
868.495	4500
868.625	4691
868.756	4733
868.886	4611
869.017	4603
869.147	4755
869.278	4793
869.408	4687
869.539	4645
869.669	4736
869.799	4672
869.929	4752
870.06	4748
870.19	4957
870.32	4911
870.45	4927
870.58	5025
870.71	5117
870.84	5037
870.97	4961
871.1	4900
871.23	5147
871.36	5109
871.489	5029
871.619	5071
871.749	5079
871.879	5117
872.008	5189
872.138	5052
872.267	4942
872.397	4854
872.526	4866
872.656	4729
872.785	4816
872.915	4908
873.044	5025
873.173	4938
873.303	4995
873.432	4957
873.561	4987
873.69	4835
873.819	4885
873.948	4923
874.077	4801
874.206	4763
874.335	4835
874.464	4930
874.593	5067
874.722	5006
874.851	5086
874.979	5064
875.108	5045
875.237	4949
875.365	4873
875.494	4889
875.623	4987
875.751	4816
875.88	4938
876.008	4900
876.136	5033
876.265	5231
876.393	5334
876.521	5292
876.65	5193
876.778	5143
876.906	5052
877.034	4995
877.162	5048
877.29	4965
877.418	5060
877.546	5045
877.674	5029
877.802	5056
877.93	5056
878.058	4953
878.185	4873
878.313	4999
878.441	4968
878.568	4801
878.696	4900
878.824	4980
878.951	4999
879.079	5151
879.206	5315
879.333	5102
879.461	5003
879.588	5003
879.715	5098
879.842	5250
879.97	4987
880.097	4824
880.224	4733
880.351	4816
880.478	4885
880.605	4812
880.732	4793
880.859	5071
880.986	4873
881.112	4889
881.239	4801
881.366	4691
881.493	4592
881.619	4611
881.746	4626
881.872	4653
881.999	4687
882.125	4698
882.252	4847
882.378	4850
882.505	5003
882.631	4828
882.757	4721
882.883	4771
883.01	4767
883.136	4683
883.262	4611
883.388	4637
883.514	4763
883.64	4881
883.766	4774
883.892	4679
884.018	4733
884.143	4854
884.269	4968
884.395	4679
884.52	4622
884.646	4641
884.772	4569
884.897	4561
885.023	4691
885.148	4778
885.274	4885
885.399	4835
885.524	4774
885.65	4691
885.775	4725
885.9	4691
886.025	4877
886.15	4820
886.275	4786
886.4	4672
886.525	4721
886.65	4698
886.775	4725
886.9	4908
887.025	5029
887.149	4812
887.274	4641
887.399	4607
887.523	4626
887.648	4558
887.773	4558
887.897	4767
888.021	4774
888.146	4675
888.27	4793
888.395	4953
888.519	4774
888.643	4835
888.767	4828
888.891	4675
889.015	4622
889.139	4634
889.263	4622
889.387	4778
889.511	4877
889.635	4816
889.759	4637
889.883	4694
890.006	4767
890.13	4835
890.254	4577
890.377	4645
890.501	4565
890.624	4558
890.748	4626
890.871	4516
890.995	4436
891.118	4409
891.241	4519
891.364	4546
891.488	4656
891.611	4535
891.734	4573
891.857	4611
891.98	4554
892.103	4649
892.226	4641
892.349	4535
892.471	4440
892.594	4538
892.717	4603
892.839	4588
892.962	4645
893.085	4687
893.207	4622
893.33	4493
893.452	4508
893.575	4687
893.697	4645
893.819	4824
893.941	4812
894.064	4771
894.186	4656
894.308	4573
894.43	4740
894.552	4831
894.674	4752
894.796	4554
894.918	4592
895.04	4573
895.161	4706
895.283	4641
895.405	4577
895.526	4649
895.648	4698
895.769	4656
895.891	4710
896.012	4767
896.134	4755
896.255	4683
896.376	4622
896.498	4656
896.619	4687
896.74	4618
896.861	4656
896.982	4976
897.103	5045
897.224	4858
897.345	4793
897.466	4687
897.587	4740
897.708	4801
897.828	4828
897.949	4679
898.07	4577
898.19	4637
898.311	4862
898.431	4653
898.552	4759
898.672	4782
898.792	4828
898.913	4774
899.033	4630
899.153	4489
899.273	4417
899.393	4500
899.513	4516
899.633	4531
899.753	4577
899.873	4508
899.993	4546
900.113	4546
900.232	4649
900.352	4546
900.472	4485
900.591	4375
900.711	4538
900.83	4485
900.95	4672
901.069	4664
901.189	4546
901.308	4367
901.427	4341
901.546	4402
901.665	4493
901.784	4466
901.904	4413
902.023	4295
902.141	4219
902.26	4173
902.379	4322
902.498	4257
902.617	4223
902.735	4360
902.854	4363
902.973	4322
903.091	4280
903.21	4246
903.328	4322
903.446	4246
903.565	4284
903.683	4352
903.801	4291
903.919	4402
904.038	4436
904.156	4352
904.274	4459
904.392	4360
904.51	4459
904.627	4462
904.745	4603
904.863	4603
904.981	4379
905.098	4310
905.216	4360
905.334	4440
905.451	4443
905.569	4436
905.686	4561
905.803	4546
905.921	4413
906.038	4535
906.155	4447
906.272	4440
906.389	4447
906.506	4363
906.623	4398
906.74	4371
906.857	4299
906.974	4360
907.091	4577
907.208	4641
907.324	4580
907.441	4523
907.557	4352
907.674	4329
907.79	4287
907.907	4386
908.023	4455
908.139	4466
908.256	4440
908.372	4493
908.488	4466
908.604	4363
908.72	4356
908.836	4417
908.952	4383
909.068	4436
909.184	4542
909.3	4459
909.415	4596
909.531	4535
909.647	4341
909.762	4337
909.878	4367
909.993	4462
910.108	4459
910.224	4447
910.339	4489
910.454	4390
910.57	4367
910.685	4291
910.8	4668
910.915	4588
911.03	4478
911.145	4367
911.259	4318
911.374	4341
911.489	4314
911.604	4291
911.718	4219
911.833	4215
911.947	4082
912.062	4044
912.176	4169
912.291	4249
912.405	4223
912.519	4436
912.633	4542
912.748	4402
912.862	4375
912.976	4211
913.09	4097
913.204	4200
913.318	4276
913.431	4360
913.545	4379
913.659	4432
913.772	4371
913.886	4291
914	4211
914.113	4421
914.226	4459
914.34	4379
914.453	4272
914.566	4451
914.68	4287
914.793	4329
914.906	4162
915.019	4173
915.132	4090
915.245	4150
915.358	4234
915.47	4234
915.583	4276
915.696	4303
915.809	4436
915.921	4367
916.034	4287
916.146	4268
916.259	4192
916.371	4424
916.483	4383
916.595	4257
916.708	4284
916.82	4329
916.932	4325
917.044	4310
917.156	4341
917.268	4227
917.38	4287
917.491	4276
917.603	4371
917.715	4443
917.826	4481
917.938	4394
918.049	4230
918.161	4436
918.272	4508
918.384	4542
918.495	4497
918.606	4306
918.717	4219
918.828	4329
918.939	4371
919.05	4314
919.161	4291
919.272	4131
919.383	4219
919.494	4500
919.604	4649
919.715	4485
919.826	4367
919.936	4371
920.047	4577
920.157	4489
920.267	4710
920.378	4527
920.488	4497
920.598	4717
920.708	4866
920.818	4748
920.928	4767
921.038	4942
921.148	4923
921.258	4592
921.368	4561
921.477	4489
921.587	4466
921.697	4455
921.806	4542
921.916	4443
922.025	4230
922.134	4284
922.244	4227
922.353	4337
922.462	4196
922.571	4112
922.68	4029
922.789	4002
922.898	4063
923.007	4025
923.116	4090
923.224	4074
923.333	4101
923.442	4006
923.55	3975
923.659	4051
923.767	4101
923.876	4006
923.984	4166
924.092	3934
924.201	4078
924.309	4116
924.417	4128
924.525	4074
924.633	4112
924.741	5067
924.849	3907
924.956	4078
925.064	4010
925.172	3922
925.279	3960
925.387	4071
925.494	4032
925.602	4181
925.709	4173
925.816	4067
925.924	4177
926.031	4265
926.138	4177
926.245	4192
926.352	4097
926.459	4249
926.566	4280
926.673	4124
926.779	4097
926.886	4097
926.993	3991
927.099	3930
927.206	3956
927.312	3945
927.419	4044
927.525	4029
927.631	4112
927.737	3991
927.843	3934
927.95	3819
928.056	3991
928.162	4002
928.267	4048
928.373	4740
928.479	4139
928.585	3880
928.69	3994
928.796	4078
928.901	3972
929.007	3850
929.112	4006
929.218	3991
929.323	3960
929.428	3968
929.533	4090
929.638	3903
929.743	3960
929.848	4032
929.953	4006
930.058	3941
930.163	3797
930.267	3808
930.372	3972
930.477	3838
930.581	4105
930.685	3930
930.79	3819
930.894	3945
930.998	3842
931.103	4010
931.207	3736
931.311	3663
931.415	3648
931.519	3572
931.623	3530
