Data from test_V78500241_2201.txt Node
Date: Fri Mar 25 17:04:18 CST 2022
User: usil
Spectrometer: V785-0024
Trigger mode: 0
Integration Time (sec): 4.000000E-1
Scans to average: 1
Nonlinearity correction enabled: false
Boxcar width: 0
Storing dark spectrum: false
XAxis mode: Wavelengths
Number of Pixels in Spectrum: 1024
>>>>>Begin Spectral Data<<<<<
801.071	8050
801.214	8005
801.356	7894
801.499	7830
801.641	7765
801.783	7803
801.926	8020
802.068	7970
802.211	7936
802.353	8027
802.496	7906
802.638	7776
802.78	7849
802.923	7928
803.065	7868
803.208	7906
803.35	7978
803.492	8073
803.635	8157
803.777	7978
803.919	8164
804.061	8415
804.204	8172
804.346	8062
804.488	7959
804.63	8119
804.773	8001
804.915	8077
805.057	8301
805.199	8199
805.341	8275
805.483	8256
805.626	8305
805.768	8138
805.91	8286
806.052	8305
806.194	8130
806.336	8301
806.478	8077
806.62	8123
806.762	8134
806.904	8279
807.046	8450
807.188	8374
807.33	8351
807.472	8358
807.614	8195
807.756	8149
807.898	8092
808.04	7928
808.182	7868
808.324	7902
808.465	7982
808.607	8142
808.749	8119
808.891	8202
809.033	8336
809.174	8248
809.316	8103
809.458	8111
809.6	8107
809.741	8100
809.883	8020
810.025	8142
810.166	8103
810.308	8054
810.45	8016
810.591	7849
810.733	7719
810.875	7677
811.016	7537
811.158	7491
811.299	7594
811.441	7746
811.582	7693
811.724	7575
811.865	7548
812.007	7689
812.148	7651
812.29	7662
812.431	7746
812.573	7902
812.714	8035
812.855	8134
812.997	8206
813.138	8320
813.279	8161
813.421	8065
813.562	7944
813.703	7830
813.845	7830
813.986	7506
814.127	7259
814.268	7198
814.41	7194
814.551	7187
814.692	7240
814.833	7080
814.974	7103
815.115	7145
815.256	7034
815.397	6962
815.539	6943
815.68	6833
815.821	6791
815.962	6913
816.103	6840
816.244	6730
816.385	6677
816.526	6635
816.666	6460
816.807	6342
816.948	6460
817.089	6452
817.23	6384
817.371	6407
817.512	6407
817.653	6376
817.793	6372
817.934	6433
818.075	6448
818.216	6452
818.356	6384
818.497	6277
818.638	6167
818.778	6186
818.919	6194
819.06	6167
819.2	6369
819.341	6281
819.481	6407
819.622	6506
819.762	6726
819.903	6688
820.043	6544
820.184	6620
820.324	6650
820.465	6662
820.605	6677
820.746	6662
820.886	6490
821.026	6760
821.167	6711
821.307	6837
821.447	6764
821.588	6623
821.728	6589
821.868	6513
822.008	6365
822.149	6369
822.289	6357
822.429	6205
822.569	6114
822.709	6125
822.849	5935
822.99	5923
823.13	5923
823.27	5984
823.41	5790
823.55	5824
823.69	5798
823.83	5790
823.97	5729
824.11	5562
824.25	5459
824.389	5493
824.529	5581
824.669	5539
824.809	5665
824.949	5680
825.089	5573
825.228	5585
825.368	5410
825.508	5337
825.648	5341
825.787	5341
825.927	5345
826.067	5341
826.206	5334
826.346	5414
826.485	5368
826.625	5429
826.765	5585
826.904	5532
827.044	5269
827.183	5174
827.323	5151
827.462	5258
827.601	5124
827.741	5201
827.88	5235
828.02	5162
828.159	5231
828.298	5292
828.437	5387
828.577	5246
828.716	5493
828.855	5326
828.994	5178
829.134	5201
829.273	5185
829.412	5132
829.551	5178
829.69	5208
829.829	5239
829.968	5417
830.107	5303
830.246	5254
830.385	5246
830.524	5136
830.663	5071
830.802	5010
830.941	4938
831.08	4911
831.219	5010
831.357	4976
831.496	5162
831.635	4889
831.774	4881
831.913	4824
832.051	4733
832.19	4782
832.329	4889
832.467	4687
832.606	4668
832.744	4721
832.883	4733
833.022	4736
833.16	4812
833.299	4850
833.437	4850
833.576	4873
833.714	4843
833.852	4892
833.991	4915
834.129	4942
834.267	4915
834.406	4900
834.544	4946
834.682	4984
834.821	4980
834.959	5193
835.097	5010
835.235	5189
835.373	5121
835.511	5105
835.65	5052
835.788	5067
835.926	4854
836.064	4908
836.202	4923
836.34	5220
836.478	5242
836.615	5166
836.753	5181
836.891	5311
837.029	5284
837.167	5242
837.305	5140
837.443	5136
837.58	5086
837.718	5284
837.856	5223
837.993	5143
838.131	5231
838.269	5178
838.406	5208
838.544	5147
838.681	5045
838.819	5003
838.956	4953
839.094	4946
839.231	4949
839.369	5113
839.506	5414
839.643	5296
839.781	5037
839.918	5006
840.055	5204
840.193	5041
840.33	5098
840.467	5124
840.604	5235
840.742	5474
840.879	5075
841.016	5064
841.153	5128
841.29	5372
841.427	5277
841.564	5322
841.701	5440
841.838	5326
841.975	5235
842.112	5242
842.249	5136
842.385	5094
842.522	5326
842.659	5174
842.796	5159
842.933	5208
843.069	5128
843.206	5162
843.343	5322
843.479	5242
843.616	5280
843.752	5064
843.889	5067
844.025	5227
844.162	4995
844.298	5204
844.435	5071
844.571	5037
844.708	5170
844.844	5273
844.98	5326
845.117	5284
845.253	5155
845.389	5086
845.525	5193
845.661	5162
845.798	5033
845.934	5185
846.07	5018
846.206	5170
846.342	5273
846.478	5193
846.614	5025
846.75	4995
846.886	4919
847.022	5151
847.158	5064
847.294	5083
847.429	5109
847.565	5045
847.701	5277
847.837	4889
847.972	4778
848.108	4915
848.244	4930
848.379	4805
848.515	4755
848.65	4774
848.786	4706
848.921	4847
849.057	4870
849.192	4873
849.328	4828
849.463	4828
849.598	4847
849.734	4725
849.869	4668
850.004	4592
850.14	4729
850.275	4656
850.41	4519
850.545	4554
850.68	4641
850.815	4675
850.95	4668
851.085	4873
851.22	4733
851.355	4691
851.49	4622
851.625	4634
851.76	4637
851.895	4577
852.03	4561
852.165	4634
852.299	4714
852.434	4793
852.569	4748
852.703	4771
852.838	4858
852.973	4919
853.107	4934
853.242	4752
853.376	4668
853.511	4603
853.645	4603
853.78	4771
853.914	4710
854.048	4679
854.183	4653
854.317	4736
854.451	4854
854.585	4725
854.72	4691
854.854	4759
854.988	4580
855.122	4618
855.256	4512
855.39	4694
855.524	4801
855.658	4710
855.792	4736
855.926	4740
856.06	4763
856.194	4778
856.327	4694
856.461	4634
856.595	4660
856.729	4626
856.862	4740
856.996	4717
857.13	4736
857.263	4748
857.397	4801
857.53	4656
857.664	4698
857.797	4771
857.931	4797
858.064	4721
858.197	4759
858.331	4656
858.464	4615
858.597	4592
858.731	4599
858.864	4645
858.997	4611
859.13	4645
859.263	4687
859.396	4733
859.529	4588
859.662	4577
859.795	4554
859.928	4618
860.061	4759
860.194	4774
860.327	4626
860.46	4603
860.592	4706
860.725	4687
860.858	4698
860.99	4580
861.123	4546
861.256	4497
861.388	4607
861.521	5406
861.653	4447
861.786	4417
861.918	4455
862.05	4516
862.183	4561
862.315	4569
862.447	4626
862.58	4538
862.712	4394
862.844	4352
862.976	4462
863.108	4459
863.24	4805
863.372	4333
863.504	4424
863.636	4348
863.768	4519
863.9	4432
864.032	4356
864.164	4432
864.296	4497
864.428	4565
864.559	4577
864.691	4504
864.823	4569
864.954	4470
865.086	4523
865.217	4500
865.349	4459
865.48	4474
865.612	4504
865.743	4599
865.875	4451
866.006	4371
866.137	4470
866.269	4432
866.4	4436
866.531	4375
866.662	4394
866.793	4417
866.924	4409
867.055	4478
867.186	4447
867.317	4421
867.448	4379
867.579	4402
867.71	4405
867.841	4375
867.972	4474
868.103	4459
868.233	4474
868.364	4447
868.495	4493
868.625	4721
868.756	4725
868.886	4618
869.017	4668
869.147	4740
869.278	4748
869.408	4641
869.539	4641
869.669	4702
869.799	4645
869.929	4748
870.06	4729
870.19	4968
870.32	4896
870.45	4885
870.58	5006
870.71	5071
870.84	5075
870.97	4957
871.1	4885
871.23	5170
871.36	5113
871.489	5056
871.619	5048
871.749	5132
871.879	5090
872.008	5185
872.138	4953
872.267	4999
872.397	4831
872.526	4801
872.656	4763
872.785	4816
872.915	4946
873.044	4961
873.173	4968
873.303	4930
873.432	5006
873.561	4968
873.69	4889
873.819	4847
873.948	4980
874.077	4771
874.206	4793
874.335	4828
874.464	4896
874.593	5048
874.722	4919
874.851	5033
874.979	5083
875.108	5037
875.237	4953
875.365	4858
875.494	4915
875.623	4999
875.751	4786
875.88	4881
876.008	4968
876.136	5018
876.265	5227
876.393	5334
876.521	5269
876.65	5223
876.778	5204
876.906	5071
877.034	4972
877.162	5056
877.29	4984
877.418	5064
877.546	5071
877.674	5041
877.802	5048
877.93	5010
878.058	4930
878.185	4915
878.313	4968
878.441	4968
878.568	4820
878.696	4934
878.824	4995
878.951	5041
879.079	5113
879.206	5299
879.333	5094
879.461	4987
879.588	5037
879.715	5117
879.842	5197
879.97	5006
880.097	4809
880.224	4771
880.351	4748
880.478	4801
880.605	4816
880.732	4740
880.859	5052
880.986	4870
881.112	4889
881.239	4710
881.366	4660
881.493	4634
881.619	4531
881.746	4615
881.872	4615
881.999	4653
882.125	4653
882.252	4767
882.378	4809
882.505	4949
882.631	4812
882.757	4675
882.883	4687
883.01	4706
883.136	4664
883.262	4634
883.388	4607
883.514	4831
883.64	4873
883.766	4748
883.892	4698
884.018	4706
884.143	4892
884.269	4995
884.395	4649
884.52	4580
884.646	4626
884.772	4599
884.897	4584
885.023	4656
885.148	4767
885.274	4889
885.399	4824
885.524	4752
885.65	4691
885.775	4721
885.9	4649
886.025	4854
886.15	4793
886.275	4729
886.4	4691
886.525	4721
886.65	4736
886.775	4664
886.9	4919
887.025	5056
887.149	4793
887.274	4641
887.399	4622
887.523	4580
887.648	4592
887.773	4565
887.897	4729
888.021	4809
888.146	4664
888.27	4828
888.395	4892
888.519	4801
888.643	4793
888.767	4812
888.891	4672
889.015	4622
889.139	4683
889.263	4603
889.387	4767
889.511	4866
889.635	4801
889.759	4596
889.883	4622
890.006	4786
890.13	4850
890.254	4668
890.377	4664
890.501	4542
890.624	4554
890.748	4630
890.871	4504
890.995	4409
891.118	4375
891.241	4459
891.364	4569
891.488	4641
891.611	4466
891.734	4554
891.857	4558
891.98	4558
892.103	4618
892.226	4626
892.349	4546
892.471	4398
892.594	4558
892.717	4607
892.839	4569
892.962	4611
893.085	4683
893.207	4573
893.33	4440
893.452	4542
893.575	4660
893.697	4588
893.819	4786
893.941	4816
894.064	4759
894.186	4565
894.308	4580
894.43	4778
894.552	4828
894.674	4702
894.796	4565
894.918	4611
895.04	4527
895.161	4675
895.283	4660
895.405	4535
895.526	4672
895.648	4698
895.769	4706
895.891	4740
896.012	4752
896.134	4729
896.255	4698
896.376	4660
896.498	4622
896.619	4729
896.74	4630
896.861	4607
896.982	4965
897.103	5086
897.224	4801
897.345	4736
897.466	4607
897.587	4717
897.708	4843
897.828	4797
897.949	4649
898.07	4615
898.19	4607
898.311	4885
898.431	4687
898.552	4740
898.672	4797
898.792	4790
898.913	4763
899.033	4592
899.153	4474
899.273	4447
899.393	4466
899.513	4527
899.633	4489
899.753	4596
899.873	4485
899.993	4542
900.113	4531
900.232	4611
900.352	4500
900.472	4474
900.591	4440
900.711	4531
900.83	4493
900.95	4603
901.069	4672
901.189	4508
901.308	4337
901.427	4329
901.546	4352
901.665	4489
901.784	4527
901.904	4348
902.023	4314
902.141	4162
902.26	4181
902.379	4318
902.498	4246
902.617	4230
902.735	4356
902.854	4314
902.973	4322
903.091	4219
903.21	4215
903.328	4287
903.446	4303
903.565	4253
903.683	4390
903.801	4310
903.919	4394
904.038	4402
904.156	4337
904.274	4455
904.392	4405
904.51	4402
904.627	4459
904.745	4561
904.863	4664
904.981	4375
905.098	4268
905.216	4329
905.334	4462
905.451	4409
905.569	4424
905.686	4542
905.803	4569
905.921	4405
906.038	4565
906.155	4516
906.272	4424
906.389	4455
906.506	4303
906.623	4390
906.74	4398
906.857	4318
906.974	4363
907.091	4550
907.208	4672
907.324	4603
907.441	4550
907.557	4348
907.674	4322
907.79	4325
907.907	4413
908.023	4527
908.139	4474
908.256	4424
908.372	4504
908.488	4405
908.604	4398
908.72	4322
908.836	4367
908.952	4367
909.068	4428
909.184	4569
909.3	4489
909.415	4569
909.531	4592
909.647	4348
909.762	4329
909.878	4394
909.993	4398
910.108	4424
910.224	4405
910.339	4474
910.454	4432
910.57	4344
910.685	4337
910.8	4660
910.915	4618
911.03	4474
911.145	4352
911.259	4310
911.374	4356
911.489	4295
911.604	4268
911.718	4200
911.833	4223
911.947	4048
912.062	4093
912.176	4242
912.291	4238
912.405	4246
912.519	4451
912.633	4455
912.748	4386
912.862	4344
912.976	4215
913.09	4093
913.204	4150
913.318	4249
913.431	4367
913.545	4363
913.659	4409
913.772	4352
913.886	4268
914	4211
914.113	4375
914.226	4447
914.34	4390
914.453	4280
914.566	4424
914.68	4291
914.793	4348
914.906	4128
915.019	4086
915.132	4059
915.245	4177
915.358	4207
915.47	4230
915.583	4287
915.696	4310
915.809	4402
915.921	4367
916.034	4230
916.146	4223
916.259	4253
916.371	4390
916.483	4375
916.595	4265
916.708	4287
916.82	4337
916.932	4325
917.044	4295
917.156	4291
917.268	4246
917.38	4272
917.491	4246
917.603	4337
917.715	4428
917.826	4455
917.938	4325
918.049	4268
918.161	4386
918.272	4535
918.384	4561
918.495	4432
918.606	4341
918.717	4192
918.828	4333
918.939	4344
919.05	4246
919.161	4348
919.272	4135
919.383	4196
919.494	4432
919.604	4630
919.715	4436
919.826	4356
919.936	4383
920.047	4550
920.157	4516
920.267	4706
920.378	4550
920.488	4481
920.598	4748
920.708	4858
920.818	4767
920.928	4740
921.038	4930
921.148	4930
921.258	4603
921.368	4542
921.477	4470
921.587	4455
921.697	4390
921.806	4538
921.916	4455
922.025	4268
922.134	4230
922.244	4238
922.353	4360
922.462	4154
922.571	4135
922.68	4055
922.789	4036
922.898	3987
923.007	4006
923.116	4147
923.224	4074
923.333	4090
923.442	4017
923.55	3972
923.659	4036
923.767	4097
923.876	3994
923.984	4143
924.092	3941
924.201	4097
924.309	4078
924.417	4131
924.525	4074
924.633	4116
924.741	5025
924.849	3915
924.956	4112
925.064	3968
925.172	3880
925.279	3915
925.387	4086
925.494	4063
925.602	4227
925.709	4192
925.816	4059
925.924	4128
926.031	4215
926.138	4162
926.245	4196
926.352	4116
926.459	4223
926.566	4303
926.673	4147
926.779	4093
926.886	4093
926.993	3964
927.099	3979
927.206	3926
927.312	3964
927.419	4082
927.525	4048
927.631	4093
927.737	3956
927.843	3956
927.95	3888
928.056	3934
928.162	3983
928.267	4040
928.373	4653
928.479	4128
928.585	3892
928.69	4013
928.796	4048
928.901	3926
929.007	3823
929.112	4002
929.218	4006
929.323	3926
929.428	3876
929.533	4093
929.638	3880
929.743	3991
929.848	4048
929.953	3941
930.058	3918
930.163	3785
930.267	3827
930.372	3987
930.477	3842
930.581	4086
930.685	3911
930.79	3781
930.894	3880
930.998	3838
931.103	4040
931.207	3660
931.311	3660
931.415	3652
931.519	3488
931.623	3549
