Data from test_V78500241_669.txt Node
Date: Fri Mar 25 16:53:39 CST 2022
User: usil
Spectrometer: V785-0024
Trigger mode: 0
Integration Time (sec): 4.000000E-1
Scans to average: 1
Nonlinearity correction enabled: false
Boxcar width: 0
Storing dark spectrum: false
XAxis mode: Wavelengths
Number of Pixels in Spectrum: 1024
>>>>>Begin Spectral Data<<<<<
801.071	8031
801.214	8024
801.356	7906
801.499	7814
801.641	7795
801.783	7784
801.926	7989
802.068	7944
802.211	7917
802.353	7986
802.496	7906
802.638	7928
802.78	7875
802.923	7974
803.065	7845
803.208	7795
803.35	8039
803.492	8100
803.635	8123
803.777	8020
803.919	8096
804.061	8404
804.204	8142
804.346	8058
804.488	8050
804.63	8149
804.773	7989
804.915	8126
805.057	8290
805.199	8138
805.341	8267
805.483	8202
805.626	8202
805.768	8065
805.91	8161
806.052	8210
806.194	8088
806.336	8275
806.478	8073
806.62	8073
806.762	8134
806.904	8252
807.046	8423
807.188	8385
807.33	8259
807.472	8309
807.614	8149
807.756	8115
807.898	8046
808.04	7875
808.182	7856
808.324	7864
808.465	7890
808.607	8024
808.749	8130
808.891	8244
809.033	8221
809.174	8229
809.316	7978
809.458	8024
809.6	8012
809.741	8012
809.883	8043
810.025	8130
810.166	8088
810.308	8043
810.45	7978
810.591	7936
810.733	7753
810.875	7708
811.016	7590
811.158	7449
811.299	7571
811.441	7700
811.582	7636
811.724	7563
811.865	7563
812.007	7609
812.148	7590
812.29	7597
812.431	7784
812.573	7845
812.714	8020
812.855	8123
812.997	8218
813.138	8301
813.279	8168
813.421	8187
813.562	8008
813.703	7906
813.845	7772
813.986	7480
814.127	7305
814.268	7255
814.41	7217
814.551	7110
814.692	7179
814.833	7057
814.974	7031
815.115	7137
815.256	6954
815.397	6920
815.539	6943
815.68	6810
815.821	6897
815.962	6897
816.103	6806
816.244	6711
816.385	6620
816.526	6650
816.666	6490
816.807	6334
816.948	6460
817.089	6433
817.23	6426
817.371	6342
817.512	6384
817.653	6391
817.793	6365
817.934	6350
818.075	6418
818.216	6429
818.356	6433
818.497	6232
818.638	6087
818.778	6159
818.919	6144
819.06	6182
819.2	6247
819.341	6266
819.481	6323
819.622	6509
819.762	6669
819.903	6726
820.043	6608
820.184	6536
820.324	6540
820.465	6612
820.605	6662
820.746	6582
820.886	6445
821.026	6566
821.167	6749
821.307	6802
821.447	6810
821.588	6627
821.728	6544
821.868	6536
822.008	6292
822.149	6350
822.289	6342
822.429	6133
822.569	6076
822.709	6068
822.849	5870
822.99	5916
823.13	5912
823.27	5935
823.41	5752
823.55	5741
823.69	5748
823.83	5798
823.97	5642
824.11	5490
824.25	5474
824.389	5570
824.529	5585
824.669	5566
824.809	5611
824.949	5653
825.089	5558
825.228	5486
825.368	5402
825.508	5330
825.648	5341
825.787	5376
825.927	5364
826.067	5273
826.206	5311
826.346	5421
826.485	5398
826.625	5417
826.765	5577
826.904	5425
827.044	5254
827.183	5223
827.323	5105
827.462	5250
827.601	5124
827.741	5185
827.88	5231
828.02	5090
828.159	5170
828.298	5303
828.437	5341
828.577	5254
828.716	5455
828.855	5364
828.994	5178
829.134	5128
829.273	5147
829.412	5128
829.551	5147
829.69	5140
829.829	5258
829.968	5364
830.107	5246
830.246	5261
830.385	5121
830.524	5136
830.663	5064
830.802	5029
830.941	4900
831.08	4870
831.219	4965
831.357	4999
831.496	5155
831.635	4908
831.774	4820
831.913	4843
832.051	4744
832.19	4733
832.329	4824
832.467	4729
832.606	4664
832.744	4736
832.883	4698
833.022	4656
833.16	4809
833.299	4820
833.437	4824
833.576	4816
833.714	4850
833.852	4904
833.991	4904
834.129	4938
834.267	4946
834.406	4911
834.544	4961
834.682	4980
834.821	4934
834.959	5151
835.097	4946
835.235	5151
835.373	5052
835.511	5147
835.65	5121
835.788	5037
835.926	4908
836.064	4911
836.202	4915
836.34	5109
836.478	5204
836.615	5098
836.753	5181
836.891	5254
837.029	5216
837.167	5159
837.305	5189
837.443	5181
837.58	5071
837.718	5258
837.856	5197
837.993	5178
838.131	5231
838.269	5185
838.406	5208
838.544	5162
838.681	5006
838.819	4991
838.956	4911
839.094	4942
839.231	4995
839.369	5064
839.506	5452
839.643	5273
839.781	5075
839.918	5037
840.055	5128
840.193	5086
840.33	5113
840.467	5124
840.604	5159
840.742	5410
840.879	5105
841.016	5071
841.153	5162
841.29	5345
841.427	5379
841.564	5280
841.701	5391
841.838	5189
841.975	5277
842.112	5273
842.249	5143
842.385	5075
842.522	5299
842.659	5159
842.796	5181
842.933	5174
843.069	5143
843.206	5162
843.343	5318
843.479	5216
843.616	5216
843.752	5037
843.889	4949
844.025	5239
844.162	5010
844.298	5204
844.435	5090
844.571	5018
844.708	5208
844.844	5261
844.98	5345
845.117	5322
845.253	5105
845.389	5086
845.525	5162
845.661	5170
845.798	5014
845.934	5189
846.07	5033
846.206	5170
846.342	5296
846.478	5174
846.614	5052
846.75	5018
846.886	4919
847.022	5166
847.158	5029
847.294	5098
847.429	5022
847.565	4980
847.701	5307
847.837	4820
847.972	4782
848.108	4953
848.244	4961
848.379	4793
848.515	4717
848.65	4725
848.786	4736
848.921	4721
849.057	4877
849.192	4877
849.328	4790
849.463	4873
849.598	4755
849.734	4812
849.869	4634
850.004	4645
850.14	4672
850.275	4607
850.41	4489
850.545	4561
850.68	4603
850.815	4603
850.95	4603
851.085	4812
851.22	4725
851.355	4698
851.49	4607
851.625	4626
851.76	4634
851.895	4558
852.03	4538
852.165	4649
852.299	4729
852.434	4752
852.569	4733
852.703	4744
852.838	4847
852.973	4949
853.107	4927
853.242	4721
853.376	4687
853.511	4531
853.645	4615
853.78	4755
853.914	4672
854.048	4698
854.183	4607
854.317	4694
854.451	4812
854.585	4675
854.72	4656
854.854	4744
854.988	4611
855.122	4660
855.256	4451
855.39	4592
855.524	4759
855.658	4729
855.792	4698
855.926	4702
856.06	4702
856.194	4801
856.327	4702
856.461	4615
856.595	4607
856.729	4630
856.862	4744
856.996	4679
857.13	4771
857.263	4767
857.397	4752
857.53	4615
857.664	4698
857.797	4759
857.931	4774
858.064	4691
858.197	4752
858.331	4656
858.464	4607
858.597	4531
858.731	4634
858.864	4630
858.997	4618
859.13	4641
859.263	4653
859.396	4729
859.529	4626
859.662	4554
859.795	4523
859.928	4584
860.061	4733
860.194	4736
860.327	4584
860.46	4554
860.592	4698
860.725	4702
860.858	4740
860.99	4565
861.123	4504
861.256	4500
861.388	4592
861.521	5273
861.653	4466
861.786	4424
861.918	4440
862.05	4508
862.183	4569
862.315	4603
862.447	4630
862.58	4588
862.712	4379
862.844	4303
862.976	4462
863.108	4474
863.24	4904
863.372	4299
863.504	4402
863.636	4367
863.768	4451
863.9	4413
864.032	4386
864.164	4383
864.296	4436
864.428	4538
864.559	4554
864.691	4519
864.823	4558
864.954	4440
865.086	4455
865.217	4443
865.349	4386
865.48	4459
865.612	4485
865.743	4630
865.875	4485
866.006	4432
866.137	4462
866.269	4470
866.4	4462
866.531	4443
866.662	4417
866.793	4443
866.924	4424
867.055	4455
867.186	4417
867.317	4424
867.448	4375
867.579	4360
867.71	4428
867.841	4363
867.972	4459
868.103	4440
868.233	4500
868.364	4432
868.495	4493
868.625	4649
868.756	4782
868.886	4504
869.017	4611
869.147	4717
869.278	4763
869.408	4694
869.539	4645
869.669	4721
869.799	4611
869.929	4774
870.06	4702
870.19	4961
870.32	4892
870.45	4938
870.58	4980
870.71	5136
870.84	5090
870.97	4942
871.1	4900
871.23	5102
871.36	5052
871.489	5048
871.619	5083
871.749	5105
871.879	5102
872.008	5155
872.138	5018
872.267	4972
872.397	4892
872.526	4812
872.656	4710
872.785	4797
872.915	4904
873.044	5037
873.173	4942
873.303	4999
873.432	4987
873.561	4938
873.69	4900
873.819	4862
873.948	4866
874.077	4820
874.206	4740
874.335	4809
874.464	4923
874.593	5071
874.722	4953
874.851	5060
874.979	5067
875.108	5041
875.237	4847
875.365	4934
875.494	4858
875.623	4949
875.751	4843
875.88	4873
876.008	5003
876.136	5025
876.265	5193
876.393	5353
876.521	5231
876.65	5223
876.778	5220
876.906	5086
877.034	5045
877.162	5083
877.29	4923
877.418	5098
877.546	5029
877.674	5022
877.802	5018
877.93	5010
878.058	4972
878.185	4831
878.313	4961
878.441	4961
878.568	4824
878.696	4828
878.824	4942
878.951	5018
879.079	5090
879.206	5284
879.333	5083
879.461	4957
879.588	5022
879.715	5140
879.842	5254
879.97	5025
880.097	4778
880.224	4752
880.351	4797
880.478	4782
880.605	4835
880.732	4793
880.859	5045
880.986	4881
881.112	4942
881.239	4767
881.366	4664
881.493	4596
881.619	4596
881.746	4626
881.872	4607
881.999	4664
882.125	4675
882.252	4744
882.378	4786
882.505	4938
882.631	4771
882.757	4660
882.883	4748
883.01	4725
883.136	4668
883.262	4580
883.388	4603
883.514	4786
883.64	4870
883.766	4790
883.892	4645
884.018	4721
884.143	4881
884.269	5025
884.395	4660
884.52	4645
884.646	4634
884.772	4573
884.897	4508
885.023	4645
885.148	4797
885.274	4858
885.399	4835
885.524	4706
885.65	4656
885.775	4725
885.9	4717
886.025	4847
886.15	4763
886.275	4702
886.4	4634
886.525	4717
886.65	4656
886.775	4672
886.9	4877
887.025	4965
887.149	4771
887.274	4672
887.399	4622
887.523	4618
887.648	4569
887.773	4584
887.897	4733
888.021	4771
888.146	4672
888.27	4786
888.395	4904
888.519	4793
888.643	4782
888.767	4812
888.891	4653
889.015	4653
889.139	4679
889.263	4577
889.387	4778
889.511	4889
889.635	4824
889.759	4634
889.883	4634
890.006	4748
890.13	4801
890.254	4626
890.377	4702
890.501	4516
890.624	4523
890.748	4649
890.871	4489
890.995	4432
891.118	4379
891.241	4527
891.364	4546
891.488	4626
891.611	4485
891.734	4561
891.857	4592
891.98	4527
892.103	4622
892.226	4596
892.349	4550
892.471	4421
892.594	4569
892.717	4637
892.839	4550
892.962	4599
893.085	4637
893.207	4588
893.33	4409
893.452	4519
893.575	4679
893.697	4577
893.819	4752
893.941	4824
894.064	4782
894.186	4577
894.308	4516
894.43	4721
894.552	4805
894.674	4816
894.796	4561
894.918	4546
895.04	4584
895.161	4675
895.283	4660
895.405	4599
895.526	4622
895.648	4702
895.769	4672
895.891	4717
896.012	4740
896.134	4740
896.255	4664
896.376	4615
896.498	4615
896.619	4683
896.74	4649
896.861	4618
896.982	4904
897.103	5105
897.224	4828
897.345	4767
897.466	4634
897.587	4755
897.708	4877
897.828	4782
897.949	4664
898.07	4550
898.19	4615
898.311	4816
898.431	4694
898.552	4710
898.672	4847
898.792	4843
898.913	4729
899.033	4618
899.153	4478
899.273	4405
899.393	4485
899.513	4569
899.633	4531
899.753	4535
899.873	4542
899.993	4607
900.113	4508
900.232	4615
900.352	4561
900.472	4485
900.591	4432
900.711	4489
900.83	4417
900.95	4599
901.069	4736
901.189	4508
901.308	4371
901.427	4314
901.546	4360
901.665	4436
901.784	4535
901.904	4390
902.023	4306
902.141	4181
902.26	4169
902.379	4333
902.498	4280
902.617	4207
902.735	4363
902.854	4356
902.973	4348
903.091	4211
903.21	4242
903.328	4287
903.446	4257
903.565	4284
903.683	4352
903.801	4268
903.919	4409
904.038	4466
904.156	4295
904.274	4459
904.392	4383
904.51	4417
904.627	4527
904.745	4596
904.863	4634
904.981	4405
905.098	4306
905.216	4390
905.334	4443
905.451	4466
905.569	4455
905.686	4554
905.803	4535
905.921	4402
906.038	4527
906.155	4485
906.272	4417
906.389	4424
906.506	4371
906.623	4375
906.74	4386
906.857	4265
906.974	4363
907.091	4554
907.208	4634
907.324	4569
907.441	4504
907.557	4371
907.674	4333
907.79	4284
907.907	4383
908.023	4497
908.139	4489
908.256	4462
908.372	4481
908.488	4398
908.604	4318
908.72	4310
908.836	4390
908.952	4367
909.068	4375
909.184	4569
909.3	4500
909.415	4626
909.531	4546
909.647	4379
909.762	4386
909.878	4310
909.993	4402
910.108	4428
910.224	4440
910.339	4561
910.454	4394
910.57	4363
910.685	4337
910.8	4645
910.915	4561
911.03	4508
911.145	4352
911.259	4299
911.374	4383
911.489	4249
911.604	4280
911.718	4150
911.833	4227
911.947	4055
912.062	4006
912.176	4188
912.291	4280
912.405	4223
912.519	4451
912.633	4538
912.748	4360
912.862	4329
912.976	4227
913.09	4044
913.204	4192
913.318	4223
913.431	4375
913.545	4405
913.659	4459
913.772	4318
913.886	4223
914	4204
914.113	4356
914.226	4424
914.34	4424
914.453	4200
914.566	4421
914.68	4261
914.793	4360
914.906	4166
915.019	4131
915.132	4074
915.245	4154
915.358	4234
915.47	4230
915.583	4280
915.696	4261
915.809	4417
915.921	4424
916.034	4246
916.146	4230
916.259	4219
916.371	4371
916.483	4394
916.595	4314
916.708	4329
916.82	4306
916.932	4314
917.044	4344
917.156	4360
917.268	4246
917.38	4249
917.491	4249
917.603	4352
917.715	4394
917.826	4428
917.938	4337
918.049	4169
918.161	4379
918.272	4561
918.384	4504
918.495	4436
918.606	4325
918.717	4215
918.828	4390
918.939	4398
919.05	4284
919.161	4284
919.272	4173
919.383	4261
919.494	4402
919.604	4645
919.715	4447
919.826	4344
919.936	4436
920.047	4523
920.157	4485
920.267	4736
920.378	4596
920.488	4497
920.598	4748
920.708	4873
920.818	4778
920.928	4748
921.038	4957
921.148	4904
921.258	4573
921.368	4561
921.477	4493
921.587	4466
921.697	4337
921.806	4577
921.916	4413
922.025	4253
922.134	4227
922.244	4238
922.353	4360
922.462	4139
922.571	4120
922.68	4010
922.789	4010
922.898	4051
923.007	4010
923.116	4116
923.224	4074
923.333	4097
923.442	3994
923.55	3991
923.659	3998
923.767	4124
923.876	4032
923.984	4139
924.092	4006
924.201	4055
924.309	4059
924.417	4105
924.525	4093
924.633	4154
924.741	5029
924.849	3899
924.956	4120
925.064	3953
925.172	3884
925.279	3930
925.387	4048
925.494	4025
925.602	4211
925.709	4207
925.816	4010
925.924	4086
926.031	4261
926.138	4223
926.245	4219
926.352	4097
926.459	4253
926.566	4303
926.673	4162
926.779	4086
926.886	4055
926.993	3983
927.099	4017
927.206	3918
927.312	3899
927.419	4032
927.525	4002
927.631	4097
927.737	3945
927.843	3934
927.95	3827
928.056	3911
928.162	3968
928.267	4074
928.373	4687
928.479	4097
928.585	3884
928.69	4017
928.796	4071
928.901	3949
929.007	3823
929.112	3991
929.218	4021
929.323	3915
929.428	3960
929.533	4078
929.638	3915
929.743	3934
929.848	4040
929.953	3991
930.058	3926
930.163	3781
930.267	3831
930.372	3937
930.477	3831
930.581	4082
930.685	3941
930.79	3846
930.894	3857
930.998	3865
931.103	4071
931.207	3728
931.311	3694
931.415	3648
931.519	3519
931.623	3549
