Data from test_V78500241_1712.txt Node
Date: Fri Mar 25 17:00:54 CST 2022
User: usil
Spectrometer: V785-0024
Trigger mode: 0
Integration Time (sec): 4.000000E-1
Scans to average: 1
Nonlinearity correction enabled: false
Boxcar width: 0
Storing dark spectrum: false
XAxis mode: Wavelengths
Number of Pixels in Spectrum: 1024
>>>>>Begin Spectral Data<<<<<
801.071	7993
801.214	8027
801.356	7871
801.499	7879
801.641	7814
801.783	7818
801.926	7978
802.068	7940
802.211	8039
802.353	7974
802.496	7814
802.638	7909
802.78	7890
802.923	7921
803.065	7788
803.208	7811
803.35	8016
803.492	8054
803.635	8191
803.777	8050
803.919	8058
804.061	8419
804.204	8218
804.346	8046
804.488	7974
804.63	8107
804.773	8084
804.915	8084
805.057	8301
805.199	8119
805.341	8195
805.483	8290
805.626	8195
805.768	8149
805.91	8233
806.052	8240
806.194	8142
806.336	8374
806.478	8081
806.62	7986
806.762	8130
806.904	8305
807.046	8480
807.188	8389
807.33	8259
807.472	8305
807.614	8168
807.756	8111
807.898	8035
808.04	7890
808.182	7860
808.324	7894
808.465	7936
808.607	8062
808.749	8103
808.891	8233
809.033	8347
809.174	8180
809.316	8043
809.458	7970
809.6	8008
809.741	8050
809.883	8054
810.025	8096
810.166	7974
810.308	8020
810.45	8027
810.591	7913
810.733	7738
810.875	7704
811.016	7521
811.158	7556
811.299	7571
811.441	7765
811.582	7670
811.724	7624
811.865	7575
812.007	7548
812.148	7529
812.29	7658
812.431	7807
812.573	7894
812.714	7986
812.855	8100
812.997	8286
813.138	8313
813.279	8164
813.421	8134
813.562	8024
813.703	7849
813.845	7807
813.986	7506
814.127	7316
814.268	7244
814.41	7221
814.551	7152
814.692	7244
814.833	7107
814.974	7129
815.115	7099
815.256	7023
815.397	6954
815.539	6993
815.68	6806
815.821	6783
815.962	6859
816.103	6825
816.244	6688
816.385	6635
816.526	6551
816.666	6490
816.807	6311
816.948	6433
817.089	6429
817.23	6494
817.371	6384
817.512	6384
817.653	6372
817.793	6372
817.934	6448
818.075	6479
818.216	6426
818.356	6407
818.497	6273
818.638	6129
818.778	6152
818.919	6133
819.06	6152
819.2	6323
819.341	6327
819.481	6372
819.622	6540
819.762	6738
819.903	6654
820.043	6578
820.184	6559
820.324	6536
820.465	6711
820.605	6700
820.746	6662
820.886	6517
821.026	6662
821.167	6700
821.307	6878
821.447	6741
821.588	6677
821.728	6582
821.868	6426
822.008	6323
822.149	6384
822.289	6304
822.429	6167
822.569	6064
822.709	6110
822.849	5908
822.99	5904
823.13	5901
823.27	5916
823.41	5824
823.55	5817
823.69	5752
823.83	5779
823.97	5657
824.11	5554
824.25	5436
824.389	5562
824.529	5611
824.669	5490
824.809	5638
824.949	5649
825.089	5627
825.228	5535
825.368	5387
825.508	5330
825.648	5330
825.787	5402
825.927	5341
826.067	5353
826.206	5326
826.346	5425
826.485	5436
826.625	5414
826.765	5551
826.904	5493
827.044	5284
827.183	5151
827.323	5121
827.462	5242
827.601	5220
827.741	5181
827.88	5261
828.02	5090
828.159	5250
828.298	5284
828.437	5360
828.577	5303
828.716	5497
828.855	5311
828.994	5121
829.134	5132
829.273	5208
829.412	5178
829.551	5128
829.69	5201
829.829	5204
829.968	5330
830.107	5261
830.246	5280
830.385	5174
830.524	5170
830.663	5064
830.802	4965
830.941	4908
831.08	4904
831.219	4984
831.357	4881
831.496	5162
831.635	4904
831.774	4877
831.913	4847
832.051	4763
832.19	4755
832.329	4866
832.467	4733
832.606	4641
832.744	4736
832.883	4675
833.022	4744
833.16	4812
833.299	4805
833.437	4816
833.576	4805
833.714	4908
833.852	4892
833.991	4900
834.129	4965
834.267	4930
834.406	4900
834.544	5006
834.682	4991
834.821	5010
834.959	5189
835.097	4980
835.235	5166
835.373	5022
835.511	5067
835.65	5029
835.788	5010
835.926	4885
836.064	4824
836.202	4892
836.34	5117
836.478	5258
836.615	5121
836.753	5212
836.891	5242
837.029	5265
837.167	5193
837.305	5189
837.443	5147
837.58	5117
837.718	5220
837.856	5193
837.993	5159
838.131	5242
838.269	5277
838.406	5246
838.544	5181
838.681	5037
838.819	5025
838.956	4892
839.094	4908
839.231	4991
839.369	5052
839.506	5406
839.643	5326
839.781	5060
839.918	5006
840.055	5094
840.193	5102
840.33	5105
840.467	5140
840.604	5220
840.742	5402
840.879	5052
841.016	5086
841.153	5140
841.29	5353
841.427	5322
841.564	5277
841.701	5364
841.838	5250
841.975	5235
842.112	5250
842.249	5147
842.385	5136
842.522	5337
842.659	5143
842.796	5105
842.933	5166
843.069	5128
843.206	5178
843.343	5311
843.479	5280
843.616	5280
843.752	5041
843.889	5025
844.025	5208
844.162	5041
844.298	5220
844.435	5094
844.571	5018
844.708	5235
844.844	5357
844.98	5345
845.117	5318
845.253	5132
845.389	5083
845.525	5147
845.661	5140
845.798	4987
845.934	5132
846.07	5083
846.206	5159
846.342	5299
846.478	5216
846.614	5006
846.75	4999
846.886	4953
847.022	5132
847.158	5033
847.294	5056
847.429	5105
847.565	5064
847.701	5334
847.837	4915
847.972	4793
848.108	4968
848.244	4946
848.379	4805
848.515	4748
848.65	4725
848.786	4748
848.921	4759
849.057	4850
849.192	4862
849.328	4843
849.463	4839
849.598	4805
849.734	4744
849.869	4736
850.004	4653
850.14	4714
850.275	4569
850.41	4542
850.545	4550
850.68	4599
850.815	4615
850.95	4653
851.085	4862
851.22	4694
851.355	4683
851.49	4599
851.625	4641
851.76	4607
851.895	4550
852.03	4535
852.165	4596
852.299	4717
852.434	4763
852.569	4759
852.703	4755
852.838	4831
852.973	4919
853.107	4904
853.242	4691
853.376	4687
853.511	4519
853.645	4607
853.78	4778
853.914	4717
854.048	4733
854.183	4630
854.317	4706
854.451	4839
854.585	4664
854.72	4630
854.854	4767
854.988	4626
855.122	4596
855.256	4516
855.39	4653
855.524	4782
855.658	4748
855.792	4683
855.926	4740
856.06	4759
856.194	4767
856.327	4683
856.461	4634
856.595	4637
856.729	4611
856.862	4759
856.996	4717
857.13	4748
857.263	4763
857.397	4778
857.53	4691
857.664	4763
857.797	4763
857.931	4782
858.064	4653
858.197	4736
858.331	4653
858.464	4615
858.597	4531
858.731	4630
858.864	4618
858.997	4569
859.13	4660
859.263	4691
859.396	4691
859.529	4542
859.662	4569
859.795	4508
859.928	4573
860.061	4771
860.194	4774
860.327	4634
860.46	4561
860.592	4691
860.725	4672
860.858	4687
860.99	4618
861.123	4523
861.256	4550
861.388	4615
861.521	5212
861.653	4451
861.786	4447
861.918	4440
862.05	4481
862.183	4577
862.315	4573
862.447	4675
862.58	4504
862.712	4367
862.844	4337
862.976	4531
863.108	4394
863.24	4858
863.372	4337
863.504	4421
863.636	4413
863.768	4485
863.9	4447
864.032	4344
864.164	4386
864.296	4485
864.428	4516
864.559	4527
864.691	4538
864.823	4508
864.954	4470
865.086	4481
865.217	4459
865.349	4443
865.48	4428
865.612	4470
865.743	4668
865.875	4440
866.006	4478
866.137	4481
866.269	4428
866.4	4424
866.531	4356
866.662	4409
866.793	4413
866.924	4455
867.055	4481
867.186	4443
867.317	4413
867.448	4409
867.579	4360
867.71	4428
867.841	4344
867.972	4481
868.103	4451
868.233	4455
868.364	4424
868.495	4462
868.625	4653
868.756	4740
868.886	4546
869.017	4580
869.147	4759
869.278	4774
869.408	4634
869.539	4679
869.669	4714
869.799	4675
869.929	4706
870.06	4717
870.19	4965
870.32	4896
870.45	4980
870.58	5014
870.71	5083
870.84	5086
870.97	4984
871.1	4843
871.23	5113
871.36	5166
871.489	4995
871.619	5098
871.749	5075
871.879	5102
872.008	5136
872.138	5086
872.267	4984
872.397	4870
872.526	4847
872.656	4752
872.785	4797
872.915	4984
873.044	5022
873.173	4930
873.303	4980
873.432	4942
873.561	4976
873.69	4854
873.819	4862
873.948	4850
874.077	4824
874.206	4736
874.335	4778
874.464	4900
874.593	5006
874.722	4965
874.851	5094
874.979	5083
875.108	5048
875.237	4911
875.365	4854
875.494	4862
875.623	4946
875.751	4793
875.88	4889
876.008	4965
876.136	5048
876.265	5166
876.393	5277
876.521	5258
876.65	5235
876.778	5162
876.906	5014
877.034	5014
877.162	5014
877.29	5018
877.418	5006
877.546	5029
877.674	5006
877.802	4991
877.93	4984
878.058	4938
878.185	4866
878.313	4908
878.441	4957
878.568	4797
878.696	4854
878.824	4938
878.951	4987
879.079	5189
879.206	5322
879.333	5121
879.461	5018
879.588	5018
879.715	5105
879.842	5239
879.97	4995
880.097	4790
880.224	4771
880.351	4786
880.478	4752
880.605	4835
880.732	4828
880.859	5094
880.986	4892
881.112	4870
881.239	4774
881.366	4710
881.493	4645
881.619	4577
881.746	4656
881.872	4630
881.999	4641
882.125	4683
882.252	4725
882.378	4801
882.505	4972
882.631	4805
882.757	4653
882.883	4702
883.01	4736
883.136	4694
883.262	4596
883.388	4630
883.514	4805
883.64	4896
883.766	4809
883.892	4660
884.018	4736
884.143	4908
884.269	4999
884.395	4672
884.52	4622
884.646	4672
884.772	4599
884.897	4615
885.023	4622
885.148	4778
885.274	4862
885.399	4812
885.524	4740
885.65	4714
885.775	4755
885.9	4679
886.025	4854
886.15	4786
886.275	4736
886.4	4664
886.525	4729
886.65	4710
886.775	4679
886.9	4885
887.025	5045
887.149	4790
887.274	4630
887.399	4546
887.523	4584
887.648	4580
887.773	4569
887.897	4740
888.021	4717
888.146	4702
888.27	4805
888.395	4908
888.519	4816
888.643	4782
888.767	4790
888.891	4653
889.015	4672
889.139	4653
889.263	4630
889.387	4755
889.511	4877
889.635	4778
889.759	4634
889.883	4634
890.006	4694
890.13	4843
890.254	4615
890.377	4630
890.501	4577
890.624	4512
890.748	4618
890.871	4527
890.995	4455
891.118	4398
891.241	4451
891.364	4500
891.488	4645
891.611	4508
891.734	4523
891.857	4626
891.98	4519
892.103	4599
892.226	4592
892.349	4558
892.471	4409
892.594	4538
892.717	4584
892.839	4596
892.962	4565
893.085	4641
893.207	4580
893.33	4447
893.452	4531
893.575	4668
893.697	4546
893.819	4752
893.941	4805
894.064	4771
894.186	4546
894.308	4523
894.43	4771
894.552	4778
894.674	4725
894.796	4519
894.918	4577
895.04	4588
895.161	4721
895.283	4599
895.405	4577
895.526	4611
895.648	4641
895.769	4660
895.891	4744
896.012	4752
896.134	4721
896.255	4706
896.376	4607
896.498	4592
896.619	4649
896.74	4634
896.861	4637
896.982	4938
897.103	5105
897.224	4835
897.345	4782
897.466	4733
897.587	4717
897.708	4866
897.828	4763
897.949	4683
898.07	4542
898.19	4660
898.311	4820
898.431	4721
898.552	4740
898.672	4820
898.792	4809
898.913	4752
899.033	4626
899.153	4481
899.273	4424
899.393	4455
899.513	4554
899.633	4535
899.753	4550
899.873	4485
899.993	4554
900.113	4527
900.232	4573
900.352	4550
900.472	4432
900.591	4352
900.711	4489
900.83	4436
900.95	4607
901.069	4691
901.189	4508
901.308	4352
901.427	4291
901.546	4363
901.665	4478
901.784	4519
901.904	4402
902.023	4341
902.141	4147
902.26	4154
902.379	4310
902.498	4272
902.617	4238
902.735	4390
902.854	4409
902.973	4383
903.091	4253
903.21	4242
903.328	4284
903.446	4299
903.565	4230
903.683	4337
903.801	4249
903.919	4375
904.038	4440
904.156	4322
904.274	4440
904.392	4363
904.51	4421
904.627	4447
904.745	4580
904.863	4634
904.981	4394
905.098	4284
905.216	4341
905.334	4489
905.451	4462
905.569	4462
905.686	4580
905.803	4577
905.921	4371
906.038	4527
906.155	4485
906.272	4390
906.389	4474
906.506	4356
906.623	4348
906.74	4375
906.857	4261
906.974	4337
907.091	4592
907.208	4702
907.324	4577
907.441	4508
907.557	4356
907.674	4333
907.79	4341
907.907	4337
908.023	4519
908.139	4497
908.256	4466
908.372	4500
908.488	4443
908.604	4379
908.72	4318
908.836	4352
908.952	4360
909.068	4470
909.184	4596
909.3	4493
909.415	4611
909.531	4569
909.647	4337
909.762	4344
909.878	4318
909.993	4485
910.108	4413
910.224	4394
910.339	4428
910.454	4363
910.57	4363
910.685	4310
910.8	4679
910.915	4519
911.03	4478
911.145	4291
911.259	4310
911.374	4352
911.489	4287
911.604	4230
911.718	4135
911.833	4185
911.947	4082
912.062	4036
912.176	4188
912.291	4207
912.405	4261
912.519	4500
912.633	4531
912.748	4360
912.862	4287
912.976	4207
913.09	4055
913.204	4158
913.318	4249
913.431	4371
913.545	4375
913.659	4470
913.772	4348
913.886	4246
914	4227
914.113	4352
914.226	4394
914.34	4383
914.453	4223
914.566	4398
914.68	4253
914.793	4295
914.906	4177
915.019	4105
915.132	4086
915.245	4177
915.358	4215
915.47	4223
915.583	4261
915.696	4280
915.809	4390
915.921	4398
916.034	4284
916.146	4211
916.259	4211
916.371	4386
916.483	4299
916.595	4230
916.708	4306
916.82	4322
916.932	4344
917.044	4333
917.156	4360
917.268	4169
917.38	4246
917.491	4272
917.603	4352
917.715	4417
917.826	4447
917.938	4363
918.049	4276
918.161	4367
918.272	4561
918.384	4554
918.495	4440
918.606	4314
918.717	4310
918.828	4325
918.939	4352
919.05	4246
919.161	4291
919.272	4120
919.383	4223
919.494	4474
919.604	4645
919.715	4440
919.826	4367
919.936	4447
920.047	4527
920.157	4512
920.267	4679
920.378	4569
920.488	4527
920.598	4702
920.708	4843
920.818	4752
920.928	4744
921.038	4976
921.148	4889
921.258	4645
921.368	4535
921.477	4455
921.587	4417
921.697	4363
921.806	4535
921.916	4428
922.025	4284
922.134	4280
922.244	4261
922.353	4367
922.462	4150
922.571	4093
922.68	3983
922.789	3983
922.898	4063
923.007	3949
923.116	4048
923.224	4067
923.333	4036
923.442	3987
923.55	4010
923.659	4044
923.767	4101
923.876	3994
923.984	4128
924.092	3968
924.201	4067
924.309	4059
924.417	4112
924.525	4059
924.633	4074
924.741	4847
924.849	3884
924.956	4124
925.064	3979
925.172	3857
925.279	3941
925.387	4063
925.494	4059
925.602	4200
925.709	4185
925.816	4059
925.924	4131
926.031	4219
926.138	4192
926.245	4219
926.352	4074
926.459	4291
926.566	4310
926.673	4120
926.779	4124
926.886	4124
926.993	4002
927.099	3972
927.206	3968
927.312	3941
927.419	4086
927.525	4010
927.631	4101
927.737	3975
927.843	3953
927.95	3827
928.056	3998
928.162	4013
928.267	4097
928.373	4679
928.479	4112
928.585	3873
928.69	3979
928.796	4025
928.901	3941
929.007	3797
929.112	3991
929.218	3983
929.323	3937
929.428	3964
929.533	4105
929.638	3934
929.743	3945
929.848	4048
929.953	3979
930.058	3949
930.163	3770
930.267	3819
930.372	4032
930.477	3831
930.581	4048
930.685	3937
930.79	3854
930.894	3869
930.998	3850
931.103	4025
931.207	3698
931.311	3701
931.415	3720
931.519	3542
931.623	3561
