Data from test_V78500241_2456.txt Node
Date: Fri Mar 25 17:06:04 CST 2022
User: usil
Spectrometer: V785-0024
Trigger mode: 0
Integration Time (sec): 4.000000E-1
Scans to average: 1
Nonlinearity correction enabled: false
Boxcar width: 0
Storing dark spectrum: false
XAxis mode: Wavelengths
Number of Pixels in Spectrum: 1024
>>>>>Begin Spectral Data<<<<<
801.071	7951
801.214	8024
801.356	7822
801.499	7837
801.641	7849
801.783	7807
801.926	7925
802.068	7944
802.211	7989
802.353	7997
802.496	7822
802.638	7898
802.78	7940
802.923	7887
803.065	7837
803.208	7833
803.35	7913
803.492	8100
803.635	8237
803.777	8001
803.919	8111
804.061	8431
804.204	8145
804.346	8039
804.488	7989
804.63	8103
804.773	7993
804.915	8096
805.057	8282
805.199	8176
805.341	8195
805.483	8298
805.626	8229
805.768	8138
805.91	8218
806.052	8183
806.194	8111
806.336	8187
806.478	8123
806.62	8096
806.762	8123
806.904	8130
807.046	8438
807.188	8370
807.33	8282
807.472	8317
807.614	8176
807.756	8164
807.898	8050
808.04	7856
808.182	7887
808.324	7852
808.465	7849
808.607	8077
808.749	8142
808.891	8214
809.033	8336
809.174	8180
809.316	8073
809.458	8111
809.6	8077
809.741	8035
809.883	8039
810.025	8065
810.166	8012
810.308	7970
810.45	8027
810.591	7883
810.733	7731
810.875	7662
811.016	7567
811.158	7468
811.299	7586
811.441	7685
811.582	7681
811.724	7590
811.865	7518
812.007	7552
812.148	7563
812.29	7658
812.431	7719
812.573	7875
812.714	7989
812.855	8119
812.997	8187
813.138	8195
813.279	8206
813.421	8050
813.562	7970
813.703	7837
813.845	7757
813.986	7480
814.127	7259
814.268	7244
814.41	7194
814.551	7122
814.692	7270
814.833	7103
814.974	7091
815.115	7088
815.256	6977
815.397	6932
815.539	6989
815.68	6867
815.821	6745
815.962	6856
816.103	6829
816.244	6760
816.385	6635
816.526	6589
816.666	6521
816.807	6232
816.948	6467
817.089	6475
817.23	6506
817.371	6410
817.512	6372
817.653	6403
817.793	6369
817.934	6407
818.075	6437
818.216	6418
818.356	6426
818.497	6258
818.638	6079
818.778	6136
818.919	6152
819.06	6182
819.2	6323
819.341	6361
819.481	6277
819.622	6540
819.762	6719
819.903	6673
820.043	6570
820.184	6582
820.324	6635
820.465	6719
820.605	6730
820.746	6669
820.886	6544
821.026	6665
821.167	6688
821.307	6833
821.447	6768
821.588	6688
821.728	6578
821.868	6498
822.008	6285
822.149	6369
822.289	6365
822.429	6171
822.569	6102
822.709	6148
822.849	5942
822.99	5878
823.13	5961
823.27	5901
823.41	5775
823.55	5767
823.69	5737
823.83	5813
823.97	5703
824.11	5577
824.25	5570
824.389	5570
824.529	5604
824.669	5524
824.809	5623
824.949	5688
825.089	5668
825.228	5528
825.368	5421
825.508	5376
825.648	5406
825.787	5364
825.927	5364
826.067	5265
826.206	5265
826.346	5360
826.485	5398
826.625	5398
826.765	5520
826.904	5512
827.044	5242
827.183	5201
827.323	5155
827.462	5227
827.601	5132
827.741	5132
827.88	5204
828.02	5128
828.159	5201
828.298	5265
828.437	5353
828.577	5299
828.716	5455
828.855	5326
828.994	5170
829.134	5140
829.273	5197
829.412	5140
829.551	5124
829.69	5132
829.829	5208
829.968	5379
830.107	5250
830.246	5258
830.385	5197
830.524	5140
830.663	5064
830.802	4968
830.941	4870
831.08	4889
831.219	4927
831.357	4942
831.496	5170
831.635	4930
831.774	4862
831.913	4816
832.051	4755
832.19	4744
832.329	4847
832.467	4683
832.606	4634
832.744	4710
832.883	4744
833.022	4744
833.16	4778
833.299	4862
833.437	4805
833.576	4858
833.714	4843
833.852	4885
833.991	4881
834.129	4927
834.267	4927
834.406	4896
834.544	4968
834.682	5037
834.821	4934
834.959	5197
835.097	5022
835.235	5136
835.373	5060
835.511	5109
835.65	5006
835.788	5045
835.926	4854
836.064	4885
836.202	4934
836.34	5174
836.478	5208
836.615	5132
836.753	5231
836.891	5258
837.029	5231
837.167	5140
837.305	5193
837.443	5162
837.58	5071
837.718	5265
837.856	5159
837.993	5159
838.131	5201
838.269	5212
838.406	5223
838.544	5185
838.681	4995
838.819	5037
838.956	4911
839.094	4908
839.231	4987
839.369	5067
839.506	5421
839.643	5299
839.781	5071
839.918	5025
840.055	5094
840.193	5109
840.33	5124
840.467	5132
840.604	5174
840.742	5474
840.879	5056
841.016	5083
841.153	5143
841.29	5372
841.427	5364
841.564	5334
841.701	5330
841.838	5292
841.975	5189
842.112	5227
842.249	5109
842.385	5071
842.522	5284
842.659	5121
842.796	5143
842.933	5143
843.069	5105
843.206	5132
843.343	5292
843.479	5204
843.616	5242
843.752	5052
843.889	5052
844.025	5197
844.162	4999
844.298	5128
844.435	5033
844.571	5064
844.708	5189
844.844	5318
844.98	5368
845.117	5277
845.253	5159
845.389	5067
845.525	5166
845.661	5140
845.798	5003
845.934	5147
846.07	5041
846.206	5170
846.342	5288
846.478	5162
846.614	5006
846.75	4965
846.886	4984
847.022	5189
847.158	5018
847.294	5060
847.429	5086
847.565	5045
847.701	5341
847.837	4839
847.972	4828
848.108	4915
848.244	4930
848.379	4759
848.515	4702
848.65	4702
848.786	4729
848.921	4774
849.057	4866
849.192	4938
849.328	4866
849.463	4835
849.598	4805
849.734	4752
849.869	4649
850.004	4675
850.14	4649
850.275	4558
850.41	4516
850.545	4580
850.68	4573
850.815	4645
850.95	4611
851.085	4831
851.22	4736
851.355	4641
851.49	4607
851.625	4622
851.76	4607
851.895	4538
852.03	4538
852.165	4641
852.299	4759
852.434	4744
852.569	4752
852.703	4740
852.838	4820
852.973	4923
853.107	4866
853.242	4744
853.376	4687
853.511	4550
853.645	4592
853.78	4835
853.914	4694
854.048	4672
854.183	4611
854.317	4691
854.451	4816
854.585	4694
854.72	4630
854.854	4725
854.988	4599
855.122	4641
855.256	4527
855.39	4641
855.524	4755
855.658	4706
855.792	4721
855.926	4736
856.06	4729
856.194	4763
856.327	4687
856.461	4584
856.595	4637
856.729	4653
856.862	4729
856.996	4675
857.13	4706
857.263	4748
857.397	4759
857.53	4649
857.664	4687
857.797	4752
857.931	4790
858.064	4687
858.197	4755
858.331	4649
858.464	4603
858.597	4474
858.731	4626
858.864	4634
858.997	4535
859.13	4626
859.263	4668
859.396	4660
859.529	4599
859.662	4577
859.795	4546
859.928	4611
860.061	4771
860.194	4744
860.327	4569
860.46	4508
860.592	4786
860.725	4694
860.858	4698
860.99	4561
861.123	4554
861.256	4500
861.388	4565
861.521	5315
861.653	4504
861.786	4398
861.918	4413
862.05	4489
862.183	4504
862.315	4569
862.447	4603
862.58	4538
862.712	4371
862.844	4325
862.976	4485
863.108	4455
863.24	4740
863.372	4322
863.504	4440
863.636	4402
863.768	4504
863.9	4436
864.032	4398
864.164	4436
864.296	4474
864.428	4577
864.559	4565
864.691	4523
864.823	4523
864.954	4500
865.086	4523
865.217	4440
865.349	4428
865.48	4474
865.612	4493
865.743	4622
865.875	4440
866.006	4459
866.137	4451
866.269	4470
866.4	4466
866.531	4451
866.662	4402
866.793	4383
866.924	4398
867.055	4493
867.186	4451
867.317	4394
867.448	4348
867.579	4428
867.71	4402
867.841	4341
867.972	4485
868.103	4455
868.233	4383
868.364	4459
868.495	4527
868.625	4717
868.756	4729
868.886	4573
869.017	4607
869.147	4801
869.278	4790
869.408	4698
869.539	4618
869.669	4733
869.799	4656
869.929	4763
870.06	4706
870.19	4908
870.32	4938
870.45	4957
870.58	4999
870.71	5052
870.84	5079
870.97	4923
871.1	4900
871.23	5140
871.36	5098
871.489	4987
871.619	5075
871.749	5117
871.879	5132
872.008	5193
872.138	5067
872.267	4911
872.397	4889
872.526	4809
872.656	4687
872.785	4797
872.915	4934
873.044	5014
873.173	4892
873.303	4930
873.432	4957
873.561	4934
873.69	4870
873.819	4847
873.948	4911
874.077	4797
874.206	4774
874.335	4812
874.464	4911
874.593	5075
874.722	4942
874.851	5090
874.979	5037
875.108	5025
875.237	4904
875.365	4847
875.494	4873
875.623	4965
875.751	4816
875.88	4858
876.008	4968
876.136	5018
876.265	5204
876.393	5341
876.521	5269
876.65	5250
876.778	5174
876.906	5079
877.034	5060
877.162	5086
877.29	5025
877.418	5048
877.546	5045
877.674	5014
877.802	5067
877.93	4991
878.058	4934
878.185	4892
878.313	4965
878.441	5006
878.568	4790
878.696	4858
878.824	5010
878.951	4995
879.079	5071
879.206	5280
879.333	5140
879.461	4984
879.588	5003
879.715	5124
879.842	5212
879.97	5018
880.097	4809
880.224	4767
880.351	4828
880.478	4782
880.605	4839
880.732	4831
880.859	5109
880.986	4843
881.112	4896
881.239	4740
881.366	4683
881.493	4649
881.619	4584
881.746	4618
881.872	4630
881.999	4637
882.125	4649
882.252	4774
882.378	4866
882.505	4980
882.631	4793
882.757	4637
882.883	4748
883.01	4740
883.136	4641
883.262	4569
883.388	4645
883.514	4828
883.64	4877
883.766	4767
883.892	4679
884.018	4714
884.143	4881
884.269	4991
884.395	4656
884.52	4634
884.646	4618
884.772	4580
884.897	4516
885.023	4637
885.148	4805
885.274	4866
885.399	4797
885.524	4687
885.65	4683
885.775	4721
885.9	4634
886.025	4873
886.15	4782
886.275	4710
886.4	4626
886.525	4694
886.65	4694
886.775	4634
886.9	4889
887.025	5014
887.149	4797
887.274	4653
887.399	4611
887.523	4592
887.648	4546
887.773	4622
887.897	4694
888.021	4809
888.146	4611
888.27	4717
888.395	4809
888.519	4755
888.643	4786
888.767	4812
888.891	4683
889.015	4550
889.139	4630
889.263	4588
889.387	4790
889.511	4828
889.635	4771
889.759	4618
889.883	4660
890.006	4752
890.13	4854
890.254	4599
890.377	4679
890.501	4550
890.624	4531
890.748	4603
890.871	4554
890.995	4436
891.118	4375
891.241	4535
891.364	4535
891.488	4569
891.611	4508
891.734	4573
891.857	4615
891.98	4569
892.103	4683
892.226	4584
892.349	4550
892.471	4440
892.594	4519
892.717	4565
892.839	4630
892.962	4584
893.085	4664
893.207	4618
893.33	4485
893.452	4535
893.575	4668
893.697	4607
893.819	4809
893.941	4843
894.064	4763
894.186	4634
894.308	4611
894.43	4755
894.552	4870
894.674	4793
894.796	4554
894.918	4622
895.04	4592
895.161	4752
895.283	4694
895.405	4561
895.526	4679
895.648	4763
895.769	4744
895.891	4786
896.012	4782
896.134	4748
896.255	4733
896.376	4672
896.498	4660
896.619	4672
896.74	4637
896.861	4706
896.982	4961
897.103	5147
897.224	4900
897.345	4809
897.466	4740
897.587	4767
897.708	4927
897.828	4858
897.949	4710
898.07	4588
898.19	4672
898.311	4889
898.431	4721
898.552	4752
898.672	4873
898.792	4835
898.913	4793
899.033	4653
899.153	4550
899.273	4432
899.393	4523
899.513	4577
899.633	4554
899.753	4626
899.873	4554
899.993	4630
900.113	4573
900.232	4599
900.352	4618
900.472	4519
900.591	4455
900.711	4542
900.83	4478
900.95	4630
901.069	4698
901.189	4538
901.308	4363
901.427	4379
901.546	4413
901.665	4519
901.784	4565
901.904	4428
902.023	4367
902.141	4234
902.26	4196
902.379	4360
902.498	4306
902.617	4223
902.735	4394
902.854	4451
902.973	4459
903.091	4257
903.21	4192
903.328	4379
903.446	4325
903.565	4303
903.683	4413
903.801	4356
903.919	4405
904.038	4459
904.156	4356
904.274	4470
904.392	4432
904.51	4455
904.627	4523
904.745	4599
904.863	4649
904.981	4443
905.098	4348
905.216	4398
905.334	4455
905.451	4436
905.569	4455
905.686	4588
905.803	4599
905.921	4443
906.038	4558
906.155	4542
906.272	4447
906.389	4500
906.506	4405
906.623	4405
906.74	4421
906.857	4341
906.974	4424
907.091	4580
907.208	4687
907.324	4634
907.441	4516
907.557	4322
907.674	4371
907.79	4287
907.907	4371
908.023	4546
908.139	4516
908.256	4459
908.372	4508
908.488	4493
908.604	4409
908.72	4337
908.836	4432
908.952	4333
909.068	4398
909.184	4618
909.3	4504
909.415	4630
909.531	4561
909.647	4421
909.762	4413
909.878	4371
909.993	4462
910.108	4447
910.224	4493
910.339	4478
910.454	4451
910.57	4379
910.685	4344
910.8	4691
910.915	4698
911.03	4519
911.145	4344
911.259	4348
911.374	4428
911.489	4371
911.604	4314
911.718	4173
911.833	4272
911.947	4090
912.062	4082
912.176	4211
912.291	4306
912.405	4303
912.519	4516
912.633	4516
912.748	4390
912.862	4363
912.976	4204
913.09	4128
913.204	4196
913.318	4318
913.431	4383
913.545	4402
913.659	4466
913.772	4394
913.886	4287
914	4280
914.113	4383
914.226	4447
914.34	4413
914.453	4234
914.566	4466
914.68	4329
914.793	4371
914.906	4200
915.019	4177
915.132	4158
915.245	4223
915.358	4238
915.47	4299
915.583	4284
915.696	4341
915.809	4424
915.921	4474
916.034	4314
916.146	4257
916.259	4242
916.371	4371
916.483	4402
916.595	4276
916.708	4386
916.82	4344
916.932	4344
917.044	4363
917.156	4352
917.268	4249
917.38	4356
917.491	4329
917.603	4367
917.715	4440
917.826	4485
917.938	4360
918.049	4310
918.161	4432
918.272	4580
918.384	4584
918.495	4447
918.606	4333
918.717	4249
918.828	4333
918.939	4352
919.05	4284
919.161	4287
919.272	4154
919.383	4234
919.494	4508
919.604	4691
919.715	4447
919.826	4398
919.936	4398
920.047	4558
920.157	4504
920.267	4691
920.378	4554
920.488	4481
920.598	4763
920.708	4919
920.818	4820
920.928	4774
921.038	4991
921.148	4953
921.258	4634
921.368	4558
921.477	4550
921.587	4462
921.697	4409
921.806	4615
921.916	4470
922.025	4337
922.134	4322
922.244	4242
922.353	4333
922.462	4207
922.571	4112
922.68	3991
922.789	3979
922.898	4063
923.007	4029
923.116	4124
923.224	4074
923.333	4116
923.442	4002
923.55	3994
923.659	4090
923.767	4128
923.876	4055
923.984	4128
924.092	4029
924.201	4074
924.309	4135
924.417	4135
924.525	4063
924.633	4128
924.741	5124
924.849	3953
924.956	4166
925.064	3960
925.172	3930
925.279	4010
925.387	4086
925.494	4086
925.602	4196
925.709	4242
925.816	4055
925.924	4135
926.031	4249
926.138	4234
926.245	4227
926.352	4090
926.459	4234
926.566	4325
926.673	4162
926.779	4063
926.886	4131
926.993	4017
927.099	4010
927.206	3956
927.312	3949
927.419	4116
927.525	4048
927.631	4150
927.737	4002
927.843	3934
927.95	3899
928.056	3975
928.162	4032
928.267	4105
928.373	4717
928.479	4139
928.585	3888
928.69	4017
928.796	4074
928.901	3983
929.007	3892
929.112	4032
929.218	3998
929.323	3998
929.428	3930
929.533	4131
929.638	3892
929.743	3998
929.848	4074
929.953	3972
930.058	3953
930.163	3793
930.267	3838
930.372	4013
930.477	3850
930.581	4116
930.685	3964
930.79	3854
930.894	3930
930.998	3896
931.103	4093
931.207	3736
931.311	3724
931.415	3705
931.519	3564
931.623	3584
