Data from test_V78500241_2067.txt Node
Date: Fri Mar 25 17:03:22 CST 2022
User: usil
Spectrometer: V785-0024
Trigger mode: 0
Integration Time (sec): 4.000000E-1
Scans to average: 1
Nonlinearity correction enabled: false
Boxcar width: 0
Storing dark spectrum: false
XAxis mode: Wavelengths
Number of Pixels in Spectrum: 1024
>>>>>Begin Spectral Data<<<<<
801.071	7951
801.214	7947
801.356	7852
801.499	7868
801.641	7788
801.783	7818
801.926	7909
802.068	7909
802.211	8035
802.353	8020
802.496	7860
802.638	7830
802.78	7852
802.923	7917
803.065	7845
803.208	7837
803.35	7887
803.492	8016
803.635	8062
803.777	8005
803.919	8142
804.061	8469
804.204	8157
804.346	8100
804.488	8024
804.63	8077
804.773	7974
804.915	8027
805.057	8336
805.199	8176
805.341	8145
805.483	8153
805.626	8183
805.768	8218
805.91	8183
806.052	8172
806.194	8126
806.336	8305
806.478	8138
806.62	8100
806.762	8035
806.904	8282
807.046	8427
807.188	8313
807.33	8286
807.472	8347
807.614	8115
807.756	8100
807.898	8062
808.04	7940
808.182	7875
808.324	7822
808.465	7879
808.607	8043
808.749	8145
808.891	8210
809.033	8362
809.174	8233
809.316	8092
809.458	8100
809.6	8012
809.741	7989
809.883	8077
810.025	8012
810.166	8043
810.308	8039
810.45	7925
810.591	7795
810.733	7742
810.875	7677
811.016	7502
811.158	7472
811.299	7578
811.441	7715
811.582	7685
811.724	7578
811.865	7457
812.007	7609
812.148	7620
812.29	7594
812.431	7753
812.573	7826
812.714	7986
812.855	8103
812.997	8153
813.138	8275
813.279	8180
813.421	8119
813.562	7913
813.703	7772
813.845	7776
813.986	7407
814.127	7225
814.268	7168
814.41	7209
814.551	7209
814.692	7183
814.833	7118
814.974	7099
815.115	7091
815.256	6973
815.397	6882
815.539	6867
815.68	6772
815.821	6749
815.962	6848
816.103	6749
816.244	6719
816.385	6597
816.526	6604
816.666	6483
816.807	6308
816.948	6445
817.089	6437
817.23	6452
817.371	6372
817.512	6407
817.653	6361
817.793	6361
817.934	6391
818.075	6410
818.216	6426
818.356	6395
818.497	6277
818.638	6136
818.778	6163
818.919	6163
819.06	6106
819.2	6323
819.341	6311
819.481	6315
819.622	6544
819.762	6791
819.903	6703
820.043	6570
820.184	6551
820.324	6597
820.465	6654
820.605	6642
820.746	6646
820.886	6528
821.026	6658
821.167	6692
821.307	6779
821.447	6707
821.588	6635
821.728	6612
821.868	6490
822.008	6353
822.149	6414
822.289	6311
822.429	6178
822.569	6068
822.709	6068
822.849	5840
822.99	5904
823.13	5942
823.27	5847
823.41	5798
823.55	5779
823.69	5771
823.83	5745
823.97	5657
824.11	5528
824.25	5509
824.389	5539
824.529	5554
824.669	5490
824.809	5611
824.949	5680
825.089	5596
825.228	5562
825.368	5402
825.508	5322
825.648	5353
825.787	5383
825.927	5334
826.067	5326
826.206	5258
826.346	5376
826.485	5410
826.625	5357
826.765	5524
826.904	5482
827.044	5280
827.183	5178
827.323	5094
827.462	5254
827.601	5147
827.741	5174
827.88	5204
828.02	5124
828.159	5250
828.298	5307
828.437	5334
828.577	5269
828.716	5459
828.855	5299
828.994	5170
829.134	5162
829.273	5181
829.412	5140
829.551	5132
829.69	5109
829.829	5280
829.968	5341
830.107	5269
830.246	5227
830.385	5193
830.524	5128
830.663	5056
830.802	4919
830.941	4900
831.08	4896
831.219	4946
831.357	4980
831.496	5155
831.635	4900
831.774	4896
831.913	4862
832.051	4729
832.19	4744
832.329	4839
832.467	4641
832.606	4622
832.744	4725
832.883	4729
833.022	4691
833.16	4774
833.299	4854
833.437	4835
833.576	4771
833.714	4801
833.852	4885
833.991	4866
834.129	4961
834.267	4934
834.406	4881
834.544	5003
834.682	4953
834.821	4953
834.959	5143
835.097	5014
835.235	5117
835.373	5071
835.511	5086
835.65	5041
835.788	5006
835.926	4870
836.064	4870
836.202	4934
836.34	5162
836.478	5193
836.615	5102
836.753	5223
836.891	5212
837.029	5242
837.167	5193
837.305	5109
837.443	5136
837.58	5075
837.718	5220
837.856	5204
837.993	5189
838.131	5223
838.269	5185
838.406	5239
838.544	5170
838.681	5018
838.819	5025
838.956	4885
839.094	4961
839.231	4946
839.369	5033
839.506	5379
839.643	5246
839.781	5048
839.918	5048
840.055	5090
840.193	5086
840.33	5117
840.467	5117
840.604	5208
840.742	5433
840.879	5052
841.016	5048
841.153	5128
841.29	5311
841.427	5250
841.564	5311
841.701	5341
841.838	5284
841.975	5246
842.112	5223
842.249	5128
842.385	5105
842.522	5322
842.659	5181
842.796	5113
842.933	5212
843.069	5132
843.206	5143
843.343	5311
843.479	5239
843.616	5261
843.752	4999
843.889	4972
844.025	5193
844.162	4987
844.298	5178
844.435	5136
844.571	5064
844.708	5178
844.844	5258
844.98	5296
845.117	5307
845.253	5136
845.389	5102
845.525	5117
845.661	5090
845.798	5003
845.934	5109
846.07	5029
846.206	5220
846.342	5212
846.478	5136
846.614	5033
846.75	4938
846.886	4972
847.022	5140
847.158	4980
847.294	5052
847.429	5064
847.565	5025
847.701	5326
847.837	4873
847.972	4782
848.108	4915
848.244	4999
848.379	4774
848.515	4683
848.65	4698
848.786	4702
848.921	4736
849.057	4809
849.192	4843
849.328	4843
849.463	4805
849.598	4790
849.734	4786
849.869	4668
850.004	4592
850.14	4687
850.275	4599
850.41	4538
850.545	4561
850.68	4596
850.815	4596
850.95	4626
851.085	4801
851.22	4736
851.355	4706
851.49	4615
851.625	4626
851.76	4611
851.895	4550
852.03	4538
852.165	4675
852.299	4759
852.434	4786
852.569	4771
852.703	4778
852.838	4892
852.973	4980
853.107	4927
853.242	4786
853.376	4660
853.511	4561
853.645	4656
853.78	4824
853.914	4698
854.048	4672
854.183	4641
854.317	4706
854.451	4797
854.585	4733
854.72	4664
854.854	4797
854.988	4592
855.122	4683
855.256	4531
855.39	4668
855.524	4847
855.658	4786
855.792	4717
855.926	4755
856.06	4767
856.194	4820
856.327	4774
856.461	4622
856.595	4630
856.729	4637
856.862	4782
856.996	4729
857.13	4733
857.263	4793
857.397	4854
857.53	4702
857.664	4752
857.797	4786
857.931	4831
858.064	4717
858.197	4782
858.331	4706
858.464	4626
858.597	4535
858.731	4660
858.864	4675
858.997	4641
859.13	4679
859.263	4714
859.396	4725
859.529	4653
859.662	4577
859.795	4577
859.928	4668
860.061	4748
860.194	4778
860.327	4683
860.46	4641
860.592	4744
860.725	4725
860.858	4752
860.99	4615
861.123	4573
861.256	4580
861.388	4622
861.521	5376
861.653	4542
861.786	4504
861.918	4470
862.05	4607
862.183	4603
862.315	4645
862.447	4706
862.58	4622
862.712	4379
862.844	4333
862.976	4512
863.108	4481
863.24	4850
863.372	4386
863.504	4474
863.636	4428
863.768	4550
863.9	4497
864.032	4394
864.164	4447
864.296	4493
864.428	4561
864.559	4580
864.691	4565
864.823	4531
864.954	4577
865.086	4535
865.217	4474
865.349	4436
865.48	4440
865.612	4531
865.743	4672
865.875	4512
866.006	4470
866.137	4485
866.269	4497
866.4	4470
866.531	4428
866.662	4443
866.793	4367
866.924	4402
867.055	4516
867.186	4497
867.317	4440
867.448	4405
867.579	4398
867.71	4386
867.841	4409
867.972	4466
868.103	4474
868.233	4466
868.364	4447
868.495	4485
868.625	4649
868.756	4740
868.886	4611
869.017	4672
869.147	4767
869.278	4809
869.408	4649
869.539	4660
869.669	4782
869.799	4698
869.929	4820
870.06	4759
870.19	4949
870.32	4938
870.45	4976
870.58	4999
870.71	5109
870.84	5109
870.97	4938
871.1	4953
871.23	5159
871.36	5185
871.489	5048
871.619	5117
871.749	5159
871.879	5166
872.008	5239
872.138	5067
872.267	4991
872.397	4858
872.526	4816
872.656	4725
872.785	4896
872.915	5022
873.044	5048
873.173	5006
873.303	5022
873.432	4949
873.561	4968
873.69	4919
873.819	4850
873.948	4900
874.077	4801
874.206	4793
874.335	4839
874.464	4942
874.593	5094
874.722	4984
874.851	5124
874.979	5060
875.108	5090
875.237	4965
875.365	4908
875.494	4919
875.623	5018
875.751	4870
875.88	4965
876.008	4999
876.136	5102
876.265	5239
876.393	5288
876.521	5204
876.65	5239
876.778	5155
876.906	5064
877.034	5060
877.162	5075
877.29	5022
877.418	5098
877.546	5075
877.674	5060
877.802	5067
877.93	5037
878.058	4980
878.185	4877
878.313	4915
878.441	4991
878.568	4828
878.696	4927
878.824	5052
878.951	5033
879.079	5140
879.206	5322
879.333	5162
879.461	5041
879.588	5010
879.715	5143
879.842	5296
879.97	5018
880.097	4854
880.224	4759
880.351	4805
880.478	4870
880.605	4790
880.732	4820
880.859	5102
880.986	4915
881.112	4923
881.239	4847
881.366	4706
881.493	4599
881.619	4550
881.746	4691
881.872	4691
881.999	4683
882.125	4721
882.252	4805
882.378	4850
882.505	4980
882.631	4847
882.757	4691
882.883	4774
883.01	4778
883.136	4740
883.262	4649
883.388	4649
883.514	4858
883.64	4896
883.766	4828
883.892	4698
884.018	4733
884.143	4919
884.269	5060
884.395	4725
884.52	4660
884.646	4649
884.772	4615
884.897	4550
885.023	4702
885.148	4812
885.274	4915
885.399	4801
885.524	4801
885.65	4763
885.775	4809
885.9	4778
886.025	4885
886.15	4809
886.275	4736
886.4	4679
886.525	4729
886.65	4714
886.775	4706
886.9	4892
887.025	5098
887.149	4854
887.274	4687
887.399	4569
887.523	4580
887.648	4611
887.773	4622
887.897	4771
888.021	4805
888.146	4706
888.27	4805
888.395	4961
888.519	4820
888.643	4820
888.767	4877
888.891	4675
889.015	4618
889.139	4698
889.263	4675
889.387	4774
889.511	4896
889.635	4820
889.759	4664
889.883	4615
890.006	4767
890.13	4828
890.254	4645
890.377	4714
890.501	4558
890.624	4561
890.748	4660
890.871	4565
890.995	4455
891.118	4447
891.241	4550
891.364	4592
891.488	4603
891.611	4500
891.734	4523
891.857	4630
891.98	4558
892.103	4672
892.226	4637
892.349	4588
892.471	4443
892.594	4561
892.717	4634
892.839	4599
892.962	4622
893.085	4668
893.207	4649
893.33	4535
893.452	4554
893.575	4694
893.697	4630
893.819	4862
893.941	4877
894.064	4771
894.186	4618
894.308	4649
894.43	4755
894.552	4824
894.674	4774
894.796	4573
894.918	4637
895.04	4573
895.161	4752
895.283	4653
895.405	4588
895.526	4630
895.648	4736
895.769	4668
895.891	4702
896.012	4786
896.134	4759
896.255	4748
896.376	4672
896.498	4668
896.619	4664
896.74	4622
896.861	4668
896.982	4991
897.103	5105
897.224	4885
897.345	4797
897.466	4641
897.587	4691
897.708	4881
897.828	4805
897.949	4717
898.07	4584
898.19	4702
898.311	4847
898.431	4694
898.552	4786
898.672	4816
898.792	4828
898.913	4801
899.033	4653
899.153	4546
899.273	4432
899.393	4554
899.513	4527
899.633	4577
899.753	4554
899.873	4550
899.993	4580
900.113	4573
900.232	4611
900.352	4538
900.472	4519
900.591	4440
900.711	4558
900.83	4455
900.95	4611
901.069	4694
901.189	4573
901.308	4394
901.427	4337
901.546	4421
901.665	4516
901.784	4558
901.904	4428
902.023	4344
902.141	4219
902.26	4166
902.379	4280
902.498	4287
902.617	4242
902.735	4348
902.854	4413
902.973	4360
903.091	4234
903.21	4242
903.328	4329
903.446	4257
903.565	4280
903.683	4386
903.801	4276
903.919	4436
904.038	4500
904.156	4337
904.274	4470
904.392	4459
904.51	4478
904.627	4493
904.745	4573
904.863	4641
904.981	4432
905.098	4287
905.216	4424
905.334	4413
905.451	4402
905.569	4428
905.686	4550
905.803	4584
905.921	4436
906.038	4599
906.155	4523
906.272	4432
906.389	4462
906.506	4398
906.623	4352
906.74	4390
906.857	4295
906.974	4390
907.091	4577
907.208	4687
907.324	4569
907.441	4531
907.557	4386
907.674	4329
907.79	4348
907.907	4421
908.023	4565
908.139	4459
908.256	4443
908.372	4497
908.488	4474
908.604	4371
908.72	4329
908.836	4371
908.952	4405
909.068	4474
909.184	4580
909.3	4512
909.415	4558
909.531	4588
909.647	4386
909.762	4360
909.878	4367
909.993	4455
910.108	4421
910.224	4478
910.339	4546
910.454	4413
910.57	4413
910.685	4291
910.8	4683
910.915	4599
911.03	4485
911.145	4367
911.259	4322
911.374	4409
911.489	4322
911.604	4352
911.718	4211
911.833	4223
911.947	4074
912.062	4067
912.176	4276
912.291	4234
912.405	4242
912.519	4489
912.633	4504
912.748	4383
912.862	4314
912.976	4219
913.09	4109
913.204	4219
913.318	4284
913.431	4352
913.545	4436
913.659	4459
913.772	4367
913.886	4284
914	4227
914.113	4394
914.226	4447
914.34	4379
914.453	4230
914.566	4455
914.68	4318
914.793	4356
914.906	4139
915.019	4143
915.132	4120
915.245	4227
915.358	4166
915.47	4246
915.583	4306
915.696	4322
915.809	4421
915.921	4432
916.034	4268
916.146	4284
916.259	4276
916.371	4375
916.483	4379
916.595	4306
916.708	4314
916.82	4356
916.932	4344
917.044	4344
917.156	4383
917.268	4257
917.38	4333
917.491	4337
917.603	4348
917.715	4451
917.826	4402
917.938	4428
918.049	4295
918.161	4405
918.272	4580
918.384	4538
918.495	4459
918.606	4310
918.717	4314
918.828	4383
918.939	4417
919.05	4299
919.161	4322
919.272	4147
919.383	4265
919.494	4466
919.604	4641
919.715	4440
919.826	4417
919.936	4478
920.047	4546
920.157	4485
920.267	4706
920.378	4607
920.488	4565
920.598	4721
920.708	4968
920.818	4831
920.928	4809
921.038	4968
921.148	4938
921.258	4714
921.368	4615
921.477	4504
921.587	4546
921.697	4398
921.806	4656
921.916	4489
922.025	4333
922.134	4295
922.244	4303
922.353	4409
922.462	4173
922.571	4207
922.68	4074
922.789	4010
922.898	4078
923.007	4059
923.116	4192
923.224	4181
923.333	4135
923.442	4044
923.55	4051
923.659	4093
923.767	4169
923.876	4071
923.984	4219
924.092	4074
924.201	4143
924.309	4143
924.417	4181
924.525	4150
924.633	4227
924.741	5124
924.849	3983
924.956	4158
925.064	4044
925.172	3907
925.279	4044
925.387	4124
925.494	4139
925.602	4272
925.709	4303
925.816	4150
925.924	4272
926.031	4325
926.138	4253
926.245	4268
926.352	4166
926.459	4261
926.566	4367
926.673	4219
926.779	4139
926.886	4154
926.993	4063
927.099	4044
927.206	3998
927.312	4006
927.419	4105
927.525	4147
927.631	4097
927.737	4010
927.843	4021
927.95	3918
928.056	4025
928.162	4025
928.267	4055
928.373	4660
928.479	4143
928.585	3960
928.69	4063
928.796	4112
928.901	4040
929.007	3888
929.112	4071
929.218	3994
929.323	4032
929.428	3998
929.533	4169
929.638	3994
929.743	4036
929.848	4139
929.953	4055
930.058	4010
930.163	3823
930.267	3903
930.372	4063
930.477	3873
930.581	4105
930.685	3991
930.79	3896
930.894	3968
930.998	3949
931.103	4051
931.207	3778
931.311	3724
931.415	3751
931.519	3568
931.623	3629
