Data from test_V78500241_1020.txt Node
Date: Fri Mar 25 16:56:05 CST 2022
User: usil
Spectrometer: V785-0024
Trigger mode: 0
Integration Time (sec): 4.000000E-1
Scans to average: 1
Nonlinearity correction enabled: false
Boxcar width: 0
Storing dark spectrum: false
XAxis mode: Wavelengths
Number of Pixels in Spectrum: 1024
>>>>>Begin Spectral Data<<<<<
801.071	7982
801.214	7963
801.356	7860
801.499	7803
801.641	7780
801.783	7795
801.926	7890
802.068	7894
802.211	7955
802.353	7978
802.496	7814
802.638	7845
802.78	7887
802.923	7917
803.065	7913
803.208	7940
803.35	7997
803.492	8088
803.635	8176
803.777	8016
803.919	8096
804.061	8393
804.204	8130
804.346	8039
804.488	7986
804.63	8107
804.773	8005
804.915	8054
805.057	8221
805.199	8138
805.341	8183
805.483	8225
805.626	8164
805.768	8149
805.91	8229
806.052	8229
806.194	8031
806.336	8259
806.478	8035
806.62	8103
806.762	8180
806.904	8290
807.046	8400
807.188	8286
807.33	8259
807.472	8244
807.614	8149
807.756	8039
807.898	8024
808.04	7898
808.182	7894
808.324	7890
808.465	7906
808.607	8062
808.749	8088
808.891	8187
809.033	8320
809.174	8248
809.316	8111
809.458	8027
809.6	8058
809.741	8005
809.883	8008
810.025	8016
810.166	7978
810.308	8020
810.45	8020
810.591	7906
810.733	7685
810.875	7643
811.016	7487
811.158	7457
811.299	7548
811.441	7700
811.582	7655
811.724	7639
811.865	7521
812.007	7597
812.148	7590
812.29	7616
812.431	7731
812.573	7879
812.714	7947
812.855	8065
812.997	8172
813.138	8317
813.279	8206
813.421	8111
813.562	7993
813.703	7890
813.845	7776
813.986	7499
814.127	7225
814.268	7209
814.41	7217
814.551	7069
814.692	7099
814.833	7042
814.974	7061
815.115	7149
815.256	6985
815.397	6939
815.539	6894
815.68	6871
815.821	6760
815.962	6821
816.103	6776
816.244	6738
816.385	6646
816.526	6616
816.666	6506
816.807	6251
816.948	6445
817.089	6521
817.23	6471
817.371	6342
817.512	6395
817.653	6388
817.793	6369
817.934	6414
818.075	6426
818.216	6429
818.356	6380
818.497	6163
818.638	6102
818.778	6110
818.919	6155
819.06	6262
819.2	6304
819.341	6331
819.481	6273
819.622	6521
819.762	6730
819.903	6646
820.043	6593
820.184	6502
820.324	6612
820.465	6662
820.605	6662
820.746	6608
820.886	6528
821.026	6700
821.167	6677
821.307	6798
821.447	6745
821.588	6620
821.728	6559
821.868	6551
822.008	6300
822.149	6372
822.289	6334
822.429	6125
822.569	6083
822.709	6144
822.849	5916
822.99	5923
823.13	5893
823.27	5908
823.41	5775
823.55	5802
823.69	5756
823.83	5771
823.97	5699
824.11	5520
824.25	5490
824.389	5532
824.529	5524
824.669	5528
824.809	5608
824.949	5638
825.089	5627
825.228	5585
825.368	5410
825.508	5360
825.648	5360
825.787	5391
825.927	5417
826.067	5311
826.206	5311
826.346	5349
826.485	5402
826.625	5421
826.765	5585
826.904	5471
827.044	5246
827.183	5193
827.323	5132
827.462	5254
827.601	5143
827.741	5178
827.88	5227
828.02	5064
828.159	5193
828.298	5277
828.437	5368
828.577	5273
828.716	5474
828.855	5261
828.994	5140
829.134	5140
829.273	5174
829.412	5132
829.551	5136
829.69	5174
829.829	5235
829.968	5376
830.107	5239
830.246	5296
830.385	5178
830.524	5140
830.663	5079
830.802	4938
830.941	4870
831.08	4885
831.219	4999
831.357	4942
831.496	5075
831.635	4911
831.774	4858
831.913	4839
832.051	4725
832.19	4774
832.329	4790
832.467	4698
832.606	4565
832.744	4710
832.883	4710
833.022	4683
833.16	4778
833.299	4793
833.437	4824
833.576	4805
833.714	4839
833.852	4858
833.991	4847
834.129	4965
834.267	4923
834.406	4896
834.544	4984
834.682	4991
834.821	4961
834.959	5185
835.097	4961
835.235	5174
835.373	5121
835.511	5098
835.65	5003
835.788	5067
835.926	4908
836.064	4873
836.202	4919
836.34	5136
836.478	5223
836.615	5155
836.753	5162
836.891	5311
837.029	5208
837.167	5189
837.305	5185
837.443	5132
837.58	5075
837.718	5239
837.856	5159
837.993	5113
838.131	5193
838.269	5155
838.406	5178
838.544	5185
838.681	4953
838.819	4987
838.956	4915
839.094	4839
839.231	4984
839.369	5102
839.506	5391
839.643	5227
839.781	5018
839.918	4965
840.055	5083
840.193	5067
840.33	5105
840.467	5143
840.604	5162
840.742	5372
840.879	5056
841.016	5071
841.153	5155
841.29	5349
841.427	5341
841.564	5284
841.701	5330
841.838	5277
841.975	5185
842.112	5254
842.249	5147
842.385	5086
842.522	5288
842.659	5166
842.796	5201
842.933	5212
843.069	5102
843.206	5143
843.343	5269
843.479	5261
843.616	5220
843.752	5006
843.889	5010
844.025	5159
844.162	5010
844.298	5185
844.435	5067
844.571	5025
844.708	5162
844.844	5261
844.98	5334
845.117	5269
845.253	5147
845.389	5075
845.525	5098
845.661	5109
845.798	5022
845.934	5174
846.07	5064
846.206	5105
846.342	5258
846.478	5189
846.614	4995
846.75	4980
846.886	4953
847.022	5113
847.158	5048
847.294	5022
847.429	5048
847.565	5018
847.701	5330
847.837	4919
847.972	4771
848.108	4961
848.244	4919
848.379	4748
848.515	4698
848.65	4702
848.786	4786
848.921	4797
849.057	4858
849.192	4908
849.328	4809
849.463	4831
849.598	4740
849.734	4805
849.869	4691
850.004	4588
850.14	4653
850.275	4607
850.41	4523
850.545	4542
850.68	4580
850.815	4622
850.95	4599
851.085	4831
851.22	4694
851.355	4710
851.49	4577
851.625	4596
851.76	4653
851.895	4538
852.03	4561
852.165	4622
852.299	4748
852.434	4778
852.569	4733
852.703	4755
852.838	4831
852.973	4938
853.107	4896
853.242	4744
853.376	4660
853.511	4523
853.645	4561
853.78	4843
853.914	4596
854.048	4668
854.183	4615
854.317	4637
854.451	4809
854.585	4679
854.72	4653
854.854	4740
854.988	4611
855.122	4584
855.256	4519
855.39	4626
855.524	4721
855.658	4702
855.792	4672
855.926	4740
856.06	4763
856.194	4752
856.327	4668
856.461	4603
856.595	4596
856.729	4615
856.862	4729
856.996	4672
857.13	4721
857.263	4778
857.397	4820
857.53	4660
857.664	4725
857.797	4664
857.931	4755
858.064	4675
858.197	4748
858.331	4637
858.464	4599
858.597	4523
858.731	4592
858.864	4607
858.997	4588
859.13	4653
859.263	4679
859.396	4649
859.529	4565
859.662	4519
859.795	4535
859.928	4649
860.061	4752
860.194	4786
860.327	4569
860.46	4546
860.592	4687
860.725	4717
860.858	4729
860.99	4569
861.123	4523
861.256	4489
861.388	4569
861.521	5280
861.653	4538
861.786	4413
861.918	4443
862.05	4538
862.183	4531
862.315	4561
862.447	4645
862.58	4508
862.712	4402
862.844	4344
862.976	4508
863.108	4455
863.24	4873
863.372	4356
863.504	4390
863.636	4394
863.768	4478
863.9	4443
864.032	4394
864.164	4390
864.296	4516
864.428	4531
864.559	4538
864.691	4497
864.823	4500
864.954	4459
865.086	4516
865.217	4462
865.349	4443
865.48	4478
865.612	4466
865.743	4611
865.875	4413
866.006	4413
866.137	4470
866.269	4424
866.4	4375
866.531	4455
866.662	4383
866.793	4436
866.924	4402
867.055	4451
867.186	4474
867.317	4379
867.448	4352
867.579	4421
867.71	4394
867.841	4295
867.972	4447
868.103	4440
868.233	4474
868.364	4466
868.495	4451
868.625	4607
868.756	4763
868.886	4542
869.017	4596
869.147	4752
869.278	4809
869.408	4668
869.539	4645
869.669	4706
869.799	4630
869.929	4786
870.06	4759
870.19	4930
870.32	4961
870.45	4881
870.58	5029
870.71	5079
870.84	5067
870.97	4938
871.1	4927
871.23	5105
871.36	5109
871.489	5022
871.619	5022
871.749	5098
871.879	5132
872.008	5124
872.138	5018
872.267	4961
872.397	4828
872.526	4755
872.656	4694
872.785	4828
872.915	4991
873.044	4961
873.173	4911
873.303	4991
873.432	4900
873.561	4949
873.69	4904
873.819	4820
873.948	4835
874.077	4812
874.206	4755
874.335	4767
874.464	4896
874.593	5033
874.722	4938
874.851	5075
874.979	5045
875.108	5045
875.237	4877
875.365	4885
875.494	4930
875.623	4980
875.751	4797
875.88	4873
876.008	4942
876.136	5102
876.265	5189
876.393	5288
876.521	5212
876.65	5189
876.778	5155
876.906	5048
877.034	4946
877.162	5060
877.29	4938
877.418	5022
877.546	4961
877.674	4995
877.802	5052
877.93	4976
878.058	4892
878.185	4892
878.313	4927
878.441	4957
878.568	4786
878.696	4873
878.824	4923
878.951	4980
879.079	5109
879.206	5246
879.333	5067
879.461	4991
879.588	4923
879.715	5121
879.842	5189
879.97	5037
880.097	4752
880.224	4786
880.351	4828
880.478	4839
880.605	4786
880.732	4805
880.859	5075
880.986	4843
881.112	4847
881.239	4812
881.366	4679
881.493	4615
881.619	4561
881.746	4664
881.872	4649
881.999	4698
882.125	4672
882.252	4793
882.378	4850
882.505	4961
882.631	4812
882.757	4622
882.883	4736
883.01	4725
883.136	4622
883.262	4592
883.388	4607
883.514	4767
883.64	4847
883.766	4809
883.892	4622
884.018	4679
884.143	4892
884.269	4976
884.395	4645
884.52	4607
884.646	4615
884.772	4573
884.897	4535
885.023	4702
885.148	4793
885.274	4885
885.399	4774
885.524	4736
885.65	4755
885.775	4698
885.9	4744
886.025	4835
886.15	4774
886.275	4740
886.4	4664
886.525	4752
886.65	4664
886.775	4675
886.9	4866
887.025	5045
887.149	4748
887.274	4660
887.399	4596
887.523	4584
887.648	4535
887.773	4565
887.897	4771
888.021	4744
888.146	4679
888.27	4824
888.395	4892
888.519	4778
888.643	4752
888.767	4809
888.891	4664
889.015	4573
889.139	4637
889.263	4618
889.387	4698
889.511	4862
889.635	4805
889.759	4622
889.883	4645
890.006	4721
890.13	4793
890.254	4641
890.377	4645
890.501	4489
890.624	4519
890.748	4561
890.871	4481
890.995	4428
891.118	4413
891.241	4519
891.364	4497
891.488	4645
891.611	4504
891.734	4561
891.857	4615
891.98	4519
892.103	4710
892.226	4607
892.349	4527
892.471	4379
892.594	4508
892.717	4588
892.839	4558
892.962	4573
893.085	4645
893.207	4626
893.33	4417
893.452	4485
893.575	4653
893.697	4558
893.819	4790
893.941	4831
894.064	4793
894.186	4538
894.308	4535
894.43	4702
894.552	4831
894.674	4763
894.796	4504
894.918	4599
895.04	4535
895.161	4691
895.283	4626
895.405	4546
895.526	4615
895.648	4649
895.769	4645
895.891	4725
896.012	4698
896.134	4740
896.255	4664
896.376	4615
896.498	4599
896.619	4664
896.74	4565
896.861	4634
896.982	4892
897.103	5041
897.224	4755
897.345	4752
897.466	4653
897.587	4733
897.708	4850
897.828	4759
897.949	4630
898.07	4573
898.19	4580
898.311	4763
898.431	4660
898.552	4774
898.672	4744
898.792	4809
898.913	4698
899.033	4596
899.153	4554
899.273	4390
899.393	4523
899.513	4512
899.633	4481
899.753	4535
899.873	4504
899.993	4561
900.113	4535
900.232	4588
900.352	4516
900.472	4519
900.591	4413
900.711	4459
900.83	4470
900.95	4607
901.069	4634
901.189	4531
901.308	4337
901.427	4280
901.546	4386
901.665	4481
901.784	4497
901.904	4356
902.023	4303
902.141	4173
902.26	4158
902.379	4280
902.498	4249
902.617	4181
902.735	4367
902.854	4379
902.973	4360
903.091	4207
903.21	4223
903.328	4322
903.446	4265
903.565	4249
903.683	4287
903.801	4265
903.919	4383
904.038	4375
904.156	4314
904.274	4405
904.392	4409
904.51	4443
904.627	4474
904.745	4516
904.863	4596
904.981	4398
905.098	4329
905.216	4371
905.334	4371
905.451	4474
905.569	4402
905.686	4561
905.803	4573
905.921	4390
906.038	4538
906.155	4470
906.272	4451
906.389	4451
906.506	4318
906.623	4383
906.74	4459
906.857	4310
906.974	4360
907.091	4550
907.208	4649
907.324	4569
907.441	4554
907.557	4356
907.674	4360
907.79	4303
907.907	4356
908.023	4516
908.139	4451
908.256	4447
908.372	4508
908.488	4428
908.604	4318
908.72	4314
908.836	4390
908.952	4405
909.068	4421
909.184	4558
909.3	4459
909.415	4565
909.531	4512
909.647	4348
909.762	4360
909.878	4299
909.993	4428
910.108	4428
910.224	4413
910.339	4447
910.454	4390
910.57	4379
910.685	4280
910.8	4653
910.915	4565
911.03	4443
911.145	4276
911.259	4291
911.374	4367
911.489	4268
911.604	4261
911.718	4147
911.833	4215
911.947	4082
912.062	4017
912.176	4227
912.291	4215
912.405	4230
912.519	4447
912.633	4493
912.748	4348
912.862	4227
912.976	4169
913.09	4074
913.204	4124
913.318	4249
913.431	4379
913.545	4325
913.659	4432
913.772	4383
913.886	4238
914	4230
914.113	4341
914.226	4421
914.34	4356
914.453	4242
914.566	4409
914.68	4306
914.793	4325
914.906	4177
915.019	4116
915.132	4040
915.245	4188
915.358	4192
915.47	4230
915.583	4272
915.696	4299
915.809	4417
915.921	4436
916.034	4227
916.146	4242
916.259	4200
916.371	4325
916.483	4348
916.595	4276
916.708	4306
916.82	4284
916.932	4284
917.044	4329
917.156	4306
917.268	4246
917.38	4238
917.491	4303
917.603	4306
917.715	4405
917.826	4386
917.938	4367
918.049	4299
918.161	4363
918.272	4599
918.384	4542
918.495	4417
918.606	4261
918.717	4272
918.828	4333
918.939	4363
919.05	4314
919.161	4314
919.272	4147
919.383	4192
919.494	4421
919.604	4660
919.715	4360
919.826	4337
919.936	4390
920.047	4527
920.157	4474
920.267	4691
920.378	4550
920.488	4508
920.598	4733
920.708	4843
920.818	4763
920.928	4786
921.038	4911
921.148	4904
921.258	4622
921.368	4512
921.477	4462
921.587	4451
921.697	4371
921.806	4531
921.916	4421
922.025	4272
922.134	4246
922.244	4188
922.353	4333
922.462	4196
922.571	4135
922.68	4021
922.789	3972
922.898	4093
923.007	4032
923.116	4074
923.224	4074
923.333	4040
923.442	3983
923.55	3945
923.659	4006
923.767	4063
923.876	3983
923.984	4063
924.092	4006
924.201	4059
924.309	4109
924.417	4112
924.525	4025
924.633	4116
924.741	5037
924.849	3899
924.956	4116
925.064	3945
925.172	3873
925.279	3956
925.387	4006
925.494	4025
925.602	4192
925.709	4219
925.816	4078
925.924	4139
926.031	4200
926.138	4173
926.245	4185
926.352	4055
926.459	4268
926.566	4325
926.673	4143
926.779	4044
926.886	4105
926.993	3926
927.099	3975
927.206	3915
927.312	3930
927.419	4025
927.525	3991
927.631	4139
927.737	3960
927.843	3899
927.95	3831
928.056	3918
928.162	3953
928.267	4013
928.373	4702
928.479	4067
928.585	3857
928.69	4002
928.796	4048
928.901	3972
929.007	3827
929.112	3979
929.218	3960
929.323	3907
929.428	3926
929.533	4059
929.638	3907
929.743	3934
929.848	4040
929.953	4017
930.058	3892
930.163	3812
930.267	3819
930.372	3960
930.477	3816
930.581	4120
930.685	3979
930.79	3812
930.894	3880
930.998	3854
931.103	3979
931.207	3743
931.311	3679
931.415	3637
931.519	3553
931.623	3526
