Data from test_V78500241_2196.txt Node
Date: Fri Mar 25 17:04:16 CST 2022
User: usil
Spectrometer: V785-0024
Trigger mode: 0
Integration Time (sec): 4.000000E-1
Scans to average: 1
Nonlinearity correction enabled: false
Boxcar width: 0
Storing dark spectrum: false
XAxis mode: Wavelengths
Number of Pixels in Spectrum: 1024
>>>>>Begin Spectral Data<<<<<
801.071	8039
801.214	8008
801.356	7852
801.499	7822
801.641	7826
801.783	7841
801.926	7951
802.068	7913
802.211	7898
802.353	8012
802.496	7765
802.638	7803
802.78	7814
802.923	7898
803.065	7837
803.208	7883
803.35	7959
803.492	8050
803.635	8130
803.777	8073
803.919	8123
804.061	8511
804.204	8138
804.346	8077
804.488	7959
804.63	8081
804.773	7989
804.915	8073
805.057	8275
805.199	8187
805.341	8172
805.483	8252
805.626	8199
805.768	8145
805.91	8199
806.052	8153
806.194	8100
806.336	8298
806.478	8035
806.62	8043
806.762	8225
806.904	8290
807.046	8473
807.188	8294
807.33	8328
807.472	8305
807.614	8176
807.756	8145
807.898	7986
808.04	7879
808.182	7830
808.324	7856
808.465	7925
808.607	8050
808.749	8119
808.891	8153
809.033	8309
809.174	8252
809.316	8062
809.458	8084
809.6	8035
809.741	8043
809.883	8096
810.025	8065
810.166	8031
810.308	8054
810.45	7986
810.591	7875
810.733	7772
810.875	7696
811.016	7506
811.158	7430
811.299	7495
811.441	7738
811.582	7685
811.724	7525
811.865	7521
812.007	7624
812.148	7571
812.29	7601
812.431	7776
812.573	7883
812.714	7921
812.855	8111
812.997	8199
813.138	8271
813.279	8050
813.421	8092
813.562	7967
813.703	7906
813.845	7761
813.986	7453
814.127	7247
814.268	7194
814.41	7179
814.551	7198
814.692	7209
814.833	7190
814.974	7080
815.115	7107
815.256	6973
815.397	6954
815.539	6962
815.68	6787
815.821	6741
815.962	6844
816.103	6814
816.244	6726
816.385	6589
816.526	6585
816.666	6426
816.807	6285
816.948	6467
817.089	6498
817.23	6437
817.371	6376
817.512	6418
817.653	6365
817.793	6311
817.934	6395
818.075	6475
818.216	6498
818.356	6422
818.497	6258
818.638	6136
818.778	6167
818.919	6129
819.06	6102
819.2	6277
819.341	6331
819.481	6429
819.622	6513
819.762	6764
819.903	6703
820.043	6544
820.184	6551
820.324	6642
820.465	6688
820.605	6696
820.746	6681
820.886	6521
821.026	6662
821.167	6665
821.307	6768
821.447	6749
821.588	6684
821.728	6612
821.868	6502
822.008	6346
822.149	6365
822.289	6357
822.429	6159
822.569	6083
822.709	6106
822.849	5912
822.99	5874
823.13	5912
823.27	5897
823.41	5809
823.55	5847
823.69	5771
823.83	5786
823.97	5661
824.11	5539
824.25	5554
824.389	5535
824.529	5585
824.669	5566
824.809	5619
824.949	5623
825.089	5604
825.228	5573
825.368	5444
825.508	5357
825.648	5383
825.787	5368
825.927	5383
826.067	5311
826.206	5311
826.346	5436
826.485	5417
826.625	5410
826.765	5566
826.904	5452
827.044	5223
827.183	5178
827.323	5109
827.462	5216
827.601	5159
827.741	5128
827.88	5242
828.02	5128
828.159	5277
828.298	5277
828.437	5341
828.577	5299
828.716	5493
828.855	5341
828.994	5193
829.134	5162
829.273	5258
829.412	5117
829.551	5178
829.69	5121
829.829	5223
829.968	5379
830.107	5246
830.246	5318
830.385	5178
830.524	5136
830.663	5105
830.802	4957
830.941	4896
831.08	4831
831.219	4980
831.357	4984
831.496	5113
831.635	4953
831.774	4858
831.913	4843
832.051	4714
832.19	4774
832.329	4889
832.467	4683
832.606	4558
832.744	4740
832.883	4733
833.022	4733
833.16	4755
833.299	4854
833.437	4828
833.576	4881
833.714	4835
833.852	4847
833.991	4885
834.129	4968
834.267	4957
834.406	4889
834.544	4957
834.682	4999
834.821	4946
834.959	5162
835.097	4965
835.235	5189
835.373	5094
835.511	5090
835.65	5056
835.788	5037
835.926	4854
836.064	4858
836.202	4908
836.34	5136
836.478	5261
836.615	5147
836.753	5181
836.891	5311
837.029	5242
837.167	5155
837.305	5132
837.443	5117
837.58	5121
837.718	5235
837.856	5208
837.993	5117
838.131	5223
838.269	5185
838.406	5227
838.544	5159
838.681	5033
838.819	4999
838.956	4896
839.094	4877
839.231	4991
839.369	5056
839.506	5467
839.643	5265
839.781	5071
839.918	5003
840.055	5075
840.193	5079
840.33	5075
840.467	5132
840.604	5193
840.742	5436
840.879	5075
841.016	5071
841.153	5124
841.29	5315
841.427	5315
841.564	5265
841.701	5357
841.838	5292
841.975	5208
842.112	5239
842.249	5132
842.385	5140
842.522	5296
842.659	5174
842.796	5174
842.933	5189
843.069	5113
843.206	5124
843.343	5280
843.479	5261
843.616	5223
843.752	5025
843.889	5079
844.025	5223
844.162	5022
844.298	5193
844.435	5052
844.571	5052
844.708	5166
844.844	5258
844.98	5330
845.117	5250
845.253	5170
845.389	5086
845.525	5162
845.661	5109
845.798	5086
845.934	5151
846.07	5025
846.206	5185
846.342	5242
846.478	5193
846.614	4995
846.75	4987
846.886	4991
847.022	5140
847.158	5010
847.294	5056
847.429	5109
847.565	5064
847.701	5299
847.837	4866
847.972	4790
848.108	4953
848.244	4968
848.379	4740
848.515	4736
848.65	4736
848.786	4771
848.921	4782
849.057	4919
849.192	4870
849.328	4816
849.463	4831
849.598	4820
849.734	4782
849.869	4717
850.004	4664
850.14	4618
850.275	4588
850.41	4565
850.545	4569
850.68	4637
850.815	4626
850.95	4588
851.085	4854
851.22	4744
851.355	4641
851.49	4645
851.625	4596
851.76	4592
851.895	4561
852.03	4523
852.165	4649
852.299	4729
852.434	4809
852.569	4725
852.703	4752
852.838	4820
852.973	4957
853.107	4892
853.242	4763
853.376	4656
853.511	4519
853.645	4580
853.78	4767
853.914	4672
854.048	4702
854.183	4641
854.317	4675
854.451	4839
854.585	4675
854.72	4668
854.854	4691
854.988	4584
855.122	4660
855.256	4546
855.39	4672
855.524	4767
855.658	4725
855.792	4721
855.926	4725
856.06	4729
856.194	4793
856.327	4725
856.461	4649
856.595	4622
856.729	4599
856.862	4740
856.996	4706
857.13	4656
857.263	4755
857.397	4805
857.53	4656
857.664	4717
857.797	4733
857.931	4782
858.064	4641
858.197	4774
858.331	4664
858.464	4618
858.597	4523
858.731	4596
858.864	4653
858.997	4561
859.13	4653
859.263	4649
859.396	4694
859.529	4580
859.662	4550
859.795	4550
859.928	4660
860.061	4744
860.194	4759
860.327	4569
860.46	4558
860.592	4687
860.725	4721
860.858	4793
860.99	4546
861.123	4497
861.256	4558
861.388	4656
861.521	5425
861.653	4481
861.786	4478
861.918	4451
862.05	4523
862.183	4538
862.315	4611
862.447	4637
862.58	4577
862.712	4402
862.844	4341
862.976	4455
863.108	4474
863.24	4710
863.372	4337
863.504	4443
863.636	4428
863.768	4485
863.9	4417
864.032	4329
864.164	4413
864.296	4478
864.428	4523
864.559	4516
864.691	4508
864.823	4500
864.954	4462
865.086	4569
865.217	4462
865.349	4421
865.48	4459
865.612	4462
865.743	4637
865.875	4440
866.006	4432
866.137	4474
866.269	4383
866.4	4432
866.531	4413
866.662	4421
866.793	4428
866.924	4398
867.055	4508
867.186	4481
867.317	4432
867.448	4383
867.579	4436
867.71	4383
867.841	4348
867.972	4440
868.103	4455
868.233	4451
868.364	4451
868.495	4497
868.625	4675
868.756	4759
868.886	4538
869.017	4603
869.147	4782
869.278	4717
869.408	4641
869.539	4607
869.669	4725
869.799	4626
869.929	4771
870.06	4725
870.19	4908
870.32	4885
870.45	4949
870.58	5018
870.71	5102
870.84	5075
870.97	4911
871.1	4896
871.23	5098
871.36	5094
871.489	5025
871.619	5136
871.749	5052
871.879	5132
872.008	5143
872.138	5003
872.267	4984
872.397	4797
872.526	4854
872.656	4767
872.785	4850
872.915	4968
873.044	5006
873.173	4976
873.303	4965
873.432	4961
873.561	4984
873.69	4873
873.819	4911
873.948	4858
874.077	4805
874.206	4725
874.335	4820
874.464	4892
874.593	5018
874.722	4980
874.851	5147
874.979	5022
875.108	5041
875.237	4885
875.365	4900
875.494	4881
875.623	4999
875.751	4816
875.88	4870
876.008	4968
876.136	5018
876.265	5174
876.393	5349
876.521	5212
876.65	5185
876.778	5162
876.906	5083
877.034	5025
877.162	5060
877.29	5003
877.418	5083
877.546	5079
877.674	5033
877.802	5025
877.93	5010
878.058	4915
878.185	4873
878.313	4915
878.441	4968
878.568	4831
878.696	4873
878.824	4900
878.951	5003
879.079	5136
879.206	5315
879.333	5094
879.461	4968
879.588	4968
879.715	5136
879.842	5208
879.97	5003
880.097	4820
880.224	4733
880.351	4824
880.478	4870
880.605	4740
880.732	4767
880.859	5075
880.986	4889
881.112	4866
881.239	4805
881.366	4626
881.493	4577
881.619	4596
881.746	4664
881.872	4618
881.999	4679
882.125	4702
882.252	4744
882.378	4793
882.505	4934
882.631	4801
882.757	4706
882.883	4736
883.01	4725
883.136	4653
883.262	4630
883.388	4554
883.514	4790
883.64	4809
883.766	4816
883.892	4645
884.018	4702
884.143	4911
884.269	5029
884.395	4687
884.52	4611
884.646	4645
884.772	4634
884.897	4569
885.023	4630
885.148	4774
885.274	4854
885.399	4733
885.524	4706
885.65	4687
885.775	4763
885.9	4672
886.025	4911
886.15	4824
886.275	4752
886.4	4706
886.525	4702
886.65	4721
886.775	4733
886.9	4904
887.025	5037
887.149	4816
887.274	4656
887.399	4596
887.523	4626
887.648	4592
887.773	4577
887.897	4710
888.021	4763
888.146	4679
888.27	4801
888.395	4858
888.519	4831
888.643	4828
888.767	4820
888.891	4694
889.015	4588
889.139	4645
889.263	4618
889.387	4706
889.511	4896
889.635	4828
889.759	4630
889.883	4645
890.006	4721
890.13	4828
890.254	4645
890.377	4668
890.501	4561
890.624	4523
890.748	4630
890.871	4462
890.995	4405
891.118	4402
891.241	4489
891.364	4504
891.488	4668
891.611	4424
891.734	4519
891.857	4622
891.98	4527
892.103	4577
892.226	4565
892.349	4531
892.471	4402
892.594	4565
892.717	4565
892.839	4615
892.962	4577
893.085	4634
893.207	4573
893.33	4424
893.452	4504
893.575	4599
893.697	4580
893.819	4759
893.941	4816
894.064	4778
894.186	4622
894.308	4558
894.43	4733
894.552	4828
894.674	4801
894.796	4542
894.918	4561
895.04	4599
895.161	4698
895.283	4611
895.405	4599
895.526	4637
895.648	4721
895.769	4725
895.891	4702
896.012	4733
896.134	4748
896.255	4637
896.376	4672
896.498	4664
896.619	4645
896.74	4645
896.861	4675
896.982	4892
897.103	5083
897.224	4816
897.345	4725
897.466	4706
897.587	4691
897.708	4809
897.828	4797
897.949	4611
898.07	4550
898.19	4637
898.311	4824
898.431	4691
898.552	4733
898.672	4824
898.792	4828
898.913	4736
899.033	4626
899.153	4523
899.273	4481
899.393	4466
899.513	4550
899.633	4554
899.753	4535
899.873	4531
899.993	4573
900.113	4519
900.232	4565
900.352	4550
900.472	4508
900.591	4413
900.711	4489
900.83	4474
900.95	4615
901.069	4691
901.189	4535
901.308	4405
901.427	4325
901.546	4394
901.665	4500
901.784	4504
901.904	4405
902.023	4360
902.141	4147
902.26	4139
902.379	4329
902.498	4223
902.617	4223
902.735	4375
902.854	4421
902.973	4421
903.091	4181
903.21	4169
903.328	4329
903.446	4287
903.565	4261
903.683	4322
903.801	4238
903.919	4360
904.038	4440
904.156	4322
904.274	4451
904.392	4394
904.51	4443
904.627	4432
904.745	4558
904.863	4618
904.981	4421
905.098	4287
905.216	4352
905.334	4390
905.451	4440
905.569	4402
905.686	4580
905.803	4535
905.921	4413
906.038	4535
906.155	4504
906.272	4402
906.389	4440
906.506	4325
906.623	4383
906.74	4337
906.857	4287
906.974	4375
907.091	4565
907.208	4706
907.324	4569
907.441	4497
907.557	4314
907.674	4314
907.79	4318
907.907	4443
908.023	4443
908.139	4508
908.256	4360
908.372	4447
908.488	4462
908.604	4394
908.72	4318
908.836	4363
908.952	4386
909.068	4409
909.184	4565
909.3	4470
909.415	4577
909.531	4550
909.647	4348
909.762	4394
909.878	4325
909.993	4417
910.108	4413
910.224	4443
910.339	4451
910.454	4356
910.57	4360
910.685	4295
910.8	4626
910.915	4565
911.03	4512
911.145	4314
911.259	4325
911.374	4428
911.489	4261
911.604	4291
911.718	4143
911.833	4204
911.947	4067
912.062	3994
912.176	4223
912.291	4196
912.405	4287
912.519	4447
912.633	4493
912.748	4390
912.862	4329
912.976	4211
913.09	4078
913.204	4173
913.318	4249
913.431	4386
913.545	4360
913.659	4398
913.772	4394
913.886	4207
914	4246
914.113	4360
914.226	4443
914.34	4363
914.453	4246
914.566	4466
914.68	4295
914.793	4299
914.906	4185
915.019	4128
915.132	4044
915.245	4185
915.358	4169
915.47	4246
915.583	4272
915.696	4280
915.809	4421
915.921	4451
916.034	4257
916.146	4204
916.259	4200
916.371	4413
916.483	4394
916.595	4261
916.708	4303
916.82	4333
916.932	4333
917.044	4341
917.156	4360
917.268	4215
917.38	4246
917.491	4249
917.603	4333
917.715	4436
917.826	4417
917.938	4325
918.049	4249
918.161	4405
918.272	4550
918.384	4535
918.495	4478
918.606	4318
918.717	4242
918.828	4348
918.939	4367
919.05	4223
919.161	4337
919.272	4086
919.383	4234
919.494	4432
919.604	4687
919.715	4436
919.826	4299
919.936	4424
920.047	4481
920.157	4459
920.267	4714
920.378	4588
920.488	4474
920.598	4702
920.708	4927
920.818	4755
920.928	4729
921.038	4915
921.148	4896
921.258	4580
921.368	4550
921.477	4489
921.587	4489
921.697	4356
921.806	4485
921.916	4409
922.025	4268
922.134	4242
922.244	4204
922.353	4318
922.462	4177
922.571	4162
922.68	4025
922.789	3956
922.898	4048
923.007	3964
923.116	4090
923.224	4078
923.333	4093
923.442	3968
923.55	4002
923.659	3956
923.767	4048
923.876	4025
923.984	4086
924.092	3991
924.201	4078
924.309	4082
924.417	4105
924.525	4051
924.633	4120
924.741	5014
924.849	3926
924.956	4128
925.064	3941
925.172	3896
925.279	3956
925.387	4063
925.494	4032
925.602	4188
925.709	4181
925.816	4051
925.924	4143
926.031	4246
926.138	4192
926.245	4227
926.352	4097
926.459	4299
926.566	4261
926.673	4112
926.779	4071
926.886	4074
926.993	3964
927.099	3953
927.206	3926
927.312	3945
927.419	4067
927.525	3991
927.631	4097
927.737	3956
927.843	3922
927.95	3857
928.056	3907
928.162	3979
928.267	4036
928.373	4660
928.479	4067
928.585	3857
928.69	4036
928.796	4074
928.901	3983
929.007	3827
929.112	4029
929.218	4021
929.323	3911
929.428	3911
929.533	4109
929.638	3911
929.743	3937
929.848	4029
929.953	4006
930.058	3922
930.163	3728
930.267	3778
930.372	3945
930.477	3819
930.581	4078
930.685	3979
930.79	3823
930.894	3854
930.998	3797
931.103	4017
931.207	3743
931.311	3656
931.415	3663
931.519	3523
931.623	3549
