Data from test_V78500241_2709.txt Node
Date: Fri Mar 25 17:07:50 CST 2022
User: usil
Spectrometer: V785-0024
Trigger mode: 0
Integration Time (sec): 4.000000E-1
Scans to average: 1
Nonlinearity correction enabled: false
Boxcar width: 0
Storing dark spectrum: false
XAxis mode: Wavelengths
Number of Pixels in Spectrum: 1024
>>>>>Begin Spectral Data<<<<<
801.071	7974
801.214	7959
801.356	7864
801.499	7879
801.641	7833
801.783	7811
801.926	7947
802.068	7947
802.211	7963
802.353	7970
802.496	7875
802.638	7906
802.78	7944
802.923	7951
803.065	7830
803.208	7879
803.35	7906
803.492	8031
803.635	8164
803.777	8024
803.919	8149
804.061	8457
804.204	8157
804.346	8149
804.488	7978
804.63	8077
804.773	7982
804.915	8153
805.057	8294
805.199	8195
805.341	8149
805.483	8259
805.626	8271
805.768	8145
805.91	8202
806.052	8210
806.194	8062
806.336	8271
806.478	8107
806.62	8031
806.762	8084
806.904	8195
807.046	8461
807.188	8370
807.33	8434
807.472	8366
807.614	8206
807.756	8176
807.898	8035
808.04	7860
808.182	7909
808.324	7932
808.465	7868
808.607	8138
808.749	8138
808.891	8229
809.033	8343
809.174	8237
809.316	8111
809.458	8065
809.6	8062
809.741	8069
809.883	8058
810.025	8187
810.166	8073
810.308	8069
810.45	8005
810.591	7883
810.733	7715
810.875	7681
811.016	7563
811.158	7540
811.299	7590
811.441	7772
811.582	7753
811.724	7594
811.865	7537
812.007	7601
812.148	7651
812.29	7655
812.431	7776
812.573	7890
812.714	8008
812.855	8187
812.997	8225
813.138	8259
813.279	8142
813.421	8092
813.562	8077
813.703	7879
813.845	7776
813.986	7514
814.127	7278
814.268	7225
814.41	7232
814.551	7122
814.692	7183
814.833	7076
814.974	7118
815.115	7095
815.256	7008
815.397	6993
815.539	7012
815.68	6856
815.821	6791
815.962	6867
816.103	6798
816.244	6722
816.385	6593
816.526	6650
816.666	6475
816.807	6304
816.948	6410
817.089	6460
817.23	6460
817.371	6399
817.512	6388
817.653	6380
817.793	6391
817.934	6429
818.075	6422
818.216	6407
818.356	6380
818.497	6254
818.638	6117
818.778	6140
818.919	6190
819.06	6178
819.2	6369
819.341	6296
819.481	6342
819.622	6517
819.762	6711
819.903	6757
820.043	6749
820.184	6616
820.324	6582
820.465	6722
820.605	6707
820.746	6616
820.886	6525
821.026	6734
821.167	6677
821.307	6818
821.447	6810
821.588	6677
821.728	6570
821.868	6547
822.008	6353
822.149	6334
822.289	6429
822.429	6159
822.569	6095
822.709	6171
822.849	5885
822.99	5897
823.13	5939
823.27	5904
823.41	5771
823.55	5775
823.69	5771
823.83	5771
823.97	5676
824.11	5501
824.25	5501
824.389	5573
824.529	5600
824.669	5558
824.809	5665
824.949	5680
825.089	5596
825.228	5558
825.368	5482
825.508	5315
825.648	5318
825.787	5410
825.927	5379
826.067	5296
826.206	5292
826.346	5364
826.485	5421
826.625	5391
826.765	5558
826.904	5448
827.044	5246
827.183	5212
827.323	5109
827.462	5261
827.601	5185
827.741	5239
827.88	5212
828.02	5147
828.159	5220
828.298	5299
828.437	5353
828.577	5231
828.716	5467
828.855	5337
828.994	5140
829.134	5105
829.273	5212
829.412	5136
829.551	5102
829.69	5132
829.829	5277
829.968	5322
830.107	5326
830.246	5326
830.385	5235
830.524	5147
830.663	5052
830.802	5003
830.941	4904
831.08	4900
831.219	4991
831.357	4968
831.496	5162
831.635	4938
831.774	4850
831.913	4839
832.051	4683
832.19	4752
832.329	4786
832.467	4714
832.606	4675
832.744	4721
832.883	4706
833.022	4755
833.16	4752
833.299	4816
833.437	4835
833.576	4885
833.714	4835
833.852	4839
833.991	4900
834.129	4946
834.267	4942
834.406	4968
834.544	4946
834.682	4984
834.821	4908
834.959	5185
835.097	4999
835.235	5178
835.373	5060
835.511	5155
835.65	5037
835.788	5010
835.926	4858
836.064	4873
836.202	4919
836.34	5181
836.478	5227
836.615	5124
836.753	5178
836.891	5296
837.029	5212
837.167	5166
837.305	5143
837.443	5109
837.58	5090
837.718	5250
837.856	5174
837.993	5155
838.131	5178
838.269	5227
838.406	5223
838.544	5151
838.681	5041
838.819	4961
838.956	4866
839.094	4923
839.231	4984
839.369	5113
839.506	5433
839.643	5269
839.781	5037
839.918	5029
840.055	5094
840.193	5083
840.33	5083
840.467	5143
840.604	5178
840.742	5421
840.879	5067
841.016	5090
841.153	5147
841.29	5383
841.427	5315
841.564	5254
841.701	5334
841.838	5231
841.975	5212
842.112	5277
842.249	5132
842.385	5079
842.522	5326
842.659	5178
842.796	5086
842.933	5197
843.069	5174
843.206	5113
843.343	5345
843.479	5220
843.616	5246
843.752	5022
843.889	5018
844.025	5162
844.162	4987
844.298	5208
844.435	5060
844.571	5041
844.708	5140
844.844	5322
844.98	5288
845.117	5299
845.253	5086
845.389	5098
845.525	5166
845.661	5151
845.798	5037
845.934	5098
846.07	5037
846.206	5204
846.342	5265
846.478	5159
846.614	5033
846.75	4949
846.886	4946
847.022	5132
847.158	4980
847.294	5067
847.429	5086
847.565	5090
847.701	5326
847.837	4892
847.972	4748
848.108	4919
848.244	4927
848.379	4733
848.515	4744
848.65	4706
848.786	4710
848.921	4759
849.057	4881
849.192	4843
849.328	4820
849.463	4873
849.598	4801
849.734	4714
849.869	4656
850.004	4611
850.14	4649
850.275	4596
850.41	4538
850.545	4519
850.68	4577
850.815	4584
850.95	4603
851.085	4801
851.22	4748
851.355	4660
851.49	4603
851.625	4596
851.76	4641
851.895	4573
852.03	4508
852.165	4622
852.299	4710
852.434	4809
852.569	4774
852.703	4744
852.838	4839
852.973	4938
853.107	4934
853.242	4740
853.376	4679
853.511	4561
853.645	4626
853.78	4801
853.914	4702
854.048	4668
854.183	4637
854.317	4691
854.451	4858
854.585	4698
854.72	4672
854.854	4706
854.988	4580
855.122	4653
855.256	4538
855.39	4653
855.524	4744
855.658	4755
855.792	4672
855.926	4710
856.06	4717
856.194	4797
856.327	4717
856.461	4626
856.595	4626
856.729	4672
856.862	4744
856.996	4710
857.13	4729
857.263	4831
857.397	4793
857.53	4653
857.664	4736
857.797	4740
857.931	4752
858.064	4653
858.197	4805
858.331	4694
858.464	4596
858.597	4550
858.731	4634
858.864	4615
858.997	4634
859.13	4679
859.263	4694
859.396	4717
859.529	4508
859.662	4527
859.795	4535
859.928	4618
860.061	4767
860.194	4790
860.327	4596
860.46	4599
860.592	4656
860.725	4694
860.858	4721
860.99	4577
861.123	4554
861.256	4508
861.388	4599
861.521	5318
861.653	4451
861.786	4417
861.918	4497
862.05	4519
862.183	4542
862.315	4561
862.447	4607
862.58	4550
862.712	4390
862.844	4314
862.976	4440
863.108	4409
863.24	4771
863.372	4333
863.504	4432
863.636	4398
863.768	4489
863.9	4470
864.032	4356
864.164	4421
864.296	4523
864.428	4558
864.559	4538
864.691	4538
864.823	4542
864.954	4504
865.086	4500
865.217	4432
865.349	4390
865.48	4436
865.612	4455
865.743	4618
865.875	4485
866.006	4432
866.137	4459
866.269	4432
866.4	4440
866.531	4436
866.662	4421
866.793	4409
866.924	4417
867.055	4497
867.186	4447
867.317	4405
867.448	4424
867.579	4363
867.71	4417
867.841	4409
867.972	4478
868.103	4489
868.233	4424
868.364	4462
868.495	4508
868.625	4687
868.756	4744
868.886	4542
869.017	4618
869.147	4801
869.278	4733
869.408	4611
869.539	4668
869.669	4721
869.799	4679
869.929	4759
870.06	4740
870.19	4908
870.32	4896
870.45	4972
870.58	5045
870.71	5056
870.84	5098
870.97	4957
871.1	4892
871.23	5121
871.36	5136
871.489	4999
871.619	5071
871.749	5079
871.879	5105
872.008	5128
872.138	5037
872.267	4976
872.397	4854
872.526	4839
872.656	4683
872.785	4774
872.915	4934
873.044	5025
873.173	4908
873.303	4984
873.432	4934
873.561	4957
873.69	4835
873.819	4858
873.948	4896
874.077	4805
874.206	4778
874.335	4877
874.464	4938
874.593	5064
874.722	4995
874.851	5079
874.979	5121
875.108	5056
875.237	4946
875.365	4847
875.494	4885
875.623	4919
875.751	4816
875.88	4896
876.008	4919
876.136	5010
876.265	5216
876.393	5330
876.521	5242
876.65	5227
876.778	5132
876.906	5083
877.034	5041
877.162	5033
877.29	4946
877.418	5056
877.546	5018
877.674	5003
877.802	5033
877.93	5018
878.058	4953
878.185	4877
878.313	4972
878.441	4984
878.568	4797
878.696	4854
878.824	4980
878.951	5006
879.079	5166
879.206	5284
879.333	5178
879.461	5003
879.588	5056
879.715	5178
879.842	5181
879.97	4991
880.097	4839
880.224	4721
880.351	4847
880.478	4835
880.605	4831
880.732	4736
880.859	5071
880.986	4866
881.112	4968
881.239	4858
881.366	4660
881.493	4653
881.619	4618
881.746	4668
881.872	4649
881.999	4683
882.125	4725
882.252	4809
882.378	4858
882.505	5010
882.631	4805
882.757	4702
882.883	4729
883.01	4793
883.136	4660
883.262	4675
883.388	4660
883.514	4873
883.64	4915
883.766	4805
883.892	4759
884.018	4759
884.143	4930
884.269	5029
884.395	4698
884.52	4683
884.646	4706
884.772	4611
884.897	4634
885.023	4710
885.148	4850
885.274	4900
885.399	4870
885.524	4752
885.65	4706
885.775	4801
885.9	4744
886.025	4923
886.15	4843
886.275	4793
886.4	4710
886.525	4771
886.65	4748
886.775	4755
886.9	4915
887.025	5094
887.149	4847
887.274	4725
887.399	4630
887.523	4637
887.648	4607
887.773	4615
887.897	4805
888.021	4828
888.146	4675
888.27	4820
888.395	4987
888.519	4866
888.643	4828
888.767	4889
888.891	4733
889.015	4660
889.139	4691
889.263	4653
889.387	4805
889.511	4934
889.635	4812
889.759	4668
889.883	4694
890.006	4812
890.13	4843
890.254	4679
890.377	4675
890.501	4603
890.624	4538
890.748	4645
890.871	4561
890.995	4493
891.118	4394
891.241	4558
891.364	4550
891.488	4698
891.611	4497
891.734	4565
891.857	4653
891.98	4588
892.103	4675
892.226	4596
892.349	4596
892.471	4470
892.594	4588
892.717	4618
892.839	4588
892.962	4599
893.085	4721
893.207	4649
893.33	4538
893.452	4565
893.575	4733
893.697	4592
893.819	4771
893.941	4816
894.064	4763
894.186	4558
894.308	4592
894.43	4778
894.552	4870
894.674	4786
894.796	4607
894.918	4618
895.04	4592
895.161	4717
895.283	4668
895.405	4615
895.526	4698
895.648	4683
895.769	4721
895.891	4767
896.012	4790
896.134	4774
896.255	4668
896.376	4675
896.498	4645
896.619	4740
896.74	4618
896.861	4660
896.982	4915
897.103	5128
897.224	4835
897.345	4809
897.466	4721
897.587	4771
897.708	4927
897.828	4824
897.949	4683
898.07	4577
898.19	4691
898.311	4873
898.431	4691
898.552	4793
898.672	4889
898.792	4820
898.913	4748
899.033	4664
899.153	4535
899.273	4497
899.393	4561
899.513	4550
899.633	4554
899.753	4588
899.873	4569
899.993	4607
900.113	4558
900.232	4622
900.352	4554
900.472	4489
900.591	4443
900.711	4519
900.83	4447
900.95	4660
901.069	4710
901.189	4599
901.308	4379
901.427	4375
901.546	4421
901.665	4474
901.784	4546
901.904	4417
902.023	4402
902.141	4200
902.26	4238
902.379	4284
902.498	4303
902.617	4257
902.735	4409
902.854	4459
902.973	4417
903.091	4242
903.21	4299
903.328	4356
903.446	4325
903.565	4287
903.683	4360
903.801	4348
903.919	4466
904.038	4497
904.156	4337
904.274	4527
904.392	4428
904.51	4447
904.627	4500
904.745	4622
904.863	4672
904.981	4485
905.098	4333
905.216	4413
905.334	4459
905.451	4508
905.569	4500
905.686	4577
905.803	4611
905.921	4417
906.038	4630
906.155	4519
906.272	4447
906.389	4519
906.506	4383
906.623	4432
906.74	4447
906.857	4337
906.974	4405
907.091	4588
907.208	4733
907.324	4626
907.441	4523
907.557	4348
907.674	4367
907.79	4363
907.907	4432
908.023	4489
908.139	4504
908.256	4443
908.372	4493
908.488	4462
908.604	4417
908.72	4367
908.836	4405
908.952	4443
909.068	4470
909.184	4626
909.3	4542
909.415	4611
909.531	4592
909.647	4409
909.762	4390
909.878	4310
909.993	4512
910.108	4474
910.224	4421
910.339	4489
910.454	4440
910.57	4390
910.685	4314
910.8	4687
910.915	4668
911.03	4527
911.145	4352
911.259	4363
911.374	4405
911.489	4337
911.604	4303
911.718	4223
911.833	4227
911.947	4128
912.062	4067
912.176	4238
912.291	4257
912.405	4253
912.519	4527
912.633	4519
912.748	4405
912.862	4356
912.976	4246
913.09	4143
913.204	4173
913.318	4360
913.431	4363
913.545	4421
913.659	4516
913.772	4367
913.886	4299
914	4295
914.113	4409
914.226	4516
914.34	4440
914.453	4303
914.566	4405
914.68	4325
914.793	4390
914.906	4166
915.019	4158
915.132	4112
915.245	4211
915.358	4227
915.47	4265
915.583	4306
915.696	4291
915.809	4455
915.921	4455
916.034	4314
916.146	4265
916.259	4265
916.371	4413
916.483	4421
916.595	4329
916.708	4363
916.82	4337
916.932	4402
917.044	4363
917.156	4394
917.268	4257
917.38	4261
917.491	4287
917.603	4371
917.715	4466
917.826	4443
917.938	4337
918.049	4314
918.161	4398
918.272	4546
918.384	4561
918.495	4478
918.606	4341
918.717	4310
918.828	4375
918.939	4367
919.05	4276
919.161	4371
919.272	4150
919.383	4280
919.494	4493
919.604	4687
919.715	4462
919.826	4409
919.936	4428
920.047	4596
920.157	4523
920.267	4714
920.378	4504
920.488	4584
920.598	4767
920.708	4900
920.818	4755
920.928	4763
921.038	4949
921.148	4957
921.258	4656
921.368	4569
921.477	4535
921.587	4508
921.697	4402
921.806	4550
921.916	4455
922.025	4261
922.134	4329
922.244	4261
922.353	4394
922.462	4215
922.571	4101
922.68	4051
922.789	4032
922.898	4074
923.007	4029
923.116	4185
923.224	4109
923.333	4086
923.442	4013
923.55	3998
923.659	4063
923.767	4139
923.876	3979
923.984	4150
924.092	4017
924.201	4074
924.309	4097
924.417	4143
924.525	4090
924.633	4071
924.741	5102
924.849	3937
924.956	4185
925.064	3972
925.172	3960
925.279	3949
925.387	4051
925.494	4090
925.602	4238
925.709	4166
925.816	4051
925.924	4169
926.031	4272
926.138	4200
926.245	4200
926.352	4093
926.459	4299
926.566	4303
926.673	4188
926.779	4097
926.886	4101
926.993	3979
927.099	3991
927.206	3937
927.312	3949
927.419	4078
927.525	4036
927.631	4090
927.737	3975
927.843	4036
927.95	3857
928.056	3945
928.162	3960
928.267	4082
928.373	4634
928.479	4131
928.585	3838
928.69	4048
928.796	4147
928.901	4002
929.007	3865
929.112	4021
929.218	4010
929.323	3968
929.428	3922
929.533	4162
929.638	3941
929.743	3960
929.848	4090
929.953	4006
930.058	3960
930.163	3823
930.267	3842
930.372	4006
930.477	3819
930.581	4105
930.685	3998
930.79	3842
930.894	3915
930.998	3880
931.103	4025
931.207	3728
931.311	3717
931.415	3644
931.519	3519
931.623	3587
