Data from test_V78500241_2074.txt Node
Date: Fri Mar 25 17:03:25 CST 2022
User: usil
Spectrometer: V785-0024
Trigger mode: 0
Integration Time (sec): 4.000000E-1
Scans to average: 1
Nonlinearity correction enabled: false
Boxcar width: 0
Storing dark spectrum: false
XAxis mode: Wavelengths
Number of Pixels in Spectrum: 1024
>>>>>Begin Spectral Data<<<<<
801.071	7967
801.214	7982
801.356	7799
801.499	7818
801.641	7799
801.783	7833
801.926	8073
802.068	8008
802.211	7993
802.353	8031
802.496	7936
802.638	7894
802.78	7951
802.923	7925
803.065	7871
803.208	7887
803.35	8027
803.492	8126
803.635	8221
803.777	7986
803.919	8157
804.061	8461
804.204	8214
804.346	8065
804.488	8001
804.63	8088
804.773	8126
804.915	8161
805.057	8328
805.199	8195
805.341	8252
805.483	8271
805.626	8248
805.768	8107
805.91	8259
806.052	8263
806.194	8062
806.336	8358
806.478	8157
806.62	8088
806.762	8206
806.904	8320
807.046	8484
807.188	8400
807.33	8374
807.472	8385
807.614	8298
807.756	8145
807.898	8043
808.04	7917
808.182	7902
808.324	7921
808.465	7898
808.607	8084
808.749	8206
808.891	8229
809.033	8317
809.174	8218
809.316	8142
809.458	8100
809.6	8123
809.741	8073
809.883	8096
810.025	8157
810.166	8088
810.308	8081
810.45	8016
810.591	7860
810.733	7738
810.875	7616
811.016	7563
811.158	7468
811.299	7537
811.441	7734
811.582	7708
811.724	7586
811.865	7582
812.007	7601
812.148	7601
812.29	7651
812.431	7750
812.573	7860
812.714	8024
812.855	8149
812.997	8259
813.138	8301
813.279	8153
813.421	8123
813.562	7955
813.703	7780
813.845	7708
813.986	7381
814.127	7270
814.268	7278
814.41	7194
814.551	7263
814.692	7289
814.833	7145
814.974	7122
815.115	7152
815.256	7057
815.397	6966
815.539	6905
815.68	6867
815.821	6779
815.962	6897
816.103	6837
816.244	6654
816.385	6620
816.526	6646
816.666	6498
816.807	6391
816.948	6445
817.089	6544
817.23	6502
817.371	6395
817.512	6399
817.653	6342
817.793	6346
817.934	6395
818.075	6483
818.216	6441
818.356	6403
818.497	6289
818.638	6114
818.778	6178
818.919	6155
819.06	6201
819.2	6334
819.341	6346
819.481	6395
819.622	6540
819.762	6734
819.903	6707
820.043	6669
820.184	6566
820.324	6597
820.465	6707
820.605	6650
820.746	6711
820.886	6486
821.026	6696
821.167	6726
821.307	6798
821.447	6760
821.588	6692
821.728	6631
821.868	6536
822.008	6365
822.149	6380
822.289	6399
822.429	6136
822.569	6083
822.709	6159
822.849	5950
822.99	5977
823.13	5935
823.27	5946
823.41	5794
823.55	5794
823.69	5710
823.83	5809
823.97	5703
824.11	5592
824.25	5562
824.389	5554
824.529	5566
824.669	5509
824.809	5665
824.949	5771
825.089	5619
825.228	5532
825.368	5425
825.508	5364
825.648	5379
825.787	5383
825.927	5410
826.067	5326
826.206	5345
826.346	5395
826.485	5410
826.625	5463
826.765	5562
826.904	5497
827.044	5265
827.183	5208
827.323	5147
827.462	5280
827.601	5189
827.741	5201
827.88	5246
828.02	5136
828.159	5288
828.298	5368
828.437	5364
828.577	5288
828.716	5497
828.855	5368
828.994	5227
829.134	5136
829.273	5231
829.412	5162
829.551	5147
829.69	5159
829.829	5318
829.968	5436
830.107	5303
830.246	5284
830.385	5185
830.524	5212
830.663	5098
830.802	4930
830.941	4938
831.08	4843
831.219	5056
831.357	4991
831.496	5162
831.635	4889
831.774	4858
831.913	4816
832.051	4752
832.19	4786
832.329	4885
832.467	4706
832.606	4664
832.744	4710
832.883	4744
833.022	4786
833.16	4812
833.299	4839
833.437	4873
833.576	4858
833.714	4915
833.852	4858
833.991	4896
834.129	4987
834.267	4976
834.406	4896
834.544	5029
834.682	4987
834.821	4938
834.959	5201
835.097	5025
835.235	5143
835.373	5132
835.511	5098
835.65	5102
835.788	5064
835.926	4923
836.064	4877
836.202	4896
836.34	5174
836.478	5185
836.615	5159
836.753	5246
836.891	5330
837.029	5284
837.167	5239
837.305	5178
837.443	5140
837.58	5094
837.718	5269
837.856	5220
837.993	5178
838.131	5254
838.269	5181
838.406	5223
838.544	5231
838.681	5048
838.819	5029
838.956	4946
839.094	4919
839.231	5010
839.369	5090
839.506	5391
839.643	5254
839.781	5143
839.918	5048
840.055	5098
840.193	5143
840.33	5197
840.467	5208
840.604	5143
840.742	5486
840.879	5132
841.016	5060
841.153	5140
841.29	5410
841.427	5326
841.564	5337
841.701	5391
841.838	5258
841.975	5242
842.112	5261
842.249	5178
842.385	5109
842.522	5345
842.659	5197
842.796	5128
842.933	5223
843.069	5151
843.206	5178
843.343	5337
843.479	5216
843.616	5284
843.752	5052
843.889	5029
844.025	5220
844.162	5025
844.298	5235
844.435	5113
844.571	5079
844.708	5220
844.844	5372
844.98	5311
845.117	5307
845.253	5140
845.389	5086
845.525	5102
845.661	5170
845.798	5094
845.934	5178
846.07	5056
846.206	5254
846.342	5269
846.478	5136
846.614	5083
846.75	5018
846.886	4968
847.022	5102
847.158	5048
847.294	5071
847.429	5147
847.565	5064
847.701	5391
847.837	4889
847.972	4809
848.108	4961
848.244	4919
848.379	4793
848.515	4717
848.65	4694
848.786	4736
848.921	4778
849.057	4904
849.192	4900
849.328	4809
849.463	4858
849.598	4885
849.734	4774
849.869	4698
850.004	4630
850.14	4668
850.275	4634
850.41	4512
850.545	4580
850.68	4569
850.815	4672
850.95	4622
851.085	4885
851.22	4771
851.355	4706
851.49	4653
851.625	4607
851.76	4664
851.895	4592
852.03	4573
852.165	4675
852.299	4729
852.434	4824
852.569	4771
852.703	4790
852.838	4870
852.973	4927
853.107	4957
853.242	4778
853.376	4630
853.511	4607
853.645	4672
853.78	4839
853.914	4710
854.048	4675
854.183	4630
854.317	4668
854.451	4889
854.585	4645
854.72	4653
854.854	4733
854.988	4653
855.122	4634
855.256	4561
855.39	4675
855.524	4733
855.658	4736
855.792	4721
855.926	4698
856.06	4755
856.194	4801
856.327	4740
856.461	4630
856.595	4641
856.729	4679
856.862	4740
856.996	4694
857.13	4740
857.263	4748
857.397	4854
857.53	4736
857.664	4721
857.797	4790
857.931	4809
858.064	4725
858.197	4767
858.331	4679
858.464	4611
858.597	4554
858.731	4668
858.864	4637
858.997	4550
859.13	4656
859.263	4664
859.396	4736
859.529	4603
859.662	4565
859.795	4554
859.928	4637
860.061	4774
860.194	4778
860.327	4596
860.46	4535
860.592	4778
860.725	4740
860.858	4763
860.99	4603
861.123	4535
861.256	4550
861.388	4561
861.521	5330
861.653	4489
861.786	4424
861.918	4481
862.05	4546
862.183	4535
862.315	4573
862.447	4637
862.58	4527
862.712	4409
862.844	4337
862.976	4474
863.108	4470
863.24	4767
863.372	4363
863.504	4462
863.636	4440
863.768	4500
863.9	4443
864.032	4386
864.164	4383
864.296	4470
864.428	4538
864.559	4554
864.691	4599
864.823	4508
864.954	4519
865.086	4531
865.217	4466
865.349	4447
865.48	4443
865.612	4519
865.743	4626
865.875	4424
866.006	4436
866.137	4451
866.269	4428
866.4	4436
866.531	4466
866.662	4413
866.793	4398
866.924	4394
867.055	4512
867.186	4451
867.317	4432
867.448	4352
867.579	4383
867.71	4375
867.841	4375
867.972	4493
868.103	4474
868.233	4455
868.364	4394
868.495	4523
868.625	4668
868.756	4790
868.886	4588
869.017	4660
869.147	4786
869.278	4759
869.408	4645
869.539	4683
869.669	4717
869.799	4618
869.929	4786
870.06	4733
870.19	4930
870.32	4938
870.45	4949
870.58	4976
870.71	5117
870.84	5102
870.97	4946
871.1	4877
871.23	5174
871.36	5143
871.489	5003
871.619	5079
871.749	5109
871.879	5159
872.008	5216
872.138	5086
872.267	5025
872.397	4839
872.526	4786
872.656	4714
872.785	4771
872.915	4934
873.044	5045
873.173	4930
873.303	4957
873.432	4972
873.561	4919
873.69	4866
873.819	4847
873.948	4946
874.077	4797
874.206	4778
874.335	4828
874.464	4930
874.593	5105
874.722	4946
874.851	5025
874.979	5048
875.108	5029
875.237	4908
875.365	4911
875.494	4919
875.623	4965
875.751	4881
875.88	4904
876.008	4942
876.136	5094
876.265	5231
876.393	5345
876.521	5277
876.65	5288
876.778	5132
876.906	5094
877.034	5018
877.162	5052
877.29	4995
877.418	5052
877.546	5079
877.674	5048
877.802	5041
877.93	4999
878.058	4968
878.185	4862
878.313	4965
878.441	4900
878.568	4801
878.696	4908
878.824	4927
878.951	5018
879.079	5121
879.206	5231
879.333	5075
879.461	5006
879.588	5064
879.715	5113
879.842	5201
879.97	5022
880.097	4816
880.224	4790
880.351	4835
880.478	4854
880.605	4824
880.732	4763
880.859	5075
880.986	4839
881.112	4896
881.239	4839
881.366	4679
881.493	4607
881.619	4607
881.746	4641
881.872	4649
881.999	4637
882.125	4706
882.252	4816
882.378	4782
882.505	4995
882.631	4812
882.757	4634
882.883	4706
883.01	4736
883.136	4630
883.262	4607
883.388	4607
883.514	4759
883.64	4873
883.766	4786
883.892	4649
884.018	4767
884.143	4900
884.269	4980
884.395	4675
884.52	4653
884.646	4637
884.772	4573
884.897	4565
885.023	4626
885.148	4801
885.274	4831
885.399	4824
885.524	4717
885.65	4691
885.775	4771
885.9	4721
886.025	4839
886.15	4828
886.275	4755
886.4	4634
886.525	4717
886.65	4706
886.775	4706
886.9	4938
887.025	5029
887.149	4774
887.274	4664
887.399	4580
887.523	4596
887.648	4584
887.773	4569
887.897	4759
888.021	4755
888.146	4714
888.27	4828
888.395	4908
888.519	4778
888.643	4835
888.767	4828
888.891	4645
889.015	4630
889.139	4615
889.263	4603
889.387	4721
889.511	4873
889.635	4828
889.759	4645
889.883	4653
890.006	4729
890.13	4812
890.254	4611
890.377	4694
890.501	4573
890.624	4485
890.748	4607
890.871	4542
890.995	4421
891.118	4371
891.241	4512
891.364	4546
891.488	4664
891.611	4493
891.734	4561
891.857	4607
891.98	4546
892.103	4634
892.226	4569
892.349	4561
892.471	4428
892.594	4531
892.717	4615
892.839	4565
892.962	4599
893.085	4649
893.207	4599
893.33	4474
893.452	4516
893.575	4656
893.697	4580
893.819	4755
893.941	4824
894.064	4729
894.186	4531
894.308	4607
894.43	4710
894.552	4862
894.674	4740
894.796	4531
894.918	4645
895.04	4554
895.161	4679
895.283	4733
895.405	4554
895.526	4672
895.648	4645
895.769	4672
895.891	4714
896.012	4714
896.134	4725
896.255	4649
896.376	4607
896.498	4626
896.619	4668
896.74	4603
896.861	4672
896.982	4972
897.103	5067
897.224	4805
897.345	4774
897.466	4664
897.587	4767
897.708	4828
897.828	4721
897.949	4710
898.07	4542
898.19	4664
898.311	4828
898.431	4660
898.552	4740
898.672	4816
898.792	4774
898.913	4729
899.033	4565
899.153	4474
899.273	4413
899.393	4485
899.513	4504
899.633	4508
899.753	4565
899.873	4527
899.993	4561
900.113	4538
900.232	4577
900.352	4512
900.472	4485
900.591	4390
900.711	4459
900.83	4424
900.95	4554
901.069	4649
901.189	4565
901.308	4363
901.427	4280
901.546	4371
901.665	4474
901.784	4550
901.904	4367
902.023	4314
902.141	4185
902.26	4166
902.379	4318
902.498	4242
902.617	4234
902.735	4386
902.854	4394
902.973	4303
903.091	4215
903.21	4181
903.328	4287
903.446	4242
903.565	4219
903.683	4371
903.801	4291
903.919	4383
904.038	4428
904.156	4325
904.274	4417
904.392	4421
904.51	4443
904.627	4512
904.745	4592
904.863	4630
904.981	4394
905.098	4303
905.216	4306
905.334	4413
905.451	4478
905.569	4481
905.686	4531
905.803	4584
905.921	4402
906.038	4535
906.155	4478
906.272	4386
906.389	4497
906.506	4367
906.623	4284
906.74	4390
906.857	4348
906.974	4356
907.091	4531
907.208	4656
907.324	4531
907.441	4443
907.557	4299
907.674	4352
907.79	4363
907.907	4390
908.023	4443
908.139	4470
908.256	4413
908.372	4512
908.488	4493
908.604	4322
908.72	4303
908.836	4379
908.952	4409
909.068	4451
909.184	4531
909.3	4478
909.415	4577
909.531	4569
909.647	4322
909.762	4375
909.878	4344
909.993	4466
910.108	4417
910.224	4409
910.339	4538
910.454	4337
910.57	4352
910.685	4344
910.8	4668
910.915	4611
911.03	4504
911.145	4310
911.259	4318
911.374	4417
911.489	4295
911.604	4249
911.718	4192
911.833	4211
911.947	4048
912.062	4048
912.176	4204
912.291	4230
912.405	4242
912.519	4459
912.633	4497
912.748	4390
912.862	4284
912.976	4207
913.09	4112
913.204	4143
913.318	4211
913.431	4375
913.545	4333
913.659	4417
913.772	4314
913.886	4219
914	4223
914.113	4405
914.226	4428
914.34	4390
914.453	4257
914.566	4398
914.68	4299
914.793	4287
914.906	4124
915.019	4128
915.132	4086
915.245	4238
915.358	4246
915.47	4246
915.583	4219
915.696	4325
915.809	4413
915.921	4375
916.034	4238
916.146	4261
916.259	4219
916.371	4363
916.483	4356
916.595	4272
916.708	4344
916.82	4329
916.932	4291
917.044	4284
917.156	4303
917.268	4215
917.38	4261
917.491	4238
917.603	4329
917.715	4405
917.826	4417
917.938	4375
918.049	4177
918.161	4428
918.272	4573
918.384	4512
918.495	4432
918.606	4306
918.717	4181
918.828	4322
918.939	4352
919.05	4287
919.161	4329
919.272	4166
919.383	4223
919.494	4394
919.604	4603
919.715	4440
919.826	4329
919.936	4432
920.047	4512
920.157	4474
920.267	4668
920.378	4573
920.488	4508
920.598	4630
920.708	4927
920.818	4812
920.928	4763
921.038	4957
921.148	4942
921.258	4615
921.368	4569
921.477	4516
921.587	4405
921.697	4344
921.806	4588
921.916	4413
922.025	4284
922.134	4246
922.244	4200
922.353	4337
922.462	4173
922.571	4139
922.68	4025
922.789	3994
922.898	4040
923.007	3956
923.116	4101
923.224	4105
923.333	4040
923.442	3968
923.55	3987
923.659	4029
923.767	4086
923.876	3968
923.984	4093
924.092	4006
924.201	4093
924.309	4120
924.417	4135
924.525	4006
924.633	4051
924.741	5105
924.849	3915
924.956	4124
925.064	3930
925.172	3876
925.279	3937
925.387	4032
925.494	4082
925.602	4249
925.709	4188
925.816	4044
925.924	4158
926.031	4227
926.138	4139
926.245	4192
926.352	4059
926.459	4253
926.566	4329
926.673	4120
926.779	4071
926.886	4063
926.993	3994
927.099	3934
927.206	3892
927.312	3945
927.419	4040
927.525	4013
927.631	4093
927.737	4017
927.843	3918
927.95	3880
928.056	3994
928.162	4029
928.267	4013
928.373	4603
928.479	4074
928.585	3918
928.69	4032
928.796	4090
928.901	3926
929.007	3865
929.112	3968
929.218	3953
929.323	3945
929.428	3873
929.533	4135
929.638	3888
929.743	3998
929.848	4048
929.953	4013
930.058	3888
930.163	3778
930.267	3816
930.372	3983
930.477	3781
930.581	4067
930.685	3987
930.79	3835
930.894	3869
930.998	3876
931.103	4071
931.207	3728
931.311	3663
931.415	3625
931.519	3526
931.623	3542
