Data from test_V78500241_544.txt Node
Date: Fri Mar 25 16:52:47 CST 2022
User: usil
Spectrometer: V785-0024
Trigger mode: 0
Integration Time (sec): 4.000000E-1
Scans to average: 1
Nonlinearity correction enabled: false
Boxcar width: 0
Storing dark spectrum: false
XAxis mode: Wavelengths
Number of Pixels in Spectrum: 1024
>>>>>Begin Spectral Data<<<<<
801.071	8054
801.214	7982
801.356	7909
801.499	7887
801.641	7769
801.783	7909
801.926	8031
802.068	7993
802.211	7982
802.353	7989
802.496	7871
802.638	7849
802.78	7917
802.923	7871
803.065	7883
803.208	7807
803.35	7967
803.492	8054
803.635	8107
803.777	7974
803.919	8096
804.061	8396
804.204	8164
804.346	8005
804.488	7951
804.63	8058
804.773	8035
804.915	8123
805.057	8305
805.199	8187
805.341	8180
805.483	8240
805.626	8172
805.768	8092
805.91	8252
806.052	8134
806.194	8069
806.336	8240
806.478	8119
806.62	8088
806.762	8195
806.904	8202
807.046	8454
807.188	8336
807.33	8233
807.472	8256
807.614	8195
807.756	8050
807.898	7928
808.04	7932
808.182	7921
808.324	7936
808.465	7841
808.607	8050
808.749	8103
808.891	8233
809.033	8279
809.174	8214
809.316	7989
809.458	7963
809.6	7947
809.741	8046
809.883	8008
810.025	8100
810.166	8054
810.308	8024
810.45	8027
810.591	7788
810.733	7750
810.875	7655
811.016	7529
811.158	7502
811.299	7559
811.441	7750
811.582	7674
811.724	7578
811.865	7537
812.007	7643
812.148	7639
812.29	7628
812.431	7772
812.573	7852
812.714	8016
812.855	8191
812.997	8237
813.138	8336
813.279	8298
813.421	8092
813.562	8027
813.703	7909
813.845	7830
813.986	7540
814.127	7377
814.268	7285
814.41	7198
814.551	7137
814.692	7187
814.833	7038
814.974	7012
815.115	7133
815.256	6913
815.397	6909
815.539	6943
815.68	6810
815.821	6760
815.962	6886
816.103	6863
816.244	6692
816.385	6585
816.526	6612
816.666	6471
816.807	6319
816.948	6414
817.089	6502
817.23	6414
817.371	6350
817.512	6353
817.653	6372
817.793	6311
817.934	6391
818.075	6429
818.216	6452
818.356	6353
818.497	6220
818.638	6136
818.778	6072
818.919	6186
819.06	6060
819.2	6289
819.341	6273
819.481	6327
819.622	6509
819.762	6757
819.903	6665
820.043	6574
820.184	6551
820.324	6574
820.465	6662
820.605	6662
820.746	6635
820.886	6517
821.026	6623
821.167	6692
821.307	6722
821.447	6741
821.588	6620
821.728	6570
821.868	6445
822.008	6300
822.149	6361
822.289	6346
822.429	6235
822.569	6095
822.709	6091
822.849	5916
822.99	5988
823.13	5950
823.27	5973
823.41	5794
823.55	5764
823.69	5821
823.83	5828
823.97	5729
824.11	5558
824.25	5532
824.389	5619
824.529	5615
824.669	5608
824.809	5703
824.949	5653
825.089	5729
825.228	5581
825.368	5402
825.508	5387
825.648	5360
825.787	5429
825.927	5436
826.067	5334
826.206	5357
826.346	5376
826.485	5425
826.625	5467
826.765	5566
826.904	5532
827.044	5330
827.183	5235
827.323	5166
827.462	5235
827.601	5216
827.741	5246
827.88	5239
828.02	5121
828.159	5277
828.298	5288
828.437	5402
828.577	5288
828.716	5493
828.855	5398
828.994	5189
829.134	5121
829.273	5258
829.412	5208
829.551	5147
829.69	5223
829.829	5261
829.968	5398
830.107	5322
830.246	5315
830.385	5178
830.524	5197
830.663	5128
830.802	4946
830.941	4915
831.08	4881
831.219	5037
831.357	5014
831.496	5193
831.635	4991
831.774	4923
831.913	4892
832.051	4748
832.19	4828
832.329	4850
832.467	4714
832.606	4675
832.744	4725
832.883	4778
833.022	4744
833.16	4812
833.299	4850
833.437	4801
833.576	4889
833.714	4850
833.852	4904
833.991	4927
834.129	5025
834.267	5010
834.406	4946
834.544	4972
834.682	5033
834.821	4987
834.959	5201
835.097	5071
835.235	5143
835.373	5109
835.511	5094
835.65	5083
835.788	5052
835.926	4953
836.064	4942
836.202	4934
836.34	5151
836.478	5261
836.615	5174
836.753	5220
836.891	5334
837.029	5269
837.167	5258
837.305	5166
837.443	5155
837.58	5113
837.718	5296
837.856	5242
837.993	5174
838.131	5239
838.269	5193
838.406	5216
838.544	5201
838.681	5025
838.819	5090
838.956	4919
839.094	4889
839.231	5006
839.369	5018
839.506	5429
839.643	5258
839.781	5189
839.918	5041
840.055	5132
840.193	5178
840.33	5159
840.467	5201
840.604	5250
840.742	5455
840.879	5075
841.016	5140
841.153	5117
841.29	5398
841.427	5372
841.564	5360
841.701	5398
841.838	5307
841.975	5258
842.112	5280
842.249	5174
842.385	5121
842.522	5368
842.659	5117
842.796	5185
842.933	5250
843.069	5159
843.206	5201
843.343	5265
843.479	5231
843.616	5315
843.752	5094
843.889	5025
844.025	5235
844.162	5102
844.298	5235
844.435	5071
844.571	5083
844.708	5220
844.844	5383
844.98	5387
845.117	5341
845.253	5174
845.389	5102
845.525	5178
845.661	5155
845.798	5056
845.934	5189
846.07	5025
846.206	5250
846.342	5326
846.478	5155
846.614	5064
846.75	4995
846.886	5006
847.022	5151
847.158	5052
847.294	5060
847.429	5121
847.565	5060
847.701	5334
847.837	4877
847.972	4870
848.108	4987
848.244	4961
848.379	4778
848.515	4748
848.65	4717
848.786	4771
848.921	4828
849.057	4904
849.192	4896
849.328	4858
849.463	4816
849.598	4824
849.734	4801
849.869	4736
850.004	4622
850.14	4740
850.275	4668
850.41	4596
850.545	4630
850.68	4630
850.815	4599
850.95	4679
851.085	4835
851.22	4786
851.355	4637
851.49	4645
851.625	4664
851.76	4626
851.895	4554
852.03	4577
852.165	4702
852.299	4733
852.434	4839
852.569	4805
852.703	4812
852.838	4858
852.973	4976
853.107	4915
853.242	4786
853.376	4717
853.511	4554
853.645	4618
853.78	4805
853.914	4698
854.048	4687
854.183	4668
854.317	4755
854.451	4873
854.585	4744
854.72	4634
854.854	4820
854.988	4626
855.122	4706
855.256	4569
855.39	4630
855.524	4759
855.658	4744
855.792	4733
855.926	4714
856.06	4797
856.194	4858
856.327	4717
856.461	4615
856.595	4679
856.729	4664
856.862	4786
856.996	4736
857.13	4759
857.263	4797
857.397	4786
857.53	4660
857.664	4778
857.797	4790
857.931	4793
858.064	4740
858.197	4824
858.331	4702
858.464	4660
858.597	4577
858.731	4687
858.864	4679
858.997	4649
859.13	4683
859.263	4714
859.396	4729
859.529	4615
859.662	4580
859.795	4580
859.928	4675
860.061	4771
860.194	4782
860.327	4603
860.46	4565
860.592	4702
860.725	4698
860.858	4759
860.99	4637
861.123	4603
861.256	4550
861.388	4641
861.521	5455
861.653	4527
861.786	4462
861.918	4474
862.05	4527
862.183	4573
862.315	4611
862.447	4679
862.58	4584
862.712	4478
862.844	4291
862.976	4497
863.108	4493
863.24	4858
863.372	4356
863.504	4405
863.636	4371
863.768	4459
863.9	4462
864.032	4333
864.164	4417
864.296	4478
864.428	4561
864.559	4588
864.691	4565
864.823	4573
864.954	4478
865.086	4523
865.217	4485
865.349	4447
865.48	4436
865.612	4565
865.743	4599
865.875	4512
866.006	4466
866.137	4516
866.269	4481
866.4	4455
866.531	4474
866.662	4367
866.793	4459
866.924	4470
867.055	4542
867.186	4447
867.317	4436
867.448	4337
867.579	4375
867.71	4436
867.841	4356
867.972	4478
868.103	4470
868.233	4508
868.364	4466
868.495	4481
868.625	4717
868.756	4748
868.886	4630
869.017	4615
869.147	4774
869.278	4790
869.408	4656
869.539	4634
869.669	4740
869.799	4679
869.929	4790
870.06	4786
870.19	4961
870.32	4961
870.45	4987
870.58	5037
870.71	5113
870.84	5124
870.97	4927
871.1	4965
871.23	5109
871.36	5121
871.489	5025
871.619	5136
871.749	5117
871.879	5128
872.008	5204
872.138	5109
872.267	5045
872.397	4889
872.526	4870
872.656	4767
872.785	4820
872.915	4995
873.044	5041
873.173	4965
873.303	5029
873.432	4957
873.561	4961
873.69	4919
873.819	4839
873.948	4961
874.077	4835
874.206	4744
874.335	4820
874.464	4911
874.593	5041
874.722	4968
874.851	5159
874.979	5098
875.108	5060
875.237	4949
875.365	4953
875.494	4942
875.623	4984
875.751	4805
875.88	4923
876.008	4976
876.136	5056
876.265	5185
876.393	5345
876.521	5246
876.65	5258
876.778	5201
876.906	5113
877.034	5029
877.162	5041
877.29	4995
877.418	5052
877.546	5052
877.674	5048
877.802	5048
877.93	5010
878.058	4991
878.185	4881
878.313	4942
878.441	4934
878.568	4831
878.696	4923
878.824	4953
878.951	5094
879.079	5151
879.206	5277
879.333	5140
879.461	4957
879.588	4980
879.715	5159
879.842	5254
879.97	4999
880.097	4744
880.224	4748
880.351	4809
880.478	4854
880.605	4820
880.732	4843
880.859	5117
880.986	4934
881.112	4934
881.239	4809
881.366	4698
881.493	4630
881.619	4592
881.746	4637
881.872	4683
881.999	4634
882.125	4706
882.252	4812
882.378	4797
882.505	4987
882.631	4797
882.757	4664
882.883	4748
883.01	4733
883.136	4664
883.262	4675
883.388	4634
883.514	4839
883.64	4885
883.766	4805
883.892	4683
884.018	4725
884.143	4942
884.269	5037
884.395	4687
884.52	4641
884.646	4698
884.772	4649
884.897	4565
885.023	4656
885.148	4809
885.274	4900
885.399	4839
885.524	4763
885.65	4729
885.775	4771
885.9	4759
886.025	4828
886.15	4812
886.275	4736
886.4	4664
886.525	4698
886.65	4653
886.775	4744
886.9	4934
887.025	5094
887.149	4805
887.274	4694
887.399	4573
887.523	4592
887.648	4550
887.773	4698
887.897	4759
888.021	4835
888.146	4736
888.27	4828
888.395	4900
888.519	4828
888.643	4862
888.767	4858
888.891	4725
889.015	4577
889.139	4603
889.263	4641
889.387	4744
889.511	4862
889.635	4820
889.759	4664
889.883	4668
890.006	4725
890.13	4824
890.254	4668
890.377	4618
890.501	4592
890.624	4523
890.748	4622
890.871	4516
890.995	4428
891.118	4421
891.241	4546
891.364	4580
891.488	4702
891.611	4527
891.734	4535
891.857	4592
891.98	4535
892.103	4672
892.226	4565
892.349	4573
892.471	4405
892.594	4535
892.717	4626
892.839	4649
892.962	4618
893.085	4675
893.207	4622
893.33	4466
893.452	4542
893.575	4675
893.697	4569
893.819	4831
893.941	4828
894.064	4790
894.186	4565
894.308	4558
894.43	4767
894.552	4831
894.674	4786
894.796	4561
894.918	4599
895.04	4596
895.161	4717
895.283	4702
895.405	4596
895.526	4637
895.648	4668
895.769	4649
895.891	4748
896.012	4782
896.134	4698
896.255	4683
896.376	4634
896.498	4672
896.619	4664
896.74	4615
896.861	4622
896.982	4915
897.103	5109
897.224	4797
897.345	4729
897.466	4687
897.587	4729
897.708	4904
897.828	4793
897.949	4729
898.07	4561
898.19	4656
898.311	4889
898.431	4672
898.552	4752
898.672	4812
898.792	4831
898.913	4763
899.033	4615
899.153	4535
899.273	4440
899.393	4500
899.513	4535
899.633	4542
899.753	4523
899.873	4497
899.993	4580
900.113	4561
900.232	4596
900.352	4519
900.472	4489
900.591	4432
900.711	4466
900.83	4447
900.95	4580
901.069	4694
901.189	4516
901.308	4398
901.427	4325
901.546	4333
901.665	4489
901.784	4485
901.904	4367
902.023	4291
902.141	4227
902.26	4204
902.379	4329
902.498	4257
902.617	4238
902.735	4356
902.854	4363
902.973	4375
903.091	4246
903.21	4238
903.328	4310
903.446	4268
903.565	4246
903.683	4306
903.801	4268
903.919	4402
904.038	4440
904.156	4333
904.274	4481
904.392	4405
904.51	4470
904.627	4470
904.745	4637
904.863	4634
904.981	4402
905.098	4280
905.216	4417
905.334	4405
905.451	4451
905.569	4421
905.686	4531
905.803	4531
905.921	4421
906.038	4558
906.155	4474
906.272	4417
906.389	4474
906.506	4360
906.623	4371
906.74	4421
906.857	4383
906.974	4386
907.091	4588
907.208	4668
907.324	4637
907.441	4519
907.557	4360
907.674	4356
907.79	4344
907.907	4432
908.023	4447
908.139	4500
908.256	4432
908.372	4497
908.488	4455
908.604	4314
908.72	4318
908.836	4390
908.952	4352
909.068	4466
909.184	4577
909.3	4504
909.415	4618
909.531	4535
909.647	4360
909.762	4383
909.878	4394
909.993	4470
910.108	4394
910.224	4398
910.339	4489
910.454	4383
910.57	4371
910.685	4375
910.8	4687
910.915	4607
911.03	4459
911.145	4352
911.259	4318
911.374	4352
911.489	4295
911.604	4310
911.718	4204
911.833	4188
911.947	4074
912.062	4055
912.176	4207
912.291	4227
912.405	4242
912.519	4497
912.633	4519
912.748	4344
912.862	4356
912.976	4249
913.09	4074
913.204	4173
913.318	4234
913.431	4402
913.545	4386
913.659	4436
913.772	4333
913.886	4253
914	4265
914.113	4390
914.226	4489
914.34	4398
914.453	4238
914.566	4459
914.68	4291
914.793	4344
914.906	4120
915.019	4143
915.132	4105
915.245	4166
915.358	4188
915.47	4268
915.583	4284
915.696	4344
915.809	4432
915.921	4432
916.034	4219
916.146	4280
916.259	4261
916.371	4402
916.483	4360
916.595	4257
916.708	4333
916.82	4367
916.932	4314
917.044	4329
917.156	4333
917.268	4204
917.38	4333
917.491	4261
917.603	4303
917.715	4440
917.826	4474
917.938	4360
918.049	4234
918.161	4367
918.272	4538
918.384	4508
918.495	4497
918.606	4299
918.717	4276
918.828	4367
918.939	4344
919.05	4223
919.161	4394
919.272	4169
919.383	4227
919.494	4447
919.604	4615
919.715	4405
919.826	4367
919.936	4375
920.047	4527
920.157	4493
920.267	4740
920.378	4588
920.488	4546
920.598	4706
920.708	4873
920.818	4706
920.928	4809
921.038	4927
921.148	4949
921.258	4660
921.368	4527
921.477	4527
921.587	4440
921.697	4325
921.806	4554
921.916	4451
922.025	4325
922.134	4295
922.244	4204
922.353	4322
922.462	4181
922.571	4154
922.68	4025
922.789	3998
922.898	4093
923.007	3953
923.116	4105
923.224	4074
923.333	4116
923.442	4074
923.55	4048
923.659	4006
923.767	4082
923.876	4013
923.984	4093
924.092	3968
924.201	4029
924.309	4147
924.417	4173
924.525	4055
924.633	4131
924.741	5060
924.849	3915
924.956	4162
925.064	3972
925.172	3861
925.279	3960
925.387	4055
925.494	4067
925.602	4192
925.709	4181
925.816	4036
925.924	4166
926.031	4169
926.138	4158
926.245	4192
926.352	4105
926.459	4204
926.566	4284
926.673	4204
926.779	4116
926.886	4074
926.993	3956
927.099	3937
927.206	3968
927.312	3953
927.419	4059
927.525	4006
927.631	4051
927.737	3983
927.843	3926
927.95	3812
928.056	3956
928.162	3991
928.267	4036
928.373	4649
928.479	4109
928.585	3857
928.69	4036
928.796	4082
928.901	3926
929.007	3869
929.112	4032
929.218	3987
929.323	3994
929.428	3987
929.533	4086
929.638	3934
929.743	3945
929.848	4090
929.953	4040
930.058	3972
930.163	3793
930.267	3827
930.372	3994
930.477	3793
930.581	4086
930.685	3991
930.79	3846
930.894	3915
930.998	3831
931.103	4021
931.207	3724
931.311	3690
931.415	3694
931.519	3530
931.623	3545
