Data from test_V78500241_2754.txt Node
Date: Fri Mar 25 17:08:09 CST 2022
User: usil
Spectrometer: V785-0024
Trigger mode: 0
Integration Time (sec): 4.000000E-1
Scans to average: 1
Nonlinearity correction enabled: false
Boxcar width: 0
Storing dark spectrum: false
XAxis mode: Wavelengths
Number of Pixels in Spectrum: 1024
>>>>>Begin Spectral Data<<<<<
801.071	7932
801.214	7997
801.356	7906
801.499	7845
801.641	7788
801.783	7830
801.926	8016
802.068	8016
802.211	8005
802.353	8020
802.496	7875
802.638	7864
802.78	7921
802.923	7928
803.065	7932
803.208	7868
803.35	7959
803.492	8138
803.635	8134
803.777	8073
803.919	8096
804.061	8457
804.204	8176
804.346	8130
804.488	8039
804.63	8058
804.773	7989
804.915	8107
805.057	8343
805.199	8176
805.341	8191
805.483	8279
805.626	8221
805.768	8168
805.91	8237
806.052	8263
806.194	8153
806.336	8351
806.478	8103
806.62	8096
806.762	8157
806.904	8275
807.046	8476
807.188	8393
807.33	8339
807.472	8412
807.614	8206
807.756	8187
807.898	8005
808.04	7947
808.182	7936
808.324	7909
808.465	7868
808.607	8058
808.749	8126
808.891	8233
809.033	8317
809.174	8199
809.316	8107
809.458	8043
809.6	7993
809.741	8111
809.883	8035
810.025	8115
810.166	8084
810.308	8008
810.45	7955
810.591	7894
810.733	7780
810.875	7742
811.016	7540
811.158	7502
811.299	7575
811.441	7803
811.582	7788
811.724	7605
811.865	7586
812.007	7563
812.148	7620
812.29	7658
812.431	7761
812.573	7909
812.714	8008
812.855	8149
812.997	8199
813.138	8298
813.279	8054
813.421	8126
813.562	8054
813.703	7890
813.845	7807
813.986	7476
814.127	7285
814.268	7232
814.41	7171
814.551	7225
814.692	7137
814.833	7069
814.974	7133
815.115	7076
815.256	7008
815.397	6882
815.539	6951
815.68	6886
815.821	6833
815.962	6897
816.103	6840
816.244	6730
816.385	6604
816.526	6688
816.666	6532
816.807	6289
816.948	6456
817.089	6486
817.23	6452
817.371	6426
817.512	6429
817.653	6410
817.793	6346
817.934	6448
818.075	6467
818.216	6437
818.356	6372
818.497	6251
818.638	6121
818.778	6125
818.919	6114
819.06	6171
819.2	6331
819.341	6369
819.481	6369
819.622	6544
819.762	6741
819.903	6707
820.043	6631
820.184	6597
820.324	6627
820.465	6738
820.605	6677
820.746	6589
820.886	6498
821.026	6760
821.167	6700
821.307	6806
821.447	6776
821.588	6597
821.728	6566
821.868	6456
822.008	6281
822.149	6410
822.289	6342
822.429	6148
822.569	6091
822.709	6125
822.849	5908
822.99	5931
823.13	5946
823.27	5893
823.41	5779
823.55	5767
823.69	5752
823.83	5729
823.97	5611
824.11	5509
824.25	5516
824.389	5562
824.529	5554
824.669	5512
824.809	5642
824.949	5691
825.089	5619
825.228	5592
825.368	5379
825.508	5303
825.648	5368
825.787	5417
825.927	5406
826.067	5318
826.206	5292
826.346	5360
826.485	5452
826.625	5429
826.765	5566
826.904	5425
827.044	5265
827.183	5235
827.323	5151
827.462	5277
827.601	5151
827.741	5166
827.88	5246
828.02	5090
828.159	5220
828.298	5303
828.437	5349
828.577	5330
828.716	5482
828.855	5322
828.994	5147
829.134	5132
829.273	5250
829.412	5113
829.551	5147
829.69	5189
829.829	5231
829.968	5368
830.107	5349
830.246	5261
830.385	5166
830.524	5109
830.663	5090
830.802	4927
830.941	4923
831.08	4877
831.219	4942
831.357	4949
831.496	5151
831.635	4927
831.774	4858
831.913	4896
832.051	4694
832.19	4733
832.329	4843
832.467	4683
832.606	4675
832.744	4729
832.883	4782
833.022	4710
833.16	4755
833.299	4850
833.437	4824
833.576	4843
833.714	4843
833.852	4847
833.991	4900
834.129	4923
834.267	4904
834.406	4904
834.544	4991
834.682	4972
834.821	4991
834.959	5178
835.097	4972
835.235	5098
835.373	5071
835.511	5037
835.65	5067
835.788	5060
835.926	4915
836.064	4900
836.202	4919
836.34	5159
836.478	5284
836.615	5208
836.753	5254
836.891	5292
837.029	5261
837.167	5174
837.305	5136
837.443	5151
837.58	5079
837.718	5227
837.856	5185
837.993	5124
838.131	5242
838.269	5216
838.406	5231
838.544	5189
838.681	5025
838.819	4987
838.956	4892
839.094	4881
839.231	4987
839.369	5086
839.506	5433
839.643	5269
839.781	5048
839.918	5045
840.055	5048
840.193	5041
840.33	5140
840.467	5060
840.604	5151
840.742	5425
840.879	5083
841.016	5132
841.153	5124
841.29	5353
841.427	5345
841.564	5277
841.701	5299
841.838	5311
841.975	5204
842.112	5250
842.249	5178
842.385	5140
842.522	5318
842.659	5204
842.796	5117
842.933	5201
843.069	5174
843.206	5231
843.343	5299
843.479	5201
843.616	5239
843.752	5037
843.889	5029
844.025	5166
844.162	4995
844.298	5201
844.435	5105
844.571	5052
844.708	5193
844.844	5303
844.98	5334
845.117	5254
845.253	5197
845.389	5045
845.525	5113
845.661	5136
845.798	5083
845.934	5128
846.07	5083
846.206	5242
846.342	5318
846.478	5189
846.614	5048
846.75	4995
846.886	4946
847.022	5121
847.158	4984
847.294	5102
847.429	5060
847.565	5045
847.701	5330
847.837	4885
847.972	4797
848.108	4942
848.244	4949
848.379	4809
848.515	4717
848.65	4733
848.786	4733
848.921	4782
849.057	4900
849.192	4854
849.328	4828
849.463	4847
849.598	4805
849.734	4740
849.869	4702
850.004	4649
850.14	4694
850.275	4577
850.41	4565
850.545	4558
850.68	4603
850.815	4626
850.95	4580
851.085	4831
851.22	4736
851.355	4656
851.49	4592
851.625	4653
851.76	4641
851.895	4580
852.03	4489
852.165	4637
852.299	4710
852.434	4793
852.569	4752
852.703	4744
852.838	4831
852.973	4904
853.107	4911
853.242	4736
853.376	4672
853.511	4512
853.645	4607
853.78	4812
853.914	4668
854.048	4679
854.183	4687
854.317	4683
854.451	4839
854.585	4645
854.72	4615
854.854	4782
854.988	4615
855.122	4641
855.256	4519
855.39	4656
855.524	4797
855.658	4729
855.792	4664
855.926	4714
856.06	4755
856.194	4820
856.327	4683
856.461	4634
856.595	4637
856.729	4649
856.862	4744
856.996	4672
857.13	4714
857.263	4786
857.397	4763
857.53	4664
857.664	4755
857.797	4759
857.931	4805
858.064	4706
858.197	4725
858.331	4653
858.464	4611
858.597	4554
858.731	4611
858.864	4618
858.997	4592
859.13	4653
859.263	4687
859.396	4683
859.529	4592
859.662	4588
859.795	4550
859.928	4641
860.061	4740
860.194	4721
860.327	4634
860.46	4535
860.592	4691
860.725	4698
860.858	4714
860.99	4569
861.123	4519
861.256	4542
861.388	4641
861.521	5299
861.653	4527
861.786	4432
861.918	4462
862.05	4478
862.183	4580
862.315	4603
862.447	4679
862.58	4542
862.712	4394
862.844	4341
862.976	4462
863.108	4481
863.24	4748
863.372	4379
863.504	4447
863.636	4405
863.768	4451
863.9	4383
864.032	4303
864.164	4413
864.296	4489
864.428	4542
864.559	4554
864.691	4508
864.823	4485
864.954	4519
865.086	4459
865.217	4481
865.349	4409
865.48	4455
865.612	4402
865.743	4626
865.875	4470
866.006	4451
866.137	4405
866.269	4405
866.4	4436
866.531	4478
866.662	4398
866.793	4417
866.924	4428
867.055	4462
867.186	4447
867.317	4352
867.448	4367
867.579	4417
867.71	4379
867.841	4352
867.972	4459
868.103	4451
868.233	4466
868.364	4443
868.495	4489
868.625	4664
868.756	4744
868.886	4538
869.017	4615
869.147	4748
869.278	4733
869.408	4607
869.539	4641
869.669	4679
869.799	4698
869.929	4763
870.06	4744
870.19	4965
870.32	4942
870.45	4923
870.58	4965
870.71	5064
870.84	5094
870.97	4934
871.1	4919
871.23	5109
871.36	5159
871.489	5067
871.619	5064
871.749	5071
871.879	5159
872.008	5162
872.138	5071
872.267	4984
872.397	4862
872.526	4824
872.656	4759
872.785	4824
872.915	4934
873.044	5003
873.173	4987
873.303	4972
873.432	4919
873.561	5014
873.69	4854
873.819	4835
873.948	4870
874.077	4847
874.206	4778
874.335	4839
874.464	4892
874.593	5083
874.722	4968
874.851	5170
874.979	5033
875.108	5018
875.237	4946
875.365	4816
875.494	4870
875.623	4976
875.751	4839
875.88	4850
876.008	4972
876.136	5060
876.265	5155
876.393	5315
876.521	5258
876.65	5216
876.778	5128
876.906	5113
877.034	5060
877.162	4991
877.29	5037
877.418	5086
877.546	5075
877.674	5018
877.802	4980
877.93	4976
878.058	4908
878.185	4892
878.313	4930
878.441	4942
878.568	4763
878.696	4816
878.824	4972
878.951	4965
879.079	5117
879.206	5254
879.333	5121
879.461	4957
879.588	5029
879.715	5140
879.842	5246
879.97	4991
880.097	4782
880.224	4744
880.351	4755
880.478	4820
880.605	4790
880.732	4831
880.859	5086
880.986	4828
881.112	4919
881.239	4812
881.366	4710
881.493	4626
881.619	4615
881.746	4577
881.872	4653
881.999	4664
882.125	4668
882.252	4839
882.378	4809
882.505	4980
882.631	4801
882.757	4653
882.883	4744
883.01	4736
883.136	4679
883.262	4603
883.388	4607
883.514	4797
883.64	4828
883.766	4797
883.892	4710
884.018	4637
884.143	4904
884.269	4972
884.395	4630
884.52	4637
884.646	4634
884.772	4630
884.897	4599
885.023	4672
885.148	4755
885.274	4850
885.399	4820
885.524	4744
885.65	4710
885.775	4805
885.9	4763
886.025	4870
886.15	4816
886.275	4683
886.4	4618
886.525	4702
886.65	4717
886.775	4683
886.9	4858
887.025	5090
887.149	4793
887.274	4675
887.399	4577
887.523	4615
887.648	4607
887.773	4622
887.897	4736
888.021	4767
888.146	4645
888.27	4816
888.395	4919
888.519	4862
888.643	4828
888.767	4866
888.891	4694
889.015	4630
889.139	4607
889.263	4611
889.387	4752
889.511	4889
889.635	4782
889.759	4668
889.883	4622
890.006	4721
890.13	4793
890.254	4664
890.377	4706
890.501	4573
890.624	4527
890.748	4607
890.871	4512
890.995	4466
891.118	4390
891.241	4531
891.364	4519
891.488	4637
891.611	4508
891.734	4527
891.857	4630
891.98	4561
892.103	4637
892.226	4580
892.349	4512
892.471	4424
892.594	4580
892.717	4565
892.839	4569
892.962	4588
893.085	4668
893.207	4577
893.33	4478
893.452	4485
893.575	4607
893.697	4580
893.819	4793
893.941	4820
894.064	4721
894.186	4565
894.308	4580
894.43	4694
894.552	4843
894.674	4774
894.796	4592
894.918	4577
895.04	4588
895.161	4694
895.283	4630
895.405	4660
895.526	4626
895.648	4656
895.769	4672
895.891	4767
896.012	4710
896.134	4733
896.255	4656
896.376	4664
896.498	4558
896.619	4687
896.74	4584
896.861	4664
896.982	4889
897.103	5064
897.224	4812
897.345	4736
897.466	4675
897.587	4736
897.708	4828
897.828	4778
897.949	4691
898.07	4554
898.19	4634
898.311	4809
898.431	4626
898.552	4755
898.672	4755
898.792	4774
898.913	4774
899.033	4588
899.153	4538
899.273	4462
899.393	4455
899.513	4569
899.633	4527
899.753	4512
899.873	4478
899.993	4569
900.113	4580
900.232	4565
900.352	4523
900.472	4531
900.591	4383
900.711	4497
900.83	4447
900.95	4588
901.069	4675
901.189	4531
901.308	4398
901.427	4314
901.546	4409
901.665	4436
901.784	4504
901.904	4379
902.023	4379
902.141	4150
902.26	4204
902.379	4299
902.498	4242
902.617	4204
902.735	4325
902.854	4390
902.973	4375
903.091	4257
903.21	4265
903.328	4299
903.446	4299
903.565	4223
903.683	4379
903.801	4303
903.919	4371
904.038	4417
904.156	4371
904.274	4440
904.392	4386
904.51	4436
904.627	4440
904.745	4565
904.863	4630
904.981	4417
905.098	4322
905.216	4394
905.334	4371
905.451	4413
905.569	4424
905.686	4535
905.803	4580
905.921	4398
906.038	4577
906.155	4436
906.272	4390
906.389	4474
906.506	4322
906.623	4352
906.74	4383
906.857	4276
906.974	4344
907.091	4580
907.208	4637
907.324	4615
907.441	4466
907.557	4325
907.674	4344
907.79	4337
907.907	4405
908.023	4523
908.139	4436
908.256	4417
908.372	4485
908.488	4481
908.604	4314
908.72	4371
908.836	4363
908.952	4371
909.068	4436
909.184	4584
909.3	4474
909.415	4577
909.531	4531
909.647	4394
909.762	4348
909.878	4379
909.993	4424
910.108	4421
910.224	4424
910.339	4466
910.454	4466
910.57	4371
910.685	4272
910.8	4660
910.915	4622
911.03	4440
911.145	4329
911.259	4303
911.374	4344
911.489	4341
911.604	4314
911.718	4147
911.833	4177
911.947	4101
912.062	4071
912.176	4238
912.291	4280
912.405	4215
912.519	4474
912.633	4485
912.748	4417
912.862	4344
912.976	4253
913.09	4101
913.204	4173
913.318	4299
913.431	4390
913.545	4383
913.659	4428
913.772	4352
913.886	4253
914	4219
914.113	4383
914.226	4417
914.34	4424
914.453	4185
914.566	4428
914.68	4306
914.793	4352
914.906	4196
915.019	4124
915.132	4105
915.245	4227
915.358	4185
915.47	4227
915.583	4257
915.696	4299
915.809	4462
915.921	4421
916.034	4253
916.146	4265
916.259	4173
916.371	4367
916.483	4322
916.595	4238
916.708	4303
916.82	4299
916.932	4322
917.044	4348
917.156	4360
917.268	4242
917.38	4272
917.491	4246
917.603	4379
917.715	4394
917.826	4459
917.938	4356
918.049	4234
918.161	4360
918.272	4561
918.384	4577
918.495	4474
918.606	4284
918.717	4204
918.828	4341
918.939	4352
919.05	4215
919.161	4367
919.272	4139
919.383	4230
919.494	4459
919.604	4634
919.715	4443
919.826	4322
919.936	4402
920.047	4523
920.157	4451
920.267	4721
920.378	4542
920.488	4538
920.598	4698
920.708	4900
920.818	4736
920.928	4759
921.038	4972
921.148	4927
921.258	4645
921.368	4523
921.477	4462
921.587	4470
921.697	4363
921.806	4558
921.916	4440
922.025	4272
922.134	4268
922.244	4223
922.353	4333
922.462	4166
922.571	4101
922.68	4010
922.789	3979
922.898	4025
923.007	3994
923.116	4051
923.224	4078
923.333	4074
923.442	4006
923.55	3991
923.659	4055
923.767	4090
923.876	3994
923.984	4135
924.092	3994
924.201	4090
924.309	4051
924.417	4143
924.525	4040
924.633	4090
924.741	4991
924.849	3899
924.956	4131
925.064	3972
925.172	3873
925.279	3979
925.387	4067
925.494	4059
925.602	4223
925.709	4185
925.816	4097
925.924	4124
926.031	4188
926.138	4162
926.245	4265
926.352	4116
926.459	4268
926.566	4329
926.673	4177
926.779	4082
926.886	4044
926.993	4017
927.099	3983
927.206	3991
927.312	3960
927.419	4044
927.525	4032
927.631	4010
927.737	3956
927.843	3968
927.95	3831
928.056	3972
928.162	3953
928.267	4013
928.373	4714
928.479	4147
928.585	3892
928.69	4021
928.796	4029
928.901	4006
929.007	3838
929.112	4013
929.218	4002
929.323	3949
929.428	3934
929.533	4101
929.638	3903
929.743	3964
929.848	4036
929.953	4013
930.058	3896
930.163	3751
930.267	3804
930.372	3998
930.477	3793
930.581	4090
930.685	3968
930.79	3823
930.894	3861
930.998	3850
931.103	4021
931.207	3705
931.311	3701
931.415	3667
931.519	3542
931.623	3507
