Data from test_V78500241_113.txt Node
Date: Fri Mar 25 16:49:47 CST 2022
User: usil
Spectrometer: V785-0024
Trigger mode: 0
Integration Time (sec): 4.000000E-1
Scans to average: 1
Nonlinearity correction enabled: false
Boxcar width: 0
Storing dark spectrum: false
XAxis mode: Wavelengths
Number of Pixels in Spectrum: 1024
>>>>>Begin Spectral Data<<<<<
801.071	8050
801.214	8012
801.356	7890
801.499	7997
801.641	7856
801.783	7849
801.926	8031
802.068	8020
802.211	8092
802.353	8001
802.496	7864
802.638	7902
802.78	7909
802.923	7959
803.065	7875
803.208	7890
803.35	7955
803.492	8065
803.635	8130
803.777	7970
803.919	8092
804.061	8412
804.204	8115
804.346	8016
804.488	7936
804.63	8084
804.773	7967
804.915	8107
805.057	8275
805.199	8142
805.341	8214
805.483	8282
805.626	8161
805.768	8054
805.91	8172
806.052	8233
806.194	8088
806.336	8317
806.478	8065
806.62	8077
806.762	8240
806.904	8237
807.046	8499
807.188	8355
807.33	8301
807.472	8343
807.614	8237
807.756	8119
807.898	8084
808.04	7925
808.182	7967
808.324	7898
808.465	7940
808.607	8016
808.749	8069
808.891	8256
809.033	8282
809.174	8210
809.316	8058
809.458	8092
809.6	7974
809.741	8058
809.883	8119
810.025	8161
810.166	8103
810.308	8027
810.45	8020
810.591	7898
810.733	7807
810.875	7674
811.016	7540
811.158	7495
811.299	7643
811.441	7750
811.582	7746
811.724	7628
811.865	7613
812.007	7636
812.148	7647
812.29	7643
812.431	7837
812.573	7989
812.714	7997
812.855	8225
812.997	8271
813.138	8438
813.279	8286
813.421	8176
813.562	8058
813.703	7967
813.845	7761
813.986	7518
814.127	7316
814.268	7301
814.41	7221
814.551	7228
814.692	7266
814.833	7133
814.974	7149
815.115	7232
815.256	7034
815.397	6951
815.539	6981
815.68	6848
815.821	6829
815.962	6837
816.103	6848
816.244	6722
816.385	6662
816.526	6631
816.666	6544
816.807	6388
816.948	6471
817.089	6471
817.23	6513
817.371	6433
817.512	6399
817.653	6426
817.793	6365
817.934	6464
818.075	6498
818.216	6506
818.356	6471
818.497	6258
818.638	6159
818.778	6213
818.919	6186
819.06	6133
819.2	6323
819.341	6376
819.481	6426
819.622	6578
819.762	6798
819.903	6669
820.043	6635
820.184	6620
820.324	6612
820.465	6700
820.605	6700
820.746	6707
820.886	6536
821.026	6677
821.167	6734
821.307	6753
821.447	6726
821.588	6677
821.728	6563
821.868	6551
822.008	6395
822.149	6395
822.289	6399
822.429	6209
822.569	6083
822.709	6114
822.849	5969
822.99	5939
823.13	5992
823.27	5901
823.41	5840
823.55	5828
823.69	5771
823.83	5805
823.97	5676
824.11	5653
824.25	5551
824.389	5592
824.529	5600
824.669	5558
824.809	5676
824.949	5642
825.089	5668
825.228	5615
825.368	5387
825.508	5334
825.648	5398
825.787	5406
825.927	5436
826.067	5360
826.206	5307
826.346	5383
826.485	5357
826.625	5425
826.765	5539
826.904	5497
827.044	5269
827.183	5204
827.323	5162
827.462	5273
827.601	5227
827.741	5223
827.88	5227
828.02	5174
828.159	5265
828.298	5273
828.437	5360
828.577	5307
828.716	5493
828.855	5349
828.994	5193
829.134	5166
829.273	5220
829.412	5143
829.551	5159
829.69	5136
829.829	5307
829.968	5383
830.107	5299
830.246	5292
830.385	5162
830.524	5204
830.663	5098
830.802	4984
830.941	4908
831.08	4896
831.219	4984
831.357	4980
831.496	5162
831.635	4987
831.774	4896
831.913	4908
832.051	4771
832.19	4729
832.329	4831
832.467	4691
832.606	4637
832.744	4759
832.883	4714
833.022	4691
833.16	4790
833.299	4850
833.437	4778
833.576	4847
833.714	4885
833.852	4873
833.991	4923
834.129	4968
834.267	4984
834.406	4949
834.544	5003
834.682	5029
834.821	5003
834.959	5170
835.097	4980
835.235	5124
835.373	5162
835.511	5155
835.65	5056
835.788	5045
835.926	4930
836.064	4877
836.202	4953
836.34	5204
836.478	5220
836.615	5143
836.753	5250
836.891	5284
837.029	5231
837.167	5204
837.305	5208
837.443	5178
837.58	5147
837.718	5201
837.856	5223
837.993	5162
838.131	5212
838.269	5284
838.406	5204
838.544	5197
838.681	5022
838.819	5098
838.956	4938
839.094	4904
839.231	5048
839.369	5105
839.506	5471
839.643	5284
839.781	5143
839.918	5010
840.055	5109
840.193	5083
840.33	5124
840.467	5166
840.604	5201
840.742	5493
840.879	5022
841.016	5105
841.153	5151
841.29	5372
841.427	5368
841.564	5364
841.701	5391
841.838	5284
841.975	5223
842.112	5265
842.249	5151
842.385	5159
842.522	5345
842.659	5227
842.796	5140
842.933	5239
843.069	5155
843.206	5201
843.343	5299
843.479	5261
843.616	5311
843.752	5025
843.889	4987
844.025	5216
844.162	4987
844.298	5227
844.435	5132
844.571	5071
844.708	5235
844.844	5326
844.98	5410
845.117	5296
845.253	5147
845.389	5086
845.525	5170
845.661	5105
845.798	5037
845.934	5159
846.07	5048
846.206	5231
846.342	5322
846.478	5189
846.614	5094
846.75	4968
846.886	4934
847.022	5166
847.158	4987
847.294	5109
847.429	5143
847.565	5094
847.701	5364
847.837	4892
847.972	4839
848.108	4961
848.244	4972
848.379	4771
848.515	4748
848.65	4717
848.786	4698
848.921	4831
849.057	4904
849.192	4923
849.328	4824
849.463	4847
849.598	4805
849.734	4793
849.869	4694
850.004	4672
850.14	4714
850.275	4577
850.41	4558
850.545	4577
850.68	4645
850.815	4641
850.95	4660
851.085	4858
851.22	4736
851.355	4694
851.49	4637
851.625	4637
851.76	4668
851.895	4618
852.03	4512
852.165	4634
852.299	4748
852.434	4790
852.569	4824
852.703	4790
852.838	4850
852.973	4908
853.107	4953
853.242	4793
853.376	4702
853.511	4596
853.645	4679
853.78	4801
853.914	4714
854.048	4706
854.183	4694
854.317	4744
854.451	4881
854.585	4649
854.72	4649
854.854	4774
854.988	4660
855.122	4637
855.256	4561
855.39	4672
855.524	4820
855.658	4721
855.792	4717
855.926	4763
856.06	4786
856.194	4828
856.327	4733
856.461	4656
856.595	4634
856.729	4615
856.862	4774
856.996	4725
857.13	4809
857.263	4752
857.397	4839
857.53	4714
857.664	4767
857.797	4748
857.931	4847
858.064	4736
858.197	4801
858.331	4630
858.464	4611
858.597	4516
858.731	4649
858.864	4622
858.997	4626
859.13	4698
859.263	4675
859.396	4736
859.529	4607
859.662	4584
859.795	4546
859.928	4656
860.061	4847
860.194	4778
860.327	4637
860.46	4588
860.592	4729
860.725	4752
860.858	4748
860.99	4630
861.123	4497
861.256	4535
861.388	4622
861.521	5284
861.653	4500
861.786	4459
861.918	4459
862.05	4436
862.183	4554
862.315	4596
862.447	4649
862.58	4500
862.712	4436
862.844	4291
862.976	4478
863.108	4497
863.24	4881
863.372	4386
863.504	4443
863.636	4440
863.768	4512
863.9	4481
864.032	4360
864.164	4428
864.296	4508
864.428	4596
864.559	4584
864.691	4588
864.823	4542
864.954	4497
865.086	4523
865.217	4466
865.349	4413
865.48	4455
865.612	4546
865.743	4679
865.875	4519
866.006	4436
866.137	4497
866.269	4455
866.4	4455
866.531	4405
866.662	4436
866.793	4421
866.924	4421
867.055	4489
867.186	4481
867.317	4421
867.448	4386
867.579	4371
867.71	4413
867.841	4390
867.972	4474
868.103	4462
868.233	4455
868.364	4375
868.495	4504
868.625	4714
868.756	4748
868.886	4607
869.017	4599
869.147	4752
869.278	4793
869.408	4691
869.539	4664
869.669	4782
869.799	4683
869.929	4797
870.06	4778
870.19	4942
870.32	4930
870.45	4949
870.58	5041
870.71	5102
870.84	5121
870.97	4957
871.1	4919
871.23	5151
871.36	5121
871.489	5052
871.619	5136
871.749	5132
871.879	5166
872.008	5174
872.138	5045
872.267	4968
872.397	4854
872.526	4809
872.656	4748
872.785	4809
872.915	4980
873.044	5037
873.173	4965
873.303	4984
873.432	4927
873.561	5003
873.69	4873
873.819	4850
873.948	4934
874.077	4831
874.206	4771
874.335	4801
874.464	4919
874.593	5136
874.722	4972
874.851	5136
874.979	5102
875.108	5121
875.237	4942
875.365	4900
875.494	4873
875.623	5033
875.751	4870
875.88	4896
876.008	5022
876.136	5102
876.265	5227
876.393	5387
876.521	5284
876.65	5204
876.778	5170
876.906	5102
877.034	5037
877.162	5079
877.29	5022
877.418	5056
877.546	5102
877.674	5064
877.802	5037
877.93	5071
878.058	4892
878.185	4908
878.313	5014
878.441	4946
878.568	4801
878.696	4877
878.824	4980
878.951	5041
879.079	5132
879.206	5273
879.333	5083
879.461	4984
879.588	5014
879.715	5121
879.842	5250
879.97	4987
880.097	4843
880.224	4733
880.351	4831
880.478	4835
880.605	4793
880.732	4778
880.859	5086
880.986	4938
881.112	4930
881.239	4786
881.366	4691
881.493	4611
881.619	4599
881.746	4622
881.872	4641
881.999	4656
882.125	4694
882.252	4824
882.378	4843
882.505	4949
882.631	4816
882.757	4702
882.883	4717
883.01	4725
883.136	4649
883.262	4603
883.388	4611
883.514	4850
883.64	4835
883.766	4850
883.892	4683
884.018	4778
884.143	4911
884.269	4995
884.395	4641
884.52	4637
884.646	4649
884.772	4588
884.897	4603
885.023	4664
885.148	4790
885.274	4881
885.399	4881
885.524	4656
885.65	4717
885.775	4755
885.9	4733
886.025	4847
886.15	4797
886.275	4698
886.4	4656
886.525	4755
886.65	4691
886.775	4714
886.9	4896
887.025	5025
887.149	4835
887.274	4683
887.399	4607
887.523	4618
887.648	4554
887.773	4565
887.897	4771
888.021	4839
888.146	4714
888.27	4778
888.395	4889
888.519	4809
888.643	4816
888.767	4858
888.891	4733
889.015	4607
889.139	4664
889.263	4588
889.387	4793
889.511	4866
889.635	4786
889.759	4664
889.883	4691
890.006	4733
890.13	4812
890.254	4603
890.377	4702
890.501	4527
890.624	4519
890.748	4641
890.871	4531
890.995	4405
891.118	4405
891.241	4512
891.364	4538
891.488	4702
891.611	4485
891.734	4592
891.857	4615
891.98	4554
892.103	4683
892.226	4584
892.349	4596
892.471	4405
892.594	4550
892.717	4603
892.839	4573
892.962	4588
893.085	4668
893.207	4653
893.33	4466
893.452	4516
893.575	4668
893.697	4592
893.819	4816
893.941	4873
894.064	4782
894.186	4569
894.308	4588
894.43	4790
894.552	4858
894.674	4816
894.796	4584
894.918	4664
895.04	4561
895.161	4782
895.283	4694
895.405	4599
895.526	4645
895.648	4717
895.769	4691
895.891	4793
896.012	4771
896.134	4725
896.255	4752
896.376	4645
896.498	4645
896.619	4725
896.74	4714
896.861	4660
896.982	4976
897.103	5128
897.224	4866
897.345	4824
897.466	4733
897.587	4835
897.708	4930
897.828	4801
897.949	4691
898.07	4641
898.19	4679
898.311	4858
898.431	4740
898.552	4790
898.672	4847
898.792	4847
898.913	4816
899.033	4687
899.153	4596
899.273	4462
899.393	4615
899.513	4596
899.633	4569
899.753	4618
899.873	4634
899.993	4672
900.113	4569
900.232	4634
900.352	4645
900.472	4550
900.591	4493
900.711	4478
900.83	4478
900.95	4649
901.069	4778
901.189	4607
901.308	4417
901.427	4390
901.546	4402
901.665	4542
901.784	4603
901.904	4447
902.023	4413
902.141	4207
902.26	4192
902.379	4371
902.498	4284
902.617	4268
902.735	4447
902.854	4474
902.973	4375
903.091	4280
903.21	4295
903.328	4352
903.446	4329
903.565	4295
903.683	4409
903.801	4314
903.919	4447
904.038	4466
904.156	4417
904.274	4508
904.392	4462
904.51	4474
904.627	4523
904.745	4622
904.863	4691
904.981	4478
905.098	4379
905.216	4409
905.334	4508
905.451	4478
905.569	4508
905.686	4603
905.803	4637
905.921	4447
906.038	4592
906.155	4519
906.272	4459
906.389	4493
906.506	4341
906.623	4447
906.74	4485
906.857	4348
906.974	4398
907.091	4634
907.208	4759
907.324	4615
907.441	4546
907.557	4405
907.674	4409
907.79	4383
907.907	4436
908.023	4573
908.139	4519
908.256	4493
908.372	4516
908.488	4493
908.604	4405
908.72	4379
908.836	4428
908.952	4402
909.068	4497
909.184	4588
909.3	4554
909.415	4603
909.531	4599
909.647	4413
909.762	4390
909.878	4466
909.993	4478
910.108	4451
910.224	4474
910.339	4512
910.454	4428
910.57	4417
910.685	4363
910.8	4706
910.915	4675
911.03	4550
911.145	4318
911.259	4356
911.374	4436
911.489	4318
911.604	4379
911.718	4253
911.833	4249
911.947	4166
912.062	4116
912.176	4272
912.291	4287
912.405	4268
912.519	4561
912.633	4558
912.748	4409
912.862	4394
912.976	4257
913.09	4135
913.204	4238
913.318	4287
913.431	4390
913.545	4424
913.659	4516
913.772	4424
913.886	4299
914	4280
914.113	4493
914.226	4523
914.34	4436
914.453	4295
914.566	4478
914.68	4333
914.793	4371
914.906	4185
915.019	4196
915.132	4162
915.245	4185
915.358	4249
915.47	4272
915.583	4314
915.696	4398
915.809	4485
915.921	4500
916.034	4325
916.146	4280
916.259	4276
916.371	4394
916.483	4421
916.595	4303
916.708	4398
916.82	4371
916.932	4344
917.044	4440
917.156	4356
917.268	4352
917.38	4318
917.491	4371
917.603	4371
917.715	4432
917.826	4508
917.938	4383
918.049	4341
918.161	4478
918.272	4637
918.384	4596
918.495	4569
918.606	4386
918.717	4303
918.828	4394
918.939	4409
919.05	4261
919.161	4390
919.272	4185
919.383	4314
919.494	4421
919.604	4706
919.715	4489
919.826	4447
919.936	4489
920.047	4569
920.157	4535
920.267	4782
920.378	4599
920.488	4527
920.598	4744
920.708	4961
920.818	4816
920.928	4698
921.038	5003
921.148	4999
921.258	4717
921.368	4573
921.477	4550
921.587	4497
921.697	4466
921.806	4607
921.916	4474
922.025	4329
922.134	4310
922.244	4284
922.353	4398
922.462	4204
922.571	4211
922.68	4044
922.789	4036
922.898	4093
923.007	4051
923.116	4173
923.224	4166
923.333	4131
923.442	4051
923.55	4086
923.659	4128
923.767	4147
923.876	4017
923.984	4158
924.092	4048
924.201	4139
924.309	4162
924.417	4181
924.525	4128
924.633	4143
924.741	4938
924.849	3918
924.956	4169
925.064	4013
925.172	3953
925.279	4017
925.387	4051
925.494	4032
925.602	4265
925.709	4211
925.816	4067
925.924	4169
926.031	4306
926.138	4211
926.245	4249
926.352	4162
926.459	4257
926.566	4352
926.673	4211
926.779	4139
926.886	4158
926.993	4032
927.099	4059
927.206	3998
927.312	3991
927.419	4128
927.525	4101
927.631	4131
927.737	3998
927.843	3983
927.95	3934
928.056	3998
928.162	4021
928.267	4097
928.373	4637
928.479	4162
928.585	3945
928.69	4055
928.796	4105
928.901	3987
929.007	3865
929.112	4017
929.218	3979
929.323	3987
929.428	4010
929.533	4204
929.638	3937
929.743	4017
929.848	4093
929.953	4029
930.058	3975
930.163	3819
930.267	3888
930.372	4032
930.477	3880
930.581	4105
930.685	4010
930.79	3846
930.894	3911
930.998	3876
931.103	4071
931.207	3759
931.311	3713
931.415	3713
931.519	3572
931.623	3625
