Data from test_V78500241_2847.txt Node
Date: Fri Mar 25 17:08:47 CST 2022
User: usil
Spectrometer: V785-0024
Trigger mode: 0
Integration Time (sec): 4.000000E-1
Scans to average: 1
Nonlinearity correction enabled: false
Boxcar width: 0
Storing dark spectrum: false
XAxis mode: Wavelengths
Number of Pixels in Spectrum: 1024
>>>>>Begin Spectral Data<<<<<
801.071	7967
801.214	8020
801.356	7875
801.499	7894
801.641	7792
801.783	7788
801.926	8027
802.068	7932
802.211	7959
802.353	8081
802.496	7906
802.638	7879
802.78	7963
802.923	7989
803.065	7852
803.208	7849
803.35	7936
803.492	8092
803.635	8199
803.777	8016
803.919	8187
804.061	8393
804.204	8138
804.346	8046
804.488	8008
804.63	8096
804.773	8073
804.915	8180
805.057	8275
805.199	8145
805.341	8225
805.483	8275
805.626	8252
805.768	8176
805.91	8153
806.052	8187
806.194	8142
806.336	8320
806.478	8092
806.62	8016
806.762	8084
806.904	8233
807.046	8347
807.188	8324
807.33	8358
807.472	8366
807.614	8164
807.756	8115
807.898	7970
808.04	7864
808.182	7936
808.324	7898
808.465	7963
808.607	8138
808.749	8073
808.891	8263
809.033	8263
809.174	8259
809.316	8043
809.458	8138
809.6	8039
809.741	8031
809.883	8031
810.025	8088
810.166	8005
810.308	8054
810.45	8046
810.591	7887
810.733	7731
810.875	7666
811.016	7457
811.158	7514
811.299	7518
811.441	7715
811.582	7689
811.724	7586
811.865	7563
812.007	7609
812.148	7575
812.29	7567
812.431	7753
812.573	7864
812.714	7986
812.855	8168
812.997	8225
813.138	8309
813.279	8119
813.421	8058
813.562	7974
813.703	7898
813.845	7734
813.986	7464
814.127	7263
814.268	7194
814.41	7247
814.551	7168
814.692	7168
814.833	7076
814.974	7031
815.115	7103
815.256	6954
815.397	6951
815.539	6935
815.68	6825
815.821	6772
815.962	6863
816.103	6825
816.244	6764
816.385	6597
816.526	6566
816.666	6536
816.807	6323
816.948	6388
817.089	6528
817.23	6429
817.371	6372
817.512	6399
817.653	6403
817.793	6391
817.934	6448
818.075	6460
818.216	6467
818.356	6323
818.497	6258
818.638	6125
818.778	6102
818.919	6148
819.06	6167
819.2	6327
819.341	6331
819.481	6369
819.622	6528
819.762	6745
819.903	6719
820.043	6593
820.184	6578
820.324	6559
820.465	6696
820.605	6665
820.746	6616
820.886	6483
821.026	6620
821.167	6707
821.307	6783
821.447	6730
821.588	6700
821.728	6551
821.868	6498
822.008	6262
822.149	6353
822.289	6441
822.429	6167
822.569	6079
822.709	6125
822.849	5927
822.99	5942
823.13	5931
823.27	5882
823.41	5748
823.55	5790
823.69	5733
823.83	5756
823.97	5672
824.11	5482
824.25	5478
824.389	5570
824.529	5551
824.669	5509
824.809	5596
824.949	5672
825.089	5699
825.228	5524
825.368	5372
825.508	5379
825.648	5364
825.787	5379
825.927	5387
826.067	5322
826.206	5269
826.346	5364
826.485	5387
826.625	5364
826.765	5501
826.904	5463
827.044	5299
827.183	5220
827.323	5124
827.462	5212
827.601	5189
827.741	5155
827.88	5235
828.02	5109
828.159	5258
828.298	5315
828.437	5383
828.577	5280
828.716	5452
828.855	5292
828.994	5159
829.134	5140
829.273	5159
829.412	5162
829.551	5121
829.69	5166
829.829	5212
829.968	5398
830.107	5269
830.246	5254
830.385	5204
830.524	5151
830.663	5014
830.802	4961
830.941	4892
831.08	4850
831.219	4968
831.357	4984
831.496	5185
831.635	4915
831.774	4850
831.913	4843
832.051	4763
832.19	4729
832.329	4816
832.467	4656
832.606	4592
832.744	4755
832.883	4714
833.022	4729
833.16	4797
833.299	4778
833.437	4820
833.576	4805
833.714	4820
833.852	4858
833.991	4904
834.129	4938
834.267	4946
834.406	4927
834.544	4972
834.682	4980
834.821	4911
834.959	5204
835.097	5014
835.235	5147
835.373	5105
835.511	5067
835.65	4984
835.788	5006
835.926	4847
836.064	4881
836.202	4892
836.34	5132
836.478	5227
836.615	5105
836.753	5197
836.891	5254
837.029	5208
837.167	5204
837.305	5155
837.443	5121
837.58	5083
837.718	5254
837.856	5201
837.993	5159
838.131	5258
838.269	5140
838.406	5136
838.544	5166
838.681	5033
838.819	4972
838.956	4892
839.094	4923
839.231	4938
839.369	5056
839.506	5398
839.643	5280
839.781	5056
839.918	5003
840.055	5052
840.193	5060
840.33	5079
840.467	5147
840.604	5201
840.742	5433
840.879	5075
841.016	5105
841.153	5132
841.29	5353
841.427	5345
841.564	5288
841.701	5387
841.838	5292
841.975	5162
842.112	5231
842.249	5105
842.385	5083
842.522	5307
842.659	5178
842.796	5132
842.933	5178
843.069	5162
843.206	5109
843.343	5292
843.479	5254
843.616	5250
843.752	5037
843.889	4999
844.025	5189
844.162	5025
844.298	5170
844.435	5121
844.571	5003
844.708	5216
844.844	5315
844.98	5402
845.117	5239
845.253	5162
845.389	5098
845.525	5121
845.661	5143
845.798	5010
845.934	5166
846.07	5048
846.206	5201
846.342	5341
846.478	5143
846.614	5033
846.75	4972
846.886	4938
847.022	5170
847.158	5006
847.294	5086
847.429	5098
847.565	5090
847.701	5345
847.837	4843
847.972	4854
848.108	4965
848.244	4968
848.379	4778
848.515	4748
848.65	4767
848.786	4797
848.921	4797
849.057	4908
849.192	4892
849.328	4824
849.463	4831
849.598	4801
849.734	4774
849.869	4744
850.004	4664
850.14	4736
850.275	4645
850.41	4546
850.545	4584
850.68	4672
850.815	4664
850.95	4679
851.085	4892
851.22	4805
851.355	4687
851.49	4672
851.625	4683
851.76	4687
851.895	4599
852.03	4550
852.165	4691
852.299	4725
852.434	4843
852.569	4793
852.703	4812
852.838	4885
852.973	4991
853.107	4980
853.242	4759
853.376	4717
853.511	4668
853.645	4641
853.78	4862
853.914	4771
854.048	4691
854.183	4668
854.317	4725
854.451	4843
854.585	4706
854.72	4672
854.854	4790
854.988	4603
855.122	4683
855.256	4561
855.39	4698
855.524	4828
855.658	4793
855.792	4752
855.926	4782
856.06	4752
856.194	4812
856.327	4714
856.461	4668
856.595	4675
856.729	4656
856.862	4812
856.996	4740
857.13	4763
857.263	4809
857.397	4831
857.53	4691
857.664	4721
857.797	4767
857.931	4831
858.064	4717
858.197	4774
858.331	4706
858.464	4656
858.597	4618
858.731	4622
858.864	4649
858.997	4607
859.13	4664
859.263	4702
859.396	4763
859.529	4630
859.662	4603
859.795	4573
859.928	4634
860.061	4797
860.194	4797
860.327	4653
860.46	4580
860.592	4721
860.725	4729
860.858	4782
860.99	4653
861.123	4554
861.256	4546
861.388	4672
861.521	5448
861.653	4466
861.786	4470
861.918	4481
862.05	4546
862.183	4580
862.315	4618
862.447	4672
862.58	4599
862.712	4462
862.844	4398
862.976	4470
863.108	4436
863.24	4801
863.372	4341
863.504	4424
863.636	4451
863.768	4497
863.9	4455
864.032	4371
864.164	4481
864.296	4531
864.428	4603
864.559	4626
864.691	4550
864.823	4550
864.954	4538
865.086	4561
865.217	4481
865.349	4459
865.48	4527
865.612	4546
865.743	4660
865.875	4504
866.006	4443
866.137	4489
866.269	4466
866.4	4478
866.531	4470
866.662	4447
866.793	4398
866.924	4383
867.055	4493
867.186	4481
867.317	4481
867.448	4409
867.579	4417
867.71	4421
867.841	4394
867.972	4470
868.103	4550
868.233	4478
868.364	4508
868.495	4481
868.625	4687
868.756	4828
868.886	4599
869.017	4694
869.147	4786
869.278	4820
869.408	4660
869.539	4668
869.669	4748
869.799	4763
869.929	4850
870.06	4786
870.19	5003
870.32	4892
870.45	4957
870.58	5018
870.71	5128
870.84	5079
870.97	4938
871.1	4911
871.23	5155
871.36	5128
871.489	5041
871.619	5090
871.749	5090
871.879	5197
872.008	5261
872.138	5064
872.267	4911
872.397	4885
872.526	4858
872.656	4748
872.785	4881
872.915	4984
873.044	5052
873.173	4942
873.303	4976
873.432	5010
873.561	4953
873.69	4900
873.819	4850
873.948	4946
874.077	4839
874.206	4873
874.335	4820
874.464	5014
874.593	5086
874.722	4972
874.851	5090
874.979	5098
875.108	5071
875.237	4949
875.365	4900
875.494	4866
875.623	5022
875.751	4889
875.88	4934
876.008	5018
876.136	5075
876.265	5204
876.393	5398
876.521	5322
876.65	5261
876.778	5132
876.906	5094
877.034	5079
877.162	5140
877.29	5006
877.418	5060
877.546	5090
877.674	5098
877.802	5067
877.93	5079
878.058	4972
878.185	4862
878.313	5048
878.441	5025
878.568	4854
878.696	4862
878.824	5022
878.951	5086
879.079	5201
879.206	5337
879.333	5109
879.461	5029
879.588	5025
879.715	5121
879.842	5231
879.97	5022
880.097	4805
880.224	4835
880.351	4843
880.478	4858
880.605	4843
880.732	4805
880.859	5136
880.986	4923
881.112	4976
881.239	4828
881.366	4679
881.493	4626
881.619	4611
881.746	4683
881.872	4656
881.999	4752
882.125	4710
882.252	4790
882.378	4843
882.505	4976
882.631	4816
882.757	4717
882.883	4714
883.01	4702
883.136	4733
883.262	4687
883.388	4687
883.514	4854
883.64	4862
883.766	4801
883.892	4698
884.018	4714
884.143	4930
884.269	5086
884.395	4714
884.52	4618
884.646	4687
884.772	4641
884.897	4622
885.023	4721
885.148	4812
885.274	4915
885.399	4866
885.524	4763
885.65	4687
885.775	4763
885.9	4736
886.025	4877
886.15	4839
886.275	4740
886.4	4653
886.525	4755
886.65	4717
886.775	4767
886.9	4915
887.025	5105
887.149	4831
887.274	4653
887.399	4660
887.523	4630
887.648	4550
887.773	4622
887.897	4748
888.021	4854
888.146	4675
888.27	4839
888.395	4927
888.519	4755
888.643	4790
888.767	4839
888.891	4721
889.015	4618
889.139	4694
889.263	4615
889.387	4812
889.511	4881
889.635	4786
889.759	4694
889.883	4630
890.006	4752
890.13	4831
890.254	4596
890.377	4710
890.501	4622
890.624	4542
890.748	4668
890.871	4478
890.995	4428
891.118	4443
891.241	4538
891.364	4569
891.488	4637
891.611	4519
891.734	4580
891.857	4649
891.98	4546
892.103	4683
892.226	4611
892.349	4558
892.471	4462
892.594	4603
892.717	4664
892.839	4618
892.962	4611
893.085	4721
893.207	4626
893.33	4535
893.452	4527
893.575	4691
893.697	4592
893.819	4793
893.941	4831
894.064	4843
894.186	4588
894.308	4618
894.43	4778
894.552	4870
894.674	4755
894.796	4573
894.918	4603
895.04	4565
895.161	4740
895.283	4698
895.405	4634
895.526	4660
895.648	4679
895.769	4702
895.891	4687
896.012	4729
896.134	4759
896.255	4691
896.376	4710
896.498	4630
896.619	4733
896.74	4618
896.861	4710
896.982	4927
897.103	5105
897.224	4854
897.345	4759
897.466	4691
897.587	4740
897.708	4885
897.828	4801
897.949	4687
898.07	4599
898.19	4634
898.311	4850
898.431	4717
898.552	4744
898.672	4850
898.792	4805
898.913	4786
899.033	4714
899.153	4531
899.273	4440
899.393	4538
899.513	4519
899.633	4584
899.753	4573
899.873	4550
899.993	4580
900.113	4531
900.232	4603
900.352	4580
900.472	4497
900.591	4421
900.711	4512
900.83	4459
900.95	4599
901.069	4710
901.189	4546
901.308	4367
901.427	4310
901.546	4383
901.665	4504
901.784	4516
901.904	4352
902.023	4360
902.141	4173
902.26	4158
902.379	4299
902.498	4310
902.617	4249
902.735	4440
902.854	4447
902.973	4383
903.091	4238
903.21	4249
903.328	4344
903.446	4284
903.565	4287
903.683	4318
903.801	4268
903.919	4421
904.038	4451
904.156	4318
904.274	4451
904.392	4428
904.51	4516
904.627	4474
904.745	4592
904.863	4664
904.981	4413
905.098	4318
905.216	4371
905.334	4436
905.451	4462
905.569	4462
905.686	4554
905.803	4580
905.921	4478
906.038	4580
906.155	4500
906.272	4417
906.389	4489
906.506	4352
906.623	4398
906.74	4421
906.857	4333
906.974	4413
907.091	4580
907.208	4714
907.324	4596
907.441	4493
907.557	4337
907.674	4402
907.79	4337
907.907	4375
908.023	4451
908.139	4481
908.256	4443
908.372	4489
908.488	4489
908.604	4367
908.72	4344
908.836	4413
908.952	4344
909.068	4455
909.184	4596
909.3	4470
909.415	4596
909.531	4519
909.647	4348
909.762	4447
909.878	4367
909.993	4436
910.108	4432
910.224	4421
910.339	4481
910.454	4405
910.57	4344
910.685	4356
910.8	4634
910.915	4615
911.03	4558
911.145	4318
911.259	4333
911.374	4383
911.489	4329
911.604	4284
911.718	4181
911.833	4253
911.947	4097
912.062	4032
912.176	4242
912.291	4314
912.405	4272
912.519	4489
912.633	4497
912.748	4367
912.862	4318
912.976	4253
913.09	4093
913.204	4211
913.318	4242
913.431	4360
913.545	4409
913.659	4421
913.772	4363
913.886	4291
914	4242
914.113	4424
914.226	4470
914.34	4478
914.453	4204
914.566	4428
914.68	4367
914.793	4322
914.906	4200
915.019	4143
915.132	4154
915.245	4227
915.358	4253
915.47	4295
915.583	4257
915.696	4337
915.809	4443
915.921	4466
916.034	4265
916.146	4284
916.259	4291
916.371	4432
916.483	4402
916.595	4314
916.708	4314
916.82	4371
916.932	4341
917.044	4375
917.156	4394
917.268	4272
917.38	4303
917.491	4352
917.603	4356
917.715	4474
917.826	4440
917.938	4424
918.049	4295
918.161	4462
918.272	4615
918.384	4584
918.495	4519
918.606	4394
918.717	4276
918.828	4390
918.939	4398
919.05	4333
919.161	4356
919.272	4173
919.383	4291
919.494	4500
919.604	4672
919.715	4481
919.826	4360
919.936	4394
920.047	4596
920.157	4531
920.267	4752
920.378	4573
920.488	4523
920.598	4744
920.708	4904
920.818	4774
920.928	4812
921.038	4991
921.148	4984
921.258	4714
921.368	4611
921.477	4519
921.587	4462
921.697	4508
921.806	4577
921.916	4459
922.025	4310
922.134	4337
922.244	4265
922.353	4367
922.462	4253
922.571	4173
922.68	4063
922.789	4029
922.898	4067
923.007	4025
923.116	4150
923.224	4120
923.333	4139
923.442	4025
923.55	4071
923.659	4059
923.767	4196
923.876	4032
923.984	4207
924.092	3956
924.201	4120
924.309	4101
924.417	4154
924.525	4143
924.633	4162
924.741	4938
924.849	3968
924.956	4204
925.064	3998
925.172	3960
925.279	4010
925.387	4074
925.494	4101
925.602	4280
925.709	4215
925.816	4067
925.924	4181
926.031	4291
926.138	4200
926.245	4215
926.352	4097
926.459	4306
926.566	4360
926.673	4238
926.779	4120
926.886	4116
926.993	4048
927.099	3972
927.206	3960
927.312	3964
927.419	4120
927.525	4074
927.631	4177
927.737	4025
927.843	3979
927.95	3846
928.056	3991
928.162	4051
928.267	4097
928.373	4615
928.479	4150
928.585	3892
928.69	4078
928.796	4101
928.901	4021
929.007	3896
929.112	4006
929.218	4029
929.323	4010
929.428	3937
929.533	4150
929.638	3968
929.743	4029
929.848	4105
929.953	4025
930.058	3979
930.163	3850
930.267	3892
930.372	4040
930.477	3857
930.581	4131
930.685	3964
930.79	3899
930.894	3880
930.998	3880
931.103	4090
931.207	3740
931.311	3728
931.415	3701
931.519	3523
931.623	3591
