Data from test_V78500241_112.txt Node
Date: Fri Mar 25 16:49:46 CST 2022
User: usil
Spectrometer: V785-0024
Trigger mode: 0
Integration Time (sec): 4.000000E-1
Scans to average: 1
Nonlinearity correction enabled: false
Boxcar width: 0
Storing dark spectrum: false
XAxis mode: Wavelengths
Number of Pixels in Spectrum: 1024
>>>>>Begin Spectral Data<<<<<
801.071	8008
801.214	8024
801.356	7970
801.499	7925
801.641	7795
801.783	7894
801.926	8077
802.068	8012
802.211	8054
802.353	8054
802.496	7959
802.638	7944
802.78	7951
802.923	7944
803.065	7936
803.208	7864
803.35	7967
803.492	8100
803.635	8157
803.777	8050
803.919	8111
804.061	8385
804.204	8145
804.346	8043
804.488	7932
804.63	8126
804.773	7997
804.915	8111
805.057	8355
805.199	8100
805.341	8183
805.483	8309
805.626	8210
805.768	8103
805.91	8202
806.052	8202
806.194	8046
806.336	8313
806.478	8084
806.62	8119
806.762	8149
806.904	8294
807.046	8427
807.188	8336
807.33	8370
807.472	8267
807.614	8176
807.756	8199
807.898	7978
808.04	7951
808.182	7849
808.324	7890
808.465	7940
808.607	8020
808.749	8115
808.891	8195
809.033	8347
809.174	8187
809.316	8043
809.458	8073
809.6	7993
809.741	8084
809.883	8039
810.025	8134
810.166	8020
810.308	8039
810.45	7963
810.591	7852
810.733	7868
810.875	7719
811.016	7540
811.158	7544
811.299	7624
811.441	7792
811.582	7734
811.724	7605
811.865	7620
812.007	7590
812.148	7609
812.29	7658
812.431	7868
812.573	7970
812.714	8016
812.855	8183
812.997	8336
813.138	8393
813.279	8290
813.421	8161
813.562	8115
813.703	7906
813.845	7750
813.986	7476
814.127	7289
814.268	7240
814.41	7247
814.551	7251
814.692	7263
814.833	7171
814.974	7183
815.115	7164
815.256	7057
815.397	6977
815.539	6962
815.68	6814
815.821	6818
815.962	6871
816.103	6783
816.244	6757
816.385	6650
816.526	6738
816.666	6566
816.807	6361
816.948	6448
817.089	6532
817.23	6486
817.371	6467
817.512	6407
817.653	6471
817.793	6433
817.934	6448
818.075	6498
818.216	6429
818.356	6445
818.497	6311
818.638	6129
818.778	6178
818.919	6159
819.06	6197
819.2	6376
819.341	6407
819.481	6414
819.622	6612
819.762	6783
819.903	6711
820.043	6551
820.184	6623
820.324	6601
820.465	6715
820.605	6673
820.746	6692
820.886	6578
821.026	6681
821.167	6745
821.307	6806
821.447	6806
821.588	6700
821.728	6654
821.868	6585
822.008	6361
822.149	6433
822.289	6399
822.429	6213
822.569	6178
822.709	6209
822.849	5969
822.99	5965
823.13	5984
823.27	5946
823.41	5878
823.55	5809
823.69	5851
823.83	5809
823.97	5748
824.11	5642
824.25	5615
824.389	5634
824.529	5684
824.669	5585
824.809	5745
824.949	5745
825.089	5703
825.228	5611
825.368	5452
825.508	5433
825.648	5410
825.787	5410
825.927	5398
826.067	5376
826.206	5360
826.346	5429
826.485	5501
826.625	5486
826.765	5615
826.904	5558
827.044	5311
827.183	5223
827.323	5212
827.462	5337
827.601	5193
827.741	5273
827.88	5269
828.02	5170
828.159	5265
828.298	5357
828.437	5444
828.577	5345
828.716	5501
828.855	5391
828.994	5216
829.134	5147
829.273	5258
829.412	5212
829.551	5265
829.69	5220
829.829	5288
829.968	5448
830.107	5360
830.246	5368
830.385	5265
830.524	5201
830.663	5083
830.802	5083
830.941	4942
831.08	4919
831.219	5098
831.357	5006
831.496	5227
831.635	5003
831.774	4965
831.913	4896
832.051	4736
832.19	4839
832.329	4946
832.467	4706
832.606	4645
832.744	4778
832.883	4755
833.022	4767
833.16	4824
833.299	4923
833.437	4824
833.576	4911
833.714	4919
833.852	4900
833.991	4949
834.129	5018
834.267	4999
834.406	4927
834.544	5060
834.682	5041
834.821	5033
834.959	5185
835.097	5041
835.235	5197
835.373	5102
835.511	5121
835.65	5086
835.788	5048
835.926	4938
836.064	4873
836.202	4942
836.34	5250
836.478	5326
836.615	5147
836.753	5292
836.891	5360
837.029	5337
837.167	5277
837.305	5204
837.443	5212
837.58	5105
837.718	5269
837.856	5277
837.993	5174
838.131	5337
838.269	5292
838.406	5299
838.544	5204
838.681	5151
838.819	5064
838.956	4927
839.094	4961
839.231	5025
839.369	5170
839.506	5501
839.643	5349
839.781	5113
839.918	5083
840.055	5143
840.193	5147
840.33	5181
840.467	5193
840.604	5307
840.742	5490
840.879	5174
841.016	5128
841.153	5201
841.29	5402
841.427	5402
841.564	5349
841.701	5364
841.838	5292
841.975	5322
842.112	5345
842.249	5132
842.385	5159
842.522	5402
842.659	5208
842.796	5151
842.933	5220
843.069	5235
843.206	5170
843.343	5337
843.479	5284
843.616	5337
843.752	5117
843.889	5045
844.025	5254
844.162	5094
844.298	5239
844.435	5102
844.571	5094
844.708	5227
844.844	5376
844.98	5448
845.117	5322
845.253	5201
845.389	5128
845.525	5162
845.661	5242
845.798	5048
845.934	5151
846.07	5075
846.206	5254
846.342	5345
846.478	5197
846.614	5102
846.75	4999
846.886	5025
847.022	5193
847.158	5113
847.294	5128
847.429	5143
847.565	5090
847.701	5440
847.837	4873
847.972	4820
848.108	4984
848.244	4984
848.379	4839
848.515	4759
848.65	4771
848.786	4790
848.921	4831
849.057	4892
849.192	4927
849.328	4885
849.463	4919
849.598	4801
849.734	4816
849.869	4778
850.004	4653
850.14	4698
850.275	4702
850.41	4588
850.545	4573
850.68	4653
850.815	4664
850.95	4668
851.085	4835
851.22	4809
851.355	4721
851.49	4702
851.625	4736
851.76	4710
851.895	4615
852.03	4580
852.165	4691
852.299	4790
852.434	4824
852.569	4767
852.703	4870
852.838	4908
852.973	4999
853.107	4938
853.242	4809
853.376	4694
853.511	4592
853.645	4664
853.78	4862
853.914	4740
854.048	4752
854.183	4702
854.317	4755
854.451	4885
854.585	4729
854.72	4683
854.854	4858
854.988	4717
855.122	4626
855.256	4561
855.39	4702
855.524	4870
855.658	4733
855.792	4744
855.926	4778
856.06	4797
856.194	4847
856.327	4733
856.461	4664
856.595	4668
856.729	4706
856.862	4752
856.996	4702
857.13	4740
857.263	4782
857.397	4812
857.53	4702
857.664	4748
857.797	4782
857.931	4835
858.064	4698
858.197	4801
858.331	4634
858.464	4694
858.597	4561
858.731	4725
858.864	4702
858.997	4698
859.13	4736
859.263	4710
859.396	4782
859.529	4645
859.662	4588
859.795	4588
859.928	4653
860.061	4809
860.194	4854
860.327	4679
860.46	4596
860.592	4740
860.725	4790
860.858	4801
860.99	4550
861.123	4596
861.256	4558
861.388	4660
861.521	5292
861.653	4558
861.786	4516
861.918	4519
862.05	4603
862.183	4596
862.315	4649
862.447	4698
862.58	4637
862.712	4470
862.844	4383
862.976	4508
863.108	4546
863.24	4953
863.372	4409
863.504	4489
863.636	4428
863.768	4538
863.9	4447
864.032	4348
864.164	4447
864.296	4504
864.428	4592
864.559	4584
864.691	4542
864.823	4599
864.954	4558
865.086	4588
865.217	4550
865.349	4428
865.48	4508
865.612	4580
865.743	4630
865.875	4481
866.006	4489
866.137	4542
866.269	4497
866.4	4459
866.531	4459
866.662	4428
866.793	4470
866.924	4500
867.055	4535
867.186	4485
867.317	4485
867.448	4428
867.579	4516
867.71	4447
867.841	4363
867.972	4512
868.103	4500
868.233	4500
868.364	4481
868.495	4531
868.625	4660
868.756	4782
868.886	4603
869.017	4702
869.147	4797
869.278	4816
869.408	4668
869.539	4710
869.669	4759
869.799	4759
869.929	4843
870.06	4782
870.19	4991
870.32	4919
870.45	4957
870.58	5060
870.71	5128
870.84	5094
870.97	4984
871.1	4938
871.23	5239
871.36	5159
871.489	5048
871.619	5147
871.749	5140
871.879	5143
872.008	5265
872.138	5105
872.267	5010
872.397	4908
872.526	4850
872.656	4790
872.785	4892
872.915	4980
873.044	5075
873.173	4965
873.303	5045
873.432	5045
873.561	5033
873.69	4957
873.819	4900
873.948	4949
874.077	4858
874.206	4752
874.335	4824
874.464	5006
874.593	5086
874.722	4995
874.851	5094
874.979	5117
875.108	5060
875.237	4961
875.365	4938
875.494	4908
875.623	5014
875.751	4881
875.88	4911
876.008	5029
876.136	5124
876.265	5265
876.393	5368
876.521	5273
876.65	5223
876.778	5216
876.906	5052
877.034	5094
877.162	5105
877.29	5037
877.418	5098
877.546	5105
877.674	5132
877.802	5094
877.93	5083
878.058	4961
878.185	4858
878.313	4991
878.441	5029
878.568	4809
878.696	4938
878.824	4991
878.951	5033
879.079	5140
879.206	5349
879.333	5204
879.461	5037
879.588	5025
879.715	5178
879.842	5261
879.97	5045
880.097	4809
880.224	4801
880.351	4831
880.478	4881
880.605	4790
880.732	4809
880.859	5140
880.986	4961
881.112	4915
881.239	4866
881.366	4698
881.493	4691
881.619	4603
881.746	4679
881.872	4702
881.999	4679
882.125	4748
882.252	4835
882.378	4839
882.505	5003
882.631	4805
882.757	4714
882.883	4771
883.01	4797
883.136	4710
883.262	4630
883.388	4683
883.514	4809
883.64	4892
883.766	4805
883.892	4694
884.018	4755
884.143	4896
884.269	5022
884.395	4679
884.52	4683
884.646	4691
884.772	4615
884.897	4660
885.023	4714
885.148	4831
885.274	4854
885.399	4843
885.524	4759
885.65	4710
885.775	4790
885.9	4717
886.025	4911
886.15	4774
886.275	4740
886.4	4706
886.525	4782
886.65	4744
886.775	4717
886.9	4934
887.025	5113
887.149	4847
887.274	4702
887.399	4607
887.523	4687
887.648	4626
887.773	4622
887.897	4793
888.021	4831
888.146	4687
888.27	4854
888.395	4923
888.519	4835
888.643	4820
888.767	4877
888.891	4702
889.015	4641
889.139	4668
889.263	4649
889.387	4778
889.511	4915
889.635	4877
889.759	4664
889.883	4702
890.006	4793
890.13	4892
890.254	4622
890.377	4740
890.501	4569
890.624	4565
890.748	4668
890.871	4516
890.995	4470
891.118	4451
891.241	4538
891.364	4546
891.488	4702
891.611	4531
891.734	4584
891.857	4599
891.98	4622
892.103	4710
892.226	4634
892.349	4542
892.471	4451
892.594	4603
892.717	4596
892.839	4565
892.962	4626
893.085	4691
893.207	4615
893.33	4512
893.452	4497
893.575	4683
893.697	4554
893.819	4862
893.941	4870
894.064	4805
894.186	4615
894.308	4622
894.43	4774
894.552	4858
894.674	4805
894.796	4596
894.918	4649
895.04	4588
895.161	4744
895.283	4637
895.405	4626
895.526	4675
895.648	4755
895.769	4733
895.891	4752
896.012	4774
896.134	4763
896.255	4721
896.376	4683
896.498	4683
896.619	4733
896.74	4656
896.861	4664
896.982	4957
897.103	5102
897.224	4835
897.345	4778
897.466	4706
897.587	4774
897.708	4862
897.828	4816
897.949	4725
898.07	4622
898.19	4679
898.311	4847
898.431	4691
898.552	4729
898.672	4881
898.792	4850
898.913	4763
899.033	4679
899.153	4561
899.273	4474
899.393	4531
899.513	4554
899.633	4584
899.753	4573
899.873	4523
899.993	4580
900.113	4577
900.232	4611
900.352	4588
900.472	4481
900.591	4436
900.711	4489
900.83	4474
900.95	4679
901.069	4714
901.189	4573
901.308	4409
901.427	4356
901.546	4424
901.665	4523
901.784	4561
901.904	4371
902.023	4360
902.141	4188
902.26	4200
902.379	4367
902.498	4257
902.617	4291
902.735	4398
902.854	4379
902.973	4383
903.091	4246
903.21	4249
903.328	4333
903.446	4318
903.565	4329
903.683	4432
903.801	4276
903.919	4417
904.038	4470
904.156	4363
904.274	4489
904.392	4443
904.51	4459
904.627	4516
904.745	4603
904.863	4687
904.981	4455
905.098	4295
905.216	4386
905.334	4447
905.451	4432
905.569	4485
905.686	4512
905.803	4630
905.921	4432
906.038	4626
906.155	4504
906.272	4421
906.389	4466
906.506	4409
906.623	4443
906.74	4428
906.857	4344
906.974	4394
907.091	4611
907.208	4698
907.324	4611
907.441	4519
907.557	4371
907.674	4402
907.79	4322
907.907	4421
908.023	4546
908.139	4500
908.256	4481
908.372	4451
908.488	4421
908.604	4367
908.72	4367
908.836	4405
908.952	4394
909.068	4474
909.184	4603
909.3	4489
909.415	4569
909.531	4630
909.647	4360
909.762	4421
909.878	4360
909.993	4527
910.108	4428
910.224	4451
910.339	4470
910.454	4405
910.57	4371
910.685	4318
910.8	4691
910.915	4653
911.03	4500
911.145	4348
911.259	4329
911.374	4402
911.489	4314
911.604	4284
911.718	4223
911.833	4246
911.947	4093
912.062	4048
912.176	4265
912.291	4242
912.405	4268
912.519	4485
912.633	4493
912.748	4367
912.862	4363
912.976	4253
913.09	4169
913.204	4196
913.318	4337
913.431	4409
913.545	4394
913.659	4474
913.772	4417
913.886	4246
914	4276
914.113	4405
914.226	4481
914.34	4459
914.453	4242
914.566	4447
914.68	4386
914.793	4398
914.906	4192
915.019	4192
915.132	4090
915.245	4230
915.358	4265
915.47	4211
915.583	4280
915.696	4299
915.809	4443
915.921	4455
916.034	4257
916.146	4253
916.259	4234
916.371	4405
916.483	4409
916.595	4318
916.708	4344
916.82	4402
916.932	4375
917.044	4356
917.156	4409
917.268	4276
917.38	4325
917.491	4272
917.603	4341
917.715	4424
917.826	4497
917.938	4398
918.049	4306
918.161	4417
918.272	4558
918.384	4546
918.495	4504
918.606	4341
918.717	4257
918.828	4390
918.939	4386
919.05	4280
919.161	4272
919.272	4147
919.383	4246
919.494	4470
919.604	4634
919.715	4432
919.826	4428
919.936	4459
920.047	4561
920.157	4447
920.267	4755
920.378	4546
920.488	4485
920.598	4740
920.708	4923
920.818	4797
920.928	4828
921.038	4980
921.148	4942
921.258	4626
921.368	4561
921.477	4504
921.587	4478
921.697	4402
921.806	4580
921.916	4466
922.025	4265
922.134	4280
922.244	4204
922.353	4375
922.462	4185
922.571	4169
922.68	4067
922.789	4010
922.898	4090
923.007	4055
923.116	4112
923.224	4120
923.333	4131
923.442	4029
923.55	3998
923.659	4071
923.767	4101
923.876	4025
923.984	4147
924.092	4017
924.201	4131
924.309	4101
924.417	4154
924.525	4059
924.633	4143
924.741	4904
924.849	3934
924.956	4166
925.064	3975
925.172	3918
925.279	3987
925.387	4059
925.494	4048
925.602	4253
925.709	4230
925.816	4105
925.924	4166
926.031	4280
926.138	4211
926.245	4238
926.352	4116
926.459	4253
926.566	4322
926.673	4173
926.779	4093
926.886	4101
926.993	3998
927.099	4002
927.206	3937
927.312	3968
927.419	4109
927.525	4051
927.631	4112
927.737	4002
927.843	3968
927.95	3876
928.056	3945
928.162	4036
928.267	4086
928.373	4596
928.479	4109
928.585	3903
928.69	4021
928.796	4109
928.901	4032
929.007	3838
929.112	4044
929.218	4017
929.323	3998
929.428	3979
929.533	4139
929.638	3907
929.743	3998
929.848	4029
929.953	4036
930.058	3949
930.163	3854
930.267	3838
930.372	3987
930.477	3857
930.581	4128
930.685	3953
930.79	3823
930.894	3945
930.998	3899
931.103	4021
931.207	3690
931.311	3720
931.415	3671
931.519	3538
931.623	3595
