Data from test_V78500241_938.txt Node
Date: Fri Mar 25 16:55:31 CST 2022
User: usil
Spectrometer: V785-0024
Trigger mode: 0
Integration Time (sec): 4.000000E-1
Scans to average: 1
Nonlinearity correction enabled: false
Boxcar width: 0
Storing dark spectrum: false
XAxis mode: Wavelengths
Number of Pixels in Spectrum: 1024
>>>>>Begin Spectral Data<<<<<
801.071	8001
801.214	7989
801.356	7932
801.499	7841
801.641	7814
801.783	7833
801.926	7928
802.068	7947
802.211	7951
802.353	7883
802.496	7822
802.638	7795
802.78	7909
802.923	7932
803.065	7928
803.208	7894
803.35	8039
803.492	8100
803.635	8161
803.777	7963
803.919	8161
804.061	8465
804.204	8210
804.346	8035
804.488	7875
804.63	8081
804.773	8016
804.915	8031
805.057	8343
805.199	8161
805.341	8199
805.483	8233
805.626	8153
805.768	8065
805.91	8240
806.052	8237
806.194	8092
806.336	8286
806.478	8176
806.62	8039
806.762	8123
806.904	8229
807.046	8431
807.188	8301
807.33	8305
807.472	8290
807.614	8130
807.756	8103
807.898	7986
808.04	7864
808.182	7928
808.324	7860
808.465	7860
808.607	8073
808.749	8084
808.891	8153
809.033	8218
809.174	8168
809.316	8096
809.458	8058
809.6	7894
809.741	7963
809.883	8035
810.025	8035
810.166	8039
810.308	8016
810.45	7989
810.591	7909
810.733	7795
810.875	7639
811.016	7544
811.158	7430
811.299	7597
811.441	7639
811.582	7681
811.724	7563
811.865	7521
812.007	7506
812.148	7590
812.29	7628
812.431	7738
812.573	7898
812.714	7963
812.855	8111
812.997	8225
813.138	8320
813.279	8130
813.421	8130
813.562	8054
813.703	7898
813.845	7761
813.986	7499
814.127	7274
814.268	7278
814.41	7160
814.551	7053
814.692	7126
814.833	7034
814.974	7019
815.115	7133
815.256	6913
815.397	6890
815.539	6947
815.68	6863
815.821	6806
815.962	6810
816.103	6882
816.244	6711
816.385	6623
816.526	6631
816.666	6525
816.807	6277
816.948	6486
817.089	6460
817.23	6452
817.371	6395
817.512	6361
817.653	6422
817.793	6369
817.934	6445
818.075	6437
818.216	6395
818.356	6426
818.497	6194
818.638	6144
818.778	6106
818.919	6057
819.06	6163
819.2	6262
819.341	6338
819.481	6311
819.622	6536
819.762	6707
819.903	6673
820.043	6593
820.184	6578
820.324	6608
820.465	6696
820.605	6631
820.746	6623
820.886	6479
821.026	6642
821.167	6700
821.307	6859
821.447	6738
821.588	6601
821.728	6574
821.868	6486
822.008	6281
822.149	6391
822.289	6388
822.429	6102
822.569	6072
822.709	6076
822.849	5901
822.99	5893
823.13	5893
823.27	5859
823.41	5771
823.55	5752
823.69	5752
823.83	5756
823.97	5668
824.11	5570
824.25	5535
824.389	5516
824.529	5532
824.669	5558
824.809	5589
824.949	5646
825.089	5558
825.228	5532
825.368	5421
825.508	5383
825.648	5368
825.787	5383
825.927	5414
826.067	5288
826.206	5284
826.346	5357
826.485	5353
826.625	5398
826.765	5532
826.904	5467
827.044	5220
827.183	5208
827.323	5124
827.462	5227
827.601	5208
827.741	5178
827.88	5216
828.02	5071
828.159	5220
828.298	5269
828.437	5376
828.577	5254
828.716	5425
828.855	5292
828.994	5174
829.134	5124
829.273	5201
829.412	5155
829.551	5132
829.69	5109
829.829	5189
829.968	5387
830.107	5239
830.246	5254
830.385	5143
830.524	5071
830.663	5102
830.802	4991
830.941	4824
831.08	4873
831.219	5014
831.357	4946
831.496	5140
831.635	4904
831.774	4782
831.913	4843
832.051	4736
832.19	4736
832.329	4870
832.467	4702
832.606	4611
832.744	4733
832.883	4725
833.022	4717
833.16	4771
833.299	4828
833.437	4881
833.576	4843
833.714	4831
833.852	4835
833.991	4900
834.129	4938
834.267	4953
834.406	4900
834.544	4919
834.682	4984
834.821	4961
834.959	5140
835.097	5003
835.235	5143
835.373	5029
835.511	5086
835.65	5010
835.788	4965
835.926	4870
836.064	4847
836.202	4873
836.34	5162
836.478	5197
836.615	5094
836.753	5204
836.891	5254
837.029	5246
837.167	5159
837.305	5132
837.443	5109
837.58	5086
837.718	5269
837.856	5178
837.993	5128
838.131	5273
838.269	5193
838.406	5204
838.544	5254
838.681	5010
838.819	4984
838.956	4919
839.094	4923
839.231	4965
839.369	5048
839.506	5410
839.643	5292
839.781	5018
839.918	5006
840.055	5029
840.193	5045
840.33	5086
840.467	5197
840.604	5212
840.742	5395
840.879	5083
841.016	5075
841.153	5181
841.29	5337
841.427	5376
841.564	5299
841.701	5334
841.838	5239
841.975	5220
842.112	5288
842.249	5162
842.385	5094
842.522	5235
842.659	5170
842.796	5124
842.933	5193
843.069	5155
843.206	5185
843.343	5261
843.479	5227
843.616	5307
843.752	5025
843.889	4999
844.025	5208
844.162	4934
844.298	5250
844.435	5022
844.571	5045
844.708	5208
844.844	5277
844.98	5349
845.117	5250
845.253	5109
845.389	5045
845.525	5102
845.661	5132
845.798	5052
845.934	5121
846.07	5041
846.206	5128
846.342	5216
846.478	5166
846.614	5010
846.75	4987
846.886	4946
847.022	5109
847.158	5022
847.294	5033
847.429	5067
847.565	5006
847.701	5364
847.837	4858
847.972	4763
848.108	4957
848.244	4923
848.379	4710
848.515	4736
848.65	4679
848.786	4725
848.921	4759
849.057	4847
849.192	4854
849.328	4793
849.463	4831
849.598	4767
849.734	4778
849.869	4664
850.004	4596
850.14	4592
850.275	4611
850.41	4519
850.545	4580
850.68	4569
850.815	4565
850.95	4626
851.085	4820
851.22	4767
851.355	4668
851.49	4626
851.625	4584
851.76	4656
851.895	4573
852.03	4489
852.165	4653
852.299	4706
852.434	4752
852.569	4717
852.703	4790
852.838	4820
852.973	4862
853.107	4843
853.242	4759
853.376	4672
853.511	4527
853.645	4634
853.78	4774
853.914	4736
854.048	4599
854.183	4618
854.317	4675
854.451	4835
854.585	4687
854.72	4577
854.854	4748
854.988	4550
855.122	4649
855.256	4459
855.39	4634
855.524	4767
855.658	4759
855.792	4702
855.926	4698
856.06	4710
856.194	4759
856.327	4721
856.461	4580
856.595	4592
856.729	4622
856.862	4733
856.996	4698
857.13	4698
857.263	4740
857.397	4752
857.53	4641
857.664	4672
857.797	4710
857.931	4736
858.064	4714
858.197	4767
858.331	4641
858.464	4580
858.597	4493
858.731	4603
858.864	4603
858.997	4592
859.13	4626
859.263	4656
859.396	4733
859.529	4531
859.662	4542
859.795	4527
859.928	4599
860.061	4771
860.194	4790
860.327	4603
860.46	4546
860.592	4702
860.725	4664
860.858	4687
860.99	4519
861.123	4523
861.256	4504
861.388	4569
861.521	5159
861.653	4470
861.786	4390
861.918	4413
862.05	4527
862.183	4523
862.315	4607
862.447	4607
862.58	4500
862.712	4379
862.844	4242
862.976	4478
863.108	4428
863.24	4771
863.372	4314
863.504	4398
863.636	4402
863.768	4489
863.9	4432
864.032	4356
864.164	4371
864.296	4466
864.428	4527
864.559	4531
864.691	4489
864.823	4542
864.954	4466
865.086	4531
865.217	4409
865.349	4394
865.48	4455
865.612	4436
865.743	4675
865.875	4459
866.006	4432
866.137	4447
866.269	4421
866.4	4398
866.531	4432
866.662	4379
866.793	4398
866.924	4402
867.055	4535
867.186	4436
867.317	4402
867.448	4310
867.579	4348
867.71	4383
867.841	4344
867.972	4474
868.103	4455
868.233	4436
868.364	4398
868.495	4459
868.625	4679
868.756	4759
868.886	4558
869.017	4607
869.147	4748
869.278	4767
869.408	4668
869.539	4622
869.669	4702
869.799	4607
869.929	4740
870.06	4733
870.19	4911
870.32	4885
870.45	4877
870.58	5003
870.71	5086
870.84	5052
870.97	4946
871.1	4866
871.23	5124
871.36	5128
871.489	4968
871.619	5033
871.749	5098
871.879	5151
872.008	5204
872.138	5090
872.267	4938
872.397	4839
872.526	4797
872.656	4744
872.785	4767
872.915	4927
873.044	4987
873.173	4923
873.303	4927
873.432	4934
873.561	4930
873.69	4850
873.819	4812
873.948	4858
874.077	4809
874.206	4755
874.335	4812
874.464	4911
874.593	5067
874.722	4968
874.851	5086
874.979	5045
875.108	4991
875.237	4892
875.365	4858
875.494	4911
875.623	4942
875.751	4805
875.88	4908
876.008	4949
876.136	5041
876.265	5132
876.393	5318
876.521	5223
876.65	5170
876.778	5166
876.906	5086
877.034	4999
877.162	5010
877.29	5003
877.418	5037
877.546	5064
877.674	4995
877.802	5018
877.93	5052
878.058	4953
878.185	4896
878.313	4976
878.441	4946
878.568	4752
878.696	4892
878.824	4965
878.951	5041
879.079	5147
879.206	5280
879.333	5109
879.461	5033
879.588	5010
879.715	5128
879.842	5201
879.97	5048
880.097	4847
880.224	4752
880.351	4854
880.478	4847
880.605	4854
880.732	4816
880.859	5128
880.986	4923
881.112	4938
881.239	4801
881.366	4714
881.493	4660
881.619	4634
881.746	4618
881.872	4721
881.999	4664
882.125	4721
882.252	4793
882.378	4854
882.505	4961
882.631	4858
882.757	4679
882.883	4752
883.01	4793
883.136	4717
883.262	4653
883.388	4668
883.514	4828
883.64	4831
883.766	4870
883.892	4706
884.018	4736
884.143	4934
884.269	5041
884.395	4675
884.52	4653
884.646	4675
884.772	4565
884.897	4527
885.023	4740
885.148	4831
885.274	4923
885.399	4793
885.524	4774
885.65	4710
885.775	4763
885.9	4698
886.025	4824
886.15	4809
886.275	4721
886.4	4634
886.525	4774
886.65	4660
886.775	4752
886.9	4984
887.025	5071
887.149	4824
887.274	4672
887.399	4626
887.523	4637
887.648	4603
887.773	4592
887.897	4816
888.021	4812
888.146	4694
888.27	4828
888.395	4896
888.519	4812
888.643	4858
888.767	4862
888.891	4679
889.015	4630
889.139	4660
889.263	4615
889.387	4805
889.511	4900
889.635	4820
889.759	4672
889.883	4630
890.006	4771
890.13	4915
890.254	4626
890.377	4740
890.501	4599
890.624	4592
890.748	4641
890.871	4535
890.995	4512
891.118	4417
891.241	4561
891.364	4596
891.488	4630
891.611	4512
891.734	4580
891.857	4675
891.98	4596
892.103	4653
892.226	4599
892.349	4531
892.471	4409
892.594	4580
892.717	4611
892.839	4565
892.962	4615
893.085	4721
893.207	4630
893.33	4500
893.452	4554
893.575	4626
893.697	4599
893.819	4805
893.941	4831
894.064	4828
894.186	4550
894.308	4584
894.43	4733
894.552	4801
894.674	4774
894.796	4550
894.918	4634
895.04	4588
895.161	4714
895.283	4664
895.405	4584
895.526	4660
895.648	4691
895.769	4725
895.891	4740
896.012	4759
896.134	4706
896.255	4656
896.376	4660
896.498	4687
896.619	4702
896.74	4637
896.861	4656
896.982	4938
897.103	5109
897.224	4850
897.345	4740
897.466	4691
897.587	4748
897.708	4904
897.828	4767
897.949	4694
898.07	4615
898.19	4664
898.311	4885
898.431	4679
898.552	4771
898.672	4812
898.792	4843
898.913	4767
899.033	4626
899.153	4535
899.273	4424
899.393	4493
899.513	4550
899.633	4527
899.753	4573
899.873	4550
899.993	4565
900.113	4569
900.232	4645
900.352	4565
900.472	4531
900.591	4413
900.711	4516
900.83	4462
900.95	4668
901.069	4710
901.189	4603
901.308	4394
901.427	4360
901.546	4394
901.665	4519
901.784	4542
901.904	4436
902.023	4386
902.141	4200
902.26	4249
902.379	4363
902.498	4265
902.617	4246
902.735	4383
902.854	4367
902.973	4443
903.091	4249
903.21	4211
903.328	4306
903.446	4337
903.565	4268
903.683	4306
903.801	4306
903.919	4424
904.038	4478
904.156	4352
904.274	4432
904.392	4443
904.51	4470
904.627	4550
904.745	4645
904.863	4641
904.981	4466
905.098	4303
905.216	4348
905.334	4409
905.451	4489
905.569	4489
905.686	4596
905.803	4611
905.921	4455
906.038	4573
906.155	4523
906.272	4443
906.389	4512
906.506	4341
906.623	4390
906.74	4405
906.857	4337
906.974	4371
907.091	4584
907.208	4668
907.324	4649
907.441	4512
907.557	4341
907.674	4352
907.79	4344
907.907	4367
908.023	4493
908.139	4561
908.256	4447
908.372	4474
908.488	4542
908.604	4360
908.72	4352
908.836	4386
908.952	4348
909.068	4424
909.184	4599
909.3	4474
909.415	4660
909.531	4569
909.647	4344
909.762	4371
909.878	4337
909.993	4474
910.108	4383
910.224	4451
910.339	4531
910.454	4436
910.57	4394
910.685	4341
910.8	4706
910.915	4611
911.03	4489
911.145	4322
911.259	4329
911.374	4379
911.489	4306
911.604	4268
911.718	4207
911.833	4265
911.947	4086
912.062	4036
912.176	4242
912.291	4249
912.405	4333
912.519	4523
912.633	4531
912.748	4405
912.862	4253
912.976	4230
913.09	4109
913.204	4188
913.318	4249
913.431	4386
913.545	4417
913.659	4504
913.772	4352
913.886	4276
914	4227
914.113	4344
914.226	4432
914.34	4405
914.453	4249
914.566	4440
914.68	4344
914.793	4314
914.906	4181
915.019	4185
915.132	4078
915.245	4188
915.358	4238
915.47	4253
915.583	4261
915.696	4325
915.809	4428
915.921	4462
916.034	4268
916.146	4287
916.259	4200
916.371	4375
916.483	4337
916.595	4272
916.708	4303
916.82	4322
916.932	4341
917.044	4379
917.156	4379
917.268	4242
917.38	4306
917.491	4310
917.603	4363
917.715	4462
917.826	4478
917.938	4356
918.049	4242
918.161	4405
918.272	4535
918.384	4546
918.495	4462
918.606	4329
918.717	4268
918.828	4371
918.939	4363
919.05	4287
919.161	4329
919.272	4128
919.383	4249
919.494	4432
919.604	4668
919.715	4459
919.826	4383
919.936	4443
920.047	4538
920.157	4523
920.267	4683
920.378	4569
920.488	4485
920.598	4694
920.708	4885
920.818	4805
920.928	4782
921.038	5010
921.148	4904
921.258	4618
921.368	4561
921.477	4523
921.587	4417
921.697	4333
921.806	4550
921.916	4428
922.025	4238
922.134	4253
922.244	4223
922.353	4337
922.462	4207
922.571	4135
922.68	4082
922.789	4010
922.898	4074
923.007	4051
923.116	4139
923.224	4055
923.333	4067
923.442	3994
923.55	3983
923.659	4048
923.767	4097
923.876	4021
923.984	4169
924.092	4025
924.201	4044
924.309	4055
924.417	4166
924.525	4078
924.633	4116
924.741	5132
924.849	3918
924.956	4116
925.064	4036
925.172	3876
925.279	3987
925.387	4059
925.494	4097
925.602	4242
925.709	4196
925.816	4071
925.924	4166
926.031	4227
926.138	4150
926.245	4219
926.352	4097
926.459	4291
926.566	4299
926.673	4181
926.779	4086
926.886	4090
926.993	4002
927.099	3968
927.206	3972
927.312	3983
927.419	4101
927.525	4010
927.631	4074
927.737	3964
927.843	3949
927.95	3865
928.056	3937
928.162	3918
928.267	4116
928.373	4714
928.479	4131
928.585	3918
928.69	4029
928.796	4097
928.901	3949
929.007	3873
929.112	4025
929.218	3956
929.323	3945
929.428	3937
929.533	4097
929.638	3937
929.743	3956
929.848	4036
929.953	4010
930.058	3960
930.163	3823
930.267	3880
930.372	3964
930.477	3823
930.581	4112
930.685	3941
930.79	3854
930.894	3892
930.998	3861
931.103	4044
931.207	3724
931.311	3690
931.415	3698
931.519	3534
931.623	3519
