Data from test_V78500241_951.txt Node
Date: Fri Mar 25 16:55:36 CST 2022
User: usil
Spectrometer: V785-0024
Trigger mode: 0
Integration Time (sec): 4.000000E-1
Scans to average: 1
Nonlinearity correction enabled: false
Boxcar width: 0
Storing dark spectrum: false
XAxis mode: Wavelengths
Number of Pixels in Spectrum: 1024
>>>>>Begin Spectral Data<<<<<
801.071	8103
801.214	8020
801.356	7890
801.499	7902
801.641	7757
801.783	7852
801.926	7978
802.068	7898
802.211	7875
802.353	7906
802.496	7845
802.638	7940
802.78	7833
802.923	7925
803.065	7860
803.208	7917
803.35	7959
803.492	8096
803.635	8096
803.777	8035
803.919	8134
804.061	8415
804.204	8024
804.346	8077
804.488	7921
804.63	8119
804.773	7997
804.915	8065
805.057	8233
805.199	8161
805.341	8199
805.483	8286
805.626	8180
805.768	8081
805.91	8183
806.052	8191
806.194	8062
806.336	8218
806.478	8031
806.62	8073
806.762	8183
806.904	8229
807.046	8473
807.188	8328
807.33	8286
807.472	8381
807.614	8183
807.756	8107
807.898	7993
808.04	7841
808.182	7833
808.324	7852
808.465	7890
808.607	8054
808.749	8081
808.891	8218
809.033	8248
809.174	8233
809.316	8043
809.458	8016
809.6	7940
809.741	7989
809.883	8043
810.025	8024
810.166	8077
810.308	8046
810.45	8046
810.591	7879
810.733	7696
810.875	7712
811.016	7544
811.158	7514
811.299	7571
811.441	7636
811.582	7681
811.724	7563
811.865	7559
812.007	7590
812.148	7544
812.29	7594
812.431	7750
812.573	7826
812.714	7890
812.855	8073
812.997	8279
813.138	8259
813.279	8180
813.421	8142
813.562	8005
813.703	7852
813.845	7795
813.986	7495
814.127	7240
814.268	7255
814.41	7152
814.551	7118
814.692	7175
814.833	6985
814.974	7057
815.115	7114
815.256	6947
815.397	6901
815.539	6890
815.68	6821
815.821	6806
815.962	6886
816.103	6779
816.244	6734
816.385	6593
816.526	6631
816.666	6509
816.807	6311
816.948	6429
817.089	6486
817.23	6426
817.371	6391
817.512	6388
817.653	6448
817.793	6391
817.934	6464
818.075	6441
818.216	6426
818.356	6407
818.497	6243
818.638	6125
818.778	6171
818.919	6098
819.06	6155
819.2	6350
819.341	6323
819.481	6391
819.622	6483
819.762	6700
819.903	6707
820.043	6547
820.184	6589
820.324	6642
820.465	6665
820.605	6681
820.746	6608
820.886	6506
821.026	6654
821.167	6734
821.307	6779
821.447	6776
821.588	6627
821.728	6551
821.868	6441
822.008	6311
822.149	6410
822.289	6342
822.429	6125
822.569	6026
822.709	6114
822.849	5920
822.99	5904
823.13	5863
823.27	5866
823.41	5760
823.55	5752
823.69	5748
823.83	5745
823.97	5649
824.11	5528
824.25	5505
824.389	5592
824.529	5619
824.669	5543
824.809	5608
824.949	5630
825.089	5547
825.228	5486
825.368	5315
825.508	5353
825.648	5273
825.787	5383
825.927	5406
826.067	5311
826.206	5315
826.346	5406
826.485	5398
826.625	5383
826.765	5551
826.904	5493
827.044	5254
827.183	5208
827.323	5155
827.462	5231
827.601	5136
827.741	5155
827.88	5181
828.02	5105
828.159	5181
828.298	5296
828.437	5284
828.577	5269
828.716	5471
828.855	5299
828.994	5147
829.134	5140
829.273	5117
829.412	5128
829.551	5143
829.69	5197
829.829	5250
829.968	5318
830.107	5208
830.246	5239
830.385	5132
830.524	5124
830.663	5071
830.802	4972
830.941	4915
831.08	4866
831.219	4968
831.357	5025
831.496	5151
831.635	4934
831.774	4835
831.913	4828
832.051	4755
832.19	4744
832.329	4828
832.467	4710
832.606	4634
832.744	4767
832.883	4679
833.022	4694
833.16	4790
833.299	4843
833.437	4801
833.576	4801
833.714	4870
833.852	4847
833.991	4809
834.129	4961
834.267	4976
834.406	4911
834.544	4949
834.682	4999
834.821	4946
834.959	5155
835.097	4991
835.235	5201
835.373	5102
835.511	5083
835.65	5022
835.788	5010
835.926	4930
836.064	4911
836.202	4923
836.34	5227
836.478	5235
836.615	5117
836.753	5178
836.891	5258
837.029	5235
837.167	5204
837.305	5109
837.443	5117
837.58	5064
837.718	5147
837.856	5208
837.993	5124
838.131	5220
838.269	5193
838.406	5170
838.544	5178
838.681	5022
838.819	5006
838.956	4889
839.094	4873
839.231	5033
839.369	5045
839.506	5387
839.643	5223
839.781	5060
839.918	4995
840.055	5067
840.193	5037
840.33	5090
840.467	5178
840.604	5147
840.742	5474
840.879	5071
841.016	5117
841.153	5083
841.29	5341
841.427	5311
841.564	5326
841.701	5322
841.838	5261
841.975	5212
842.112	5246
842.249	5132
842.385	5128
842.522	5284
842.659	5128
842.796	5143
842.933	5208
843.069	5166
843.206	5121
843.343	5288
843.479	5204
843.616	5265
843.752	5006
843.889	5003
844.025	5201
844.162	4965
844.298	5185
844.435	5090
844.571	5041
844.708	5193
844.844	5280
844.98	5341
845.117	5250
845.253	5151
845.389	5010
845.525	5170
845.661	5083
845.798	5041
845.934	5140
846.07	5071
846.206	5220
846.342	5261
846.478	5197
846.614	5010
846.75	4991
846.886	4934
847.022	5132
847.158	5033
847.294	5014
847.429	5041
847.565	5041
847.701	5299
847.837	4839
847.972	4793
848.108	4995
848.244	4919
848.379	4797
848.515	4710
848.65	4702
848.786	4656
848.921	4706
849.057	4820
849.192	4904
849.328	4774
849.463	4805
849.598	4752
849.734	4702
849.869	4664
850.004	4615
850.14	4656
850.275	4596
850.41	4504
850.545	4592
850.68	4603
850.815	4607
850.95	4626
851.085	4812
851.22	4733
851.355	4615
851.49	4660
851.625	4603
851.76	4649
851.895	4565
852.03	4531
852.165	4615
852.299	4698
852.434	4809
852.569	4736
852.703	4679
852.838	4831
852.973	4976
853.107	4911
853.242	4736
853.376	4683
853.511	4527
853.645	4603
853.78	4786
853.914	4683
854.048	4630
854.183	4660
854.317	4668
854.451	4805
854.585	4672
854.72	4675
854.854	4725
854.988	4565
855.122	4603
855.256	4516
855.39	4626
855.524	4805
855.658	4714
855.792	4675
855.926	4656
856.06	4740
856.194	4759
856.327	4683
856.461	4607
856.595	4622
856.729	4599
856.862	4755
856.996	4698
857.13	4702
857.263	4759
857.397	4763
857.53	4641
857.664	4668
857.797	4767
857.931	4721
858.064	4637
858.197	4706
858.331	4607
858.464	4626
858.597	4523
858.731	4592
858.864	4603
858.997	4615
859.13	4656
859.263	4634
859.396	4683
859.529	4607
859.662	4592
859.795	4542
859.928	4599
860.061	4725
860.194	4782
860.327	4573
860.46	4561
860.592	4679
860.725	4759
860.858	4672
860.99	4535
861.123	4500
861.256	4519
861.388	4577
861.521	5143
861.653	4489
861.786	4443
861.918	4409
862.05	4516
862.183	4519
862.315	4592
862.447	4599
862.58	4512
862.712	4413
862.844	4329
862.976	4455
863.108	4443
863.24	4721
863.372	4360
863.504	4386
863.636	4413
863.768	4516
863.9	4432
864.032	4367
864.164	4383
864.296	4447
864.428	4504
864.559	4531
864.691	4546
864.823	4523
864.954	4500
865.086	4508
865.217	4474
865.349	4375
865.48	4440
865.612	4481
865.743	4596
865.875	4390
866.006	4390
866.137	4432
866.269	4383
866.4	4443
866.531	4447
866.662	4443
866.793	4383
866.924	4348
867.055	4447
867.186	4440
867.317	4375
867.448	4341
867.579	4421
867.71	4375
867.841	4398
867.972	4409
868.103	4474
868.233	4375
868.364	4443
868.495	4462
868.625	4679
868.756	4790
868.886	4573
869.017	4645
869.147	4771
869.278	4759
869.408	4656
869.539	4603
869.669	4721
869.799	4630
869.929	4771
870.06	4714
870.19	4953
870.32	4900
870.45	4934
870.58	4972
870.71	5060
870.84	5121
870.97	4900
871.1	4904
871.23	5128
871.36	5132
871.489	5006
871.619	5056
871.749	5056
871.879	5071
872.008	5121
872.138	5090
872.267	4946
872.397	4805
872.526	4790
872.656	4717
872.785	4790
872.915	4968
873.044	5025
873.173	4881
873.303	4957
873.432	4908
873.561	4957
873.69	4862
873.819	4862
873.948	4866
874.077	4824
874.206	4740
874.335	4786
874.464	4877
874.593	5014
874.722	4942
874.851	5086
874.979	5094
875.108	5014
875.237	4896
875.365	4877
875.494	4892
875.623	4965
875.751	4839
875.88	4831
876.008	4934
876.136	5022
876.265	5147
876.393	5330
876.521	5239
876.65	5181
876.778	5105
876.906	5086
877.034	4991
877.162	5003
877.29	4999
877.418	5048
877.546	5014
877.674	5033
877.802	4980
877.93	4953
878.058	4923
878.185	4847
878.313	4873
878.441	4942
878.568	4774
878.696	4835
878.824	4938
878.951	5006
879.079	5155
879.206	5261
879.333	5071
879.461	4987
879.588	5014
879.715	5083
879.842	5212
879.97	5014
880.097	4782
880.224	4740
880.351	4805
880.478	4816
880.605	4801
880.732	4774
880.859	5025
880.986	4877
881.112	4919
881.239	4744
881.366	4714
881.493	4641
881.619	4596
881.746	4626
881.872	4588
881.999	4634
882.125	4675
882.252	4755
882.378	4850
882.505	4927
882.631	4835
882.757	4664
882.883	4736
883.01	4736
883.136	4660
883.262	4577
883.388	4599
883.514	4782
883.64	4850
883.766	4763
883.892	4660
884.018	4752
884.143	4889
884.269	4961
884.395	4679
884.52	4603
884.646	4668
884.772	4554
884.897	4519
885.023	4660
885.148	4771
885.274	4824
885.399	4801
885.524	4702
885.65	4679
885.775	4778
885.9	4706
886.025	4938
886.15	4812
886.275	4710
886.4	4660
886.525	4706
886.65	4687
886.775	4706
886.9	4877
887.025	5010
887.149	4774
887.274	4580
887.399	4577
887.523	4641
887.648	4508
887.773	4588
887.897	4767
888.021	4793
888.146	4694
888.27	4793
888.395	4892
888.519	4782
888.643	4816
888.767	4816
888.891	4672
889.015	4588
889.139	4691
889.263	4569
889.387	4729
889.511	4881
889.635	4740
889.759	4630
889.883	4611
890.006	4717
890.13	4805
890.254	4615
890.377	4653
890.501	4497
890.624	4508
890.748	4580
890.871	4535
890.995	4398
891.118	4371
891.241	4500
891.364	4497
891.488	4645
891.611	4474
891.734	4558
891.857	4637
891.98	4558
892.103	4622
892.226	4561
892.349	4493
892.471	4379
892.594	4478
892.717	4577
892.839	4584
892.962	4584
893.085	4630
893.207	4565
893.33	4466
893.452	4527
893.575	4691
893.697	4519
893.819	4744
893.941	4839
894.064	4755
894.186	4622
894.308	4554
894.43	4675
894.552	4831
894.674	4752
894.796	4516
894.918	4615
895.04	4569
895.161	4752
895.283	4645
895.405	4577
895.526	4592
895.648	4672
895.769	4668
895.891	4748
896.012	4721
896.134	4725
896.255	4630
896.376	4626
896.498	4599
896.619	4698
896.74	4577
896.861	4626
896.982	4877
897.103	5045
897.224	4843
897.345	4733
897.466	4668
897.587	4752
897.708	4831
897.828	4740
897.949	4687
898.07	4577
898.19	4626
898.311	4809
898.431	4679
898.552	4744
898.672	4812
898.792	4771
898.913	4721
899.033	4615
899.153	4443
899.273	4428
899.393	4462
899.513	4527
899.633	4493
899.753	4516
899.873	4508
899.993	4565
900.113	4535
900.232	4561
900.352	4512
900.472	4478
900.591	4383
900.711	4447
900.83	4436
900.95	4599
901.069	4668
901.189	4580
901.308	4363
901.427	4341
901.546	4337
901.665	4466
901.784	4485
901.904	4352
902.023	4367
902.141	4207
902.26	4169
902.379	4314
902.498	4261
902.617	4204
902.735	4337
902.854	4367
902.973	4303
903.091	4177
903.21	4204
903.328	4287
903.446	4261
903.565	4196
903.683	4329
903.801	4299
903.919	4341
904.038	4421
904.156	4287
904.274	4394
904.392	4371
904.51	4417
904.627	4470
904.745	4569
904.863	4607
904.981	4394
905.098	4325
905.216	4348
905.334	4428
905.451	4432
905.569	4421
905.686	4527
905.803	4565
905.921	4402
906.038	4493
906.155	4485
906.272	4322
906.389	4443
906.506	4356
906.623	4341
906.74	4394
906.857	4242
906.974	4367
907.091	4523
907.208	4626
907.324	4546
907.441	4516
907.557	4291
907.674	4325
907.79	4272
907.907	4390
908.023	4466
908.139	4455
908.256	4428
908.372	4497
908.488	4451
908.604	4318
908.72	4322
908.836	4367
908.952	4356
909.068	4424
909.184	4554
909.3	4470
909.415	4577
909.531	4546
909.647	4363
909.762	4375
909.878	4325
909.993	4432
910.108	4375
910.224	4394
910.339	4436
910.454	4386
910.57	4337
910.685	4253
910.8	4603
910.915	4565
911.03	4500
911.145	4322
911.259	4322
911.374	4318
911.489	4322
911.604	4291
911.718	4143
911.833	4181
911.947	4044
912.062	4010
912.176	4223
912.291	4169
912.405	4207
912.519	4459
912.633	4455
912.748	4306
912.862	4295
912.976	4154
913.09	4063
913.204	4143
913.318	4227
913.431	4367
913.545	4352
913.659	4443
913.772	4344
913.886	4257
914	4246
914.113	4341
914.226	4413
914.34	4386
914.453	4249
914.566	4409
914.68	4280
914.793	4356
914.906	4147
915.019	4135
915.132	4086
915.245	4128
915.358	4192
915.47	4185
915.583	4268
915.696	4280
915.809	4405
915.921	4417
916.034	4280
916.146	4287
916.259	4169
916.371	4356
916.483	4383
916.595	4246
916.708	4318
916.82	4325
916.932	4360
917.044	4299
917.156	4314
917.268	4230
917.38	4291
917.491	4265
917.603	4314
917.715	4417
917.826	4367
917.938	4337
918.049	4204
918.161	4386
918.272	4504
918.384	4451
918.495	4402
918.606	4261
918.717	4200
918.828	4341
918.939	4371
919.05	4257
919.161	4314
919.272	4082
919.383	4230
919.494	4436
919.604	4634
919.715	4398
919.826	4367
919.936	4390
920.047	4500
920.157	4504
920.267	4687
920.378	4542
920.488	4455
920.598	4691
920.708	4877
920.818	4744
920.928	4740
921.038	4938
921.148	4919
921.258	4565
921.368	4580
921.477	4497
921.587	4413
921.697	4386
921.806	4523
921.916	4428
922.025	4265
922.134	4249
922.244	4150
922.353	4337
922.462	4147
922.571	4135
922.68	4010
922.789	3975
922.898	4059
923.007	3991
923.116	4067
923.224	4078
923.333	4074
923.442	4032
923.55	3975
923.659	4040
923.767	4086
923.876	3964
923.984	4147
924.092	3983
924.201	4044
924.309	4112
924.417	4147
924.525	4048
924.633	4093
924.741	5052
924.849	3922
924.956	4105
925.064	3930
925.172	3899
925.279	3926
925.387	4059
925.494	4044
925.602	4173
925.709	4223
925.816	4055
925.924	4124
926.031	4207
926.138	4147
926.245	4173
926.352	4109
926.459	4253
926.566	4303
926.673	4120
926.779	4059
926.886	4086
926.993	3918
927.099	3945
927.206	3930
927.312	3960
927.419	4055
927.525	3975
927.631	4036
927.737	3960
927.843	3918
927.95	3850
928.056	3945
928.162	3994
928.267	4067
928.373	4672
928.479	4086
928.585	3861
928.69	3972
928.796	4051
928.901	3987
929.007	3850
929.112	3945
929.218	3930
929.323	3918
929.428	3915
929.533	4143
929.638	3907
929.743	3941
929.848	3975
929.953	3998
930.058	3934
930.163	3778
930.267	3835
930.372	3979
930.477	3770
930.581	4101
930.685	3956
930.79	3835
930.894	3903
930.998	3819
931.103	4040
931.207	3717
931.311	3717
931.415	3652
931.519	3504
931.623	3553
