Data from test_V78500241_1380.txt Node
Date: Fri Mar 25 16:58:35 CST 2022
User: usil
Spectrometer: V785-0024
Trigger mode: 0
Integration Time (sec): 4.000000E-1
Scans to average: 1
Nonlinearity correction enabled: false
Boxcar width: 0
Storing dark spectrum: false
XAxis mode: Wavelengths
Number of Pixels in Spectrum: 1024
>>>>>Begin Spectral Data<<<<<
801.071	8043
801.214	8031
801.356	7906
801.499	7932
801.641	7734
801.783	7868
801.926	8005
802.068	7928
802.211	8001
802.353	8008
802.496	7814
802.638	7887
802.78	7875
802.923	7898
803.065	7917
803.208	7883
803.35	7959
803.492	8081
803.635	8161
803.777	8103
803.919	8183
804.061	8499
804.204	8187
804.346	8142
804.488	8046
804.63	8164
804.773	8100
804.915	8126
805.057	8404
805.199	8195
805.341	8214
805.483	8275
805.626	8218
805.768	8126
805.91	8183
806.052	8221
806.194	8145
806.336	8298
806.478	8065
806.62	8107
806.762	8221
806.904	8275
807.046	8564
807.188	8450
807.33	8343
807.472	8408
807.614	8210
807.756	8138
807.898	8092
808.04	7906
808.182	7928
808.324	7913
808.465	7967
808.607	8202
808.749	8103
808.891	8298
809.033	8267
809.174	8290
809.316	8138
809.458	8043
809.6	8046
809.741	8039
809.883	8039
810.025	8077
810.166	8088
810.308	8027
810.45	8073
810.591	7875
810.733	7719
810.875	7685
811.016	7540
811.158	7609
811.299	7620
811.441	7746
811.582	7757
811.724	7597
811.865	7563
812.007	7620
812.148	7559
812.29	7609
812.431	7814
812.573	7944
812.714	7970
812.855	8107
812.997	8187
813.138	8343
813.279	8202
813.421	8119
813.562	7970
813.703	7887
813.845	7811
813.986	7502
814.127	7266
814.268	7236
814.41	7228
814.551	7122
814.692	7202
814.833	7152
814.974	7141
815.115	7122
815.256	6993
815.397	6977
815.539	6977
815.68	6863
815.821	6825
815.962	6886
816.103	6821
816.244	6711
816.385	6642
816.526	6639
816.666	6494
816.807	6296
816.948	6494
817.089	6464
817.23	6448
817.371	6410
817.512	6414
817.653	6426
817.793	6384
817.934	6422
818.075	6494
818.216	6448
818.356	6380
818.497	6239
818.638	6136
818.778	6178
818.919	6121
819.06	6155
819.2	6304
819.341	6304
819.481	6372
819.622	6517
819.762	6734
819.903	6700
820.043	6623
820.184	6570
820.324	6582
820.465	6703
820.605	6696
820.746	6604
820.886	6498
821.026	6662
821.167	6772
821.307	6791
821.447	6783
821.588	6726
821.728	6563
821.868	6494
822.008	6319
822.149	6357
822.289	6395
822.429	6159
822.569	6117
822.709	6114
822.849	5965
822.99	5901
823.13	5874
823.27	5916
823.41	5809
823.55	5802
823.69	5771
823.83	5802
823.97	5699
824.11	5547
824.25	5528
824.389	5600
824.529	5608
824.669	5566
824.809	5668
824.949	5714
825.089	5611
825.228	5589
825.368	5398
825.508	5368
825.648	5303
825.787	5440
825.927	5372
826.067	5303
826.206	5292
826.346	5436
826.485	5478
826.625	5474
826.765	5585
826.904	5497
827.044	5326
827.183	5239
827.323	5178
827.462	5265
827.601	5170
827.741	5204
827.88	5208
828.02	5121
828.159	5265
828.298	5280
828.437	5383
828.577	5292
828.716	5467
828.855	5334
828.994	5136
829.134	5147
829.273	5212
829.412	5136
829.551	5193
829.69	5178
829.829	5296
829.968	5357
830.107	5296
830.246	5311
830.385	5185
830.524	5147
830.663	5083
830.802	4961
830.941	4942
831.08	4900
831.219	4984
831.357	5018
831.496	5170
831.635	4957
831.774	4908
831.913	4816
832.051	4694
832.19	4778
832.329	4809
832.467	4714
832.606	4622
832.744	4714
832.883	4752
833.022	4721
833.16	4767
833.299	4812
833.437	4801
833.576	4870
833.714	4862
833.852	4862
833.991	4930
834.129	5014
834.267	4995
834.406	4942
834.544	4984
834.682	5025
834.821	4961
834.959	5121
835.097	4965
835.235	5181
835.373	5075
835.511	5155
835.65	5037
835.788	5045
835.926	4946
836.064	4892
836.202	4915
836.34	5143
836.478	5265
836.615	5079
836.753	5204
836.891	5322
837.029	5208
837.167	5261
837.305	5155
837.443	5212
837.58	5075
837.718	5254
837.856	5170
837.993	5140
838.131	5265
838.269	5185
838.406	5220
838.544	5140
838.681	5083
838.819	5037
838.956	4889
839.094	4938
839.231	5010
839.369	5075
839.506	5467
839.643	5250
839.781	5060
839.918	5029
840.055	5105
840.193	5083
840.33	5128
840.467	5170
840.604	5155
840.742	5452
840.879	5098
841.016	5113
841.153	5220
841.29	5402
841.427	5368
841.564	5303
841.701	5353
841.838	5292
841.975	5261
842.112	5337
842.249	5143
842.385	5140
842.522	5402
842.659	5231
842.796	5155
842.933	5193
843.069	5105
843.206	5174
843.343	5326
843.479	5216
843.616	5288
843.752	5067
843.889	5041
844.025	5227
844.162	4999
844.298	5239
844.435	5067
844.571	5067
844.708	5223
844.844	5311
844.98	5372
845.117	5296
845.253	5128
845.389	5090
845.525	5201
845.661	5181
845.798	5052
845.934	5140
846.07	5060
846.206	5197
846.342	5303
846.478	5140
846.614	5045
846.75	4953
846.886	4949
847.022	5102
847.158	5033
847.294	5098
847.429	5083
847.565	5064
847.701	5284
847.837	4896
847.972	4831
848.108	4968
848.244	4953
848.379	4790
848.515	4759
848.65	4721
848.786	4805
848.921	4809
849.057	4870
849.192	4911
849.328	4839
849.463	4889
849.598	4816
849.734	4778
849.869	4755
850.004	4588
850.14	4672
850.275	4630
850.41	4538
850.545	4519
850.68	4611
850.815	4634
850.95	4618
851.085	4850
851.22	4820
851.355	4706
851.49	4630
851.625	4634
851.76	4634
851.895	4523
852.03	4542
852.165	4710
852.299	4736
852.434	4774
852.569	4778
852.703	4774
852.838	4850
852.973	4949
853.107	4927
853.242	4771
853.376	4710
853.511	4523
853.645	4634
853.78	4797
853.914	4698
854.048	4630
854.183	4653
854.317	4683
854.451	4850
854.585	4668
854.72	4622
854.854	4767
854.988	4565
855.122	4645
855.256	4596
855.39	4641
855.524	4733
855.658	4725
855.792	4683
855.926	4710
856.06	4744
856.194	4778
856.327	4698
856.461	4588
856.595	4615
856.729	4618
856.862	4694
856.996	4664
857.13	4748
857.263	4763
857.397	4790
857.53	4637
857.664	4771
857.797	4771
857.931	4805
858.064	4660
858.197	4759
858.331	4637
858.464	4626
858.597	4546
858.731	4653
858.864	4649
858.997	4611
859.13	4672
859.263	4626
859.396	4702
859.529	4588
859.662	4607
859.795	4577
859.928	4691
860.061	4755
860.194	4782
860.327	4615
860.46	4569
860.592	4763
860.725	4698
860.858	4691
860.99	4618
861.123	4538
861.256	4523
861.388	4634
861.521	5410
861.653	4493
861.786	4436
861.918	4466
862.05	4531
862.183	4538
862.315	4622
862.447	4637
862.58	4580
862.712	4402
862.844	4306
862.976	4500
863.108	4455
863.24	4923
863.372	4333
863.504	4432
863.636	4409
863.768	4478
863.9	4470
864.032	4348
864.164	4409
864.296	4485
864.428	4538
864.559	4542
864.691	4550
864.823	4508
864.954	4508
865.086	4504
865.217	4424
865.349	4451
865.48	4481
865.612	4417
865.743	4653
865.875	4504
866.006	4398
866.137	4470
866.269	4413
866.4	4436
866.531	4428
866.662	4402
866.793	4432
866.924	4417
867.055	4485
867.186	4428
867.317	4440
867.448	4379
867.579	4386
867.71	4379
867.841	4390
867.972	4424
868.103	4436
868.233	4489
868.364	4470
868.495	4466
868.625	4664
868.756	4759
868.886	4584
869.017	4634
869.147	4736
869.278	4771
869.408	4656
869.539	4622
869.669	4691
869.799	4637
869.929	4755
870.06	4771
870.19	4938
870.32	4904
870.45	4911
870.58	5041
870.71	5090
870.84	5079
870.97	4946
871.1	4927
871.23	5128
871.36	5162
871.489	5018
871.619	5037
871.749	5064
871.879	5174
872.008	5128
872.138	5048
872.267	4965
872.397	4847
872.526	4774
872.656	4782
872.785	4858
872.915	4946
873.044	5045
873.173	4942
873.303	4938
873.432	4942
873.561	4953
873.69	4900
873.819	4824
873.948	4961
874.077	4843
874.206	4793
874.335	4847
874.464	4896
874.593	5064
874.722	4991
874.851	5132
874.979	4965
875.108	5079
875.237	4896
875.365	4870
875.494	4881
875.623	4995
875.751	4835
875.88	4847
876.008	4942
876.136	4942
876.265	5162
876.393	5315
876.521	5227
876.65	5181
876.778	5220
876.906	5079
877.034	5006
877.162	5014
877.29	4980
877.418	5067
877.546	5086
877.674	5041
877.802	5060
877.93	5079
878.058	4938
878.185	4854
878.313	4957
878.441	4923
878.568	4843
878.696	4873
878.824	4927
878.951	4953
879.079	5132
879.206	5258
879.333	5113
879.461	4987
879.588	4995
879.715	5109
879.842	5208
879.97	4972
880.097	4767
880.224	4714
880.351	4797
880.478	4843
880.605	4812
880.732	4793
880.859	5006
880.986	4843
881.112	4930
881.239	4797
881.366	4641
881.493	4550
881.619	4565
881.746	4611
881.872	4668
881.999	4645
882.125	4683
882.252	4790
882.378	4801
882.505	4995
882.631	4744
882.757	4649
882.883	4778
883.01	4744
883.136	4672
883.262	4554
883.388	4611
883.514	4809
883.64	4881
883.766	4793
883.892	4618
884.018	4717
884.143	4915
884.269	5037
884.395	4672
884.52	4630
884.646	4664
884.772	4565
884.897	4596
885.023	4664
885.148	4752
885.274	4858
885.399	4805
885.524	4672
885.65	4706
885.775	4767
885.9	4740
886.025	4847
886.15	4778
886.275	4736
886.4	4653
886.525	4675
886.65	4660
886.775	4679
886.9	4915
887.025	5102
887.149	4790
887.274	4649
887.399	4569
887.523	4550
887.648	4577
887.773	4596
887.897	4771
888.021	4771
888.146	4672
888.27	4801
888.395	4892
888.519	4850
888.643	4809
888.767	4816
888.891	4664
889.015	4577
889.139	4653
889.263	4588
889.387	4755
889.511	4828
889.635	4820
889.759	4622
889.883	4649
890.006	4725
890.13	4816
890.254	4615
890.377	4668
890.501	4561
890.624	4493
890.748	4615
890.871	4516
890.995	4466
891.118	4348
891.241	4550
891.364	4497
891.488	4622
891.611	4531
891.734	4508
891.857	4558
891.98	4580
892.103	4645
892.226	4554
892.349	4493
892.471	4428
892.594	4542
892.717	4577
892.839	4561
892.962	4626
893.085	4729
893.207	4561
893.33	4485
893.452	4550
893.575	4641
893.697	4542
893.819	4790
893.941	4870
894.064	4790
894.186	4531
894.308	4569
894.43	4763
894.552	4862
894.674	4801
894.796	4500
894.918	4630
895.04	4573
895.161	4706
895.283	4641
895.405	4538
895.526	4603
895.648	4694
895.769	4721
895.891	4683
896.012	4702
896.134	4679
896.255	4637
896.376	4645
896.498	4592
896.619	4653
896.74	4615
896.861	4618
896.982	4915
897.103	5083
897.224	4801
897.345	4721
897.466	4668
897.587	4656
897.708	4843
897.828	4763
897.949	4630
898.07	4603
898.19	4649
898.311	4801
898.431	4672
898.552	4714
898.672	4763
898.792	4790
898.913	4721
899.033	4573
899.153	4478
899.273	4481
899.393	4512
899.513	4527
899.633	4577
899.753	4558
899.873	4535
899.993	4596
900.113	4542
900.232	4626
900.352	4527
900.472	4508
900.591	4428
900.711	4474
900.83	4440
900.95	4573
901.069	4637
901.189	4550
901.308	4356
901.427	4303
901.546	4383
901.665	4409
901.784	4497
901.904	4371
902.023	4306
902.141	4173
902.26	4162
902.379	4287
902.498	4234
902.617	4204
902.735	4398
902.854	4375
902.973	4360
903.091	4211
903.21	4188
903.328	4272
903.446	4284
903.565	4257
903.683	4341
903.801	4272
903.919	4394
904.038	4417
904.156	4356
904.274	4375
904.392	4398
904.51	4440
904.627	4481
904.745	4538
904.863	4603
904.981	4394
905.098	4299
905.216	4417
905.334	4413
905.451	4451
905.569	4478
905.686	4580
905.803	4565
905.921	4405
906.038	4561
906.155	4413
906.272	4394
906.389	4481
906.506	4322
906.623	4352
906.74	4390
906.857	4295
906.974	4348
907.091	4584
907.208	4694
907.324	4596
907.441	4459
907.557	4303
907.674	4306
907.79	4280
907.907	4394
908.023	4447
908.139	4459
908.256	4440
908.372	4478
908.488	4459
908.604	4333
908.72	4329
908.836	4394
908.952	4325
909.068	4394
909.184	4558
909.3	4493
909.415	4531
909.531	4554
909.647	4405
909.762	4360
909.878	4348
909.993	4383
910.108	4367
910.224	4428
910.339	4497
910.454	4383
910.57	4303
910.685	4265
910.8	4679
910.915	4588
911.03	4493
911.145	4333
911.259	4333
911.374	4348
911.489	4280
911.604	4242
911.718	4215
911.833	4158
911.947	4109
912.062	4029
912.176	4185
912.291	4185
912.405	4215
912.519	4470
912.633	4500
912.748	4344
912.862	4299
912.976	4200
913.09	4112
913.204	4116
913.318	4215
913.431	4371
913.545	4341
913.659	4394
913.772	4333
913.886	4265
914	4249
914.113	4348
914.226	4455
914.34	4402
914.453	4230
914.566	4424
914.68	4291
914.793	4329
914.906	4147
915.019	4112
915.132	4063
915.245	4150
915.358	4200
915.47	4253
915.583	4265
915.696	4333
915.809	4386
915.921	4436
916.034	4253
916.146	4246
916.259	4169
916.371	4394
916.483	4371
916.595	4242
916.708	4310
916.82	4268
916.932	4291
917.044	4322
917.156	4314
917.268	4234
917.38	4268
917.491	4238
917.603	4352
917.715	4432
917.826	4440
917.938	4329
918.049	4215
918.161	4394
918.272	4531
918.384	4535
918.495	4421
918.606	4284
918.717	4219
918.828	4306
918.939	4333
919.05	4265
919.161	4333
919.272	4139
919.383	4253
919.494	4424
919.604	4656
919.715	4436
919.826	4299
919.936	4421
920.047	4523
920.157	4485
920.267	4725
920.378	4550
920.488	4508
920.598	4675
920.708	4892
920.818	4805
920.928	4698
921.038	4942
921.148	4885
921.258	4634
921.368	4535
921.477	4489
921.587	4497
921.697	4394
921.806	4538
921.916	4470
922.025	4265
922.134	4253
922.244	4249
922.353	4341
922.462	4120
922.571	4135
922.68	3994
922.789	4017
922.898	4006
923.007	3983
923.116	4029
923.224	4021
923.333	4051
923.442	3994
923.55	3968
923.659	4044
923.767	4105
923.876	3998
923.984	4128
924.092	3979
924.201	4086
924.309	4097
924.417	4109
924.525	4036
924.633	4112
924.741	5048
924.849	3945
924.956	4131
925.064	3937
925.172	3922
925.279	4013
925.387	4040
925.494	4048
925.602	4211
925.709	4207
925.816	4032
925.924	4139
926.031	4192
926.138	4166
926.245	4215
926.352	4097
926.459	4249
926.566	4325
926.673	4109
926.779	4097
926.886	4067
926.993	3983
927.099	3960
927.206	3926
927.312	3918
927.419	4017
927.525	4040
927.631	4071
927.737	3945
927.843	3941
927.95	3823
928.056	3953
928.162	3960
928.267	4048
928.373	4645
928.479	4120
928.585	3854
928.69	3991
928.796	4048
928.901	3941
929.007	3800
929.112	3987
929.218	3987
929.323	3945
929.428	3975
929.533	4097
929.638	3857
929.743	3972
929.848	4021
929.953	3987
930.058	3896
930.163	3785
930.267	3823
930.372	3937
930.477	3789
930.581	4112
930.685	3983
930.79	3831
930.894	3896
930.998	3854
931.103	4006
931.207	3717
931.311	3705
931.415	3679
931.519	3580
931.623	3534
