Data from test_V78500241_192.txt Node
Date: Fri Mar 25 16:50:20 CST 2022
User: usil
Spectrometer: V785-0024
Trigger mode: 0
Integration Time (sec): 4.000000E-1
Scans to average: 1
Nonlinearity correction enabled: false
Boxcar width: 0
Storing dark spectrum: false
XAxis mode: Wavelengths
Number of Pixels in Spectrum: 1024
>>>>>Begin Spectral Data<<<<<
801.071	8046
801.214	7951
801.356	7894
801.499	7849
801.641	7833
801.783	7871
801.926	7936
802.068	7974
802.211	8024
802.353	7986
802.496	7921
802.638	7890
802.78	7997
802.923	7989
803.065	7856
803.208	7940
803.35	7955
803.492	8126
803.635	8195
803.777	7906
803.919	8054
804.061	8499
804.204	8084
804.346	8077
804.488	7940
804.63	8073
804.773	7940
804.915	8107
805.057	8210
805.199	8134
805.341	8149
805.483	8309
805.626	8214
805.768	8115
805.91	8237
806.052	8149
806.194	8100
806.336	8358
806.478	8134
806.62	8077
806.762	8103
806.904	8176
807.046	8431
807.188	8309
807.33	8244
807.472	8233
807.614	8119
807.756	8145
807.898	8031
808.04	7879
808.182	7826
808.324	7875
808.465	7906
808.607	8058
808.749	8065
808.891	8172
809.033	8320
809.174	8214
809.316	8069
809.458	8039
809.6	7978
809.741	8084
809.883	8062
810.025	8058
810.166	8107
810.308	8027
810.45	7951
810.591	7898
810.733	7772
810.875	7719
811.016	7529
811.158	7556
811.299	7628
811.441	7674
811.582	7689
811.724	7594
811.865	7540
812.007	7609
812.148	7651
812.29	7666
812.431	7772
812.573	7936
812.714	8027
812.855	8180
812.997	8259
813.138	8355
813.279	8199
813.421	8126
813.562	8020
813.703	7887
813.845	7769
813.986	7464
814.127	7232
814.268	7312
814.41	7244
814.551	7160
814.692	7240
814.833	7099
814.974	7149
815.115	7145
815.256	6970
815.397	6859
815.539	6951
815.68	6840
815.821	6829
815.962	6818
816.103	6783
816.244	6741
816.385	6642
816.526	6650
816.666	6528
816.807	6342
816.948	6388
817.089	6509
817.23	6490
817.371	6342
817.512	6418
817.653	6437
817.793	6334
817.934	6410
818.075	6452
818.216	6407
818.356	6407
818.497	6247
818.638	6121
818.778	6178
818.919	6159
819.06	6186
819.2	6304
819.341	6289
819.481	6308
819.622	6506
819.762	6791
819.903	6681
820.043	6631
820.184	6612
820.324	6566
820.465	6669
820.605	6700
820.746	6650
820.886	6486
821.026	6608
821.167	6703
821.307	6806
821.447	6764
821.588	6631
821.728	6623
821.868	6490
822.008	6338
822.149	6399
822.289	6426
822.429	6148
822.569	6057
822.709	6114
822.849	5931
822.99	5920
823.13	5931
823.27	5961
823.41	5836
823.55	5764
823.69	5760
823.83	5786
823.97	5718
824.11	5551
824.25	5528
824.389	5520
824.529	5589
824.669	5520
824.809	5653
824.949	5657
825.089	5592
825.228	5554
825.368	5383
825.508	5387
825.648	5315
825.787	5372
825.927	5383
826.067	5299
826.206	5269
826.346	5360
826.485	5398
826.625	5429
826.765	5532
826.904	5524
827.044	5254
827.183	5280
827.323	5143
827.462	5242
827.601	5189
827.741	5242
827.88	5258
828.02	5090
828.159	5242
828.298	5318
828.437	5406
828.577	5334
828.716	5482
828.855	5341
828.994	5185
829.134	5170
829.273	5231
829.412	5155
829.551	5140
829.69	5189
829.829	5345
829.968	5383
830.107	5288
830.246	5277
830.385	5216
830.524	5124
830.663	5079
830.802	4995
830.941	4877
831.08	4896
831.219	4987
831.357	4995
831.496	5102
831.635	4927
831.774	4866
831.913	4866
832.051	4687
832.19	4763
832.329	4816
832.467	4733
832.606	4626
832.744	4706
832.883	4702
833.022	4733
833.16	4801
833.299	4828
833.437	4812
833.576	4820
833.714	4904
833.852	4858
833.991	4911
834.129	4980
834.267	4911
834.406	4938
834.544	4961
834.682	4968
834.821	4930
834.959	5140
835.097	5022
835.235	5174
835.373	5124
835.511	5140
835.65	5025
835.788	5075
835.926	4866
836.064	4858
836.202	4908
836.34	5181
836.478	5204
836.615	5128
836.753	5227
836.891	5349
837.029	5280
837.167	5166
837.305	5117
837.443	5121
837.58	5071
837.718	5239
837.856	5159
837.993	5166
838.131	5292
838.269	5246
838.406	5220
838.544	5231
838.681	5045
838.819	5025
838.956	4908
839.094	4904
839.231	4987
839.369	5090
839.506	5414
839.643	5311
839.781	5060
839.918	5029
840.055	5094
840.193	5056
840.33	5098
840.467	5151
840.604	5162
840.742	5455
840.879	5048
841.016	5113
841.153	5147
841.29	5417
841.427	5345
841.564	5345
841.701	5372
841.838	5303
841.975	5246
842.112	5239
842.249	5185
842.385	5083
842.522	5360
842.659	5231
842.796	5098
842.933	5162
843.069	5181
843.206	5170
843.343	5261
843.479	5250
843.616	5284
843.752	5094
843.889	4991
844.025	5193
844.162	5025
844.298	5201
844.435	5071
844.571	5056
844.708	5170
844.844	5311
844.98	5307
845.117	5273
845.253	5140
845.389	5117
845.525	5166
845.661	5121
845.798	5136
845.934	5170
846.07	5045
846.206	5162
846.342	5299
846.478	5170
846.614	5037
846.75	5003
846.886	4946
847.022	5166
847.158	5010
847.294	5071
847.429	5109
847.565	5143
847.701	5296
847.837	4873
847.972	4843
848.108	4961
848.244	4991
848.379	4790
848.515	4752
848.65	4683
848.786	4740
848.921	4786
849.057	4881
849.192	4930
849.328	4843
849.463	4816
849.598	4797
849.734	4797
849.869	4714
850.004	4656
850.14	4698
850.275	4618
850.41	4504
850.545	4592
850.68	4603
850.815	4637
850.95	4653
851.085	4847
851.22	4748
851.355	4656
851.49	4649
851.625	4607
851.76	4599
851.895	4569
852.03	4554
852.165	4649
852.299	4774
852.434	4820
852.569	4687
852.703	4816
852.838	4828
852.973	4942
853.107	4889
853.242	4744
853.376	4664
853.511	4592
853.645	4656
853.78	4786
853.914	4675
854.048	4645
854.183	4656
854.317	4691
854.451	4828
854.585	4683
854.72	4611
854.854	4748
854.988	4599
855.122	4645
855.256	4500
855.39	4660
855.524	4778
855.658	4729
855.792	4714
855.926	4767
856.06	4778
856.194	4805
856.327	4687
856.461	4592
856.595	4599
856.729	4626
856.862	4733
856.996	4672
857.13	4717
857.263	4786
857.397	4771
857.53	4691
857.664	4744
857.797	4763
857.931	4755
858.064	4672
858.197	4744
858.331	4649
858.464	4565
858.597	4527
858.731	4596
858.864	4618
858.997	4630
859.13	4675
859.263	4672
859.396	4717
859.529	4599
859.662	4577
859.795	4523
859.928	4630
860.061	4774
860.194	4778
860.327	4641
860.46	4538
860.592	4706
860.725	4691
860.858	4736
860.99	4577
861.123	4542
861.256	4546
861.388	4626
861.521	5414
861.653	4462
861.786	4428
861.918	4474
862.05	4508
862.183	4546
862.315	4577
862.447	4618
862.58	4542
862.712	4405
862.844	4322
862.976	4485
863.108	4424
863.24	4942
863.372	4284
863.504	4436
863.636	4344
863.768	4462
863.9	4432
864.032	4390
864.164	4470
864.296	4462
864.428	4508
864.559	4535
864.691	4558
864.823	4550
864.954	4493
865.086	4527
865.217	4466
865.349	4432
865.48	4512
865.612	4500
865.743	4664
865.875	4485
866.006	4421
866.137	4478
866.269	4432
866.4	4421
866.531	4466
866.662	4440
866.793	4398
866.924	4409
867.055	4519
867.186	4462
867.317	4383
867.448	4363
867.579	4371
867.71	4432
867.841	4371
867.972	4455
868.103	4447
868.233	4459
868.364	4474
868.495	4500
868.625	4694
868.756	4797
868.886	4618
869.017	4603
869.147	4755
869.278	4801
869.408	4664
869.539	4641
869.669	4710
869.799	4637
869.929	4778
870.06	4774
870.19	4930
870.32	4965
870.45	4908
870.58	5037
870.71	5124
870.84	5109
870.97	4938
871.1	4892
871.23	5181
871.36	5128
871.489	5067
871.619	5037
871.749	5121
871.879	5124
872.008	5212
872.138	5094
872.267	4984
872.397	4870
872.526	4782
872.656	4752
872.785	4801
872.915	4965
873.044	5052
873.173	4919
873.303	4980
873.432	4953
873.561	4995
873.69	4923
873.819	4843
873.948	4991
874.077	4839
874.206	4733
874.335	4774
874.464	4915
874.593	5056
874.722	4995
874.851	5128
874.979	5056
875.108	5056
875.237	4885
875.365	4877
875.494	4885
875.623	4995
875.751	4831
875.88	4911
876.008	4999
876.136	5010
876.265	5208
876.393	5341
876.521	5299
876.65	5185
876.778	5132
876.906	5071
877.034	5064
877.162	5025
877.29	4965
877.418	5037
877.546	5006
877.674	5067
877.802	5010
877.93	5067
878.058	4927
878.185	4908
878.313	4968
878.441	4961
878.568	4835
878.696	4892
878.824	4908
878.951	4968
879.079	5140
879.206	5311
879.333	5132
879.461	4984
879.588	5010
879.715	5105
879.842	5261
879.97	5025
880.097	4831
880.224	4778
880.351	4820
880.478	4824
880.605	4809
880.732	4786
880.859	5075
880.986	4923
881.112	4946
881.239	4828
881.366	4645
881.493	4607
881.619	4615
881.746	4668
881.872	4626
881.999	4611
882.125	4714
882.252	4782
882.378	4828
882.505	4946
882.631	4809
882.757	4630
882.883	4717
883.01	4740
883.136	4656
883.262	4599
883.388	4645
883.514	4805
883.64	4923
883.766	4812
883.892	4656
884.018	4736
884.143	4885
884.269	5045
884.395	4698
884.52	4630
884.646	4649
884.772	4611
884.897	4542
885.023	4668
885.148	4786
885.274	4904
885.399	4824
885.524	4725
885.65	4694
885.775	4755
885.9	4729
886.025	4885
886.15	4797
886.275	4702
886.4	4687
886.525	4759
886.65	4691
886.775	4721
886.9	4870
887.025	4949
887.149	4786
887.274	4645
887.399	4584
887.523	4683
887.648	4634
887.773	4561
887.897	4793
888.021	4843
888.146	4706
888.27	4812
888.395	4885
888.519	4812
888.643	4885
888.767	4900
888.891	4706
889.015	4656
889.139	4599
889.263	4641
889.387	4801
889.511	4870
889.635	4752
889.759	4668
889.883	4615
890.006	4687
890.13	4793
890.254	4618
890.377	4672
890.501	4565
890.624	4542
890.748	4618
890.871	4546
890.995	4432
891.118	4390
891.241	4516
891.364	4519
891.488	4615
891.611	4531
891.734	4554
891.857	4607
891.98	4584
892.103	4672
892.226	4626
892.349	4504
892.471	4428
892.594	4592
892.717	4634
892.839	4622
892.962	4596
893.085	4694
893.207	4637
893.33	4523
893.452	4489
893.575	4725
893.697	4584
893.819	4801
893.941	4870
894.064	4782
894.186	4637
894.308	4584
894.43	4790
894.552	4885
894.674	4790
894.796	4569
894.918	4588
895.04	4546
895.161	4721
895.283	4698
895.405	4630
895.526	4687
895.648	4691
895.769	4698
895.891	4744
896.012	4736
896.134	4748
896.255	4664
896.376	4679
896.498	4649
896.619	4675
896.74	4630
896.861	4687
896.982	4911
897.103	5067
897.224	4839
897.345	4774
897.466	4668
897.587	4717
897.708	4870
897.828	4759
897.949	4649
898.07	4592
898.19	4641
898.311	4824
898.431	4710
898.552	4793
898.672	4824
898.792	4759
898.913	4721
899.033	4653
899.153	4485
899.273	4405
899.393	4504
899.513	4508
899.633	4542
899.753	4535
899.873	4512
899.993	4603
900.113	4584
900.232	4546
900.352	4565
900.472	4519
900.591	4390
900.711	4462
900.83	4455
900.95	4611
901.069	4679
901.189	4558
901.308	4394
901.427	4322
901.546	4371
901.665	4512
901.784	4519
901.904	4386
902.023	4318
902.141	4196
902.26	4177
902.379	4310
902.498	4246
902.617	4230
902.735	4390
902.854	4413
902.973	4375
903.091	4261
903.21	4234
903.328	4314
903.446	4253
903.565	4272
903.683	4333
903.801	4287
903.919	4432
904.038	4413
904.156	4375
904.274	4474
904.392	4379
904.51	4421
904.627	4489
904.745	4588
904.863	4645
904.981	4402
905.098	4348
905.216	4360
905.334	4409
905.451	4451
905.569	4440
905.686	4577
905.803	4554
905.921	4379
906.038	4535
906.155	4508
906.272	4398
906.389	4504
906.506	4367
906.623	4371
906.74	4402
906.857	4325
906.974	4356
907.091	4577
907.208	4664
907.324	4565
907.441	4485
907.557	4360
907.674	4383
907.79	4352
907.907	4421
908.023	4500
908.139	4519
908.256	4447
908.372	4459
908.488	4428
908.604	4344
908.72	4352
908.836	4344
908.952	4428
909.068	4424
909.184	4577
909.3	4512
909.415	4634
909.531	4611
909.647	4344
909.762	4386
909.878	4341
909.993	4413
910.108	4421
910.224	4383
910.339	4432
910.454	4405
910.57	4356
910.685	4322
910.8	4683
910.915	4645
911.03	4554
911.145	4333
911.259	4306
911.374	4348
911.489	4249
911.604	4318
911.718	4200
911.833	4276
911.947	4090
912.062	4044
912.176	4246
912.291	4238
912.405	4246
912.519	4516
912.633	4504
912.748	4322
912.862	4314
912.976	4207
913.09	4143
913.204	4181
913.318	4261
913.431	4375
913.545	4405
913.659	4409
913.772	4383
913.886	4246
914	4234
914.113	4424
914.226	4424
914.34	4394
914.453	4268
914.566	4409
914.68	4322
914.793	4360
914.906	4181
915.019	4120
915.132	4074
915.245	4219
915.358	4257
915.47	4196
915.583	4291
915.696	4310
915.809	4432
915.921	4417
916.034	4268
916.146	4238
916.259	4272
916.371	4367
916.483	4356
916.595	4261
916.708	4341
916.82	4325
916.932	4352
917.044	4337
917.156	4348
917.268	4261
917.38	4329
917.491	4272
917.603	4375
917.715	4417
917.826	4478
917.938	4398
918.049	4306
918.161	4386
918.272	4561
918.384	4565
918.495	4462
918.606	4299
918.717	4276
918.828	4352
918.939	4371
919.05	4261
919.161	4310
919.272	4166
919.383	4253
919.494	4466
919.604	4603
919.715	4436
919.826	4421
919.936	4451
920.047	4569
920.157	4546
920.267	4733
920.378	4554
920.488	4523
920.598	4763
920.708	4892
920.818	4717
920.928	4782
921.038	4980
921.148	4942
921.258	4630
921.368	4565
921.477	4523
921.587	4470
921.697	4394
921.806	4565
921.916	4409
922.025	4276
922.134	4303
922.244	4257
922.353	4337
922.462	4188
922.571	4143
922.68	4013
922.789	4013
922.898	4051
923.007	4006
923.116	4177
923.224	4036
923.333	4059
923.442	4036
923.55	4002
923.659	4067
923.767	4131
923.876	4002
923.984	4097
924.092	4055
924.201	4112
924.309	4112
924.417	4139
924.525	4086
924.633	4116
924.741	4904
924.849	3911
924.956	4192
925.064	3994
925.172	3903
925.279	3968
925.387	4116
925.494	4124
925.602	4219
925.709	4162
925.816	4086
925.924	4185
926.031	4249
926.138	4185
926.245	4230
926.352	4139
926.459	4276
926.566	4341
926.673	4143
926.779	4101
926.886	4082
926.993	3987
927.099	3945
927.206	3915
927.312	3994
927.419	4048
927.525	4071
927.631	4074
927.737	3983
927.843	3949
927.95	3873
928.056	3979
928.162	3956
928.267	4086
928.373	4717
928.479	4109
928.585	3880
928.69	4032
928.796	4074
928.901	4029
929.007	3896
929.112	4055
929.218	3998
929.323	3979
929.428	3979
929.533	4093
929.638	3884
929.743	3975
929.848	4082
929.953	3991
930.058	3949
930.163	3797
930.267	3842
930.372	3956
930.477	3838
930.581	4071
930.685	3956
930.79	3827
930.894	3915
930.998	3869
931.103	4101
931.207	3728
931.311	3705
931.415	3663
931.519	3549
931.623	3542
