Data from test_V78500241_48.txt Node
Date: Fri Mar 25 16:49:20 CST 2022
User: usil
Spectrometer: V785-0024
Trigger mode: 0
Integration Time (sec): 4.000000E-1
Scans to average: 1
Nonlinearity correction enabled: false
Boxcar width: 0
Storing dark spectrum: false
XAxis mode: Wavelengths
Number of Pixels in Spectrum: 1024
>>>>>Begin Spectral Data<<<<<
801.071	8111
801.214	8107
801.356	7997
801.499	7982
801.641	7883
801.783	7913
801.926	8077
802.068	8073
802.211	8054
802.353	8005
802.496	7978
802.638	7974
802.78	8092
802.923	7986
803.065	7951
803.208	7883
803.35	7936
803.492	8172
803.635	8206
803.777	7940
803.919	8126
804.061	8473
804.204	8187
804.346	8088
804.488	7997
804.63	8172
804.773	8062
804.915	8138
805.057	8282
805.199	8195
805.341	8294
805.483	8339
805.626	8244
805.768	8149
805.91	8279
806.052	8298
806.194	8168
806.336	8309
806.478	8221
806.62	8164
806.762	8240
806.904	8370
807.046	8465
807.188	8412
807.33	8404
807.472	8393
807.614	8206
807.756	8206
807.898	8031
808.04	7894
808.182	7890
808.324	7959
808.465	7970
808.607	8096
808.749	8172
808.891	8275
809.033	8305
809.174	8240
809.316	8103
809.458	8119
809.6	8012
809.741	8073
809.883	8024
810.025	8142
810.166	8161
810.308	8107
810.45	8046
810.591	7928
810.733	7734
810.875	7712
811.016	7605
811.158	7559
811.299	7689
811.441	7856
811.582	7807
811.724	7636
811.865	7597
812.007	7655
812.148	7620
812.29	7594
812.431	7795
812.573	7944
812.714	7997
812.855	8233
812.997	8305
813.138	8271
813.279	8275
813.421	8168
813.562	8050
813.703	7947
813.845	7856
813.986	7510
814.127	7312
814.268	7343
814.41	7285
814.551	7213
814.692	7274
814.833	7118
814.974	7171
815.115	7213
815.256	7012
815.397	6985
815.539	6939
815.68	6859
815.821	6745
815.962	6928
816.103	6806
816.244	6798
816.385	6711
816.526	6700
816.666	6540
816.807	6346
816.948	6464
817.089	6582
817.23	6433
817.371	6422
817.512	6445
817.653	6365
817.793	6388
817.934	6483
818.075	6486
818.216	6475
818.356	6536
818.497	6365
818.638	6232
818.778	6205
818.919	6186
819.06	6239
819.2	6418
819.341	6365
819.481	6448
819.622	6639
819.762	6856
819.903	6741
820.043	6688
820.184	6623
820.324	6650
820.465	6760
820.605	6741
820.746	6631
820.886	6547
821.026	6776
821.167	6768
821.307	6886
821.447	6791
821.588	6688
821.728	6700
821.868	6528
822.008	6407
822.149	6410
822.289	6460
822.429	6243
822.569	6125
822.709	6167
822.849	5950
822.99	5893
823.13	5980
823.27	5935
823.41	5912
823.55	5790
823.69	5802
823.83	5821
823.97	5745
824.11	5581
824.25	5573
824.389	5653
824.529	5665
824.669	5596
824.809	5703
824.949	5695
825.089	5710
825.228	5619
825.368	5482
825.508	5406
825.648	5444
825.787	5402
825.927	5414
826.067	5429
826.206	5311
826.346	5436
826.485	5505
826.625	5467
826.765	5596
826.904	5543
827.044	5330
827.183	5246
827.323	5147
827.462	5322
827.601	5250
827.741	5223
827.88	5265
828.02	5201
828.159	5330
828.298	5330
828.437	5387
828.577	5360
828.716	5539
828.855	5387
828.994	5239
829.134	5166
829.273	5185
829.412	5147
829.551	5155
829.69	5220
829.829	5288
829.968	5448
830.107	5357
830.246	5322
830.385	5212
830.524	5151
830.663	5147
830.802	5045
830.941	4835
831.08	4938
831.219	5003
831.357	4987
831.496	5208
831.635	5022
831.774	4870
831.913	4908
832.051	4858
832.19	4809
832.329	4870
832.467	4721
832.606	4675
832.744	4805
832.883	4763
833.022	4774
833.16	4858
833.299	4839
833.437	4839
833.576	4892
833.714	4889
833.852	4892
833.991	4968
834.129	4961
834.267	5006
834.406	4942
834.544	5025
834.682	5064
834.821	5010
834.959	5189
835.097	5067
835.235	5147
835.373	5178
835.511	5102
835.65	5083
835.788	5037
835.926	4987
836.064	4938
836.202	4980
836.34	5235
836.478	5330
836.615	5201
836.753	5292
836.891	5318
837.029	5269
837.167	5239
837.305	5220
837.443	5178
837.58	5155
837.718	5277
837.856	5197
837.993	5254
838.131	5322
838.269	5307
838.406	5239
838.544	5212
838.681	5033
838.819	5045
838.956	4896
839.094	4968
839.231	5025
839.369	5121
839.506	5471
839.643	5307
839.781	5140
839.918	5060
840.055	5143
840.193	5083
840.33	5102
840.467	5170
840.604	5235
840.742	5509
840.879	5147
841.016	5132
841.153	5223
841.29	5395
841.427	5376
841.564	5383
841.701	5391
841.838	5337
841.975	5181
842.112	5337
842.249	5174
842.385	5159
842.522	5349
842.659	5216
842.796	5216
842.933	5258
843.069	5178
843.206	5223
843.343	5322
843.479	5277
843.616	5326
843.752	5067
843.889	5056
844.025	5246
844.162	5052
844.298	5258
844.435	5124
844.571	5079
844.708	5181
844.844	5345
844.98	5372
845.117	5341
845.253	5208
845.389	5147
845.525	5208
845.661	5109
845.798	5102
845.934	5113
846.07	5105
846.206	5242
846.342	5315
846.478	5208
846.614	5079
846.75	5086
846.886	5006
847.022	5151
847.158	5105
847.294	5113
847.429	5090
847.565	5124
847.701	5402
847.837	4919
847.972	4873
848.108	5029
848.244	4946
848.379	4801
848.515	4767
848.65	4748
848.786	4793
848.921	4870
849.057	4911
849.192	4934
849.328	4885
849.463	4881
849.598	4850
849.734	4816
849.869	4740
850.004	4664
850.14	4683
850.275	4645
850.41	4554
850.545	4569
850.68	4664
850.815	4679
850.95	4675
851.085	4873
851.22	4797
851.355	4721
851.49	4706
851.625	4645
851.76	4691
851.895	4592
852.03	4588
852.165	4698
852.299	4763
852.434	4835
852.569	4835
852.703	4820
852.838	4862
852.973	5003
853.107	4946
853.242	4759
853.376	4752
853.511	4596
853.645	4622
853.78	4835
853.914	4702
854.048	4729
854.183	4752
854.317	4721
854.451	4877
854.585	4748
854.72	4717
854.854	4782
854.988	4656
855.122	4656
855.256	4584
855.39	4714
855.524	4816
855.658	4778
855.792	4717
855.926	4778
856.06	4748
856.194	4847
856.327	4771
856.461	4611
856.595	4668
856.729	4679
856.862	4831
856.996	4725
857.13	4702
857.263	4771
857.397	4885
857.53	4694
857.664	4797
857.797	4778
857.931	4809
858.064	4725
858.197	4782
858.331	4729
858.464	4672
858.597	4599
858.731	4656
858.864	4672
858.997	4550
859.13	4694
859.263	4698
859.396	4805
859.529	4634
859.662	4664
859.795	4611
859.928	4649
860.061	4793
860.194	4850
860.327	4622
860.46	4611
860.592	4767
860.725	4797
860.858	4759
860.99	4664
861.123	4588
861.256	4569
861.388	4649
861.521	5322
861.653	4523
861.786	4466
861.918	4538
862.05	4538
862.183	4618
862.315	4630
862.447	4702
862.58	4554
862.712	4447
862.844	4360
862.976	4516
863.108	4470
863.24	4862
863.372	4363
863.504	4417
863.636	4413
863.768	4466
863.9	4481
864.032	4421
864.164	4485
864.296	4558
864.428	4630
864.559	4588
864.691	4573
864.823	4599
864.954	4512
865.086	4527
865.217	4497
865.349	4440
865.48	4500
865.612	4546
865.743	4714
865.875	4542
866.006	4466
866.137	4535
866.269	4447
866.4	4466
866.531	4436
866.662	4466
866.793	4421
866.924	4523
867.055	4546
867.186	4512
867.317	4455
867.448	4421
867.579	4462
867.71	4428
867.841	4367
867.972	4493
868.103	4474
868.233	4535
868.364	4466
868.495	4569
868.625	4725
868.756	4797
868.886	4618
869.017	4656
869.147	4790
869.278	4801
869.408	4744
869.539	4694
869.669	4721
869.799	4744
869.929	4759
870.06	4774
870.19	4995
870.32	4987
870.45	4965
870.58	5064
870.71	5121
870.84	5124
870.97	4942
871.1	4934
871.23	5208
871.36	5117
871.489	5052
871.619	5132
871.749	5174
871.879	5189
872.008	5204
872.138	5147
872.267	5018
872.397	4877
872.526	4839
872.656	4771
872.785	4892
872.915	4968
873.044	5048
873.173	4930
873.303	5025
873.432	4961
873.561	5037
873.69	4942
873.819	4892
873.948	4980
874.077	4843
874.206	4793
874.335	4839
874.464	4957
874.593	5140
874.722	5003
874.851	5159
874.979	5113
875.108	5117
875.237	4942
875.365	4889
875.494	4904
875.623	4991
875.751	4930
875.88	4915
876.008	5041
876.136	5064
876.265	5307
876.393	5391
876.521	5330
876.65	5242
876.778	5246
876.906	5105
877.034	5067
877.162	5029
877.29	5014
877.418	5132
877.546	5109
877.674	5083
877.802	5071
877.93	5033
878.058	4987
878.185	4900
878.313	5018
878.441	5003
878.568	4839
878.696	4908
878.824	5018
878.951	5025
879.079	5166
879.206	5292
879.333	5181
879.461	4995
879.588	5060
879.715	5147
879.842	5292
879.97	5048
880.097	4866
880.224	4782
880.351	4923
880.478	4881
880.605	4820
880.732	4824
880.859	5143
880.986	4965
881.112	4938
881.239	4854
881.366	4733
881.493	4584
881.619	4649
881.746	4717
881.872	4691
881.999	4694
882.125	4721
882.252	4793
882.378	4839
882.505	4995
882.631	4862
882.757	4683
882.883	4774
883.01	4763
883.136	4721
883.262	4618
883.388	4656
883.514	4896
883.64	4927
883.766	4812
883.892	4736
884.018	4744
884.143	4934
884.269	5025
884.395	4694
884.52	4679
884.646	4702
884.772	4637
884.897	4592
885.023	4706
885.148	4828
885.274	4904
885.399	4877
885.524	4782
885.65	4782
885.775	4782
885.9	4721
886.025	4923
886.15	4843
886.275	4771
886.4	4675
886.525	4774
886.65	4710
886.775	4809
886.9	4919
887.025	5079
887.149	4839
887.274	4702
887.399	4618
887.523	4615
887.648	4630
887.773	4634
887.897	4786
888.021	4771
888.146	4740
888.27	4896
888.395	4961
888.519	4843
888.643	4850
888.767	4923
888.891	4687
889.015	4630
889.139	4679
889.263	4664
889.387	4797
889.511	4904
889.635	4828
889.759	4714
889.883	4725
890.006	4721
890.13	4892
890.254	4675
890.377	4733
890.501	4565
890.624	4577
890.748	4637
890.871	4531
890.995	4516
891.118	4447
891.241	4554
891.364	4580
891.488	4706
891.611	4500
891.734	4538
891.857	4668
891.98	4561
892.103	4679
892.226	4679
892.349	4558
892.471	4466
892.594	4622
892.717	4649
892.839	4645
892.962	4691
893.085	4721
893.207	4641
893.33	4500
893.452	4603
893.575	4694
893.697	4653
893.819	4805
893.941	4835
894.064	4847
894.186	4618
894.308	4622
894.43	4805
894.552	4850
894.674	4793
894.796	4607
894.918	4611
895.04	4584
895.161	4729
895.283	4675
895.405	4653
895.526	4694
895.648	4717
895.769	4729
895.891	4763
896.012	4778
896.134	4752
896.255	4694
896.376	4702
896.498	4653
896.619	4717
896.74	4664
896.861	4664
896.982	4953
897.103	5056
897.224	4896
897.345	4797
897.466	4698
897.587	4790
897.708	4889
897.828	4816
897.949	4698
898.07	4630
898.19	4679
898.311	4847
898.431	4733
898.552	4790
898.672	4896
898.792	4835
898.913	4809
899.033	4683
899.153	4561
899.273	4500
899.393	4527
899.513	4561
899.633	4554
899.753	4573
899.873	4550
899.993	4630
900.113	4542
900.232	4626
900.352	4584
900.472	4500
900.591	4451
900.711	4542
900.83	4489
900.95	4702
901.069	4706
901.189	4550
901.308	4436
901.427	4390
901.546	4421
901.665	4470
901.784	4565
901.904	4436
902.023	4371
902.141	4166
902.26	4162
902.379	4295
902.498	4287
902.617	4257
902.735	4436
902.854	4424
902.973	4352
903.091	4211
903.21	4303
903.328	4287
903.446	4333
903.565	4257
903.683	4398
903.801	4322
903.919	4428
904.038	4523
904.156	4356
904.274	4478
904.392	4436
904.51	4459
904.627	4523
904.745	4607
904.863	4675
904.981	4432
905.098	4356
905.216	4428
905.334	4489
905.451	4481
905.569	4474
905.686	4565
905.803	4565
905.921	4451
906.038	4542
906.155	4500
906.272	4394
906.389	4497
906.506	4379
906.623	4432
906.74	4470
906.857	4341
906.974	4405
907.091	4569
907.208	4744
907.324	4607
907.441	4550
907.557	4405
907.674	4333
907.79	4356
907.907	4428
908.023	4516
908.139	4508
908.256	4470
908.372	4504
908.488	4519
908.604	4432
908.72	4344
908.836	4424
908.952	4417
909.068	4527
909.184	4615
909.3	4504
909.415	4630
909.531	4580
909.647	4402
909.762	4455
909.878	4375
909.993	4417
910.108	4455
910.224	4409
910.339	4516
910.454	4428
910.57	4405
910.685	4333
910.8	4706
910.915	4653
911.03	4542
911.145	4367
911.259	4371
911.374	4413
911.489	4314
911.604	4303
911.718	4230
911.833	4246
911.947	4120
912.062	4101
912.176	4268
912.291	4291
912.405	4280
912.519	4508
912.633	4584
912.748	4421
912.862	4383
912.976	4257
913.09	4177
913.204	4249
913.318	4303
913.431	4409
913.545	4428
913.659	4470
913.772	4409
913.886	4261
914	4295
914.113	4390
914.226	4466
914.34	4409
914.453	4257
914.566	4489
914.68	4379
914.793	4379
914.906	4200
915.019	4158
915.132	4135
915.245	4211
915.358	4295
915.47	4215
915.583	4310
915.696	4344
915.809	4440
915.921	4493
916.034	4295
916.146	4268
916.259	4268
916.371	4413
916.483	4405
916.595	4261
916.708	4329
916.82	4375
916.932	4306
917.044	4405
917.156	4367
917.268	4276
917.38	4325
917.491	4344
917.603	4402
917.715	4428
917.826	4512
917.938	4451
918.049	4322
918.161	4443
918.272	4565
918.384	4596
918.495	4493
918.606	4322
918.717	4299
918.828	4356
918.939	4413
919.05	4295
919.161	4322
919.272	4169
919.383	4234
919.494	4508
919.604	4637
919.715	4451
919.826	4367
919.936	4402
920.047	4588
920.157	4519
920.267	4740
920.378	4531
920.488	4603
920.598	4831
920.708	4930
920.818	4870
920.928	4843
921.038	4999
921.148	4923
921.258	4672
921.368	4592
921.477	4561
921.587	4409
921.697	4443
921.806	4558
921.916	4451
922.025	4325
922.134	4314
922.244	4287
922.353	4371
922.462	4181
922.571	4196
922.68	4040
922.789	4002
922.898	4082
923.007	4051
923.116	4128
923.224	4139
923.333	4093
923.442	4036
923.55	4017
923.659	4101
923.767	4150
923.876	4082
923.984	4124
924.092	3991
924.201	4105
924.309	4181
924.417	4169
924.525	4086
924.633	4162
924.741	5067
924.849	3960
924.956	4135
925.064	4010
925.172	3937
925.279	3972
925.387	4086
925.494	4055
925.602	4230
925.709	4211
925.816	4128
925.924	4128
926.031	4234
926.138	4234
926.245	4242
926.352	4169
926.459	4303
926.566	4318
926.673	4185
926.779	4082
926.886	4143
926.993	3998
927.099	4006
927.206	3975
927.312	3987
927.419	4135
927.525	4063
927.631	4135
927.737	4032
927.843	3983
927.95	3903
928.056	3953
928.162	4048
928.267	4086
928.373	4672
928.479	4158
928.585	3937
928.69	3983
928.796	4082
928.901	4017
929.007	3903
929.112	3998
929.218	4006
929.323	3956
929.428	3956
929.533	4154
929.638	3953
929.743	3998
929.848	4112
929.953	3998
930.058	3945
930.163	3819
930.267	3869
930.372	3998
930.477	3823
930.581	4120
930.685	3956
930.79	3823
930.894	3873
930.998	3911
931.103	4082
931.207	3724
931.311	3747
931.415	3698
931.519	3519
931.623	3580
