Data from test_V78500241_2740.txt Node
Date: Fri Mar 25 17:08:03 CST 2022
User: usil
Spectrometer: V785-0024
Trigger mode: 0
Integration Time (sec): 4.000000E-1
Scans to average: 1
Nonlinearity correction enabled: false
Boxcar width: 0
Storing dark spectrum: false
XAxis mode: Wavelengths
Number of Pixels in Spectrum: 1024
>>>>>Begin Spectral Data<<<<<
801.071	8012
801.214	8024
801.356	7887
801.499	7894
801.641	7925
801.783	7894
801.926	8024
802.068	7955
802.211	8103
802.353	8100
802.496	7879
802.638	7860
802.78	7993
802.923	7967
803.065	7932
803.208	7921
803.35	7970
803.492	8100
803.635	8259
803.777	8088
803.919	8168
804.061	8457
804.204	8180
804.346	8062
804.488	7974
804.63	8172
804.773	8039
804.915	8145
805.057	8279
805.199	8199
805.341	8199
805.483	8332
805.626	8275
805.768	8157
805.91	8317
806.052	8176
806.194	8130
806.336	8347
806.478	8126
806.62	8088
806.762	8161
806.904	8290
807.046	8446
807.188	8412
807.33	8400
807.472	8370
807.614	8187
807.756	8039
807.898	8046
808.04	7928
808.182	7951
808.324	7864
808.465	7944
808.607	8035
808.749	8206
808.891	8233
809.033	8381
809.174	8279
809.316	8134
809.458	8138
809.6	7986
809.741	8077
809.883	8088
810.025	8100
810.166	8062
810.308	8043
810.45	8035
810.591	7921
810.733	7693
810.875	7616
811.016	7563
811.158	7529
811.299	7616
811.441	7803
811.582	7742
811.724	7639
811.865	7544
812.007	7571
812.148	7613
812.29	7605
812.431	7723
812.573	7864
812.714	7978
812.855	8218
812.997	8199
813.138	8347
813.279	8149
813.421	8164
813.562	8020
813.703	7902
813.845	7837
813.986	7514
814.127	7244
814.268	7278
814.41	7183
814.551	7129
814.692	7221
814.833	7080
814.974	7091
815.115	7088
815.256	6966
815.397	6875
815.539	6977
815.68	6798
815.821	6878
815.962	6833
816.103	6814
816.244	6776
816.385	6635
816.526	6604
816.666	6486
816.807	6296
816.948	6490
817.089	6456
817.23	6448
817.371	6426
817.512	6418
817.653	6422
817.793	6365
817.934	6437
818.075	6433
818.216	6486
818.356	6418
818.497	6228
818.638	6163
818.778	6205
818.919	6140
819.06	6171
819.2	6357
819.341	6346
819.481	6353
819.622	6532
819.762	6719
819.903	6711
820.043	6616
820.184	6551
820.324	6536
820.465	6722
820.605	6673
820.746	6639
820.886	6536
821.026	6688
821.167	6711
821.307	6875
821.447	6897
821.588	6673
821.728	6593
821.868	6467
822.008	6346
822.149	6403
822.289	6380
822.429	6144
822.569	6190
822.709	6175
822.849	5912
822.99	5908
823.13	5916
823.27	5920
823.41	5809
823.55	5771
823.69	5783
823.83	5813
823.97	5680
824.11	5554
824.25	5520
824.389	5592
824.529	5551
824.669	5528
824.809	5653
824.949	5672
825.089	5661
825.228	5566
825.368	5379
825.508	5337
825.648	5372
825.787	5410
825.927	5337
826.067	5315
826.206	5318
826.346	5341
826.485	5452
826.625	5444
826.765	5524
826.904	5490
827.044	5227
827.183	5162
827.323	5166
827.462	5258
827.601	5128
827.741	5132
827.88	5212
828.02	5143
828.159	5197
828.298	5250
828.437	5421
828.577	5258
828.716	5528
828.855	5330
828.994	5166
829.134	5181
829.273	5201
829.412	5143
829.551	5181
829.69	5189
829.829	5261
829.968	5376
830.107	5246
830.246	5280
830.385	5151
830.524	5136
830.663	5090
830.802	4965
830.941	4911
831.08	4889
831.219	4980
831.357	4980
831.496	5201
831.635	4949
831.774	4843
831.913	4839
832.051	4748
832.19	4736
832.329	4812
832.467	4706
832.606	4645
832.744	4725
832.883	4725
833.022	4664
833.16	4748
833.299	4801
833.437	4870
833.576	4782
833.714	4835
833.852	4908
833.991	4911
834.129	4991
834.267	4949
834.406	4900
834.544	4976
834.682	4965
834.821	4953
834.959	5147
835.097	4991
835.235	5204
835.373	5045
835.511	5113
835.65	5033
835.788	5018
835.926	4870
836.064	4911
836.202	4892
836.34	5170
836.478	5269
836.615	5132
836.753	5250
836.891	5303
837.029	5231
837.167	5231
837.305	5155
837.443	5147
837.58	5105
837.718	5254
837.856	5216
837.993	5094
838.131	5223
838.269	5212
838.406	5231
838.544	5231
838.681	5022
838.819	5010
838.956	4919
839.094	4892
839.231	5003
839.369	5079
839.506	5391
839.643	5273
839.781	5048
839.918	4980
840.055	5117
840.193	5128
840.33	5140
840.467	5140
840.604	5159
840.742	5391
840.879	5086
841.016	5086
841.153	5094
841.29	5391
841.427	5357
841.564	5368
841.701	5341
841.838	5220
841.975	5277
842.112	5246
842.249	5159
842.385	5109
842.522	5334
842.659	5155
842.796	5147
842.933	5159
843.069	5147
843.206	5143
843.343	5315
843.479	5212
843.616	5273
843.752	5022
843.889	5018
844.025	5185
844.162	5037
844.298	5185
844.435	5064
844.571	5075
844.708	5197
844.844	5284
844.98	5326
845.117	5254
845.253	5136
845.389	5079
845.525	5143
845.661	5105
845.798	5029
845.934	5105
846.07	5052
846.206	5204
846.342	5284
846.478	5174
846.614	5048
846.75	4987
846.886	4900
847.022	5178
847.158	5041
847.294	5071
847.429	5105
847.565	5075
847.701	5280
847.837	4835
847.972	4755
848.108	4984
848.244	4949
848.379	4793
848.515	4771
848.65	4660
848.786	4759
848.921	4797
849.057	4850
849.192	4873
849.328	4824
849.463	4885
849.598	4771
849.734	4782
849.869	4710
850.004	4630
850.14	4660
850.275	4580
850.41	4538
850.545	4554
850.68	4653
850.815	4599
850.95	4653
851.085	4847
851.22	4725
851.355	4702
851.49	4637
851.625	4618
851.76	4653
851.895	4546
852.03	4558
852.165	4626
852.299	4710
852.434	4748
852.569	4759
852.703	4744
852.838	4873
852.973	4949
853.107	4870
853.242	4740
853.376	4618
853.511	4569
853.645	4592
853.78	4809
853.914	4702
854.048	4706
854.183	4660
854.317	4698
854.451	4801
854.585	4675
854.72	4615
854.854	4786
854.988	4618
855.122	4645
855.256	4516
855.39	4641
855.524	4786
855.658	4729
855.792	4656
855.926	4725
856.06	4759
856.194	4797
856.327	4672
856.461	4611
856.595	4577
856.729	4641
856.862	4793
856.996	4630
857.13	4679
857.263	4717
857.397	4778
857.53	4611
857.664	4694
857.797	4721
857.931	4774
858.064	4687
858.197	4755
858.331	4641
858.464	4611
858.597	4500
858.731	4645
858.864	4660
858.997	4615
859.13	4649
859.263	4668
859.396	4694
859.529	4592
859.662	4558
859.795	4531
859.928	4618
860.061	4752
860.194	4740
860.327	4607
860.46	4580
860.592	4721
860.725	4740
860.858	4698
860.99	4596
861.123	4462
861.256	4561
861.388	4607
861.521	5273
861.653	4470
861.786	4436
861.918	4390
862.05	4504
862.183	4588
862.315	4637
862.447	4698
862.58	4535
862.712	4409
862.844	4322
862.976	4478
863.108	4550
863.24	4759
863.372	4329
863.504	4402
863.636	4424
863.768	4497
863.9	4459
864.032	4402
864.164	4436
864.296	4447
864.428	4565
864.559	4577
864.691	4535
864.823	4523
864.954	4459
865.086	4504
865.217	4485
865.349	4405
865.48	4466
865.612	4500
865.743	4637
865.875	4436
866.006	4413
866.137	4459
866.269	4440
866.4	4424
866.531	4436
866.662	4424
866.793	4432
866.924	4417
867.055	4474
867.186	4443
867.317	4432
867.448	4424
867.579	4363
867.71	4440
867.841	4348
867.972	4436
868.103	4478
868.233	4478
868.364	4455
868.495	4474
868.625	4630
868.756	4767
868.886	4573
869.017	4588
869.147	4736
869.278	4801
869.408	4668
869.539	4706
869.669	4710
869.799	4706
869.929	4763
870.06	4733
870.19	4968
870.32	4904
870.45	4972
870.58	4976
870.71	5071
870.84	5132
870.97	4968
871.1	4839
871.23	5128
871.36	5117
871.489	5048
871.619	5121
871.749	5098
871.879	5140
872.008	5162
872.138	5086
872.267	4968
872.397	4862
872.526	4850
872.656	4729
872.785	4790
872.915	4953
873.044	5033
873.173	4927
873.303	4938
873.432	4968
873.561	4911
873.69	4843
873.819	4858
873.948	4881
874.077	4816
874.206	4717
874.335	4786
874.464	4949
874.593	5067
874.722	4972
874.851	5128
874.979	5102
875.108	5037
875.237	4915
875.365	4896
875.494	4862
875.623	4965
875.751	4862
875.88	4930
876.008	4984
876.136	5018
876.265	5170
876.393	5376
876.521	5227
876.65	5220
876.778	5189
876.906	5067
877.034	4980
877.162	5041
877.29	4961
877.418	5037
877.546	5056
877.674	5018
877.802	5041
877.93	5018
878.058	4976
878.185	4873
878.313	5003
878.441	4961
878.568	4801
878.696	4911
878.824	4946
878.951	4972
879.079	5132
879.206	5280
879.333	5075
879.461	4987
879.588	4934
879.715	5094
879.842	5197
879.97	5006
880.097	4797
880.224	4752
880.351	4820
880.478	4801
880.605	4801
880.732	4778
880.859	5071
880.986	4881
881.112	4930
881.239	4763
881.366	4653
881.493	4584
881.619	4637
881.746	4645
881.872	4691
881.999	4664
882.125	4702
882.252	4778
882.378	4786
882.505	4946
882.631	4767
882.757	4615
882.883	4752
883.01	4748
883.136	4714
883.262	4554
883.388	4649
883.514	4790
883.64	4847
883.766	4797
883.892	4664
884.018	4668
884.143	4854
884.269	5018
884.395	4660
884.52	4634
884.646	4660
884.772	4584
884.897	4550
885.023	4706
885.148	4778
885.274	4881
885.399	4782
885.524	4748
885.65	4683
885.775	4755
885.9	4675
886.025	4862
886.15	4771
886.275	4733
886.4	4714
886.525	4767
886.65	4694
886.775	4675
886.9	4919
887.025	5041
887.149	4843
887.274	4622
887.399	4592
887.523	4656
887.648	4588
887.773	4580
887.897	4786
888.021	4774
888.146	4653
888.27	4771
888.395	4877
888.519	4774
888.643	4774
888.767	4831
888.891	4706
889.015	4611
889.139	4664
889.263	4592
889.387	4744
889.511	4873
889.635	4771
889.759	4645
889.883	4683
890.006	4668
890.13	4866
890.254	4634
890.377	4664
890.501	4538
890.624	4523
890.748	4618
890.871	4523
890.995	4409
891.118	4443
891.241	4497
891.364	4577
891.488	4641
891.611	4489
891.734	4550
891.857	4607
891.98	4558
892.103	4691
892.226	4569
892.349	4569
892.471	4405
892.594	4580
892.717	4577
892.839	4554
892.962	4592
893.085	4725
893.207	4580
893.33	4497
893.452	4523
893.575	4660
893.697	4565
893.819	4771
893.941	4793
894.064	4774
894.186	4588
894.308	4516
894.43	4771
894.552	4908
894.674	4748
894.796	4542
894.918	4599
895.04	4558
895.161	4668
895.283	4626
895.405	4603
895.526	4645
895.648	4656
895.769	4641
895.891	4714
896.012	4786
896.134	4759
896.255	4656
896.376	4607
896.498	4565
896.619	4675
896.74	4599
896.861	4603
896.982	4919
897.103	5048
897.224	4809
897.345	4733
897.466	4672
897.587	4717
897.708	4790
897.828	4748
897.949	4664
898.07	4535
898.19	4691
898.311	4858
898.431	4668
898.552	4740
898.672	4843
898.792	4778
898.913	4752
899.033	4653
899.153	4531
899.273	4447
899.393	4481
899.513	4569
899.633	4481
899.753	4565
899.873	4546
899.993	4558
900.113	4538
900.232	4569
900.352	4584
900.472	4508
900.591	4386
900.711	4459
900.83	4474
900.95	4603
901.069	4668
901.189	4565
901.308	4367
901.427	4318
901.546	4356
901.665	4428
901.784	4489
901.904	4390
902.023	4341
902.141	4196
902.26	4120
902.379	4299
902.498	4234
902.617	4204
902.735	4352
902.854	4443
902.973	4413
903.091	4253
903.21	4268
903.328	4261
903.446	4295
903.565	4280
903.683	4348
903.801	4265
903.919	4447
904.038	4478
904.156	4348
904.274	4390
904.392	4379
904.51	4436
904.627	4504
904.745	4542
904.863	4672
904.981	4394
905.098	4291
905.216	4356
905.334	4443
905.451	4417
905.569	4421
905.686	4561
905.803	4607
905.921	4417
906.038	4535
906.155	4466
906.272	4394
906.389	4447
906.506	4360
906.623	4386
906.74	4436
906.857	4341
906.974	4341
907.091	4538
907.208	4679
907.324	4584
907.441	4504
907.557	4329
907.674	4356
907.79	4367
907.907	4363
908.023	4466
908.139	4466
908.256	4428
908.372	4478
908.488	4455
908.604	4344
908.72	4310
908.836	4390
908.952	4318
909.068	4474
909.184	4546
909.3	4504
909.415	4603
909.531	4519
909.647	4348
909.762	4390
909.878	4314
909.993	4409
910.108	4398
910.224	4363
910.339	4462
910.454	4394
910.57	4405
910.685	4310
910.8	4664
910.915	4592
911.03	4462
911.145	4299
911.259	4360
911.374	4344
911.489	4318
911.604	4291
911.718	4128
911.833	4227
911.947	4086
912.062	4044
912.176	4261
912.291	4268
912.405	4238
912.519	4447
912.633	4474
912.748	4352
912.862	4322
912.976	4188
913.09	4097
913.204	4139
913.318	4246
913.431	4379
913.545	4379
913.659	4428
913.772	4341
913.886	4227
914	4223
914.113	4375
914.226	4379
914.34	4402
914.453	4211
914.566	4402
914.68	4306
914.793	4322
914.906	4158
915.019	4143
915.132	4082
915.245	4177
915.358	4207
915.47	4227
915.583	4265
915.696	4303
915.809	4367
915.921	4421
916.034	4253
916.146	4268
916.259	4253
916.371	4329
916.483	4333
916.595	4253
916.708	4314
916.82	4333
916.932	4295
917.044	4318
917.156	4337
917.268	4211
917.38	4299
917.491	4249
917.603	4295
917.715	4421
917.826	4432
917.938	4390
918.049	4223
918.161	4352
918.272	4516
918.384	4558
918.495	4409
918.606	4337
918.717	4280
918.828	4306
918.939	4390
919.05	4284
919.161	4303
919.272	4147
919.383	4272
919.494	4485
919.604	4660
919.715	4447
919.826	4371
919.936	4424
920.047	4497
920.157	4436
920.267	4725
920.378	4573
920.488	4508
920.598	4721
920.708	4911
920.818	4744
920.928	4755
921.038	4965
921.148	4915
921.258	4630
921.368	4531
921.477	4500
921.587	4455
921.697	4367
921.806	4558
921.916	4447
922.025	4272
922.134	4341
922.244	4207
922.353	4352
922.462	4181
922.571	4162
922.68	3991
922.789	3994
922.898	4013
923.007	4002
923.116	4128
923.224	4109
923.333	4063
923.442	4002
923.55	3991
923.659	4040
923.767	4101
923.876	3968
923.984	4109
924.092	3983
924.201	4082
924.309	4128
924.417	4124
924.525	4082
924.633	4139
924.741	5041
924.849	3934
924.956	4162
925.064	3983
925.172	3918
925.279	3922
925.387	4048
925.494	4032
925.602	4223
925.709	4200
925.816	4048
925.924	4120
926.031	4204
926.138	4181
926.245	4181
926.352	4063
926.459	4287
926.566	4325
926.673	4177
926.779	4082
926.886	4055
926.993	4029
927.099	3941
927.206	3880
927.312	3972
927.419	4025
927.525	4025
927.631	4071
927.737	3953
927.843	3907
927.95	3835
928.056	3979
928.162	4013
928.267	4059
928.373	4706
928.479	4116
928.585	3884
928.69	4010
928.796	4090
928.901	3983
929.007	3838
929.112	3968
929.218	3987
929.323	3922
929.428	3979
929.533	4071
929.638	3899
929.743	4010
929.848	4051
929.953	4006
930.058	3949
930.163	3774
930.267	3800
930.372	3960
930.477	3800
930.581	4120
930.685	3949
930.79	3762
930.894	3880
930.998	3873
931.103	4032
931.207	3682
931.311	3701
931.415	3633
931.519	3515
931.623	3530
