Data from test_V78500241_2571.txt Node
Date: Fri Mar 25 17:06:52 CST 2022
User: usil
Spectrometer: V785-0024
Trigger mode: 0
Integration Time (sec): 4.000000E-1
Scans to average: 1
Nonlinearity correction enabled: false
Boxcar width: 0
Storing dark spectrum: false
XAxis mode: Wavelengths
Number of Pixels in Spectrum: 1024
>>>>>Begin Spectral Data<<<<<
801.071	7997
801.214	8043
801.356	8031
801.499	7856
801.641	7784
801.783	7830
801.926	8020
802.068	7989
802.211	8008
802.353	7989
802.496	7837
802.638	7894
802.78	7947
802.923	7898
803.065	7898
803.208	7940
803.35	7955
803.492	8149
803.635	8237
803.777	8016
803.919	8180
804.061	8438
804.204	8191
804.346	8046
804.488	7947
804.63	8123
804.773	8012
804.915	8130
805.057	8290
805.199	8153
805.341	8279
805.483	8313
805.626	8263
805.768	8145
805.91	8202
806.052	8164
806.194	8157
806.336	8275
806.478	8088
806.62	8058
806.762	8164
806.904	8237
807.046	8454
807.188	8431
807.33	8320
807.472	8355
807.614	8157
807.756	8225
807.898	8027
808.04	7856
808.182	7955
808.324	7902
808.465	7902
808.607	8035
808.749	8142
808.891	8244
809.033	8309
809.174	8199
809.316	8077
809.458	8130
809.6	8065
809.741	8031
809.883	8050
810.025	8107
810.166	8073
810.308	8039
810.45	7982
810.591	7856
810.733	7655
810.875	7647
811.016	7502
811.158	7525
811.299	7647
811.441	7765
811.582	7757
811.724	7582
811.865	7552
812.007	7605
812.148	7571
812.29	7616
812.431	7689
812.573	7818
812.714	7993
812.855	8130
812.997	8252
813.138	8309
813.279	8119
813.421	8092
813.562	7978
813.703	7860
813.845	7776
813.986	7457
814.127	7274
814.268	7274
814.41	7141
814.551	7183
814.692	7206
814.833	7107
814.974	7110
815.115	7145
815.256	7012
815.397	6916
815.539	6916
815.68	6833
815.821	6791
815.962	6897
816.103	6810
816.244	6711
816.385	6654
816.526	6658
816.666	6509
816.807	6338
816.948	6479
817.089	6471
817.23	6407
817.371	6433
817.512	6403
817.653	6395
817.793	6407
817.934	6395
818.075	6528
818.216	6410
818.356	6426
818.497	6235
818.638	6209
818.778	6163
818.919	6133
819.06	6228
819.2	6372
819.341	6361
819.481	6391
819.622	6525
819.762	6722
819.903	6700
820.043	6585
820.184	6631
820.324	6544
820.465	6707
820.605	6696
820.746	6688
820.886	6517
821.026	6684
821.167	6757
821.307	6760
821.447	6757
821.588	6684
821.728	6604
821.868	6509
822.008	6376
822.149	6388
822.289	6369
822.429	6148
822.569	6136
822.709	6148
822.849	5901
822.99	5901
823.13	5988
823.27	5954
823.41	5802
823.55	5805
823.69	5748
823.83	5798
823.97	5665
824.11	5532
824.25	5520
824.389	5573
824.529	5596
824.669	5520
824.809	5668
824.949	5638
825.089	5615
825.228	5554
825.368	5436
825.508	5341
825.648	5364
825.787	5395
825.927	5391
826.067	5265
826.206	5315
826.346	5341
826.485	5379
826.625	5391
826.765	5558
826.904	5505
827.044	5315
827.183	5193
827.323	5166
827.462	5231
827.601	5147
827.741	5265
827.88	5201
828.02	5124
828.159	5223
828.298	5360
828.437	5368
828.577	5273
828.716	5459
828.855	5303
828.994	5178
829.134	5181
829.273	5189
829.412	5136
829.551	5155
829.69	5174
829.829	5239
829.968	5414
830.107	5299
830.246	5258
830.385	5239
830.524	5105
830.663	5018
830.802	5003
830.941	4896
831.08	4881
831.219	4991
831.357	4957
831.496	5159
831.635	4923
831.774	4850
831.913	4873
832.051	4752
832.19	4725
832.329	4858
832.467	4694
832.606	4691
832.744	4736
832.883	4714
833.022	4755
833.16	4786
833.299	4885
833.437	4854
833.576	4831
833.714	4816
833.852	4858
833.991	4828
834.129	4949
834.267	4968
834.406	4904
834.544	5010
834.682	4961
834.821	4984
834.959	5136
835.097	4949
835.235	5136
835.373	5067
835.511	5128
835.65	5075
835.788	5045
835.926	4904
836.064	4889
836.202	4892
836.34	5242
836.478	5273
836.615	5178
836.753	5208
836.891	5265
837.029	5315
837.167	5250
837.305	5185
837.443	5159
837.58	5140
837.718	5250
837.856	5140
837.993	5136
838.131	5212
838.269	5189
838.406	5185
838.544	5212
838.681	5056
838.819	5010
838.956	4862
839.094	4892
839.231	4980
839.369	5079
839.506	5387
839.643	5258
839.781	5075
839.918	4995
840.055	5086
840.193	5060
840.33	5121
840.467	5113
840.604	5208
840.742	5436
840.879	5079
841.016	5067
841.153	5212
841.29	5360
841.427	5353
841.564	5311
841.701	5383
841.838	5292
841.975	5220
842.112	5223
842.249	5109
842.385	5121
842.522	5330
842.659	5181
842.796	5086
842.933	5181
843.069	5094
843.206	5151
843.343	5292
843.479	5250
843.616	5322
843.752	5067
843.889	4991
844.025	5216
844.162	4999
844.298	5174
844.435	5052
844.571	5109
844.708	5201
844.844	5299
844.98	5322
845.117	5269
845.253	5128
845.389	5041
845.525	5143
845.661	5113
845.798	5014
845.934	5086
846.07	5079
846.206	5201
846.342	5292
846.478	5181
846.614	5010
846.75	4999
846.886	4976
847.022	5143
847.158	4949
847.294	5079
847.429	5113
847.565	5037
847.701	5334
847.837	4843
847.972	4820
848.108	4953
848.244	4965
848.379	4786
848.515	4748
848.65	4691
848.786	4706
848.921	4759
849.057	4820
849.192	4927
849.328	4858
849.463	4847
849.598	4862
849.734	4740
849.869	4698
850.004	4649
850.14	4672
850.275	4641
850.41	4565
850.545	4580
850.68	4573
850.815	4649
850.95	4637
851.085	4820
851.22	4729
851.355	4668
851.49	4641
851.625	4641
851.76	4592
851.895	4558
852.03	4500
852.165	4641
852.299	4771
852.434	4797
852.569	4706
852.703	4778
852.838	4881
852.973	4946
853.107	4892
853.242	4736
853.376	4649
853.511	4527
853.645	4660
853.78	4805
853.914	4641
854.048	4618
854.183	4634
854.317	4717
854.451	4847
854.585	4706
854.72	4656
854.854	4771
854.988	4630
855.122	4637
855.256	4512
855.39	4698
855.524	4763
855.658	4744
855.792	4698
855.926	4725
856.06	4755
856.194	4797
856.327	4694
856.461	4611
856.595	4618
856.729	4653
856.862	4748
856.996	4694
857.13	4752
857.263	4736
857.397	4809
857.53	4668
857.664	4672
857.797	4790
857.931	4744
858.064	4725
858.197	4763
858.331	4626
858.464	4653
858.597	4523
858.731	4656
858.864	4679
858.997	4569
859.13	4694
859.263	4634
859.396	4687
859.529	4596
859.662	4531
859.795	4531
859.928	4607
860.061	4748
860.194	4782
860.327	4615
860.46	4607
860.592	4691
860.725	4698
860.858	4740
860.99	4569
861.123	4523
861.256	4535
861.388	4626
861.521	5303
861.653	4474
861.786	4447
861.918	4455
862.05	4558
862.183	4554
862.315	4584
862.447	4622
862.58	4565
862.712	4386
862.844	4360
862.976	4478
863.108	4504
863.24	4790
863.372	4356
863.504	4451
863.636	4398
863.768	4470
863.9	4428
864.032	4383
864.164	4398
864.296	4459
864.428	4565
864.559	4542
864.691	4516
864.823	4527
864.954	4497
865.086	4508
865.217	4443
865.349	4424
865.48	4443
865.612	4497
865.743	4664
865.875	4436
866.006	4436
866.137	4462
866.269	4413
866.4	4470
866.531	4455
866.662	4421
866.793	4424
866.924	4394
867.055	4470
867.186	4432
867.317	4428
867.448	4394
867.579	4379
867.71	4409
867.841	4375
867.972	4459
868.103	4440
868.233	4493
868.364	4470
868.495	4478
868.625	4645
868.756	4767
868.886	4577
869.017	4630
869.147	4771
869.278	4774
869.408	4702
869.539	4653
869.669	4767
869.799	4653
869.929	4759
870.06	4752
870.19	4991
870.32	4934
870.45	4953
870.58	4995
870.71	5109
870.84	5143
870.97	4923
871.1	4968
871.23	5151
871.36	5166
871.489	5033
871.619	5071
871.749	5098
871.879	5136
872.008	5181
872.138	5067
872.267	4999
872.397	4862
872.526	4809
872.656	4714
872.785	4782
872.915	4965
873.044	5045
873.173	4987
873.303	4972
873.432	4984
873.561	4968
873.69	4896
873.819	4858
873.948	4915
874.077	4812
874.206	4774
874.335	4816
874.464	4923
874.593	5033
874.722	4942
874.851	5109
874.979	5071
875.108	5022
875.237	4900
875.365	4885
875.494	4873
875.623	4934
875.751	4824
875.88	4873
876.008	4965
876.136	5041
876.265	5227
876.393	5326
876.521	5318
876.65	5265
876.778	5166
876.906	5075
877.034	5010
877.162	5067
877.29	4953
877.418	5083
877.546	5045
877.674	5025
877.802	5037
877.93	5033
878.058	4972
878.185	4889
878.313	4949
878.441	4980
878.568	4835
878.696	4866
878.824	4885
878.951	4984
879.079	5071
879.206	5235
879.333	5128
879.461	4949
879.588	5025
879.715	5117
879.842	5258
879.97	4972
880.097	4793
880.224	4733
880.351	4805
880.478	4885
880.605	4786
880.732	4778
880.859	5052
880.986	4866
881.112	4949
881.239	4748
881.366	4687
881.493	4561
881.619	4580
881.746	4626
881.872	4641
881.999	4653
882.125	4698
882.252	4759
882.378	4881
882.505	4968
882.631	4786
882.757	4668
882.883	4740
883.01	4744
883.136	4645
883.262	4569
883.388	4580
883.514	4809
883.64	4847
883.766	4744
883.892	4637
884.018	4717
884.143	4881
884.269	5014
884.395	4649
884.52	4634
884.646	4611
884.772	4573
884.897	4519
885.023	4672
885.148	4839
885.274	4858
885.399	4828
885.524	4755
885.65	4679
885.775	4778
885.9	4706
886.025	4850
886.15	4767
886.275	4717
886.4	4668
886.525	4774
886.65	4687
886.775	4660
886.9	4885
887.025	5056
887.149	4797
887.274	4637
887.399	4584
887.523	4596
887.648	4535
887.773	4588
887.897	4714
888.021	4786
888.146	4664
888.27	4873
888.395	4858
888.519	4790
888.643	4786
888.767	4801
888.891	4729
889.015	4618
889.139	4702
889.263	4592
889.387	4771
889.511	4862
889.635	4774
889.759	4634
889.883	4626
890.006	4721
890.13	4835
890.254	4618
890.377	4653
890.501	4516
890.624	4546
890.748	4630
890.871	4523
890.995	4447
891.118	4413
891.241	4512
891.364	4527
891.488	4611
891.611	4535
891.734	4546
891.857	4554
891.98	4584
892.103	4664
892.226	4527
892.349	4519
892.471	4428
892.594	4550
892.717	4584
892.839	4588
892.962	4531
893.085	4637
893.207	4622
893.33	4428
893.452	4561
893.575	4641
893.697	4580
893.819	4786
893.941	4843
894.064	4725
894.186	4550
894.308	4542
894.43	4710
894.552	4839
894.674	4725
894.796	4531
894.918	4569
895.04	4538
895.161	4706
895.283	4687
895.405	4558
895.526	4618
895.648	4710
895.769	4675
895.891	4740
896.012	4672
896.134	4710
896.255	4698
896.376	4622
896.498	4660
896.619	4656
896.74	4611
896.861	4596
896.982	4877
897.103	5102
897.224	4831
897.345	4733
897.466	4679
897.587	4710
897.708	4816
897.828	4809
897.949	4672
898.07	4573
898.19	4611
898.311	4816
898.431	4706
898.552	4717
898.672	4752
898.792	4759
898.913	4733
899.033	4622
899.153	4554
899.273	4413
899.393	4451
899.513	4512
899.633	4508
899.753	4546
899.873	4542
899.993	4626
900.113	4497
900.232	4550
900.352	4546
900.472	4474
900.591	4398
900.711	4504
900.83	4379
900.95	4588
901.069	4691
901.189	4516
901.308	4409
901.427	4303
901.546	4390
901.665	4504
901.784	4489
901.904	4417
902.023	4341
902.141	4223
902.26	4143
902.379	4253
902.498	4249
902.617	4238
902.735	4344
902.854	4352
902.973	4352
903.091	4211
903.21	4227
903.328	4280
903.446	4276
903.565	4257
903.683	4341
903.801	4261
903.919	4375
904.038	4424
904.156	4352
904.274	4421
904.392	4363
904.51	4455
904.627	4489
904.745	4561
904.863	4615
904.981	4405
905.098	4280
905.216	4367
905.334	4451
905.451	4474
905.569	4436
905.686	4535
905.803	4592
905.921	4394
906.038	4550
906.155	4489
906.272	4398
906.389	4432
906.506	4367
906.623	4424
906.74	4413
906.857	4310
906.974	4344
907.091	4573
907.208	4664
907.324	4599
907.441	4493
907.557	4329
907.674	4367
907.79	4322
907.907	4367
908.023	4447
908.139	4459
908.256	4383
908.372	4470
908.488	4470
908.604	4379
908.72	4310
908.836	4363
908.952	4390
909.068	4421
909.184	4588
909.3	4436
909.415	4596
909.531	4573
909.647	4337
909.762	4383
909.878	4344
909.993	4466
910.108	4405
910.224	4402
910.339	4466
910.454	4405
910.57	4375
910.685	4303
910.8	4694
910.915	4611
911.03	4504
911.145	4287
911.259	4352
911.374	4306
911.489	4280
911.604	4299
911.718	4166
911.833	4272
911.947	4101
912.062	3968
912.176	4227
912.291	4230
912.405	4249
912.519	4470
912.633	4500
912.748	4352
912.862	4291
912.976	4253
913.09	4128
913.204	4200
913.318	4246
913.431	4363
913.545	4390
913.659	4428
913.772	4344
913.886	4287
914	4211
914.113	4421
914.226	4421
914.34	4405
914.453	4253
914.566	4462
914.68	4341
914.793	4348
914.906	4147
915.019	4120
915.132	4032
915.245	4173
915.358	4169
915.47	4246
915.583	4246
915.696	4310
915.809	4333
915.921	4455
916.034	4234
916.146	4234
916.259	4192
916.371	4405
916.483	4356
916.595	4261
916.708	4333
916.82	4337
916.932	4341
917.044	4344
917.156	4367
917.268	4196
917.38	4295
917.491	4284
917.603	4329
917.715	4386
917.826	4428
917.938	4360
918.049	4291
918.161	4329
918.272	4565
918.384	4550
918.495	4451
918.606	4242
918.717	4287
918.828	4371
918.939	4402
919.05	4268
919.161	4310
919.272	4169
919.383	4249
919.494	4432
919.604	4630
919.715	4371
919.826	4352
919.936	4443
920.047	4508
920.157	4474
920.267	4740
920.378	4538
920.488	4459
920.598	4675
920.708	4873
920.818	4774
920.928	4774
921.038	4991
921.148	4911
921.258	4668
921.368	4550
921.477	4462
921.587	4478
921.697	4375
921.806	4558
921.916	4432
922.025	4295
922.134	4295
922.244	4223
922.353	4379
922.462	4196
922.571	4154
922.68	4051
922.789	3983
922.898	4002
923.007	4002
923.116	4067
923.224	4074
923.333	4013
923.442	3983
923.55	4010
923.659	4029
923.767	4143
923.876	4006
923.984	4128
924.092	3979
924.201	4090
924.309	4105
924.417	4109
924.525	4055
924.633	4063
924.741	5006
924.849	3922
924.956	4116
925.064	3953
925.172	3884
925.279	3968
925.387	4055
925.494	4071
925.602	4177
925.709	4162
925.816	4002
925.924	4101
926.031	4223
926.138	4173
926.245	4192
926.352	4059
926.459	4257
926.566	4299
926.673	4154
926.779	4063
926.886	4101
926.993	3945
927.099	3960
927.206	3975
927.312	3949
927.419	4002
927.525	4029
927.631	4090
927.737	3987
927.843	3949
927.95	3876
928.056	3956
928.162	3983
928.267	4059
928.373	4607
928.479	4116
928.585	3899
928.69	4048
928.796	4082
928.901	3972
929.007	3804
929.112	4002
929.218	3991
929.323	3956
929.428	3964
929.533	4097
929.638	3918
929.743	3975
929.848	4059
929.953	3987
930.058	3911
930.163	3778
930.267	3835
930.372	4002
930.477	3770
930.581	4063
930.685	3930
930.79	3812
930.894	3861
930.998	3842
931.103	4013
931.207	3740
931.311	3690
931.415	3671
931.519	3557
931.623	3564
