Data from test_V78500241_1316.txt Node
Date: Fri Mar 25 16:58:09 CST 2022
User: usil
Spectrometer: V785-0024
Trigger mode: 0
Integration Time (sec): 4.000000E-1
Scans to average: 1
Nonlinearity correction enabled: false
Boxcar width: 0
Storing dark spectrum: false
XAxis mode: Wavelengths
Number of Pixels in Spectrum: 1024
>>>>>Begin Spectral Data<<<<<
801.071	8012
801.214	8031
801.356	7921
801.499	7890
801.641	7818
801.783	7833
801.926	7944
802.068	7955
802.211	7940
802.353	7955
802.496	7803
802.638	7936
802.78	7978
802.923	7993
803.065	7944
803.208	7928
803.35	7986
803.492	8077
803.635	8168
803.777	8016
803.919	8164
804.061	8389
804.204	8233
804.346	8077
804.488	7974
804.63	8187
804.773	8020
804.915	8111
805.057	8324
805.199	8202
805.341	8183
805.483	8298
805.626	8290
805.768	8172
805.91	8229
806.052	8240
806.194	8024
806.336	8286
806.478	8088
806.62	8054
806.762	8111
806.904	8298
807.046	8499
807.188	8374
807.33	8301
807.472	8313
807.614	8195
807.756	8176
807.898	7989
808.04	7970
808.182	7921
808.324	7936
808.465	7925
808.607	8050
808.749	8195
808.891	8172
809.033	8343
809.174	8233
809.316	8111
809.458	7993
809.6	8012
809.741	7982
809.883	7989
810.025	8138
810.166	8046
810.308	8008
810.45	8084
810.591	7868
810.733	7738
810.875	7696
811.016	7586
811.158	7502
811.299	7567
811.441	7731
811.582	7761
811.724	7552
811.865	7586
812.007	7514
812.148	7609
812.29	7567
812.431	7799
812.573	7871
812.714	7997
812.855	8073
812.997	8210
813.138	8415
813.279	8187
813.421	8081
813.562	8012
813.703	7879
813.845	7807
813.986	7457
814.127	7244
814.268	7236
814.41	7190
814.551	7183
814.692	7244
814.833	7069
814.974	7091
815.115	7107
815.256	6985
815.397	6901
815.539	6981
815.68	6821
815.821	6779
815.962	6829
816.103	6833
816.244	6719
816.385	6662
816.526	6642
816.666	6502
816.807	6296
816.948	6429
817.089	6437
817.23	6445
817.371	6391
817.512	6391
817.653	6414
817.793	6365
817.934	6433
818.075	6429
818.216	6433
818.356	6464
818.497	6315
818.638	6102
818.778	6129
818.919	6155
819.06	6144
819.2	6300
819.341	6369
819.481	6422
819.622	6551
819.762	6753
819.903	6665
820.043	6665
820.184	6563
820.324	6604
820.465	6722
820.605	6696
820.746	6623
820.886	6483
821.026	6604
821.167	6700
821.307	6848
821.447	6719
821.588	6665
821.728	6540
821.868	6460
822.008	6285
822.149	6388
822.289	6346
822.429	6159
822.569	6098
822.709	6087
822.849	5870
822.99	5939
823.13	5946
823.27	5893
823.41	5775
823.55	5836
823.69	5775
823.83	5783
823.97	5714
824.11	5566
824.25	5532
824.389	5604
824.529	5592
824.669	5505
824.809	5623
824.949	5627
825.089	5570
825.228	5520
825.368	5364
825.508	5280
825.648	5318
825.787	5448
825.927	5364
826.067	5292
826.206	5277
826.346	5433
826.485	5440
826.625	5429
826.765	5532
826.904	5524
827.044	5254
827.183	5201
827.323	5140
827.462	5223
827.601	5174
827.741	5189
827.88	5254
828.02	5170
828.159	5254
828.298	5315
828.437	5337
828.577	5292
828.716	5497
828.855	5318
828.994	5162
829.134	5132
829.273	5227
829.412	5201
829.551	5143
829.69	5174
829.829	5280
829.968	5379
830.107	5280
830.246	5273
830.385	5208
830.524	5181
830.663	5045
830.802	4976
830.941	4839
831.08	4892
831.219	4999
831.357	4949
831.496	5185
831.635	4911
831.774	4809
831.913	4824
832.051	4748
832.19	4774
832.329	4820
832.467	4706
832.606	4615
832.744	4683
832.883	4717
833.022	4725
833.16	4797
833.299	4858
833.437	4824
833.576	4828
833.714	4854
833.852	4900
833.991	4858
834.129	4934
834.267	5025
834.406	4919
834.544	5003
834.682	4991
834.821	4984
834.959	5159
835.097	4972
835.235	5166
835.373	5079
835.511	5143
835.65	5003
835.788	4980
835.926	4896
836.064	4843
836.202	4942
836.34	5162
836.478	5197
836.615	5140
836.753	5204
836.891	5261
837.029	5258
837.167	5197
837.305	5147
837.443	5178
837.58	5010
837.718	5227
837.856	5231
837.993	5174
838.131	5239
838.269	5197
838.406	5204
838.544	5204
838.681	5067
838.819	5022
838.956	4889
839.094	4881
839.231	5018
839.369	5060
839.506	5402
839.643	5284
839.781	5037
839.918	4995
840.055	5094
840.193	5090
840.33	5098
840.467	5166
840.604	5151
840.742	5429
840.879	5094
841.016	5109
841.153	5132
841.29	5372
841.427	5303
841.564	5379
841.701	5383
841.838	5277
841.975	5288
842.112	5269
842.249	5128
842.385	5117
842.522	5311
842.659	5185
842.796	5159
842.933	5231
843.069	5185
843.206	5159
843.343	5307
843.479	5231
843.616	5296
843.752	5045
843.889	4991
844.025	5193
844.162	5029
844.298	5269
844.435	5060
844.571	5048
844.708	5201
844.844	5357
844.98	5360
845.117	5299
845.253	5128
845.389	5052
845.525	5124
845.661	5121
845.798	5018
845.934	5223
846.07	5064
846.206	5162
846.342	5311
846.478	5174
846.614	4999
846.75	4923
846.886	4930
847.022	5159
847.158	4995
847.294	5033
847.429	5155
847.565	5025
847.701	5353
847.837	4870
847.972	4847
848.108	4965
848.244	4908
848.379	4805
848.515	4721
848.65	4748
848.786	4729
848.921	4801
849.057	4877
849.192	4923
849.328	4782
849.463	4839
849.598	4736
849.734	4774
849.869	4714
850.004	4626
850.14	4675
850.275	4649
850.41	4516
850.545	4603
850.68	4626
850.815	4561
850.95	4611
851.085	4820
851.22	4717
851.355	4626
851.49	4603
851.625	4656
851.76	4653
851.895	4577
852.03	4535
852.165	4653
852.299	4736
852.434	4771
852.569	4714
852.703	4759
852.838	4858
852.973	4953
853.107	4915
853.242	4691
853.376	4672
853.511	4596
853.645	4626
853.78	4812
853.914	4672
854.048	4679
854.183	4618
854.317	4702
854.451	4831
854.585	4687
854.72	4626
854.854	4755
854.988	4615
855.122	4679
855.256	4508
855.39	4630
855.524	4771
855.658	4714
855.792	4687
855.926	4714
856.06	4748
856.194	4767
856.327	4702
856.461	4615
856.595	4634
856.729	4607
856.862	4759
856.996	4668
857.13	4721
857.263	4744
857.397	4759
857.53	4694
857.664	4656
857.797	4725
857.931	4774
858.064	4641
858.197	4729
858.331	4637
858.464	4588
858.597	4542
858.731	4630
858.864	4634
858.997	4615
859.13	4660
859.263	4645
859.396	4694
859.529	4596
859.662	4527
859.795	4565
859.928	4626
860.061	4771
860.194	4786
860.327	4603
860.46	4599
860.592	4694
860.725	4748
860.858	4694
860.99	4561
861.123	4554
861.256	4519
861.388	4607
861.521	5159
861.653	4504
861.786	4432
861.918	4470
862.05	4508
862.183	4550
862.315	4573
862.447	4660
862.58	4561
862.712	4341
862.844	4348
862.976	4466
863.108	4485
863.24	4892
863.372	4341
863.504	4421
863.636	4424
863.768	4451
863.9	4394
864.032	4337
864.164	4402
864.296	4466
864.428	4542
864.559	4489
864.691	4519
864.823	4535
864.954	4462
865.086	4474
865.217	4451
865.349	4417
865.48	4455
865.612	4474
865.743	4664
865.875	4474
866.006	4443
866.137	4443
866.269	4440
866.4	4383
866.531	4405
866.662	4409
866.793	4405
866.924	4402
867.055	4497
867.186	4440
867.317	4432
867.448	4379
867.579	4375
867.71	4394
867.841	4356
867.972	4424
868.103	4447
868.233	4470
868.364	4459
868.495	4443
868.625	4611
868.756	4782
868.886	4485
869.017	4588
869.147	4801
869.278	4702
869.408	4656
869.539	4626
869.669	4702
869.799	4653
869.929	4752
870.06	4706
870.19	4938
870.32	4911
870.45	4908
870.58	5048
870.71	5113
870.84	5056
870.97	4915
871.1	4862
871.23	5132
871.36	5113
871.489	5037
871.619	5067
871.749	5056
871.879	5136
872.008	5136
872.138	5060
872.267	4957
872.397	4820
872.526	4744
872.656	4710
872.785	4797
872.915	4938
873.044	5033
873.173	4965
873.303	4976
873.432	4976
873.561	4991
873.69	4911
873.819	4831
873.948	4949
874.077	4812
874.206	4771
874.335	4839
874.464	4927
874.593	5003
874.722	4991
874.851	5067
874.979	5018
875.108	4984
875.237	4911
875.365	4892
875.494	4866
875.623	4946
875.751	4820
875.88	4908
876.008	4991
876.136	5029
876.265	5227
876.393	5292
876.521	5235
876.65	5220
876.778	5117
876.906	5041
877.034	5018
877.162	5010
877.29	5056
877.418	5052
877.546	5010
877.674	5045
877.802	5010
877.93	5079
878.058	4915
878.185	4850
878.313	4904
878.441	4900
878.568	4843
878.696	4820
878.824	4965
878.951	4999
879.079	5098
879.206	5212
879.333	5132
879.461	4987
879.588	4995
879.715	5075
879.842	5185
879.97	5018
880.097	4778
880.224	4736
880.351	4790
880.478	4870
880.605	4881
880.732	4763
880.859	5121
880.986	4938
881.112	4896
881.239	4816
881.366	4702
881.493	4596
881.619	4580
881.746	4634
881.872	4649
881.999	4622
882.125	4717
882.252	4774
882.378	4809
882.505	4900
882.631	4782
882.757	4668
882.883	4702
883.01	4733
883.136	4691
883.262	4615
883.388	4558
883.514	4828
883.64	4892
883.766	4778
883.892	4698
884.018	4729
884.143	4930
884.269	4949
884.395	4698
884.52	4637
884.646	4660
884.772	4611
884.897	4546
885.023	4698
885.148	4793
885.274	4862
885.399	4774
885.524	4687
885.65	4679
885.775	4763
885.9	4679
886.025	4892
886.15	4782
886.275	4691
886.4	4637
886.525	4698
886.65	4706
886.775	4675
886.9	4873
887.025	5045
887.149	4793
887.274	4626
887.399	4577
887.523	4618
887.648	4588
887.773	4580
887.897	4755
888.021	4790
888.146	4664
888.27	4782
888.395	4923
888.519	4835
888.643	4805
888.767	4828
888.891	4641
889.015	4561
889.139	4634
889.263	4577
889.387	4725
889.511	4885
889.635	4767
889.759	4580
889.883	4664
890.006	4740
890.13	4820
890.254	4656
890.377	4679
890.501	4558
890.624	4516
890.748	4641
890.871	4478
890.995	4363
891.118	4367
891.241	4493
891.364	4489
891.488	4634
891.611	4462
891.734	4459
891.857	4561
891.98	4550
892.103	4637
892.226	4542
892.349	4561
892.471	4375
892.594	4519
892.717	4565
892.839	4596
892.962	4653
893.085	4698
893.207	4634
893.33	4398
893.452	4489
893.575	4645
893.697	4565
893.819	4790
893.941	4839
894.064	4763
894.186	4561
894.308	4561
894.43	4683
894.552	4774
894.674	4763
894.796	4538
894.918	4561
895.04	4531
895.161	4706
895.283	4668
895.405	4554
895.526	4626
895.648	4687
895.769	4660
895.891	4725
896.012	4744
896.134	4691
896.255	4664
896.376	4618
896.498	4615
896.619	4660
896.74	4622
896.861	4653
896.982	4915
897.103	5045
897.224	4790
897.345	4725
897.466	4618
897.587	4752
897.708	4767
897.828	4740
897.949	4660
898.07	4599
898.19	4596
898.311	4828
898.431	4637
898.552	4729
898.672	4774
898.792	4801
898.913	4725
899.033	4580
899.153	4497
899.273	4432
899.393	4542
899.513	4493
899.633	4470
899.753	4565
899.873	4512
899.993	4558
900.113	4497
900.232	4554
900.352	4573
900.472	4481
900.591	4402
900.711	4451
900.83	4508
900.95	4626
901.069	4649
901.189	4546
901.308	4344
901.427	4303
901.546	4344
901.665	4459
901.784	4512
901.904	4386
902.023	4325
902.141	4166
902.26	4150
902.379	4249
902.498	4223
902.617	4219
902.735	4390
902.854	4379
902.973	4329
903.091	4200
903.21	4215
903.328	4306
903.446	4287
903.565	4242
903.683	4348
903.801	4295
903.919	4363
904.038	4455
904.156	4341
904.274	4443
904.392	4417
904.51	4432
904.627	4440
904.745	4554
904.863	4664
904.981	4394
905.098	4306
905.216	4402
905.334	4481
905.451	4466
905.569	4466
905.686	4523
905.803	4554
905.921	4394
906.038	4500
906.155	4474
906.272	4390
906.389	4459
906.506	4299
906.623	4352
906.74	4371
906.857	4360
906.974	4421
907.091	4569
907.208	4679
907.324	4584
907.441	4500
907.557	4360
907.674	4329
907.79	4276
907.907	4325
908.023	4497
908.139	4470
908.256	4398
908.372	4436
908.488	4398
908.604	4314
908.72	4295
908.836	4390
908.952	4402
909.068	4440
909.184	4565
909.3	4447
909.415	4592
909.531	4558
909.647	4386
909.762	4341
909.878	4318
909.993	4466
910.108	4417
910.224	4432
910.339	4485
910.454	4409
910.57	4329
910.685	4325
910.8	4588
910.915	4573
911.03	4516
911.145	4375
911.259	4325
911.374	4379
911.489	4276
911.604	4287
911.718	4169
911.833	4177
911.947	4040
912.062	4044
912.176	4207
912.291	4234
912.405	4249
912.519	4459
912.633	4497
912.748	4367
912.862	4280
912.976	4188
913.09	4105
913.204	4181
913.318	4230
913.431	4375
913.545	4322
913.659	4383
913.772	4375
913.886	4257
914	4234
914.113	4375
914.226	4485
914.34	4367
914.453	4265
914.566	4428
914.68	4280
914.793	4329
914.906	4177
915.019	4101
915.132	4086
915.245	4150
915.358	4242
915.47	4219
915.583	4230
915.696	4299
915.809	4432
915.921	4367
916.034	4223
916.146	4219
916.259	4249
916.371	4409
916.483	4348
916.595	4253
916.708	4329
916.82	4329
916.932	4268
917.044	4344
917.156	4318
917.268	4223
917.38	4257
917.491	4299
917.603	4337
917.715	4421
917.826	4447
917.938	4314
918.049	4230
918.161	4337
918.272	4588
918.384	4519
918.495	4440
918.606	4303
918.717	4211
918.828	4344
918.939	4322
919.05	4215
919.161	4306
919.272	4086
919.383	4227
919.494	4409
919.604	4596
919.715	4417
919.826	4329
919.936	4413
920.047	4485
920.157	4504
920.267	4717
920.378	4504
920.488	4493
920.598	4691
920.708	4889
920.818	4694
920.928	4774
921.038	4919
921.148	4885
921.258	4622
921.368	4535
921.477	4481
921.587	4478
921.697	4341
921.806	4531
921.916	4470
922.025	4242
922.134	4284
922.244	4242
922.353	4348
922.462	4188
922.571	4131
922.68	4010
922.789	3972
922.898	4040
923.007	3972
923.116	4078
923.224	4082
923.333	4051
923.442	3964
923.55	3926
923.659	4086
923.767	4128
923.876	3956
923.984	4097
924.092	3987
924.201	4071
924.309	4074
924.417	4097
924.525	4048
924.633	4105
924.741	4885
924.849	3896
924.956	4154
925.064	3899
925.172	3854
925.279	3975
925.387	4048
925.494	4086
925.602	4192
925.709	4158
925.816	4021
925.924	4135
926.031	4185
926.138	4177
926.245	4147
926.352	4078
926.459	4265
926.566	4291
926.673	4131
926.779	4055
926.886	4090
926.993	3994
927.099	3949
927.206	3888
927.312	3983
927.419	4021
927.525	4048
927.631	4097
927.737	3934
927.843	3918
927.95	3892
928.056	3972
928.162	4036
928.267	4040
928.373	4656
928.479	4116
928.585	3850
928.69	4021
928.796	4048
928.901	3960
929.007	3846
929.112	3941
929.218	3953
929.323	3964
929.428	3884
929.533	4093
929.638	3903
929.743	3926
929.848	4021
929.953	3979
930.058	3915
930.163	3789
930.267	3838
930.372	3960
930.477	3812
930.581	4097
930.685	3915
930.79	3823
930.894	3934
930.998	3816
931.103	4048
931.207	3732
931.311	3671
931.415	3648
931.519	3557
931.623	3542
