Data from test_V78500241_878.txt Node
Date: Fri Mar 25 16:55:06 CST 2022
User: usil
Spectrometer: V785-0024
Trigger mode: 0
Integration Time (sec): 4.000000E-1
Scans to average: 1
Nonlinearity correction enabled: false
Boxcar width: 0
Storing dark spectrum: false
XAxis mode: Wavelengths
Number of Pixels in Spectrum: 1024
>>>>>Begin Spectral Data<<<<<
801.071	8084
801.214	8062
801.356	7913
801.499	7902
801.641	7792
801.783	7868
801.926	7989
802.068	7936
802.211	7959
802.353	8001
802.496	7925
802.638	7868
802.78	7883
802.923	7887
803.065	7814
803.208	7879
803.35	8024
803.492	8172
803.635	8183
803.777	8035
803.919	8062
804.061	8415
804.204	8164
804.346	8016
804.488	7989
804.63	8088
804.773	8031
804.915	8065
805.057	8229
805.199	8161
805.341	8233
805.483	8252
805.626	8183
805.768	8161
805.91	8214
806.052	8157
806.194	8065
806.336	8240
806.478	8084
806.62	8020
806.762	8180
806.904	8290
807.046	8492
807.188	8317
807.33	8305
807.472	8320
807.614	8202
807.756	8130
807.898	7959
808.04	7879
808.182	7860
808.324	7864
808.465	7883
808.607	8046
808.749	8058
808.891	8134
809.033	8347
809.174	8187
809.316	8111
809.458	8111
809.6	8046
809.741	8088
809.883	8050
810.025	8123
810.166	8081
810.308	8027
810.45	8039
810.591	7963
810.733	7852
810.875	7700
811.016	7464
811.158	7510
811.299	7571
811.441	7772
811.582	7651
811.724	7552
811.865	7552
812.007	7639
812.148	7556
812.29	7590
812.431	7681
812.573	7875
812.714	7902
812.855	8111
812.997	8180
813.138	8305
813.279	8138
813.421	8050
813.562	8020
813.703	7902
813.845	7750
813.986	7487
814.127	7274
814.268	7225
814.41	7179
814.551	7095
814.692	7076
814.833	7027
814.974	7076
815.115	7072
815.256	6954
815.397	6966
815.539	6966
815.68	6844
815.821	6791
815.962	6905
816.103	6821
816.244	6719
816.385	6684
816.526	6650
816.666	6536
816.807	6311
816.948	6448
817.089	6399
817.23	6407
817.371	6376
817.512	6338
817.653	6391
817.793	6376
817.934	6391
818.075	6448
818.216	6407
818.356	6365
818.497	6235
818.638	6148
818.778	6175
818.919	6167
819.06	6083
819.2	6327
819.341	6361
819.481	6391
819.622	6532
819.762	6711
819.903	6726
820.043	6639
820.184	6646
820.324	6601
820.465	6719
820.605	6707
820.746	6673
820.886	6597
821.026	6662
821.167	6700
821.307	6791
821.447	6722
821.588	6726
821.728	6559
821.868	6566
822.008	6338
822.149	6395
822.289	6334
822.429	6152
822.569	6148
822.709	6121
822.849	5840
822.99	5885
823.13	5954
823.27	5942
823.41	5798
823.55	5790
823.69	5779
823.83	5794
823.97	5703
824.11	5509
824.25	5490
824.389	5535
824.529	5581
824.669	5543
824.809	5627
824.949	5646
825.089	5596
825.228	5516
825.368	5406
825.508	5337
825.648	5330
825.787	5417
825.927	5410
826.067	5334
826.206	5250
826.346	5368
826.485	5395
826.625	5425
826.765	5486
826.904	5482
827.044	5273
827.183	5201
827.323	5105
827.462	5239
827.601	5193
827.741	5220
827.88	5239
828.02	5102
828.159	5269
828.298	5280
828.437	5341
828.577	5277
828.716	5493
828.855	5288
828.994	5159
829.134	5147
829.273	5132
829.412	5132
829.551	5128
829.69	5189
829.829	5235
829.968	5337
830.107	5277
830.246	5204
830.385	5174
830.524	5113
830.663	5075
830.802	4999
830.941	4847
831.08	4896
831.219	4987
831.357	4949
831.496	5113
831.635	4946
831.774	4847
831.913	4824
832.051	4744
832.19	4740
832.329	4881
832.467	4687
832.606	4626
832.744	4721
832.883	4736
833.022	4759
833.16	4774
833.299	4805
833.437	4797
833.576	4816
833.714	4900
833.852	4850
833.991	4881
834.129	4949
834.267	4957
834.406	4900
834.544	4995
834.682	4961
834.821	4984
834.959	5102
835.097	4972
835.235	5159
835.373	5098
835.511	5113
835.65	5067
835.788	5014
835.926	4892
836.064	4843
836.202	4900
836.34	5162
836.478	5269
836.615	5151
836.753	5201
836.891	5254
837.029	5178
837.167	5242
837.305	5178
837.443	5181
837.58	5071
837.718	5227
837.856	5193
837.993	5159
838.131	5292
838.269	5220
838.406	5197
838.544	5212
838.681	5048
838.819	4999
838.956	4892
839.094	4892
839.231	4953
839.369	5060
839.506	5391
839.643	5277
839.781	5048
839.918	4976
840.055	5048
840.193	5102
840.33	5102
840.467	5113
840.604	5151
840.742	5425
840.879	5052
841.016	5094
841.153	5174
841.29	5357
841.427	5376
841.564	5261
841.701	5349
841.838	5261
841.975	5231
842.112	5311
842.249	5208
842.385	5159
842.522	5303
842.659	5178
842.796	5140
842.933	5189
843.069	5170
843.206	5166
843.343	5269
843.479	5178
843.616	5246
843.752	5003
843.889	5022
844.025	5212
844.162	5045
844.298	5193
844.435	5090
844.571	5094
844.708	5147
844.844	5307
844.98	5299
845.117	5277
845.253	5143
845.389	5045
845.525	5197
845.661	5075
845.798	5003
845.934	5105
846.07	5064
846.206	5193
846.342	5261
846.478	5239
846.614	5003
846.75	4968
846.886	4957
847.022	5113
847.158	4991
847.294	5105
847.429	5083
847.565	5037
847.701	5341
847.837	4801
847.972	4805
848.108	4968
848.244	4942
848.379	4809
848.515	4675
848.65	4675
848.786	4717
848.921	4759
849.057	4858
849.192	4904
849.328	4801
849.463	4854
849.598	4828
849.734	4778
849.869	4668
850.004	4603
850.14	4694
850.275	4580
850.41	4489
850.545	4630
850.68	4622
850.815	4580
850.95	4596
851.085	4843
851.22	4736
851.355	4656
851.49	4618
851.625	4618
851.76	4615
851.895	4542
852.03	4542
852.165	4622
852.299	4687
852.434	4740
852.569	4725
852.703	4759
852.838	4786
852.973	4946
853.107	4885
853.242	4744
853.376	4634
853.511	4542
853.645	4584
853.78	4835
853.914	4653
854.048	4634
854.183	4626
854.317	4687
854.451	4862
854.585	4649
854.72	4588
854.854	4774
854.988	4603
855.122	4611
855.256	4550
855.39	4622
855.524	4828
855.658	4744
855.792	4702
855.926	4736
856.06	4736
856.194	4858
856.327	4702
856.461	4637
856.595	4615
856.729	4599
856.862	4679
856.996	4733
857.13	4698
857.263	4752
857.397	4805
857.53	4626
857.664	4675
857.797	4725
857.931	4809
858.064	4672
858.197	4706
858.331	4668
858.464	4660
858.597	4527
858.731	4653
858.864	4634
858.997	4573
859.13	4679
859.263	4694
859.396	4706
859.529	4558
859.662	4546
859.795	4542
859.928	4599
860.061	4759
860.194	4782
860.327	4645
860.46	4588
860.592	4698
860.725	4717
860.858	4755
860.99	4592
861.123	4523
861.256	4512
861.388	4603
861.521	5311
861.653	4519
861.786	4413
861.918	4466
862.05	4554
862.183	4569
862.315	4618
862.447	4653
862.58	4554
862.712	4386
862.844	4280
862.976	4481
863.108	4466
863.24	4740
863.372	4333
863.504	4402
863.636	4386
863.768	4474
863.9	4440
864.032	4344
864.164	4379
864.296	4459
864.428	4531
864.559	4558
864.691	4523
864.823	4493
864.954	4485
865.086	4485
865.217	4455
865.349	4394
865.48	4455
865.612	4527
865.743	4599
865.875	4459
866.006	4424
866.137	4542
866.269	4436
866.4	4440
866.531	4478
866.662	4383
866.793	4409
866.924	4405
867.055	4478
867.186	4489
867.317	4409
867.448	4371
867.579	4352
867.71	4379
867.841	4371
867.972	4424
868.103	4428
868.233	4390
868.364	4424
868.495	4466
868.625	4672
868.756	4771
868.886	4569
869.017	4626
869.147	4805
869.278	4736
869.408	4611
869.539	4645
869.669	4691
869.799	4615
869.929	4729
870.06	4698
870.19	4911
870.32	4908
870.45	4942
870.58	5014
870.71	5121
870.84	5064
870.97	4923
871.1	4858
871.23	5159
871.36	5151
871.489	4987
871.619	5090
871.749	5102
871.879	5060
872.008	5178
872.138	5052
872.267	4995
872.397	4793
872.526	4839
872.656	4714
872.785	4774
872.915	4915
873.044	5010
873.173	4908
873.303	4953
873.432	4930
873.561	4965
873.69	4858
873.819	4778
873.948	4873
874.077	4828
874.206	4748
874.335	4774
874.464	4942
874.593	5029
874.722	4915
874.851	5094
874.979	5048
875.108	5033
875.237	4847
875.365	4908
875.494	4938
875.623	4957
875.751	4824
875.88	4850
876.008	4984
876.136	5022
876.265	5193
876.393	5318
876.521	5242
876.65	5159
876.778	5155
876.906	5029
877.034	5029
877.162	4999
877.29	4946
877.418	5033
877.546	5014
877.674	5006
877.802	4999
877.93	4980
878.058	4904
878.185	4908
878.313	4976
878.441	4889
878.568	4801
878.696	4877
878.824	4930
878.951	5010
879.079	5102
879.206	5261
879.333	5067
879.461	4965
879.588	4991
879.715	5143
879.842	5197
879.97	4995
880.097	4744
880.224	4733
880.351	4793
880.478	4850
880.605	4774
880.732	4782
880.859	5102
880.986	4843
881.112	4847
881.239	4797
881.366	4679
881.493	4584
881.619	4550
881.746	4622
881.872	4649
881.999	4630
882.125	4702
882.252	4812
882.378	4828
882.505	4957
882.631	4816
882.757	4664
882.883	4748
883.01	4698
883.136	4664
883.262	4622
883.388	4592
883.514	4812
883.64	4835
883.766	4774
883.892	4607
884.018	4733
884.143	4885
884.269	4949
884.395	4649
884.52	4607
884.646	4584
884.772	4565
884.897	4558
885.023	4649
885.148	4771
885.274	4862
885.399	4797
885.524	4702
885.65	4729
885.775	4752
885.9	4679
886.025	4847
886.15	4748
886.275	4710
886.4	4641
886.525	4675
886.65	4637
886.775	4641
886.9	4934
887.025	4980
887.149	4790
887.274	4656
887.399	4596
887.523	4569
887.648	4580
887.773	4584
887.897	4744
888.021	4801
888.146	4698
888.27	4790
888.395	4911
888.519	4759
888.643	4820
888.767	4847
888.891	4706
889.015	4592
889.139	4672
889.263	4538
889.387	4755
889.511	4870
889.635	4793
889.759	4660
889.883	4618
890.006	4725
890.13	4831
890.254	4599
890.377	4679
890.501	4531
890.624	4508
890.748	4683
890.871	4527
890.995	4485
891.118	4398
891.241	4500
891.364	4561
891.488	4687
891.611	4523
891.734	4561
891.857	4561
891.98	4531
892.103	4668
892.226	4565
892.349	4527
892.471	4451
892.594	4531
892.717	4558
892.839	4550
892.962	4592
893.085	4630
893.207	4622
893.33	4432
893.452	4516
893.575	4626
893.697	4577
893.819	4793
893.941	4839
894.064	4774
894.186	4523
894.308	4538
894.43	4778
894.552	4767
894.674	4733
894.796	4535
894.918	4580
895.04	4580
895.161	4706
895.283	4653
895.405	4584
895.526	4641
895.648	4656
895.769	4664
895.891	4649
896.012	4687
896.134	4740
896.255	4649
896.376	4603
896.498	4599
896.619	4691
896.74	4565
896.861	4656
896.982	4942
897.103	5117
897.224	4809
897.345	4740
897.466	4634
897.587	4656
897.708	4915
897.828	4763
897.949	4706
898.07	4527
898.19	4645
898.311	4828
898.431	4641
898.552	4744
898.672	4778
898.792	4839
898.913	4672
899.033	4637
899.153	4523
899.273	4478
899.393	4459
899.513	4500
899.633	4542
899.753	4538
899.873	4462
899.993	4561
900.113	4538
900.232	4607
900.352	4550
900.472	4462
900.591	4424
900.711	4436
900.83	4436
900.95	4561
901.069	4641
901.189	4535
901.308	4344
901.427	4325
901.546	4360
901.665	4428
901.784	4516
901.904	4379
902.023	4333
902.141	4166
902.26	4192
902.379	4287
902.498	4227
902.617	4227
902.735	4356
902.854	4402
902.973	4363
903.091	4230
903.21	4215
903.328	4272
903.446	4295
903.565	4287
903.683	4295
903.801	4306
903.919	4363
904.038	4421
904.156	4329
904.274	4455
904.392	4409
904.51	4443
904.627	4424
904.745	4542
904.863	4634
904.981	4386
905.098	4272
905.216	4352
905.334	4398
905.451	4466
905.569	4424
905.686	4546
905.803	4504
905.921	4402
906.038	4497
906.155	4478
906.272	4348
906.389	4443
906.506	4367
906.623	4337
906.74	4394
906.857	4299
906.974	4375
907.091	4561
907.208	4683
907.324	4565
907.441	4462
907.557	4333
907.674	4337
907.79	4337
907.907	4341
908.023	4470
908.139	4538
908.256	4402
908.372	4417
908.488	4409
908.604	4348
908.72	4322
908.836	4363
908.952	4352
909.068	4386
909.184	4550
909.3	4447
909.415	4580
909.531	4542
909.647	4348
909.762	4352
909.878	4303
909.993	4386
910.108	4386
910.224	4428
910.339	4462
910.454	4352
910.57	4367
910.685	4322
910.8	4660
910.915	4607
911.03	4512
911.145	4329
911.259	4367
911.374	4398
911.489	4276
911.604	4261
911.718	4147
911.833	4150
911.947	4109
912.062	4044
912.176	4158
912.291	4227
912.405	4284
912.519	4421
912.633	4527
912.748	4341
912.862	4299
912.976	4200
913.09	4055
913.204	4162
913.318	4204
913.431	4348
913.545	4363
913.659	4409
913.772	4322
913.886	4265
914	4200
914.113	4337
914.226	4455
914.34	4371
914.453	4219
914.566	4447
914.68	4265
914.793	4348
914.906	4169
915.019	4112
915.132	4059
915.245	4166
915.358	4246
915.47	4207
915.583	4253
915.696	4287
915.809	4390
915.921	4417
916.034	4268
916.146	4268
916.259	4207
916.371	4383
916.483	4379
916.595	4249
916.708	4261
916.82	4337
916.932	4344
917.044	4314
917.156	4341
917.268	4238
917.38	4295
917.491	4280
917.603	4322
917.715	4409
917.826	4447
917.938	4310
918.049	4223
918.161	4363
918.272	4599
918.384	4516
918.495	4436
918.606	4322
918.717	4196
918.828	4306
918.939	4367
919.05	4230
919.161	4318
919.272	4128
919.383	4215
919.494	4440
919.604	4637
919.715	4402
919.826	4371
919.936	4447
920.047	4504
920.157	4443
920.267	4672
920.378	4516
920.488	4497
920.598	4660
920.708	4881
920.818	4748
920.928	4782
921.038	4892
921.148	4911
921.258	4603
921.368	4519
921.477	4497
921.587	4481
921.697	4394
921.806	4455
921.916	4428
922.025	4257
922.134	4211
922.244	4230
922.353	4322
922.462	4185
922.571	4101
922.68	4017
922.789	3975
922.898	4048
923.007	4006
923.116	4124
923.224	4074
923.333	4048
923.442	3972
923.55	3987
923.659	3994
923.767	4135
923.876	4021
923.984	4128
924.092	3994
924.201	4063
924.309	4093
924.417	4116
924.525	4036
924.633	4105
924.741	4831
924.849	3922
924.956	4143
925.064	3975
925.172	3903
925.279	3953
925.387	4078
925.494	4029
925.602	4223
925.709	4158
925.816	4006
925.924	4071
926.031	4211
926.138	4147
926.245	4181
926.352	4059
926.459	4207
926.566	4287
926.673	4120
926.779	4086
926.886	4048
926.993	3975
927.099	4006
927.206	3896
927.312	3949
927.419	4063
927.525	4017
927.631	4093
927.737	3956
927.843	3922
927.95	3861
928.056	3922
928.162	3972
928.267	4063
928.373	4584
928.479	4124
928.585	3884
928.69	4044
928.796	4093
928.901	3964
929.007	3835
929.112	3991
929.218	3956
929.323	3922
929.428	3934
929.533	4116
929.638	3918
929.743	3941
929.848	4040
929.953	3991
930.058	3899
930.163	3804
930.267	3880
930.372	3975
930.477	3778
930.581	4055
930.685	3953
930.79	3793
930.894	3850
930.998	3819
931.103	4067
931.207	3736
931.311	3701
931.415	3671
931.519	3526
931.623	3538
