Data from test_V78500241_914.txt Node
Date: Fri Mar 25 16:55:21 CST 2022
User: usil
Spectrometer: V785-0024
Trigger mode: 0
Integration Time (sec): 4.000000E-1
Scans to average: 1
Nonlinearity correction enabled: false
Boxcar width: 0
Storing dark spectrum: false
XAxis mode: Wavelengths
Number of Pixels in Spectrum: 1024
>>>>>Begin Spectral Data<<<<<
801.071	7974
801.214	8020
801.356	7887
801.499	7841
801.641	7772
801.783	7894
801.926	7879
802.068	7940
802.211	7871
802.353	7978
802.496	7902
802.638	7909
802.78	7898
802.923	7944
803.065	7932
803.208	7921
803.35	8005
803.492	8111
803.635	8176
803.777	7993
803.919	8172
804.061	8423
804.204	8149
804.346	8016
804.488	7932
804.63	8054
804.773	8081
804.915	8024
805.057	8290
805.199	8138
805.341	8199
805.483	8263
805.626	8199
805.768	8100
805.91	8168
806.052	8221
806.194	8035
806.336	8240
806.478	8096
806.62	8077
806.762	8092
806.904	8176
807.046	8389
807.188	8324
807.33	8229
807.472	8298
807.614	8142
807.756	8134
807.898	8031
808.04	7894
808.182	7978
808.324	7871
808.465	7925
808.607	8001
808.749	8046
808.891	8202
809.033	8225
809.174	8187
809.316	8107
809.458	8050
809.6	7989
809.741	7951
809.883	7986
810.025	8134
810.166	8050
810.308	8096
810.45	8043
810.591	7902
810.733	7704
810.875	7693
811.016	7571
811.158	7487
811.299	7563
811.441	7704
811.582	7742
811.724	7563
811.865	7491
812.007	7590
812.148	7582
812.29	7556
812.431	7731
812.573	7871
812.714	7913
812.855	8180
812.997	8168
813.138	8309
813.279	8180
813.421	8077
813.562	8039
813.703	7913
813.845	7727
813.986	7381
814.127	7358
814.268	7255
814.41	7183
814.551	7141
814.692	7126
814.833	7031
814.974	7080
815.115	7061
815.256	6962
815.397	6890
815.539	6981
815.68	6798
815.821	6795
815.962	6871
816.103	6798
816.244	6719
816.385	6654
816.526	6646
816.666	6433
816.807	6311
816.948	6475
817.089	6422
817.23	6475
817.371	6365
817.512	6357
817.653	6361
817.793	6388
817.934	6399
818.075	6418
818.216	6407
818.356	6391
818.497	6281
818.638	6106
818.778	6175
818.919	6140
819.06	6144
819.2	6357
819.341	6292
819.481	6372
819.622	6566
819.762	6768
819.903	6669
820.043	6623
820.184	6559
820.324	6566
820.465	6700
820.605	6662
820.746	6601
820.886	6483
821.026	6669
821.167	6722
821.307	6844
821.447	6798
821.588	6646
821.728	6578
821.868	6506
822.008	6315
822.149	6369
822.289	6357
822.429	6159
822.569	6045
822.709	6106
822.849	5904
822.99	5874
823.13	5942
823.27	5874
823.41	5794
823.55	5821
823.69	5790
823.83	5775
823.97	5695
824.11	5562
824.25	5459
824.389	5547
824.529	5577
824.669	5558
824.809	5611
824.949	5630
825.089	5623
825.228	5570
825.368	5345
825.508	5345
825.648	5383
825.787	5372
825.927	5322
826.067	5311
826.206	5311
826.346	5353
826.485	5387
826.625	5433
826.765	5516
826.904	5490
827.044	5220
827.183	5223
827.323	5109
827.462	5261
827.601	5166
827.741	5151
827.88	5185
828.02	5094
828.159	5197
828.298	5318
828.437	5292
828.577	5288
828.716	5429
828.855	5330
828.994	5143
829.134	5124
829.273	5193
829.412	5064
829.551	5071
829.69	5136
829.829	5204
829.968	5296
830.107	5250
830.246	5258
830.385	5208
830.524	5098
830.663	5052
830.802	4976
830.941	4870
831.08	4828
831.219	4961
831.357	4896
831.496	5140
831.635	4911
831.774	4831
831.913	4885
832.051	4714
832.19	4744
832.329	4831
832.467	4702
832.606	4634
832.744	4698
832.883	4710
833.022	4702
833.16	4729
833.299	4790
833.437	4790
833.576	4831
833.714	4831
833.852	4839
833.991	4881
834.129	4919
834.267	4965
834.406	4892
834.544	4976
834.682	4972
834.821	4991
834.959	5124
835.097	4930
835.235	5105
835.373	5079
835.511	5090
835.65	5056
835.788	5006
835.926	4889
836.064	4774
836.202	4915
836.34	5189
836.478	5208
836.615	5067
836.753	5231
836.891	5284
837.029	5254
837.167	5208
837.305	5193
837.443	5079
837.58	5048
837.718	5223
837.856	5174
837.993	5147
838.131	5212
838.269	5178
838.406	5178
838.544	5201
838.681	4999
838.819	4984
838.956	4850
839.094	4870
839.231	4953
839.369	5025
839.506	5425
839.643	5254
839.781	5079
839.918	5022
840.055	5022
840.193	5086
840.33	5117
840.467	5113
840.604	5193
840.742	5391
840.879	5052
841.016	5075
841.153	5166
841.29	5353
841.427	5379
841.564	5288
841.701	5334
841.838	5280
841.975	5185
842.112	5265
842.249	5060
842.385	5102
842.522	5284
842.659	5113
842.796	5109
842.933	5223
843.069	5086
843.206	5155
843.343	5269
843.479	5197
843.616	5250
843.752	5014
843.889	5033
844.025	5197
844.162	4995
844.298	5132
844.435	5086
844.571	5022
844.708	5212
844.844	5311
844.98	5315
845.117	5269
845.253	5143
845.389	5098
845.525	5162
845.661	5117
845.798	5052
845.934	5090
846.07	5071
846.206	5223
846.342	5269
846.478	5197
846.614	5014
846.75	4972
846.886	4946
847.022	5143
847.158	4984
847.294	5052
847.429	5075
847.565	5052
847.701	5303
847.837	4831
847.972	4835
848.108	4961
848.244	4976
848.379	4778
848.515	4714
848.65	4691
848.786	4706
848.921	4748
849.057	4831
849.192	4843
849.328	4828
849.463	4835
849.598	4759
849.734	4725
849.869	4660
850.004	4630
850.14	4653
850.275	4592
850.41	4550
850.545	4580
850.68	4565
850.815	4611
850.95	4611
851.085	4862
851.22	4714
851.355	4645
851.49	4611
851.625	4577
851.76	4618
851.895	4577
852.03	4489
852.165	4618
852.299	4710
852.434	4816
852.569	4763
852.703	4706
852.838	4831
852.973	4934
853.107	4900
853.242	4790
853.376	4675
853.511	4538
853.645	4603
853.78	4763
853.914	4675
854.048	4664
854.183	4637
854.317	4683
854.451	4862
854.585	4656
854.72	4641
854.854	4755
854.988	4596
855.122	4649
855.256	4546
855.39	4687
855.524	4778
855.658	4687
855.792	4653
855.926	4687
856.06	4733
856.194	4797
856.327	4664
856.461	4603
856.595	4603
856.729	4607
856.862	4744
856.996	4664
857.13	4714
857.263	4736
857.397	4820
857.53	4649
857.664	4656
857.797	4771
857.931	4763
858.064	4691
858.197	4752
858.331	4653
858.464	4558
858.597	4546
858.731	4626
858.864	4618
858.997	4592
859.13	4607
859.263	4668
859.396	4641
859.529	4550
859.662	4569
859.795	4584
859.928	4577
860.061	4721
860.194	4736
860.327	4634
860.46	4565
860.592	4733
860.725	4687
860.858	4691
860.99	4550
861.123	4531
861.256	4493
861.388	4584
861.521	5159
861.653	4474
861.786	4489
861.918	4436
862.05	4489
862.183	4565
862.315	4592
862.447	4641
862.58	4580
862.712	4341
862.844	4344
862.976	4497
863.108	4424
863.24	4759
863.372	4306
863.504	4413
863.636	4390
863.768	4500
863.9	4409
864.032	4341
864.164	4386
864.296	4489
864.428	4523
864.559	4546
864.691	4531
864.823	4535
864.954	4466
865.086	4478
865.217	4436
865.349	4405
865.48	4459
865.612	4500
865.743	4615
865.875	4436
866.006	4421
866.137	4512
866.269	4432
866.4	4405
866.531	4398
866.662	4390
866.793	4375
866.924	4451
867.055	4493
867.186	4447
867.317	4409
867.448	4367
867.579	4352
867.71	4348
867.841	4310
867.972	4451
868.103	4485
868.233	4428
868.364	4432
868.495	4474
868.625	4637
868.756	4774
868.886	4569
869.017	4656
869.147	4755
869.278	4790
869.408	4637
869.539	4546
869.669	4706
869.799	4607
869.929	4729
870.06	4706
870.19	4927
870.32	4870
870.45	4915
870.58	4961
870.71	5102
870.84	5056
870.97	4923
871.1	4866
871.23	5075
871.36	5094
871.489	4999
871.619	5003
871.749	5048
871.879	5124
872.008	5178
872.138	5052
872.267	4995
872.397	4866
872.526	4782
872.656	4725
872.785	4812
872.915	4957
873.044	4984
873.173	4877
873.303	4976
873.432	4946
873.561	4896
873.69	4862
873.819	4850
873.948	4908
874.077	4793
874.206	4714
874.335	4790
874.464	4904
874.593	5018
874.722	4923
874.851	5052
874.979	4995
875.108	5006
875.237	4946
875.365	4847
875.494	4870
875.623	4999
875.751	4793
875.88	4847
876.008	4915
876.136	5067
876.265	5162
876.393	5292
876.521	5220
876.65	5223
876.778	5162
876.906	5022
877.034	5037
877.162	5052
877.29	5003
877.418	5056
877.546	5037
877.674	5003
877.802	5045
877.93	4976
878.058	4908
878.185	4854
878.313	4961
878.441	4881
878.568	4801
878.696	4850
878.824	4911
878.951	4965
879.079	5136
879.206	5246
879.333	5094
879.461	4961
879.588	5006
879.715	5136
879.842	5223
879.97	5029
880.097	4744
880.224	4771
880.351	4809
880.478	4805
880.605	4778
880.732	4767
880.859	5117
880.986	4900
881.112	4889
881.239	4782
881.366	4660
881.493	4588
881.619	4573
881.746	4584
881.872	4641
881.999	4641
882.125	4687
882.252	4706
882.378	4797
882.505	4942
882.631	4755
882.757	4675
882.883	4691
883.01	4725
883.136	4626
883.262	4607
883.388	4599
883.514	4797
883.64	4831
883.766	4797
883.892	4668
884.018	4752
884.143	4881
884.269	4976
884.395	4664
884.52	4615
884.646	4607
884.772	4615
884.897	4527
885.023	4634
885.148	4786
885.274	4843
885.399	4786
885.524	4694
885.65	4683
885.775	4740
885.9	4683
886.025	4839
886.15	4790
886.275	4725
886.4	4698
886.525	4675
886.65	4694
886.775	4668
886.9	4870
887.025	4968
887.149	4801
887.274	4683
887.399	4577
887.523	4618
887.648	4554
887.773	4542
887.897	4752
888.021	4748
888.146	4698
888.27	4828
888.395	4870
888.519	4778
888.643	4812
888.767	4774
888.891	4691
889.015	4546
889.139	4641
889.263	4577
889.387	4767
889.511	4831
889.635	4790
889.759	4637
889.883	4679
890.006	4736
890.13	4820
890.254	4577
890.377	4687
890.501	4504
890.624	4508
890.748	4660
890.871	4478
890.995	4390
891.118	4348
891.241	4516
891.364	4535
891.488	4641
891.611	4500
891.734	4558
891.857	4573
891.98	4512
892.103	4641
892.226	4527
892.349	4523
892.471	4398
892.594	4561
892.717	4542
892.839	4516
892.962	4561
893.085	4641
893.207	4588
893.33	4432
893.452	4519
893.575	4656
893.697	4550
893.819	4744
893.941	4866
894.064	4717
894.186	4584
894.308	4577
894.43	4748
894.552	4816
894.674	4748
894.796	4554
894.918	4573
895.04	4527
895.161	4691
895.283	4641
895.405	4580
895.526	4656
895.648	4668
895.769	4714
895.891	4698
896.012	4752
896.134	4706
896.255	4653
896.376	4653
896.498	4611
896.619	4615
896.74	4607
896.861	4641
896.982	4953
897.103	5052
897.224	4828
897.345	4729
897.466	4660
897.587	4710
897.708	4824
897.828	4759
897.949	4656
898.07	4523
898.19	4607
898.311	4835
898.431	4634
898.552	4744
898.672	4809
898.792	4790
898.913	4717
899.033	4622
899.153	4550
899.273	4424
899.393	4462
899.513	4523
899.633	4512
899.753	4538
899.873	4538
899.993	4603
900.113	4508
900.232	4546
900.352	4535
900.472	4489
900.591	4383
900.711	4535
900.83	4432
900.95	4580
901.069	4660
901.189	4558
901.308	4333
901.427	4318
901.546	4363
901.665	4428
901.784	4516
901.904	4402
902.023	4287
902.141	4188
902.26	4154
902.379	4261
902.498	4238
902.617	4211
902.735	4379
902.854	4356
902.973	4348
903.091	4219
903.21	4162
903.328	4306
903.446	4280
903.565	4242
903.683	4352
903.801	4238
903.919	4443
904.038	4436
904.156	4352
904.274	4443
904.392	4409
904.51	4367
904.627	4447
904.745	4561
904.863	4615
904.981	4379
905.098	4329
905.216	4363
905.334	4443
905.451	4443
905.569	4390
905.686	4504
905.803	4561
905.921	4413
906.038	4565
906.155	4447
906.272	4367
906.389	4474
906.506	4348
906.623	4363
906.74	4402
906.857	4306
906.974	4344
907.091	4558
907.208	4664
907.324	4580
907.441	4504
907.557	4261
907.674	4352
907.79	4306
907.907	4394
908.023	4538
908.139	4485
908.256	4462
908.372	4451
908.488	4485
908.604	4341
908.72	4337
908.836	4390
908.952	4390
909.068	4417
909.184	4565
909.3	4466
909.415	4584
909.531	4580
909.647	4356
909.762	4398
909.878	4375
909.993	4443
910.108	4383
910.224	4405
910.339	4466
910.454	4379
910.57	4360
910.685	4314
910.8	4603
910.915	4584
911.03	4512
911.145	4303
911.259	4329
911.374	4314
911.489	4306
911.604	4299
911.718	4120
911.833	4192
911.947	4093
912.062	3991
912.176	4230
912.291	4249
912.405	4253
912.519	4432
912.633	4485
912.748	4329
912.862	4295
912.976	4200
913.09	4101
913.204	4139
913.318	4246
913.431	4383
913.545	4375
913.659	4428
913.772	4356
913.886	4230
914	4181
914.113	4394
914.226	4367
914.34	4371
914.453	4276
914.566	4375
914.68	4295
914.793	4360
914.906	4147
915.019	4090
915.132	4090
915.245	4219
915.358	4211
915.47	4204
915.583	4261
915.696	4249
915.809	4394
915.921	4440
916.034	4242
916.146	4207
916.259	4234
916.371	4337
916.483	4352
916.595	4268
916.708	4341
916.82	4344
916.932	4322
917.044	4329
917.156	4329
917.268	4230
917.38	4303
917.491	4253
917.603	4360
917.715	4398
917.826	4394
917.938	4295
918.049	4223
918.161	4348
918.272	4523
918.384	4485
918.495	4428
918.606	4291
918.717	4215
918.828	4291
918.939	4348
919.05	4246
919.161	4322
919.272	4139
919.383	4227
919.494	4493
919.604	4554
919.715	4405
919.826	4329
919.936	4341
920.047	4535
920.157	4538
920.267	4702
920.378	4523
920.488	4497
920.598	4691
920.708	4862
920.818	4786
920.928	4778
921.038	4892
921.148	4915
921.258	4634
921.368	4546
921.477	4447
921.587	4436
921.697	4344
921.806	4580
921.916	4417
922.025	4310
922.134	4272
922.244	4234
922.353	4295
922.462	4154
922.571	4101
922.68	4029
922.789	3964
922.898	4010
923.007	3975
923.116	4105
923.224	4040
923.333	4101
923.442	3972
923.55	3983
923.659	4063
923.767	4086
923.876	4002
923.984	4093
924.092	3998
924.201	4036
924.309	4074
924.417	4173
924.525	4093
924.633	4101
924.741	4938
924.849	3926
924.956	4093
925.064	3953
925.172	3934
925.279	3930
925.387	4051
925.494	4074
925.602	4230
925.709	4196
925.816	4071
925.924	4082
926.031	4196
926.138	4162
926.245	4169
926.352	4063
926.459	4230
926.566	4333
926.673	4166
926.779	4124
926.886	4063
926.993	3964
927.099	3926
927.206	3930
927.312	3975
927.419	3991
927.525	4025
927.631	4105
927.737	3930
927.843	3937
927.95	3873
928.056	3975
928.162	3968
928.267	4051
928.373	4603
928.479	4090
928.585	3835
928.69	4036
928.796	4040
928.901	3949
929.007	3865
929.112	4021
929.218	3972
929.323	3930
929.428	3899
929.533	4109
929.638	3922
929.743	3934
929.848	4055
929.953	3949
930.058	3922
930.163	3759
930.267	3804
930.372	3968
930.477	3838
930.581	4059
930.685	3922
930.79	3861
930.894	3850
930.998	3876
931.103	4040
931.207	3686
931.311	3675
931.415	3671
931.519	3561
931.623	3534
