Data from test_V78500241_1446.txt Node
Date: Fri Mar 25 16:59:03 CST 2022
User: usil
Spectrometer: V785-0024
Trigger mode: 0
Integration Time (sec): 4.000000E-1
Scans to average: 1
Nonlinearity correction enabled: false
Boxcar width: 0
Storing dark spectrum: false
XAxis mode: Wavelengths
Number of Pixels in Spectrum: 1024
>>>>>Begin Spectral Data<<<<<
801.071	8020
801.214	8027
801.356	7807
801.499	7811
801.641	7719
801.783	7761
801.926	8024
802.068	7898
802.211	7921
802.353	7959
802.496	7818
802.638	7807
802.78	7925
802.923	7913
803.065	7883
803.208	7849
803.35	7898
803.492	8069
803.635	8142
803.777	8001
803.919	8176
804.061	8419
804.204	8145
804.346	8058
804.488	7928
804.63	8012
804.773	7974
804.915	8119
805.057	8237
805.199	8138
805.341	8187
805.483	8202
805.626	8183
805.768	8123
805.91	8221
806.052	8191
806.194	8073
806.336	8229
806.478	8111
806.62	8054
806.762	8168
806.904	8256
807.046	8499
807.188	8412
807.33	8286
807.472	8305
807.614	8172
807.756	8100
807.898	7986
808.04	7940
808.182	7852
808.324	7890
808.465	7917
808.607	8183
808.749	8103
808.891	8176
809.033	8324
809.174	8248
809.316	8065
809.458	8103
809.6	8046
809.741	8005
809.883	8024
810.025	8092
810.166	8069
810.308	8123
810.45	7951
810.591	7852
810.733	7689
810.875	7700
811.016	7540
811.158	7537
811.299	7632
811.441	7685
811.582	7734
811.724	7582
811.865	7544
812.007	7639
812.148	7616
812.29	7674
812.431	7780
812.573	7864
812.714	7967
812.855	8195
812.997	8176
813.138	8362
813.279	8240
813.421	8065
813.562	8001
813.703	7833
813.845	7788
813.986	7441
814.127	7350
814.268	7251
814.41	7206
814.551	7187
814.692	7285
814.833	7084
814.974	7137
815.115	7198
815.256	6962
815.397	6947
815.539	6970
815.68	6837
815.821	6818
815.962	6863
816.103	6787
816.244	6726
816.385	6620
816.526	6601
816.666	6506
816.807	6292
816.948	6464
817.089	6498
817.23	6410
817.371	6391
817.512	6384
817.653	6441
817.793	6357
817.934	6426
818.075	6433
818.216	6433
818.356	6426
818.497	6262
818.638	6098
818.778	6201
818.919	6167
819.06	6182
819.2	6323
819.341	6331
819.481	6384
819.622	6475
819.762	6779
819.903	6703
820.043	6642
820.184	6593
820.324	6555
820.465	6719
820.605	6684
820.746	6681
820.886	6513
821.026	6631
821.167	6730
821.307	6779
821.447	6768
821.588	6662
821.728	6582
821.868	6525
822.008	6315
822.149	6380
822.289	6270
822.429	6155
822.569	6083
822.709	6144
822.849	5946
822.99	5885
823.13	5942
823.27	5916
823.41	5821
823.55	5771
823.69	5775
823.83	5813
823.97	5695
824.11	5573
824.25	5543
824.389	5585
824.529	5619
824.669	5543
824.809	5638
824.949	5672
825.089	5680
825.228	5539
825.368	5379
825.508	5376
825.648	5322
825.787	5372
825.927	5414
826.067	5284
826.206	5299
826.346	5345
826.485	5334
826.625	5402
826.765	5535
826.904	5417
827.044	5269
827.183	5250
827.323	5162
827.462	5277
827.601	5170
827.741	5204
827.88	5227
828.02	5159
828.159	5242
828.298	5311
828.437	5315
828.577	5288
828.716	5490
828.855	5337
828.994	5189
829.134	5162
829.273	5235
829.412	5193
829.551	5136
829.69	5212
829.829	5284
829.968	5414
830.107	5269
830.246	5254
830.385	5204
830.524	5132
830.663	5079
830.802	5010
830.941	4889
831.08	4889
831.219	4961
831.357	4984
831.496	5147
831.635	4904
831.774	4885
831.913	4812
832.051	4672
832.19	4771
832.329	4850
832.467	4679
832.606	4622
832.744	4740
832.883	4698
833.022	4721
833.16	4782
833.299	4816
833.437	4850
833.576	4866
833.714	4847
833.852	4854
833.991	4915
834.129	4957
834.267	4980
834.406	4930
834.544	5003
834.682	4987
834.821	5006
834.959	5128
835.097	4987
835.235	5201
835.373	5090
835.511	5098
835.65	5041
835.788	4965
835.926	4858
836.064	4892
836.202	4957
836.34	5155
836.478	5277
836.615	5102
836.753	5242
836.891	5269
837.029	5227
837.167	5197
837.305	5159
837.443	5170
837.58	5109
837.718	5212
837.856	5216
837.993	5185
838.131	5231
838.269	5231
838.406	5197
838.544	5193
838.681	5033
838.819	5056
838.956	4862
839.094	4923
839.231	5003
839.369	5056
839.506	5414
839.643	5311
839.781	5102
839.918	5060
840.055	5128
840.193	5060
840.33	5159
840.467	5170
840.604	5220
840.742	5440
840.879	5094
841.016	5094
841.153	5162
841.29	5398
841.427	5372
841.564	5273
841.701	5379
841.838	5337
841.975	5280
842.112	5318
842.249	5121
842.385	5121
842.522	5353
842.659	5162
842.796	5140
842.933	5185
843.069	5189
843.206	5159
843.343	5284
843.479	5250
843.616	5288
843.752	5041
843.889	4995
844.025	5201
844.162	5003
844.298	5204
844.435	5083
844.571	5064
844.708	5151
844.844	5337
844.98	5357
845.117	5315
845.253	5136
845.389	5109
845.525	5128
845.661	5147
845.798	5079
845.934	5181
846.07	5067
846.206	5201
846.342	5307
846.478	5155
846.614	5025
846.75	5041
846.886	4900
847.022	5140
847.158	5041
847.294	5025
847.429	5117
847.565	5060
847.701	5322
847.837	4892
847.972	4820
848.108	4995
848.244	4904
848.379	4805
848.515	4763
848.65	4702
848.786	4771
848.921	4767
849.057	4854
849.192	4915
849.328	4763
849.463	4854
849.598	4759
849.734	4816
849.869	4710
850.004	4626
850.14	4656
850.275	4622
850.41	4561
850.545	4538
850.68	4641
850.815	4649
850.95	4672
851.085	4831
851.22	4771
851.355	4702
851.49	4672
851.625	4725
851.76	4702
851.895	4565
852.03	4558
852.165	4664
852.299	4725
852.434	4828
852.569	4793
852.703	4771
852.838	4847
852.973	4942
853.107	4915
853.242	4793
853.376	4679
853.511	4584
853.645	4630
853.78	4828
853.914	4679
854.048	4694
854.183	4660
854.317	4694
854.451	4858
854.585	4714
854.72	4630
854.854	4763
854.988	4592
855.122	4622
855.256	4538
855.39	4694
855.524	4820
855.658	4767
855.792	4706
855.926	4733
856.06	4752
856.194	4801
856.327	4683
856.461	4596
856.595	4668
856.729	4645
856.862	4793
856.996	4702
857.13	4740
857.263	4786
857.397	4797
857.53	4653
857.664	4706
857.797	4752
857.931	4774
858.064	4725
858.197	4805
858.331	4664
858.464	4569
858.597	4512
858.731	4660
858.864	4649
858.997	4615
859.13	4660
859.263	4687
859.396	4668
859.529	4618
859.662	4630
859.795	4554
859.928	4660
860.061	4774
860.194	4736
860.327	4618
860.46	4603
860.592	4744
860.725	4710
860.858	4714
860.99	4577
861.123	4542
861.256	4531
861.388	4584
861.521	5436
861.653	4508
861.786	4455
861.918	4440
862.05	4538
862.183	4527
862.315	4656
862.447	4645
862.58	4569
862.712	4405
862.844	4272
862.976	4508
863.108	4500
863.24	4881
863.372	4375
863.504	4386
863.636	4421
863.768	4512
863.9	4390
864.032	4402
864.164	4405
864.296	4474
864.428	4542
864.559	4588
864.691	4531
864.823	4523
864.954	4531
865.086	4516
865.217	4459
865.349	4417
865.48	4432
865.612	4466
865.743	4672
865.875	4459
866.006	4386
866.137	4466
866.269	4466
866.4	4447
866.531	4421
866.662	4421
866.793	4417
866.924	4428
867.055	4485
867.186	4455
867.317	4436
867.448	4363
867.579	4405
867.71	4379
867.841	4390
867.972	4440
868.103	4485
868.233	4455
868.364	4436
868.495	4531
868.625	4679
868.756	4717
868.886	4592
869.017	4630
869.147	4786
869.278	4793
869.408	4664
869.539	4672
869.669	4710
869.799	4645
869.929	4744
870.06	4740
870.19	5010
870.32	4900
870.45	4980
870.58	4987
870.71	5113
870.84	5105
870.97	4896
871.1	4881
871.23	5181
871.36	5124
871.489	5006
871.619	5067
871.749	5083
871.879	5113
872.008	5189
872.138	5041
872.267	5014
872.397	4877
872.526	4835
872.656	4740
872.785	4835
872.915	4980
873.044	5033
873.173	4934
873.303	4915
873.432	4938
873.561	4949
873.69	4873
873.819	4862
873.948	4911
874.077	4862
874.206	4755
874.335	4767
874.464	4858
874.593	5025
874.722	4942
874.851	5121
874.979	5033
875.108	5018
875.237	4915
875.365	4877
875.494	4854
875.623	4984
875.751	4790
875.88	4881
876.008	4915
876.136	4953
876.265	5189
876.393	5334
876.521	5189
876.65	5193
876.778	5132
876.906	5067
877.034	5098
877.162	5064
877.29	4953
877.418	5060
877.546	5052
877.674	4984
877.802	5037
877.93	5037
878.058	4984
878.185	4885
878.313	4980
878.441	4968
878.568	4805
878.696	4847
878.824	4965
878.951	4995
879.079	5136
879.206	5265
879.333	5098
879.461	4995
879.588	5067
879.715	5102
879.842	5170
879.97	5037
880.097	4767
880.224	4752
880.351	4805
880.478	4824
880.605	4759
880.732	4744
880.859	5102
880.986	4858
881.112	4908
881.239	4755
881.366	4641
881.493	4618
881.619	4607
881.746	4592
881.872	4694
881.999	4668
882.125	4694
882.252	4771
882.378	4778
882.505	4965
882.631	4831
882.757	4694
882.883	4683
883.01	4733
883.136	4675
883.262	4653
883.388	4615
883.514	4835
883.64	4866
883.766	4805
883.892	4691
884.018	4736
884.143	4930
884.269	5037
884.395	4717
884.52	4618
884.646	4653
884.772	4561
884.897	4561
885.023	4668
885.148	4828
885.274	4816
885.399	4812
885.524	4714
885.65	4698
885.775	4793
885.9	4755
886.025	4877
886.15	4805
886.275	4710
886.4	4679
886.525	4714
886.65	4668
886.775	4649
886.9	4938
887.025	5041
887.149	4805
887.274	4691
887.399	4626
887.523	4538
887.648	4603
887.773	4558
887.897	4755
888.021	4816
888.146	4717
888.27	4771
888.395	4889
888.519	4797
888.643	4820
888.767	4839
888.891	4691
889.015	4626
889.139	4664
889.263	4584
889.387	4729
889.511	4862
889.635	4801
889.759	4645
889.883	4668
890.006	4740
890.13	4828
890.254	4569
890.377	4672
890.501	4527
890.624	4527
890.748	4603
890.871	4561
890.995	4440
891.118	4383
891.241	4588
891.364	4561
891.488	4649
891.611	4500
891.734	4588
891.857	4561
891.98	4569
892.103	4660
892.226	4558
892.349	4500
892.471	4402
892.594	4554
892.717	4618
892.839	4580
892.962	4607
893.085	4653
893.207	4573
893.33	4485
893.452	4554
893.575	4653
893.697	4565
893.819	4805
893.941	4790
894.064	4748
894.186	4634
894.308	4573
894.43	4729
894.552	4812
894.674	4706
894.796	4603
894.918	4611
895.04	4580
895.161	4672
895.283	4664
895.405	4588
895.526	4599
895.648	4679
895.769	4664
895.891	4702
896.012	4729
896.134	4687
896.255	4691
896.376	4607
896.498	4656
896.619	4702
896.74	4656
896.861	4607
896.982	4953
897.103	5132
897.224	4847
897.345	4774
897.466	4694
897.587	4755
897.708	4805
897.828	4786
897.949	4660
898.07	4577
898.19	4634
898.311	4828
898.431	4637
898.552	4755
898.672	4816
898.792	4866
898.913	4691
899.033	4622
899.153	4500
899.273	4428
899.393	4478
899.513	4481
899.633	4573
899.753	4531
899.873	4508
899.993	4584
900.113	4561
900.232	4603
900.352	4535
900.472	4535
900.591	4421
900.711	4440
900.83	4375
900.95	4618
901.069	4710
901.189	4538
901.308	4383
901.427	4265
901.546	4379
901.665	4451
901.784	4493
901.904	4413
902.023	4299
902.141	4166
902.26	4204
902.379	4261
902.498	4257
902.617	4211
902.735	4371
902.854	4333
902.973	4405
903.091	4227
903.21	4238
903.328	4314
903.446	4253
903.565	4265
903.683	4363
903.801	4249
903.919	4405
904.038	4443
904.156	4310
904.274	4413
904.392	4379
904.51	4462
904.627	4497
904.745	4584
904.863	4660
904.981	4432
905.098	4314
905.216	4371
905.334	4421
905.451	4428
905.569	4455
905.686	4512
905.803	4516
905.921	4386
906.038	4569
906.155	4462
906.272	4390
906.389	4466
906.506	4344
906.623	4352
906.74	4383
906.857	4242
906.974	4371
907.091	4561
907.208	4694
907.324	4580
907.441	4519
907.557	4379
907.674	4356
907.79	4333
907.907	4394
908.023	4481
908.139	4478
908.256	4428
908.372	4466
908.488	4478
908.604	4360
908.72	4299
908.836	4360
908.952	4367
909.068	4417
909.184	4538
909.3	4504
909.415	4542
909.531	4561
909.647	4310
909.762	4360
909.878	4314
909.993	4455
910.108	4428
910.224	4421
910.339	4504
910.454	4413
910.57	4325
910.685	4295
910.8	4653
910.915	4565
911.03	4497
911.145	4341
911.259	4287
911.374	4375
911.489	4295
911.604	4261
911.718	4120
911.833	4211
911.947	4109
912.062	4040
912.176	4211
912.291	4280
912.405	4291
912.519	4451
912.633	4493
912.748	4348
912.862	4291
912.976	4200
913.09	4097
913.204	4154
913.318	4295
913.431	4341
913.545	4379
913.659	4421
913.772	4322
913.886	4223
914	4196
914.113	4386
914.226	4451
914.34	4432
914.453	4234
914.566	4421
914.68	4284
914.793	4291
914.906	4181
915.019	4109
915.132	4131
915.245	4181
915.358	4207
915.47	4257
915.583	4265
915.696	4280
915.809	4390
915.921	4394
916.034	4287
916.146	4261
916.259	4238
916.371	4383
916.483	4333
916.595	4272
916.708	4329
916.82	4310
916.932	4333
917.044	4352
917.156	4325
917.268	4246
917.38	4314
917.491	4276
917.603	4341
917.715	4375
917.826	4443
917.938	4295
918.049	4276
918.161	4424
918.272	4531
918.384	4542
918.495	4447
918.606	4295
918.717	4227
918.828	4341
918.939	4352
919.05	4249
919.161	4299
919.272	4147
919.383	4230
919.494	4447
919.604	4656
919.715	4432
919.826	4352
919.936	4409
920.047	4478
920.157	4447
920.267	4717
920.378	4504
920.488	4493
920.598	4672
920.708	4889
920.818	4698
920.928	4786
921.038	4908
921.148	4927
921.258	4641
921.368	4516
921.477	4519
921.587	4459
921.697	4337
921.806	4538
921.916	4443
922.025	4287
922.134	4268
922.244	4223
922.353	4314
922.462	4177
922.571	4128
922.68	4017
922.789	3945
922.898	4051
923.007	3968
923.116	4086
923.224	4021
923.333	4063
923.442	3987
923.55	4025
923.659	4021
923.767	4101
923.876	4013
923.984	4090
924.092	3979
924.201	4071
924.309	4116
924.417	4143
924.525	4055
924.633	4112
924.741	5010
924.849	3926
924.956	4124
925.064	3953
925.172	3930
925.279	3945
925.387	4044
925.494	4090
925.602	4158
925.709	4185
925.816	4025
925.924	4131
926.031	4215
926.138	4158
926.245	4158
926.352	4101
926.459	4249
926.566	4268
926.673	4162
926.779	4063
926.886	4086
926.993	3953
927.099	3987
927.206	3968
927.312	3941
927.419	4044
927.525	4063
927.631	4059
927.737	3987
927.843	3934
927.95	3865
928.056	3960
928.162	3941
928.267	4032
928.373	4550
928.479	4120
928.585	3903
928.69	3968
928.796	4063
928.901	3876
929.007	3831
929.112	3991
929.218	3922
929.323	3941
929.428	3956
929.533	4120
929.638	3869
929.743	3949
929.848	4032
929.953	4002
930.058	3941
930.163	3755
930.267	3816
930.372	3994
930.477	3812
930.581	4101
930.685	3937
930.79	3793
930.894	3876
930.998	3842
931.103	3998
931.207	3705
931.311	3694
931.415	3663
931.519	3519
931.623	3542
