Data from test_V78500241_290.txt Node
Date: Fri Mar 25 16:51:01 CST 2022
User: usil
Spectrometer: V785-0024
Trigger mode: 0
Integration Time (sec): 4.000000E-1
Scans to average: 1
Nonlinearity correction enabled: false
Boxcar width: 0
Storing dark spectrum: false
XAxis mode: Wavelengths
Number of Pixels in Spectrum: 1024
>>>>>Begin Spectral Data<<<<<
801.071	8020
801.214	8016
801.356	7864
801.499	7890
801.641	7849
801.783	7811
801.926	7917
802.068	7963
802.211	7997
802.353	8012
802.496	7795
802.638	7909
802.78	7967
802.923	7917
803.065	7852
803.208	7913
803.35	7970
803.492	8069
803.635	8168
803.777	8035
803.919	8138
804.061	8427
804.204	8210
804.346	8096
804.488	7928
804.63	8100
804.773	7982
804.915	8107
805.057	8180
805.199	8191
805.341	8153
805.483	8324
805.626	8142
805.768	8107
805.91	8115
806.052	8164
806.194	8054
806.336	8294
806.478	8138
806.62	8073
806.762	8111
806.904	8240
807.046	8408
807.188	8320
807.33	8275
807.472	8309
807.614	8157
807.756	8161
807.898	7967
808.04	7894
808.182	7898
808.324	7955
808.465	7875
808.607	8062
808.749	8100
808.891	8271
809.033	8282
809.174	8183
809.316	8012
809.458	8039
809.6	7963
809.741	7986
809.883	7993
810.025	8046
810.166	8096
810.308	8062
810.45	8005
810.591	7845
810.733	7761
810.875	7674
811.016	7457
811.158	7514
811.299	7616
811.441	7765
811.582	7666
811.724	7483
811.865	7521
812.007	7601
812.148	7586
812.29	7628
812.431	7750
812.573	7818
812.714	7944
812.855	8096
812.997	8218
813.138	8298
813.279	8176
813.421	8145
813.562	8039
813.703	7830
813.845	7795
813.986	7445
814.127	7247
814.268	7213
814.41	7171
814.551	7164
814.692	7213
814.833	7122
814.974	7129
815.115	7160
815.256	6947
815.397	6894
815.539	6947
815.68	6814
815.821	6760
815.962	6871
816.103	6875
816.244	6696
816.385	6631
816.526	6593
816.666	6452
816.807	6277
816.948	6331
817.089	6460
817.23	6448
817.371	6361
817.512	6384
817.653	6369
817.793	6380
817.934	6353
818.075	6467
818.216	6429
818.356	6357
818.497	6213
818.638	6167
818.778	6144
818.919	6155
819.06	6083
819.2	6342
819.341	6327
819.481	6296
819.622	6513
819.762	6700
819.903	6673
820.043	6589
820.184	6540
820.324	6555
820.465	6650
820.605	6635
820.746	6551
820.886	6467
821.026	6642
821.167	6681
821.307	6772
821.447	6768
821.588	6658
821.728	6578
821.868	6509
822.008	6308
822.149	6395
822.289	6361
822.429	6190
822.569	6129
822.709	6163
822.849	5923
822.99	5889
823.13	5882
823.27	5916
823.41	5805
823.55	5821
823.69	5775
823.83	5828
823.97	5653
824.11	5573
824.25	5474
824.389	5596
824.529	5604
824.669	5501
824.809	5665
824.949	5661
825.089	5623
825.228	5535
825.368	5444
825.508	5360
825.648	5334
825.787	5410
825.927	5391
826.067	5341
826.206	5296
826.346	5436
826.485	5452
826.625	5448
826.765	5570
826.904	5474
827.044	5254
827.183	5239
827.323	5185
827.462	5239
827.601	5193
827.741	5235
827.88	5254
828.02	5162
828.159	5254
828.298	5292
828.437	5383
828.577	5280
828.716	5581
828.855	5383
828.994	5197
829.134	5140
829.273	5250
829.412	5216
829.551	5193
829.69	5250
829.829	5254
829.968	5425
830.107	5326
830.246	5311
830.385	5208
830.524	5143
830.663	5147
830.802	5018
830.941	4942
831.08	4915
831.219	5086
831.357	4987
831.496	5181
831.635	4991
831.774	4877
831.913	4877
832.051	4797
832.19	4828
832.329	4892
832.467	4736
832.606	4698
832.744	4805
832.883	4744
833.022	4790
833.16	4797
833.299	4881
833.437	4850
833.576	4908
833.714	4938
833.852	4904
833.991	4965
834.129	5022
834.267	5010
834.406	4980
834.544	5014
834.682	5045
834.821	5003
834.959	5185
835.097	5022
835.235	5201
835.373	5140
835.511	5193
835.65	5102
835.788	5098
835.926	4938
836.064	4923
836.202	4949
836.34	5280
836.478	5280
836.615	5140
836.753	5239
836.891	5345
837.029	5284
837.167	5204
837.305	5208
837.443	5181
837.58	5094
837.718	5326
837.856	5220
837.993	5147
838.131	5261
838.269	5273
838.406	5231
838.544	5220
838.681	5086
838.819	5029
838.956	4934
839.094	4946
839.231	5117
839.369	5117
839.506	5474
839.643	5265
839.781	5162
839.918	5060
840.055	5155
840.193	5143
840.33	5128
840.467	5204
840.604	5250
840.742	5463
840.879	5140
841.016	5147
841.153	5185
841.29	5398
841.427	5398
841.564	5372
841.701	5421
841.838	5334
841.975	5288
842.112	5322
842.249	5185
842.385	5128
842.522	5299
842.659	5166
842.796	5174
842.933	5208
843.069	5170
843.206	5170
843.343	5337
843.479	5318
843.616	5311
843.752	5090
843.889	5037
844.025	5250
844.162	5052
844.298	5250
844.435	5143
844.571	5094
844.708	5220
844.844	5326
844.98	5360
845.117	5345
845.253	5155
845.389	5143
845.525	5273
845.661	5185
845.798	5098
845.934	5151
846.07	5121
846.206	5216
846.342	5334
846.478	5235
846.614	5094
846.75	5003
846.886	4961
847.022	5121
847.158	5025
847.294	5143
847.429	5117
847.565	5124
847.701	5360
847.837	4896
847.972	4908
848.108	4972
848.244	5018
848.379	4850
848.515	4763
848.65	4717
848.786	4790
848.921	4816
849.057	4881
849.192	4972
849.328	4824
849.463	4877
849.598	4828
849.734	4759
849.869	4717
850.004	4721
850.14	4710
850.275	4656
850.41	4580
850.545	4660
850.68	4637
850.815	4698
850.95	4668
851.085	4904
851.22	4778
851.355	4706
851.49	4645
851.625	4622
851.76	4672
851.895	4653
852.03	4580
852.165	4698
852.299	4755
852.434	4812
852.569	4740
852.703	4816
852.838	4877
852.973	4946
853.107	4972
853.242	4778
853.376	4714
853.511	4596
853.645	4664
853.78	4831
853.914	4694
854.048	4710
854.183	4687
854.317	4744
854.451	4831
854.585	4717
854.72	4691
854.854	4763
854.988	4687
855.122	4675
855.256	4542
855.39	4687
855.524	4812
855.658	4763
855.792	4767
855.926	4778
856.06	4793
856.194	4847
856.327	4744
856.461	4645
856.595	4622
856.729	4637
856.862	4790
856.996	4736
857.13	4740
857.263	4828
857.397	4820
857.53	4687
857.664	4736
857.797	4805
857.931	4839
858.064	4729
858.197	4771
858.331	4672
858.464	4687
858.597	4550
858.731	4634
858.864	4675
858.997	4710
859.13	4717
859.263	4672
859.396	4782
859.529	4607
859.662	4634
859.795	4535
859.928	4664
860.061	4839
860.194	4782
860.327	4664
860.46	4649
860.592	4698
860.725	4694
860.858	4805
860.99	4649
861.123	4580
861.256	4535
861.388	4637
861.521	5303
861.653	4535
861.786	4489
861.918	4500
862.05	4554
862.183	4550
862.315	4664
862.447	4683
862.58	4527
862.712	4459
862.844	4379
862.976	4523
863.108	4512
863.24	4923
863.372	4337
863.504	4447
863.636	4462
863.768	4535
863.9	4451
864.032	4352
864.164	4424
864.296	4462
864.428	4580
864.559	4615
864.691	4550
864.823	4558
864.954	4516
865.086	4580
865.217	4489
865.349	4474
865.48	4531
865.612	4516
865.743	4672
865.875	4504
866.006	4466
866.137	4478
866.269	4516
866.4	4466
866.531	4489
866.662	4447
866.793	4462
866.924	4455
867.055	4542
867.186	4459
867.317	4421
867.448	4375
867.579	4428
867.71	4428
867.841	4386
867.972	4489
868.103	4466
868.233	4519
868.364	4504
868.495	4508
868.625	4698
868.756	4771
868.886	4569
869.017	4626
869.147	4786
869.278	4790
869.408	4683
869.539	4664
869.669	4740
869.799	4752
869.929	4801
870.06	4771
870.19	4980
870.32	4995
870.45	4980
870.58	5048
870.71	5117
870.84	5109
870.97	4965
871.1	4877
871.23	5170
871.36	5204
871.489	5045
871.619	5079
871.749	5113
871.879	5155
872.008	5193
872.138	5071
872.267	5029
872.397	4889
872.526	4824
872.656	4748
872.785	4805
872.915	4961
873.044	5094
873.173	4991
873.303	4991
873.432	4946
873.561	4965
873.69	4900
873.819	4949
873.948	4980
874.077	4870
874.206	4801
874.335	4870
874.464	4949
874.593	5117
874.722	4949
874.851	5140
874.979	5083
875.108	5029
875.237	4919
875.365	4900
875.494	4972
875.623	5014
875.751	4862
875.88	4885
876.008	4999
876.136	5048
876.265	5239
876.393	5360
876.521	5292
876.65	5216
876.778	5212
876.906	5071
877.034	5045
877.162	5079
877.29	5025
877.418	5010
877.546	5094
877.674	5052
877.802	5067
877.93	4991
878.058	4938
878.185	4896
878.313	4991
878.441	4984
878.568	4828
878.696	4904
878.824	5003
878.951	5025
879.079	5143
879.206	5330
879.333	5166
879.461	5010
879.588	5045
879.715	5140
879.842	5246
879.97	5045
880.097	4786
880.224	4744
880.351	4847
880.478	4881
880.605	4778
880.732	4786
880.859	5071
880.986	4900
881.112	4896
881.239	4797
881.366	4683
881.493	4588
881.619	4653
881.746	4649
881.872	4656
881.999	4649
882.125	4679
882.252	4839
882.378	4854
882.505	4961
882.631	4820
882.757	4702
882.883	4801
883.01	4843
883.136	4656
883.262	4626
883.388	4637
883.514	4850
883.64	4885
883.766	4782
883.892	4691
884.018	4736
884.143	4915
884.269	5018
884.395	4706
884.52	4630
884.646	4664
884.772	4603
884.897	4588
885.023	4653
885.148	4793
885.274	4908
885.399	4854
885.524	4733
885.65	4752
885.775	4771
885.9	4748
886.025	4835
886.15	4793
886.275	4752
886.4	4694
886.525	4744
886.65	4679
886.775	4694
886.9	4911
887.025	5064
887.149	4828
887.274	4725
887.399	4580
887.523	4599
887.648	4599
887.773	4580
887.897	4725
888.021	4797
888.146	4698
888.27	4797
888.395	4900
888.519	4850
888.643	4873
888.767	4759
888.891	4710
889.015	4656
889.139	4698
889.263	4615
889.387	4805
889.511	4850
889.635	4828
889.759	4683
889.883	4615
890.006	4782
890.13	4862
890.254	4615
890.377	4660
890.501	4554
890.624	4519
890.748	4683
890.871	4592
890.995	4451
891.118	4413
891.241	4573
891.364	4565
891.488	4660
891.611	4493
891.734	4573
891.857	4584
891.98	4554
892.103	4630
892.226	4596
892.349	4527
892.471	4481
892.594	4558
892.717	4668
892.839	4558
892.962	4653
893.085	4710
893.207	4653
893.33	4459
893.452	4519
893.575	4668
893.697	4618
893.819	4828
893.941	4873
894.064	4774
894.186	4588
894.308	4592
894.43	4767
894.552	4866
894.674	4786
894.796	4596
894.918	4588
895.04	4599
895.161	4706
895.283	4687
895.405	4523
895.526	4675
895.648	4702
895.769	4710
895.891	4694
896.012	4771
896.134	4706
896.255	4668
896.376	4698
896.498	4672
896.619	4725
896.74	4615
896.861	4637
896.982	4919
897.103	5102
897.224	4854
897.345	4805
897.466	4653
897.587	4672
897.708	4881
897.828	4782
897.949	4683
898.07	4584
898.19	4607
898.311	4839
898.431	4656
898.552	4698
898.672	4797
898.792	4782
898.913	4759
899.033	4664
899.153	4535
899.273	4508
899.393	4462
899.513	4554
899.633	4493
899.753	4558
899.873	4527
899.993	4580
900.113	4577
900.232	4577
900.352	4527
900.472	4519
900.591	4497
900.711	4527
900.83	4481
900.95	4664
901.069	4706
901.189	4527
901.308	4371
901.427	4291
901.546	4417
901.665	4504
901.784	4527
901.904	4424
902.023	4329
902.141	4223
902.26	4200
902.379	4341
902.498	4246
902.617	4276
902.735	4402
902.854	4413
902.973	4356
903.091	4230
903.21	4257
903.328	4325
903.446	4314
903.565	4257
903.683	4375
903.801	4314
903.919	4451
904.038	4493
904.156	4344
904.274	4455
904.392	4436
904.51	4447
904.627	4519
904.745	4611
904.863	4687
904.981	4432
905.098	4287
905.216	4424
905.334	4474
905.451	4531
905.569	4489
905.686	4611
905.803	4592
905.921	4504
906.038	4615
906.155	4527
906.272	4432
906.389	4485
906.506	4443
906.623	4443
906.74	4390
906.857	4333
906.974	4424
907.091	4599
907.208	4706
907.324	4603
907.441	4519
907.557	4466
907.674	4360
907.79	4325
907.907	4466
908.023	4546
908.139	4554
908.256	4542
908.372	4538
908.488	4500
908.604	4367
908.72	4375
908.836	4428
908.952	4348
909.068	4459
909.184	4622
909.3	4523
909.415	4645
909.531	4615
909.647	4443
909.762	4405
909.878	4383
909.993	4523
910.108	4489
910.224	4459
910.339	4527
910.454	4459
910.57	4440
910.685	4318
910.8	4710
910.915	4694
911.03	4569
911.145	4375
911.259	4402
911.374	4356
911.489	4333
911.604	4344
911.718	4291
911.833	4257
911.947	4120
912.062	4105
912.176	4249
912.291	4291
912.405	4287
912.519	4497
912.633	4535
912.748	4402
912.862	4409
912.976	4261
913.09	4169
913.204	4242
913.318	4284
913.431	4440
913.545	4432
913.659	4489
913.772	4405
913.886	4303
914	4287
914.113	4390
914.226	4489
914.34	4459
914.453	4314
914.566	4462
914.68	4375
914.793	4352
914.906	4169
915.019	4200
915.132	4109
915.245	4192
915.358	4253
915.47	4227
915.583	4356
915.696	4341
915.809	4428
915.921	4451
916.034	4325
916.146	4284
916.259	4246
916.371	4409
916.483	4344
916.595	4265
916.708	4337
916.82	4337
916.932	4379
917.044	4375
917.156	4344
917.268	4310
917.38	4318
917.491	4325
917.603	4398
917.715	4485
917.826	4459
917.938	4386
918.049	4257
918.161	4474
918.272	4618
918.384	4542
918.495	4500
918.606	4356
918.717	4299
918.828	4398
918.939	4398
919.05	4310
919.161	4379
919.272	4207
919.383	4261
919.494	4489
919.604	4698
919.715	4470
919.826	4405
919.936	4436
920.047	4569
920.157	4531
920.267	4729
920.378	4550
920.488	4527
920.598	4759
920.708	4900
920.818	4790
920.928	4839
921.038	5014
921.148	4991
921.258	4702
921.368	4580
921.477	4550
921.587	4516
921.697	4428
921.806	4584
921.916	4447
922.025	4295
922.134	4318
922.244	4238
922.353	4371
922.462	4204
922.571	4143
922.68	4067
922.789	4006
922.898	4120
923.007	4021
923.116	4109
923.224	4063
923.333	4139
923.442	4044
923.55	4010
923.659	4090
923.767	4147
923.876	4059
923.984	4135
924.092	4067
924.201	4181
924.309	4143
924.417	4162
924.525	4135
924.633	4128
924.741	5121
924.849	3998
924.956	4185
925.064	4032
925.172	3960
925.279	4013
925.387	4101
925.494	4109
925.602	4299
925.709	4230
925.816	4078
925.924	4143
926.031	4310
926.138	4238
926.245	4242
926.352	4116
926.459	4291
926.566	4333
926.673	4150
926.779	4116
926.886	4128
926.993	4051
927.099	4040
927.206	3945
927.312	4006
927.419	4101
927.525	4040
927.631	4131
927.737	4002
927.843	3979
927.95	3835
928.056	3994
928.162	4002
928.267	4116
928.373	4725
928.479	4158
928.585	3873
928.69	4067
928.796	4078
928.901	4032
929.007	3850
929.112	4025
929.218	4021
929.323	3968
929.428	4013
929.533	4173
929.638	3983
929.743	3979
929.848	4040
929.953	4044
930.058	3972
930.163	3846
930.267	3903
930.372	4040
930.477	3876
930.581	4143
930.685	3994
930.79	3827
930.894	3949
930.998	3915
931.103	4059
931.207	3785
931.311	3736
931.415	3736
931.519	3534
931.623	3603
