Data from test_V78500241_655.txt Node
Date: Fri Mar 25 16:53:33 CST 2022
User: usil
Spectrometer: V785-0024
Trigger mode: 0
Integration Time (sec): 4.000000E-1
Scans to average: 1
Nonlinearity correction enabled: false
Boxcar width: 0
Storing dark spectrum: false
XAxis mode: Wavelengths
Number of Pixels in Spectrum: 1024
>>>>>Begin Spectral Data<<<<<
801.071	8031
801.214	7940
801.356	7925
801.499	7925
801.641	7830
801.783	7833
801.926	7967
802.068	7875
802.211	7986
802.353	8012
802.496	7917
802.638	7902
802.78	7917
802.923	7871
803.065	7845
803.208	7811
803.35	7978
803.492	8145
803.635	8210
803.777	8046
803.919	8100
804.061	8389
804.204	8050
804.346	8005
804.488	7967
804.63	8073
804.773	7974
804.915	8119
805.057	8313
805.199	8138
805.341	8233
805.483	8313
805.626	8195
805.768	8103
805.91	8142
806.052	8164
806.194	8111
806.336	8263
806.478	8126
806.62	8073
806.762	8138
806.904	8240
807.046	8400
807.188	8343
807.33	8275
807.472	8305
807.614	8153
807.756	8145
807.898	7989
808.04	7864
808.182	7841
808.324	7925
808.465	7841
808.607	8058
808.749	8103
808.891	8210
809.033	8256
809.174	8199
809.316	8035
809.458	8008
809.6	7997
809.741	8027
809.883	7997
810.025	8111
810.166	7997
810.308	7967
810.45	7989
810.591	7894
810.733	7784
810.875	7613
811.016	7559
811.158	7533
811.299	7537
811.441	7715
811.582	7616
811.724	7605
811.865	7521
812.007	7616
812.148	7552
812.29	7616
812.431	7772
812.573	7852
812.714	7970
812.855	8119
812.997	8153
813.138	8294
813.279	8195
813.421	8157
813.562	8115
813.703	7849
813.845	7811
813.986	7499
814.127	7316
814.268	7362
814.41	7225
814.551	7149
814.692	7183
814.833	7072
814.974	7050
815.115	7103
815.256	7004
815.397	6977
815.539	6909
815.68	6821
815.821	6806
815.962	6875
816.103	6779
816.244	6703
816.385	6616
816.526	6616
816.666	6422
816.807	6311
816.948	6422
817.089	6452
817.23	6403
817.371	6403
817.512	6414
817.653	6403
817.793	6384
817.934	6437
818.075	6517
818.216	6483
818.356	6350
818.497	6270
818.638	6136
818.778	6175
818.919	6148
819.06	6129
819.2	6319
819.341	6346
819.481	6361
819.622	6483
819.762	6768
819.903	6700
820.043	6589
820.184	6540
820.324	6471
820.465	6646
820.605	6662
820.746	6559
820.886	6498
821.026	6601
821.167	6722
821.307	6703
821.447	6741
821.588	6623
821.728	6532
821.868	6479
822.008	6232
822.149	6331
822.289	6357
822.429	6106
822.569	6087
822.709	6072
822.849	5885
822.99	5832
823.13	5912
823.27	5904
823.41	5741
823.55	5798
823.69	5764
823.83	5790
823.97	5665
824.11	5577
824.25	5516
824.389	5535
824.529	5570
824.669	5535
824.809	5691
824.949	5661
825.089	5638
825.228	5566
825.368	5357
825.508	5345
825.648	5406
825.787	5357
825.927	5357
826.067	5303
826.206	5330
826.346	5379
826.485	5402
826.625	5425
826.765	5570
826.904	5486
827.044	5212
827.183	5197
827.323	5178
827.462	5242
827.601	5174
827.741	5178
827.88	5189
828.02	5071
828.159	5227
828.298	5269
828.437	5311
828.577	5280
828.716	5493
828.855	5315
828.994	5155
829.134	5075
829.273	5223
829.412	5128
829.551	5113
829.69	5128
829.829	5265
829.968	5349
830.107	5258
830.246	5227
830.385	5117
830.524	5109
830.663	5090
830.802	4949
830.941	4911
831.08	4870
831.219	4995
831.357	4961
831.496	5208
831.635	4949
831.774	4828
831.913	4809
832.051	4687
832.19	4755
832.329	4843
832.467	4729
832.606	4664
832.744	4679
832.883	4668
833.022	4717
833.16	4778
833.299	4858
833.437	4816
833.576	4839
833.714	4835
833.852	4850
833.991	4885
834.129	4995
834.267	4930
834.406	4870
834.544	4995
834.682	4972
834.821	4999
834.959	5143
835.097	5022
835.235	5170
835.373	5086
835.511	5136
835.65	5041
835.788	5014
835.926	4911
836.064	4847
836.202	4949
836.34	5132
836.478	5197
836.615	5090
836.753	5147
836.891	5288
837.029	5277
837.167	5212
837.305	5170
837.443	5174
837.58	5033
837.718	5208
837.856	5147
837.993	5117
838.131	5231
838.269	5197
838.406	5227
838.544	5124
838.681	5010
838.819	4980
838.956	4900
839.094	4820
839.231	4965
839.369	5045
839.506	5429
839.643	5296
839.781	5079
839.918	4987
840.055	5113
840.193	5090
840.33	5098
840.467	5143
840.604	5178
840.742	5379
840.879	5098
841.016	5071
841.153	5185
841.29	5345
841.427	5318
841.564	5299
841.701	5349
841.838	5284
841.975	5216
842.112	5242
842.249	5181
842.385	5094
842.522	5296
842.659	5197
842.796	5155
842.933	5181
843.069	5181
843.206	5162
843.343	5227
843.479	5223
843.616	5303
843.752	5052
843.889	4957
844.025	5197
844.162	4987
844.298	5162
844.435	5029
844.571	5071
844.708	5212
844.844	5277
844.98	5292
845.117	5299
845.253	5155
845.389	5045
845.525	5117
845.661	5105
845.798	5041
845.934	5140
846.07	5014
846.206	5159
846.342	5239
846.478	5193
846.614	5018
846.75	4923
846.886	4938
847.022	5079
847.158	4984
847.294	5060
847.429	5064
847.565	5067
847.701	5307
847.837	4828
847.972	4809
848.108	4930
848.244	4972
848.379	4820
848.515	4675
848.65	4664
848.786	4793
848.921	4774
849.057	4839
849.192	4904
849.328	4858
849.463	4831
849.598	4771
849.734	4736
849.869	4698
850.004	4599
850.14	4664
850.275	4565
850.41	4489
850.545	4497
850.68	4664
850.815	4630
850.95	4653
851.085	4885
851.22	4725
851.355	4687
851.49	4630
851.625	4573
851.76	4607
851.895	4550
852.03	4535
852.165	4645
852.299	4679
852.434	4759
852.569	4729
852.703	4752
852.838	4839
852.973	4908
853.107	4889
853.242	4725
853.376	4641
853.511	4497
853.645	4618
853.78	4740
853.914	4706
854.048	4668
854.183	4664
854.317	4637
854.451	4820
854.585	4694
854.72	4637
854.854	4725
854.988	4565
855.122	4645
855.256	4519
855.39	4607
855.524	4763
855.658	4736
855.792	4733
855.926	4687
856.06	4694
856.194	4797
856.327	4717
856.461	4588
856.595	4634
856.729	4611
856.862	4740
856.996	4626
857.13	4744
857.263	4725
857.397	4782
857.53	4675
857.664	4736
857.797	4778
857.931	4767
858.064	4706
858.197	4729
858.331	4645
858.464	4577
858.597	4523
858.731	4649
858.864	4573
858.997	4565
859.13	4637
859.263	4618
859.396	4729
859.529	4573
859.662	4561
859.795	4573
859.928	4694
860.061	4774
860.194	4755
860.327	4599
860.46	4565
860.592	4717
860.725	4755
860.858	4740
860.99	4588
861.123	4516
861.256	4500
861.388	4634
861.521	5288
861.653	4474
861.786	4451
861.918	4466
862.05	4466
862.183	4523
862.315	4584
862.447	4675
862.58	4573
862.712	4394
862.844	4363
862.976	4481
863.108	4466
863.24	4858
863.372	4299
863.504	4459
863.636	4367
863.768	4493
863.9	4466
864.032	4371
864.164	4398
864.296	4455
864.428	4538
864.559	4558
864.691	4516
864.823	4519
864.954	4504
865.086	4474
865.217	4493
865.349	4375
865.48	4447
865.612	4493
865.743	4615
865.875	4481
866.006	4436
866.137	4493
866.269	4466
866.4	4440
866.531	4459
866.662	4356
866.793	4421
866.924	4417
867.055	4512
867.186	4451
867.317	4405
867.448	4306
867.579	4398
867.71	4386
867.841	4348
867.972	4455
868.103	4417
868.233	4443
868.364	4421
868.495	4436
868.625	4660
868.756	4725
868.886	4588
869.017	4584
869.147	4736
869.278	4767
869.408	4645
869.539	4615
869.669	4721
869.799	4630
869.929	4763
870.06	4725
870.19	4900
870.32	4900
870.45	4915
870.58	4987
870.71	5075
870.84	5143
870.97	4938
871.1	4900
871.23	5105
871.36	5098
871.489	5045
871.619	5128
871.749	5060
871.879	5151
872.008	5159
872.138	5003
872.267	5018
872.397	4896
872.526	4782
872.656	4725
872.785	4790
872.915	4873
873.044	5022
873.173	4923
873.303	4976
873.432	4961
873.561	4953
873.69	4858
873.819	4839
873.948	4911
874.077	4828
874.206	4778
874.335	4782
874.464	4911
874.593	5056
874.722	4995
874.851	5136
874.979	5033
875.108	5045
875.237	4885
875.365	4866
875.494	4892
875.623	4923
875.751	4797
875.88	4843
876.008	4976
876.136	5102
876.265	5189
876.393	5337
876.521	5231
876.65	5242
876.778	5086
876.906	5045
877.034	5037
877.162	5025
877.29	4987
877.418	5033
877.546	5037
877.674	5052
877.802	5052
877.93	4991
878.058	4946
878.185	4839
878.313	4991
878.441	4953
878.568	4801
878.696	4850
878.824	4930
878.951	4984
879.079	5128
879.206	5296
879.333	5098
879.461	4965
879.588	5056
879.715	5083
879.842	5227
879.97	4980
880.097	4790
880.224	4710
880.351	4797
880.478	4839
880.605	4793
880.732	4774
880.859	5037
880.986	4873
881.112	4900
881.239	4774
881.366	4649
881.493	4580
881.619	4554
881.746	4615
881.872	4656
881.999	4653
882.125	4694
882.252	4782
882.378	4843
882.505	4968
882.631	4786
882.757	4634
882.883	4733
883.01	4698
883.136	4660
883.262	4584
883.388	4592
883.514	4824
883.64	4850
883.766	4725
883.892	4573
884.018	4683
884.143	4862
884.269	5048
884.395	4649
884.52	4637
884.646	4615
884.772	4569
884.897	4554
885.023	4649
885.148	4759
885.274	4850
885.399	4771
885.524	4714
885.65	4656
885.775	4736
885.9	4694
886.025	4843
886.15	4744
886.275	4714
886.4	4645
886.525	4698
886.65	4691
886.775	4672
886.9	4850
887.025	5006
887.149	4755
887.274	4634
887.399	4607
887.523	4588
887.648	4550
887.773	4558
887.897	4759
888.021	4782
888.146	4656
888.27	4831
888.395	4866
888.519	4809
888.643	4843
888.767	4797
888.891	4687
889.015	4641
889.139	4691
889.263	4626
889.387	4771
889.511	4862
889.635	4778
889.759	4668
889.883	4641
890.006	4755
890.13	4850
890.254	4611
890.377	4733
890.501	4546
890.624	4519
890.748	4660
890.871	4508
890.995	4474
891.118	4405
891.241	4550
891.364	4573
891.488	4687
891.611	4519
891.734	4538
891.857	4626
891.98	4561
892.103	4683
892.226	4615
892.349	4592
892.471	4451
892.594	4611
892.717	4615
892.839	4622
892.962	4599
893.085	4740
893.207	4630
893.33	4478
893.452	4561
893.575	4702
893.697	4626
893.819	4854
893.941	4892
894.064	4866
894.186	4577
894.308	4630
894.43	4767
894.552	4911
894.674	4854
894.796	4588
894.918	4660
895.04	4630
895.161	4736
895.283	4729
895.405	4588
895.526	4672
895.648	4740
895.769	4744
895.891	4767
896.012	4790
896.134	4740
896.255	4687
896.376	4660
896.498	4622
896.619	4744
896.74	4615
896.861	4755
896.982	4968
897.103	5094
897.224	4919
897.345	4816
897.466	4714
897.587	4755
897.708	4877
897.828	4782
897.949	4748
898.07	4615
898.19	4702
898.311	4900
898.431	4694
898.552	4797
898.672	4824
898.792	4850
898.913	4828
899.033	4691
899.153	4542
899.273	4504
899.393	4481
899.513	4603
899.633	4542
899.753	4565
899.873	4577
899.993	4569
900.113	4599
900.232	4584
900.352	4603
900.472	4542
900.591	4447
900.711	4489
900.83	4485
900.95	4630
901.069	4733
901.189	4558
901.308	4455
901.427	4383
901.546	4383
901.665	4489
901.784	4565
901.904	4394
902.023	4337
902.141	4234
902.26	4177
902.379	4318
902.498	4268
902.617	4253
902.735	4398
902.854	4417
902.973	4383
903.091	4234
903.21	4230
903.328	4310
903.446	4337
903.565	4318
903.683	4375
903.801	4356
903.919	4443
904.038	4478
904.156	4371
904.274	4428
904.392	4440
904.51	4459
904.627	4478
904.745	4615
904.863	4683
904.981	4386
905.098	4329
905.216	4375
905.334	4474
905.451	4436
905.569	4489
905.686	4588
905.803	4584
905.921	4493
906.038	4611
906.155	4481
906.272	4417
906.389	4516
906.506	4405
906.623	4383
906.74	4451
906.857	4344
906.974	4443
907.091	4622
907.208	4675
907.324	4573
907.441	4523
907.557	4314
907.674	4394
907.79	4341
907.907	4394
908.023	4474
908.139	4512
908.256	4459
908.372	4432
908.488	4443
908.604	4371
908.72	4375
908.836	4421
908.952	4413
909.068	4474
909.184	4569
909.3	4523
909.415	4611
909.531	4580
909.647	4436
909.762	4417
909.878	4329
909.993	4417
910.108	4413
910.224	4466
910.339	4523
910.454	4447
910.57	4394
910.685	4405
910.8	4694
910.915	4694
911.03	4550
911.145	4322
911.259	4360
911.374	4394
911.489	4295
911.604	4295
911.718	4185
911.833	4185
911.947	4135
912.062	4059
912.176	4253
912.291	4291
912.405	4299
912.519	4504
912.633	4561
912.748	4394
912.862	4341
912.976	4219
913.09	4097
913.204	4169
913.318	4287
913.431	4386
913.545	4394
913.659	4424
913.772	4398
913.886	4287
914	4268
914.113	4383
914.226	4436
914.34	4413
914.453	4257
914.566	4451
914.68	4386
914.793	4367
914.906	4196
915.019	4139
915.132	4135
915.245	4234
915.358	4227
915.47	4276
915.583	4295
915.696	4284
915.809	4447
915.921	4470
916.034	4272
916.146	4325
916.259	4230
916.371	4417
916.483	4409
916.595	4306
916.708	4356
916.82	4394
916.932	4341
917.044	4379
917.156	4367
917.268	4291
917.38	4246
917.491	4265
917.603	4348
917.715	4447
917.826	4500
917.938	4390
918.049	4272
918.161	4375
918.272	4565
918.384	4626
918.495	4459
918.606	4314
918.717	4265
918.828	4360
918.939	4363
919.05	4272
919.161	4352
919.272	4162
919.383	4284
919.494	4493
919.604	4698
919.715	4466
919.826	4352
919.936	4409
920.047	4504
920.157	4519
920.267	4744
920.378	4580
920.488	4531
920.598	4714
920.708	4953
920.818	4736
920.928	4755
921.038	4999
921.148	4923
921.258	4641
921.368	4577
921.477	4504
921.587	4451
921.697	4390
921.806	4550
921.916	4421
922.025	4238
922.134	4325
922.244	4257
922.353	4371
922.462	4196
922.571	4139
922.68	4048
922.789	3960
922.898	4101
923.007	4029
923.116	4074
923.224	4078
923.333	4086
923.442	3960
923.55	3968
923.659	4059
923.767	4109
923.876	3987
923.984	4173
924.092	4048
924.201	4116
924.309	4090
924.417	4143
924.525	4067
924.633	4128
924.741	5079
924.849	3926
924.956	4177
925.064	4010
925.172	3937
925.279	3998
925.387	4124
925.494	4055
925.602	4238
925.709	4204
925.816	4055
925.924	4169
926.031	4268
926.138	4196
926.245	4192
926.352	4101
926.459	4303
926.566	4386
926.673	4173
926.779	4090
926.886	4048
926.993	3991
927.099	3994
927.206	3949
927.312	3994
927.419	4090
927.525	4032
927.631	4105
927.737	3987
927.843	3972
927.95	3892
928.056	4010
928.162	4013
928.267	4086
928.373	4706
928.479	4128
928.585	3934
928.69	4082
928.796	4101
928.901	4010
929.007	3857
929.112	3987
929.218	4013
929.323	3945
929.428	3930
929.533	4147
929.638	3918
929.743	4006
929.848	4067
929.953	4040
930.058	3937
930.163	3785
930.267	3873
930.372	4013
930.477	3838
930.581	4112
930.685	3960
930.79	3846
930.894	3892
930.998	3869
931.103	4071
931.207	3717
931.311	3724
931.415	3709
931.519	3504
931.623	3549
