Data from test_V78500241_2400.txt Node
Date: Fri Mar 25 17:05:41 CST 2022
User: usil
Spectrometer: V785-0024
Trigger mode: 0
Integration Time (sec): 4.000000E-1
Scans to average: 1
Nonlinearity correction enabled: false
Boxcar width: 0
Storing dark spectrum: false
XAxis mode: Wavelengths
Number of Pixels in Spectrum: 1024
>>>>>Begin Spectral Data<<<<<
801.071	8020
801.214	7967
801.356	7833
801.499	7795
801.641	7799
801.783	7826
801.926	7963
802.068	7909
802.211	7951
802.353	8016
802.496	7845
802.638	7871
802.78	7849
802.923	7936
803.065	7826
803.208	7932
803.35	7974
803.492	8115
803.635	8199
803.777	7997
803.919	8214
804.061	8507
804.204	8176
804.346	8058
804.488	7982
804.63	8130
804.773	7986
804.915	8092
805.057	8282
805.199	8161
805.341	8259
805.483	8240
805.626	8263
805.768	8218
805.91	8240
806.052	8218
806.194	8081
806.336	8271
806.478	8096
806.62	8043
806.762	8123
806.904	8271
807.046	8480
807.188	8324
807.33	8313
807.472	8305
807.614	8210
807.756	8187
807.898	8046
808.04	7925
808.182	7849
808.324	7940
808.465	7879
808.607	8115
808.749	8142
808.891	8248
809.033	8244
809.174	8202
809.316	8164
809.458	8062
809.6	7989
809.741	8012
809.883	8084
810.025	8145
810.166	8100
810.308	8043
810.45	8035
810.591	7856
810.733	7742
810.875	7639
811.016	7533
811.158	7487
811.299	7544
811.441	7742
811.582	7685
811.724	7521
811.865	7499
812.007	7590
812.148	7582
812.29	7643
812.431	7742
812.573	7856
812.714	8005
812.855	8024
812.997	8210
813.138	8347
813.279	8191
813.421	8096
813.562	7970
813.703	7837
813.845	7723
813.986	7506
814.127	7289
814.268	7221
814.41	7152
814.551	7160
814.692	7198
814.833	7110
814.974	7080
815.115	7164
815.256	7004
815.397	6913
815.539	6897
815.68	6795
815.821	6741
815.962	6837
816.103	6878
816.244	6722
816.385	6608
816.526	6646
816.666	6536
816.807	6342
816.948	6494
817.089	6483
817.23	6479
817.371	6410
817.512	6369
817.653	6388
817.793	6391
817.934	6448
818.075	6407
818.216	6429
818.356	6338
818.497	6270
818.638	6167
818.778	6178
818.919	6125
819.06	6148
819.2	6380
819.341	6357
819.481	6331
819.622	6551
819.762	6741
819.903	6734
820.043	6627
820.184	6601
820.324	6544
820.465	6677
820.605	6734
820.746	6692
820.886	6509
821.026	6692
821.167	6768
821.307	6840
821.447	6795
821.588	6665
821.728	6608
821.868	6471
822.008	6304
822.149	6365
822.289	6437
822.429	6167
822.569	6110
822.709	6053
822.849	5923
822.99	5901
823.13	5920
823.27	5946
823.41	5824
823.55	5779
823.69	5790
823.83	5779
823.97	5699
824.11	5562
824.25	5490
824.389	5600
824.529	5600
824.669	5566
824.809	5627
824.949	5661
825.089	5619
825.228	5592
825.368	5425
825.508	5379
825.648	5334
825.787	5364
825.927	5391
826.067	5292
826.206	5292
826.346	5337
826.485	5395
826.625	5410
826.765	5551
826.904	5512
827.044	5273
827.183	5201
827.323	5189
827.462	5223
827.601	5151
827.741	5124
827.88	5208
828.02	5166
828.159	5220
828.298	5311
828.437	5368
828.577	5334
828.716	5459
828.855	5296
828.994	5189
829.134	5201
829.273	5208
829.412	5132
829.551	5155
829.69	5151
829.829	5216
829.968	5410
830.107	5269
830.246	5315
830.385	5166
830.524	5140
830.663	5064
830.802	4972
830.941	4885
831.08	4850
831.219	4976
831.357	4984
831.496	5170
831.635	4904
831.774	4858
831.913	4809
832.051	4744
832.19	4774
832.329	4824
832.467	4710
832.606	4687
832.744	4729
832.883	4702
833.022	4733
833.16	4790
833.299	4835
833.437	4839
833.576	4839
833.714	4812
833.852	4877
833.991	4900
834.129	4938
834.267	4938
834.406	4900
834.544	4972
834.682	4961
834.821	4984
834.959	5197
835.097	5006
835.235	5181
835.373	5083
835.511	5132
835.65	5029
835.788	5037
835.926	4927
836.064	4824
836.202	4930
836.34	5147
836.478	5181
836.615	5105
836.753	5162
836.891	5292
837.029	5265
837.167	5250
837.305	5204
837.443	5155
837.58	5083
837.718	5261
837.856	5162
837.993	5113
838.131	5258
838.269	5193
838.406	5189
838.544	5189
838.681	5029
838.819	5010
838.956	4930
839.094	4896
839.231	4999
839.369	5014
839.506	5398
839.643	5284
839.781	5052
839.918	5029
840.055	5083
840.193	5098
840.33	5121
840.467	5132
840.604	5162
840.742	5486
840.879	5048
841.016	5105
841.153	5189
841.29	5395
841.427	5330
841.564	5265
841.701	5383
841.838	5280
841.975	5242
842.112	5254
842.249	5117
842.385	5079
842.522	5326
842.659	5147
842.796	5155
842.933	5197
843.069	5155
843.206	5128
843.343	5307
843.479	5246
843.616	5254
843.752	5037
843.889	5006
844.025	5185
844.162	4991
844.298	5204
844.435	5117
844.571	5067
844.708	5166
844.844	5292
844.98	5284
845.117	5292
845.253	5113
845.389	5079
845.525	5159
845.661	5121
845.798	5060
845.934	5155
846.07	5052
846.206	5151
846.342	5250
846.478	5132
846.614	5022
846.75	4995
846.886	4934
847.022	5189
847.158	5037
847.294	5045
847.429	5128
847.565	5067
847.701	5307
847.837	4828
847.972	4809
848.108	4976
848.244	4961
848.379	4805
848.515	4679
848.65	4721
848.786	4736
848.921	4763
849.057	4854
849.192	4900
849.328	4824
849.463	4831
849.598	4782
849.734	4721
849.869	4679
850.004	4618
850.14	4675
850.275	4634
850.41	4523
850.545	4618
850.68	4615
850.815	4664
850.95	4584
851.085	4824
851.22	4755
851.355	4630
851.49	4637
851.625	4664
851.76	4698
851.895	4577
852.03	4516
852.165	4649
852.299	4702
852.434	4740
852.569	4714
852.703	4786
852.838	4850
852.973	4953
853.107	4900
853.242	4740
853.376	4649
853.511	4584
853.645	4618
853.78	4805
853.914	4702
854.048	4702
854.183	4656
854.317	4698
854.451	4835
854.585	4698
854.72	4618
854.854	4752
854.988	4603
855.122	4634
855.256	4546
855.39	4660
855.524	4729
855.658	4729
855.792	4672
855.926	4691
856.06	4755
856.194	4763
856.327	4694
856.461	4660
856.595	4634
856.729	4656
856.862	4717
856.996	4691
857.13	4733
857.263	4755
857.397	4847
857.53	4706
857.664	4717
857.797	4816
857.931	4805
858.064	4698
858.197	4759
858.331	4653
858.464	4592
858.597	4497
858.731	4675
858.864	4641
858.997	4622
859.13	4679
859.263	4626
859.396	4698
859.529	4565
859.662	4577
859.795	4531
859.928	4641
860.061	4717
860.194	4786
860.327	4637
860.46	4519
860.592	4752
860.725	4740
860.858	4710
860.99	4561
861.123	4546
861.256	4470
861.388	4637
861.521	5315
861.653	4481
861.786	4417
861.918	4451
862.05	4516
862.183	4542
862.315	4599
862.447	4675
862.58	4569
862.712	4405
862.844	4287
862.976	4462
863.108	4421
863.24	4793
863.372	4329
863.504	4386
863.636	4371
863.768	4516
863.9	4451
864.032	4360
864.164	4417
864.296	4478
864.428	4516
864.559	4607
864.691	4512
864.823	4455
864.954	4527
865.086	4504
865.217	4493
865.349	4447
865.48	4481
865.612	4497
865.743	4656
865.875	4462
866.006	4417
866.137	4485
866.269	4443
866.4	4428
866.531	4428
866.662	4398
866.793	4409
866.924	4424
867.055	4512
867.186	4432
867.317	4428
867.448	4386
867.579	4379
867.71	4390
867.841	4352
867.972	4470
868.103	4413
868.233	4421
868.364	4466
868.495	4512
868.625	4653
868.756	4759
868.886	4592
869.017	4649
869.147	4782
869.278	4763
869.408	4660
869.539	4611
869.669	4744
869.799	4675
869.929	4748
870.06	4725
870.19	4953
870.32	4972
870.45	4953
870.58	4961
870.71	5048
870.84	5105
870.97	4965
871.1	4968
871.23	5121
871.36	5155
871.489	5056
871.619	5056
871.749	5132
871.879	5151
872.008	5181
872.138	5052
872.267	4976
872.397	4862
872.526	4809
872.656	4706
872.785	4805
872.915	4946
873.044	5014
873.173	4961
873.303	4995
873.432	4976
873.561	4976
873.69	4870
873.819	4816
873.948	4904
874.077	4824
874.206	4725
874.335	4816
874.464	4870
874.593	5056
874.722	4987
874.851	5128
874.979	5079
875.108	5052
875.237	4877
875.365	4908
875.494	4885
875.623	5022
875.751	4797
875.88	4828
876.008	4946
876.136	5045
876.265	5231
876.393	5349
876.521	5269
876.65	5250
876.778	5159
876.906	5094
877.034	5006
877.162	5037
877.29	4999
877.418	5060
877.546	5014
877.674	5045
877.802	5052
877.93	5037
878.058	4946
878.185	4915
878.313	4999
878.441	4965
878.568	4786
878.696	4831
878.824	4927
878.951	5025
879.079	5140
879.206	5265
879.333	5113
879.461	4976
879.588	5022
879.715	5113
879.842	5197
879.97	4968
880.097	4831
880.224	4767
880.351	4831
880.478	4801
880.605	4790
880.732	4801
880.859	5098
880.986	4889
881.112	4923
881.239	4752
881.366	4634
881.493	4626
881.619	4569
881.746	4641
881.872	4664
881.999	4641
882.125	4706
882.252	4786
882.378	4839
882.505	4972
882.631	4839
882.757	4626
882.883	4736
883.01	4752
883.136	4660
883.262	4599
883.388	4622
883.514	4828
883.64	4862
883.766	4805
883.892	4706
884.018	4725
884.143	4843
884.269	4957
884.395	4668
884.52	4645
884.646	4706
884.772	4603
884.897	4565
885.023	4656
885.148	4820
885.274	4881
885.399	4812
885.524	4702
885.65	4721
885.775	4733
885.9	4725
886.025	4835
886.15	4786
886.275	4710
886.4	4653
886.525	4755
886.65	4702
886.775	4706
886.9	4915
887.025	5056
887.149	4812
887.274	4683
887.399	4561
887.523	4588
887.648	4565
887.773	4634
887.897	4740
888.021	4748
888.146	4702
888.27	4843
888.395	4870
888.519	4793
888.643	4786
888.767	4828
888.891	4664
889.015	4622
889.139	4653
889.263	4615
889.387	4786
889.511	4831
889.635	4778
889.759	4622
889.883	4656
890.006	4725
890.13	4831
890.254	4656
890.377	4672
890.501	4558
890.624	4516
890.748	4580
890.871	4508
890.995	4424
891.118	4356
891.241	4527
891.364	4550
891.488	4626
891.611	4554
891.734	4493
891.857	4580
891.98	4531
892.103	4653
892.226	4565
892.349	4546
892.471	4455
892.594	4558
892.717	4615
892.839	4592
892.962	4592
893.085	4710
893.207	4599
893.33	4436
893.452	4504
893.575	4698
893.697	4577
893.819	4824
893.941	4866
894.064	4771
894.186	4584
894.308	4558
894.43	4740
894.552	4805
894.674	4744
894.796	4592
894.918	4573
895.04	4573
895.161	4710
895.283	4691
895.405	4626
895.526	4649
895.648	4698
895.769	4649
895.891	4683
896.012	4698
896.134	4706
896.255	4683
896.376	4672
896.498	4584
896.619	4717
896.74	4645
896.861	4645
896.982	4911
897.103	5075
897.224	4850
897.345	4755
897.466	4641
897.587	4694
897.708	4877
897.828	4793
897.949	4675
898.07	4580
898.19	4630
898.311	4820
898.431	4668
898.552	4771
898.672	4847
898.792	4759
898.913	4755
899.033	4634
899.153	4489
899.273	4443
899.393	4470
899.513	4527
899.633	4504
899.753	4527
899.873	4497
899.993	4592
900.113	4519
900.232	4561
900.352	4527
900.472	4466
900.591	4409
900.711	4504
900.83	4451
900.95	4565
901.069	4694
901.189	4573
901.308	4375
901.427	4303
901.546	4379
901.665	4474
901.784	4561
901.904	4390
902.023	4284
902.141	4192
902.26	4185
902.379	4303
902.498	4230
902.617	4196
902.735	4348
902.854	4379
902.973	4352
903.091	4166
903.21	4257
903.328	4295
903.446	4276
903.565	4276
903.683	4329
903.801	4249
903.919	4394
904.038	4451
904.156	4318
904.274	4466
904.392	4367
904.51	4428
904.627	4466
904.745	4584
904.863	4630
904.981	4413
905.098	4341
905.216	4398
905.334	4398
905.451	4421
905.569	4390
905.686	4577
905.803	4580
905.921	4383
906.038	4584
906.155	4470
906.272	4390
906.389	4462
906.506	4314
906.623	4402
906.74	4360
906.857	4344
906.974	4322
907.091	4607
907.208	4668
907.324	4599
907.441	4497
907.557	4367
907.674	4360
907.79	4322
907.907	4413
908.023	4497
908.139	4493
908.256	4440
908.372	4504
908.488	4417
908.604	4379
908.72	4356
908.836	4363
908.952	4329
909.068	4424
909.184	4558
909.3	4470
909.415	4618
909.531	4603
909.647	4322
909.762	4386
909.878	4367
909.993	4451
910.108	4390
910.224	4432
910.339	4459
910.454	4394
910.57	4363
910.685	4329
910.8	4653
910.915	4622
911.03	4485
911.145	4375
911.259	4325
911.374	4356
911.489	4295
911.604	4314
911.718	4128
911.833	4169
911.947	4105
912.062	4036
912.176	4257
912.291	4219
912.405	4204
912.519	4474
912.633	4523
912.748	4375
912.862	4314
912.976	4265
913.09	4078
913.204	4181
913.318	4249
913.431	4371
913.545	4371
913.659	4474
913.772	4367
913.886	4234
914	4230
914.113	4371
914.226	4466
914.34	4379
914.453	4223
914.566	4390
914.68	4276
914.793	4325
914.906	4150
915.019	4139
915.132	4112
915.245	4185
915.358	4204
915.47	4257
915.583	4272
915.696	4272
915.809	4417
915.921	4424
916.034	4261
916.146	4234
916.259	4223
916.371	4352
916.483	4333
916.595	4284
916.708	4318
916.82	4322
916.932	4280
917.044	4344
917.156	4299
917.268	4223
917.38	4333
917.491	4246
917.603	4337
917.715	4443
917.826	4447
917.938	4322
918.049	4246
918.161	4363
918.272	4550
918.384	4554
918.495	4443
918.606	4325
918.717	4253
918.828	4360
918.939	4386
919.05	4249
919.161	4329
919.272	4112
919.383	4211
919.494	4451
919.604	4664
919.715	4421
919.826	4348
919.936	4371
920.047	4508
920.157	4523
920.267	4656
920.378	4519
920.488	4546
920.598	4694
920.708	4866
920.818	4748
920.928	4759
921.038	4946
921.148	4915
921.258	4660
921.368	4565
921.477	4470
921.587	4462
921.697	4348
921.806	4535
921.916	4424
922.025	4284
922.134	4257
922.244	4192
922.353	4329
922.462	4204
922.571	4135
922.68	4051
922.789	3998
922.898	4051
923.007	4010
923.116	4086
923.224	4040
923.333	4082
923.442	3994
923.55	4029
923.659	4029
923.767	4025
923.876	3991
923.984	4109
924.092	4010
924.201	4021
924.309	4063
924.417	4166
924.525	4063
924.633	4101
924.741	5037
924.849	3892
924.956	4093
925.064	3964
925.172	3915
925.279	3934
925.387	4040
925.494	4021
925.602	4211
925.709	4207
925.816	4025
925.924	4097
926.031	4219
926.138	4124
926.245	4227
926.352	4036
926.459	4242
926.566	4284
926.673	4150
926.779	4063
926.886	4071
926.993	3964
927.099	3991
927.206	3918
927.312	3934
927.419	4090
927.525	4025
927.631	4082
927.737	3983
927.843	3972
927.95	3831
928.056	3960
928.162	4029
928.267	4025
928.373	4630
928.479	4090
928.585	3804
928.69	4032
928.796	4048
928.901	3941
929.007	3865
929.112	4010
929.218	3983
929.323	3949
929.428	3903
929.533	4154
929.638	3876
929.743	3964
929.848	4021
929.953	3979
930.058	3892
930.163	3781
930.267	3793
930.372	3987
930.477	3831
930.581	4051
930.685	3983
930.79	3800
930.894	3888
930.998	3850
931.103	4040
931.207	3728
931.311	3652
931.415	3667
931.519	3526
931.623	3595
