Data from test_V78500241_393.txt Node
Date: Fri Mar 25 16:51:44 CST 2022
User: usil
Spectrometer: V785-0024
Trigger mode: 0
Integration Time (sec): 4.000000E-1
Scans to average: 1
Nonlinearity correction enabled: false
Boxcar width: 0
Storing dark spectrum: false
XAxis mode: Wavelengths
Number of Pixels in Spectrum: 1024
>>>>>Begin Spectral Data<<<<<
801.071	8077
801.214	8142
801.356	7936
801.499	7940
801.641	7780
801.783	7830
801.926	8005
802.068	7974
802.211	7997
802.353	8039
802.496	7875
802.638	7970
802.78	7917
802.923	7951
803.065	7894
803.208	7921
803.35	7978
803.492	8107
803.635	8088
803.777	8043
803.919	8130
804.061	8495
804.204	8164
804.346	8077
804.488	7947
804.63	8092
804.773	7997
804.915	8084
805.057	8362
805.199	8206
805.341	8195
805.483	8286
805.626	8164
805.768	8035
805.91	8073
806.052	8180
806.194	8111
806.336	8290
806.478	8180
806.62	8157
806.762	8145
806.904	8252
807.046	8507
807.188	8355
807.33	8317
807.472	8366
807.614	8187
807.756	8187
807.898	8084
808.04	7909
808.182	7936
808.324	7989
808.465	7940
808.607	8065
808.749	8092
808.891	8256
809.033	8286
809.174	8183
809.316	8107
809.458	8153
809.6	7986
809.741	8001
809.883	8054
810.025	8111
810.166	8100
810.308	8126
810.45	8008
810.591	7864
810.733	7742
810.875	7632
811.016	7552
811.158	7559
811.299	7651
811.441	7818
811.582	7833
811.724	7609
811.865	7601
812.007	7655
812.148	7540
812.29	7696
812.431	7769
812.573	7947
812.714	8039
812.855	8199
812.997	8221
813.138	8343
813.279	8202
813.421	8138
813.562	8043
813.703	7890
813.845	7860
813.986	7499
814.127	7285
814.268	7320
814.41	7198
814.551	7164
814.692	7297
814.833	7156
814.974	7057
815.115	7168
815.256	6981
815.397	6909
815.539	6989
815.68	6829
815.821	6760
815.962	6897
816.103	6833
816.244	6757
816.385	6681
816.526	6719
816.666	6517
816.807	6323
816.948	6399
817.089	6532
817.23	6494
817.371	6399
817.512	6376
817.653	6479
817.793	6403
817.934	6376
818.075	6528
818.216	6407
818.356	6448
818.497	6213
818.638	6171
818.778	6197
818.919	6095
819.06	6159
819.2	6376
819.341	6365
819.481	6350
819.622	6566
819.762	6726
819.903	6673
820.043	6688
820.184	6582
820.324	6582
820.465	6722
820.605	6707
820.746	6665
820.886	6513
821.026	6688
821.167	6726
821.307	6859
821.447	6776
821.588	6681
821.728	6593
821.868	6555
822.008	6300
822.149	6403
822.289	6369
822.429	6167
822.569	6152
822.709	6087
822.849	5920
822.99	5916
823.13	5950
823.27	5954
823.41	5805
823.55	5767
823.69	5817
823.83	5802
823.97	5699
824.11	5570
824.25	5493
824.389	5581
824.529	5623
824.669	5524
824.809	5642
824.949	5691
825.089	5615
825.228	5558
825.368	5349
825.508	5372
825.648	5330
825.787	5376
825.927	5357
826.067	5307
826.206	5292
826.346	5376
826.485	5410
826.625	5467
826.765	5604
826.904	5520
827.044	5273
827.183	5197
827.323	5124
827.462	5254
827.601	5159
827.741	5166
827.88	5227
828.02	5117
828.159	5246
828.298	5315
828.437	5387
828.577	5250
828.716	5509
828.855	5379
828.994	5204
829.134	5147
829.273	5162
829.412	5102
829.551	5159
829.69	5185
829.829	5242
829.968	5353
830.107	5254
830.246	5288
830.385	5193
830.524	5159
830.663	5151
830.802	4991
830.941	4904
831.08	4911
831.219	4953
831.357	4972
831.496	5151
831.635	4927
831.774	4915
831.913	4831
832.051	4755
832.19	4702
832.329	4843
832.467	4725
832.606	4615
832.744	4797
832.883	4736
833.022	4694
833.16	4771
833.299	4847
833.437	4828
833.576	4847
833.714	4881
833.852	4847
833.991	4927
834.129	4938
834.267	4965
834.406	4938
834.544	4980
834.682	4972
834.821	4896
834.959	5151
835.097	5018
835.235	5090
835.373	5132
835.511	5121
835.65	5041
835.788	5022
835.926	4949
836.064	4908
836.202	4957
836.34	5193
836.478	5254
836.615	5117
836.753	5178
836.891	5277
837.029	5277
837.167	5162
837.305	5143
837.443	5151
837.58	5113
837.718	5239
837.856	5178
837.993	5140
838.131	5261
838.269	5235
838.406	5258
838.544	5273
838.681	5067
838.819	4980
838.956	4892
839.094	4919
839.231	4995
839.369	5117
839.506	5406
839.643	5288
839.781	5075
839.918	5037
840.055	5147
840.193	5105
840.33	5140
840.467	5159
840.604	5204
840.742	5433
840.879	5117
841.016	5117
841.153	5162
841.29	5391
841.427	5307
841.564	5341
841.701	5364
841.838	5303
841.975	5246
842.112	5269
842.249	5132
842.385	5094
842.522	5368
842.659	5166
842.796	5166
842.933	5235
843.069	5223
843.206	5162
843.343	5322
843.479	5227
843.616	5265
843.752	5014
843.889	4987
844.025	5201
844.162	4961
844.298	5212
844.435	5064
844.571	5056
844.708	5185
844.844	5307
844.98	5303
845.117	5307
845.253	5147
845.389	5083
845.525	5121
845.661	5159
845.798	5067
845.934	5117
846.07	5067
846.206	5208
846.342	5318
846.478	5212
846.614	5033
846.75	4984
846.886	4942
847.022	5159
847.158	5045
847.294	5113
847.429	5128
847.565	5060
847.701	5292
847.837	4881
847.972	4801
848.108	4957
848.244	4930
848.379	4805
848.515	4725
848.65	4759
848.786	4729
848.921	4763
849.057	4847
849.192	4896
849.328	4793
849.463	4831
849.598	4782
849.734	4755
849.869	4748
850.004	4679
850.14	4698
850.275	4611
850.41	4523
850.545	4554
850.68	4584
850.815	4622
850.95	4599
851.085	4881
851.22	4752
851.355	4683
851.49	4660
851.625	4611
851.76	4656
851.895	4550
852.03	4516
852.165	4634
852.299	4717
852.434	4801
852.569	4744
852.703	4786
852.838	4812
852.973	4949
853.107	4946
853.242	4793
853.376	4656
853.511	4542
853.645	4630
853.78	4824
853.914	4675
854.048	4664
854.183	4675
854.317	4759
854.451	4858
854.585	4706
854.72	4691
854.854	4767
854.988	4626
855.122	4618
855.256	4497
855.39	4679
855.524	4805
855.658	4733
855.792	4714
855.926	4733
856.06	4759
856.194	4793
856.327	4706
856.461	4603
856.595	4588
856.729	4672
856.862	4725
856.996	4687
857.13	4767
857.263	4725
857.397	4786
857.53	4698
857.664	4736
857.797	4824
857.931	4790
858.064	4675
858.197	4721
858.331	4683
858.464	4675
858.597	4531
858.731	4645
858.864	4645
858.997	4611
859.13	4649
859.263	4698
859.396	4702
859.529	4577
859.662	4523
859.795	4523
859.928	4679
860.061	4801
860.194	4793
860.327	4660
860.46	4630
860.592	4672
860.725	4740
860.858	4736
860.99	4599
861.123	4535
861.256	4531
861.388	4634
861.521	5318
861.653	4497
861.786	4417
861.918	4474
862.05	4531
862.183	4527
862.315	4573
862.447	4645
862.58	4535
862.712	4436
862.844	4291
862.976	4474
863.108	4466
863.24	4778
863.372	4314
863.504	4371
863.636	4375
863.768	4489
863.9	4478
864.032	4402
864.164	4436
864.296	4519
864.428	4527
864.559	4565
864.691	4519
864.823	4558
864.954	4481
865.086	4542
865.217	4493
865.349	4462
865.48	4447
865.612	4497
865.743	4634
865.875	4466
866.006	4447
866.137	4489
866.269	4417
866.4	4455
866.531	4383
866.662	4447
866.793	4390
866.924	4489
867.055	4512
867.186	4497
867.317	4390
867.448	4383
867.579	4455
867.71	4375
867.841	4379
867.972	4485
868.103	4497
868.233	4432
868.364	4440
868.495	4504
868.625	4656
868.756	4744
868.886	4577
869.017	4599
869.147	4771
869.278	4801
869.408	4675
869.539	4626
869.669	4733
869.799	4698
869.929	4786
870.06	4714
870.19	4915
870.32	4961
870.45	4942
870.58	5010
870.71	5109
870.84	5094
870.97	4938
871.1	4923
871.23	5162
871.36	5090
871.489	5064
871.619	5117
871.749	5090
871.879	5109
872.008	5143
872.138	5071
872.267	4987
872.397	4873
872.526	4797
872.656	4729
872.785	4793
872.915	4908
873.044	5045
873.173	4900
873.303	4965
873.432	4980
873.561	4961
873.69	4915
873.819	4866
873.948	4892
874.077	4828
874.206	4790
874.335	4778
874.464	4976
874.593	5067
874.722	4991
874.851	5136
874.979	5045
875.108	4999
875.237	4908
875.365	4870
875.494	4911
875.623	4991
875.751	4850
875.88	4862
876.008	4965
876.136	5003
876.265	5220
876.393	5345
876.521	5269
876.65	5201
876.778	5185
876.906	5067
877.034	5022
877.162	5025
877.29	4984
877.418	5079
877.546	5079
877.674	5022
877.802	5052
877.93	5033
878.058	4953
878.185	4911
878.313	4961
878.441	4957
878.568	4835
878.696	4938
878.824	4987
878.951	4923
879.079	5098
879.206	5322
879.333	5109
879.461	5060
879.588	5025
879.715	5117
879.842	5246
879.97	4968
880.097	4782
880.224	4767
880.351	4877
880.478	4831
880.605	4786
880.732	4801
880.859	5121
880.986	4889
881.112	4923
881.239	4782
881.366	4660
881.493	4577
881.619	4637
881.746	4710
881.872	4653
881.999	4656
882.125	4752
882.252	4759
882.378	4828
882.505	4938
882.631	4771
882.757	4698
882.883	4729
883.01	4778
883.136	4714
883.262	4634
883.388	4668
883.514	4847
883.64	4877
883.766	4812
883.892	4660
884.018	4748
884.143	4938
884.269	4995
884.395	4721
884.52	4615
884.646	4691
884.772	4584
884.897	4603
885.023	4660
885.148	4831
885.274	4904
885.399	4809
885.524	4714
885.65	4660
885.775	4782
885.9	4675
886.025	4904
886.15	4759
886.275	4729
886.4	4656
886.525	4729
886.65	4733
886.775	4694
886.9	4889
887.025	5067
887.149	4816
887.274	4653
887.399	4637
887.523	4565
887.648	4611
887.773	4645
887.897	4782
888.021	4790
888.146	4656
888.27	4812
888.395	4889
888.519	4801
888.643	4835
888.767	4862
888.891	4702
889.015	4588
889.139	4599
889.263	4618
889.387	4790
889.511	4889
889.635	4816
889.759	4649
889.883	4668
890.006	4710
890.13	4881
890.254	4588
890.377	4668
890.501	4558
890.624	4558
890.748	4664
890.871	4508
890.995	4413
891.118	4409
891.241	4466
891.364	4550
891.488	4649
891.611	4550
891.734	4542
891.857	4535
891.98	4554
892.103	4649
892.226	4588
892.349	4577
892.471	4470
892.594	4554
892.717	4569
892.839	4546
892.962	4599
893.085	4702
893.207	4607
893.33	4489
893.452	4550
893.575	4668
893.697	4588
893.819	4771
893.941	4847
894.064	4729
894.186	4573
894.308	4558
894.43	4759
894.552	4786
894.674	4793
894.796	4554
894.918	4645
895.04	4634
895.161	4668
895.283	4679
895.405	4592
895.526	4630
895.648	4675
895.769	4691
895.891	4736
896.012	4755
896.134	4679
896.255	4675
896.376	4630
896.498	4641
896.619	4664
896.74	4637
896.861	4653
896.982	4862
897.103	5052
897.224	4873
897.345	4755
897.466	4679
897.587	4691
897.708	4870
897.828	4839
897.949	4683
898.07	4554
898.19	4668
898.311	4877
898.431	4679
898.552	4714
898.672	4805
898.792	4801
898.913	4771
899.033	4588
899.153	4531
899.273	4470
899.393	4519
899.513	4542
899.633	4527
899.753	4558
899.873	4527
899.993	4599
900.113	4558
900.232	4637
900.352	4554
900.472	4508
900.591	4394
900.711	4512
900.83	4417
900.95	4596
901.069	4675
901.189	4512
901.308	4348
901.427	4303
901.546	4398
901.665	4432
901.784	4531
901.904	4402
902.023	4291
902.141	4162
902.26	4162
902.379	4291
902.498	4249
902.617	4185
902.735	4383
902.854	4356
902.973	4356
903.091	4246
903.21	4230
903.328	4337
903.446	4261
903.565	4207
903.683	4375
903.801	4276
903.919	4409
904.038	4478
904.156	4360
904.274	4432
904.392	4383
904.51	4447
904.627	4466
904.745	4596
904.863	4656
904.981	4432
905.098	4314
905.216	4341
905.334	4459
905.451	4436
905.569	4421
905.686	4538
905.803	4584
905.921	4398
906.038	4512
906.155	4470
906.272	4371
906.389	4504
906.506	4367
906.623	4405
906.74	4386
906.857	4295
906.974	4344
907.091	4569
907.208	4717
907.324	4573
907.441	4489
907.557	4310
907.674	4322
907.79	4337
907.907	4394
908.023	4516
908.139	4478
908.256	4443
908.372	4478
908.488	4497
908.604	4375
908.72	4356
908.836	4440
908.952	4409
909.068	4428
909.184	4554
909.3	4489
909.415	4573
909.531	4535
909.647	4337
909.762	4371
909.878	4371
909.993	4455
910.108	4417
910.224	4440
910.339	4455
910.454	4409
910.57	4371
910.685	4318
910.8	4615
910.915	4618
911.03	4459
911.145	4287
911.259	4325
911.374	4394
911.489	4341
911.604	4257
911.718	4188
911.833	4223
911.947	4086
912.062	3991
912.176	4234
912.291	4238
912.405	4272
912.519	4493
912.633	4519
912.748	4413
912.862	4363
912.976	4207
913.09	4086
913.204	4196
913.318	4246
913.431	4402
913.545	4379
913.659	4466
913.772	4348
913.886	4246
914	4265
914.113	4367
914.226	4405
914.34	4417
914.453	4272
914.566	4398
914.68	4272
914.793	4329
914.906	4158
915.019	4112
915.132	4078
915.245	4188
915.358	4253
915.47	4227
915.583	4291
915.696	4265
915.809	4417
915.921	4417
916.034	4223
916.146	4268
916.259	4204
916.371	4348
916.483	4337
916.595	4284
916.708	4322
916.82	4318
916.932	4337
917.044	4341
917.156	4352
917.268	4261
917.38	4268
917.491	4291
917.603	4360
917.715	4440
917.826	4455
917.938	4295
918.049	4253
918.161	4402
918.272	4535
918.384	4538
918.495	4462
918.606	4287
918.717	4261
918.828	4352
918.939	4390
919.05	4306
919.161	4299
919.272	4116
919.383	4223
919.494	4478
919.604	4615
919.715	4462
919.826	4371
919.936	4371
920.047	4538
920.157	4489
920.267	4691
920.378	4565
920.488	4478
920.598	4736
920.708	4812
920.818	4759
920.928	4812
921.038	4968
921.148	4919
921.258	4615
921.368	4558
921.477	4504
921.587	4459
921.697	4424
921.806	4546
921.916	4481
922.025	4280
922.134	4238
922.244	4253
922.353	4295
922.462	4192
922.571	4162
922.68	4040
922.789	3979
922.898	4082
923.007	4025
923.116	4109
923.224	4082
923.333	4044
923.442	4006
923.55	3941
923.659	3983
923.767	4116
923.876	3994
923.984	4109
924.092	4025
924.201	4074
924.309	4082
924.417	4154
924.525	4051
924.633	4090
924.741	5060
924.849	3884
924.956	4135
925.064	3991
925.172	3892
925.279	3926
925.387	4055
925.494	4051
925.602	4242
925.709	4192
925.816	4055
925.924	4139
926.031	4230
926.138	4162
926.245	4223
926.352	4090
926.459	4276
926.566	4329
926.673	4143
926.779	4097
926.886	4082
926.993	4006
927.099	4002
927.206	3941
927.312	3956
927.419	4055
927.525	4006
927.631	4063
927.737	3968
927.843	3972
927.95	3857
928.056	3930
928.162	3968
928.267	4090
928.373	4706
928.479	4120
928.585	3899
928.69	3960
928.796	4112
928.901	3975
929.007	3854
929.112	4032
929.218	3960
929.323	3907
929.428	3960
929.533	4078
929.638	3915
929.743	3983
929.848	4017
929.953	3975
930.058	3960
930.163	3747
930.267	3827
930.372	3960
930.477	3842
930.581	4059
930.685	3956
930.79	3838
930.894	3854
930.998	3846
931.103	4051
931.207	3724
931.311	3690
931.415	3671
931.519	3511
931.623	3538
