Data from test_V78500241_2418.txt Node
Date: Fri Mar 25 17:05:48 CST 2022
User: usil
Spectrometer: V785-0024
Trigger mode: 0
Integration Time (sec): 4.000000E-1
Scans to average: 1
Nonlinearity correction enabled: false
Boxcar width: 0
Storing dark spectrum: false
XAxis mode: Wavelengths
Number of Pixels in Spectrum: 1024
>>>>>Begin Spectral Data<<<<<
801.071	8035
801.214	8001
801.356	7860
801.499	7887
801.641	7803
801.783	7799
801.926	8008
802.068	7951
802.211	8012
802.353	8012
802.496	7932
802.638	7909
802.78	7868
802.923	7978
803.065	7906
803.208	7890
803.35	7978
803.492	8096
803.635	8214
803.777	8039
803.919	8100
804.061	8473
804.204	8183
804.346	8039
804.488	8031
804.63	8115
804.773	8043
804.915	8130
805.057	8294
805.199	8115
805.341	8176
805.483	8294
805.626	8259
805.768	8187
805.91	8225
806.052	8172
806.194	8123
806.336	8328
806.478	8126
806.62	8046
806.762	8191
806.904	8309
807.046	8351
807.188	8305
807.33	8389
807.472	8324
807.614	8187
807.756	8145
807.898	8088
808.04	7947
808.182	7871
808.324	7925
808.465	7921
808.607	8050
808.749	8149
808.891	8237
809.033	8313
809.174	8244
809.316	8065
809.458	8100
809.6	8043
809.741	8077
809.883	7989
810.025	8062
810.166	8039
810.308	7955
810.45	8008
810.591	7830
810.733	7803
810.875	7727
811.016	7480
811.158	7449
811.299	7613
811.441	7696
811.582	7658
811.724	7647
811.865	7506
812.007	7708
812.148	7563
812.29	7582
812.431	7723
812.573	7909
812.714	7959
812.855	8130
812.997	8210
813.138	8358
813.279	8164
813.421	8062
813.562	8020
813.703	7868
813.845	7761
813.986	7449
814.127	7236
814.268	7232
814.41	7232
814.551	7179
814.692	7244
814.833	7088
814.974	7122
815.115	7118
815.256	6993
815.397	7000
815.539	7012
815.68	6779
815.821	6757
815.962	6878
816.103	6806
816.244	6741
816.385	6692
816.526	6570
816.666	6502
816.807	6369
816.948	6479
817.089	6426
817.23	6506
817.371	6452
817.512	6357
817.653	6418
817.793	6407
817.934	6399
818.075	6445
818.216	6452
818.356	6448
818.497	6304
818.638	6182
818.778	6175
818.919	6152
819.06	6171
819.2	6361
819.341	6376
819.481	6399
819.622	6574
819.762	6791
819.903	6692
820.043	6642
820.184	6566
820.324	6612
820.465	6658
820.605	6715
820.746	6726
820.886	6479
821.026	6665
821.167	6707
821.307	6844
821.447	6882
821.588	6665
821.728	6604
821.868	6532
822.008	6334
822.149	6422
822.289	6388
822.429	6140
822.569	6144
822.709	6114
822.849	5916
822.99	6015
823.13	5946
823.27	5969
823.41	5832
823.55	5809
823.69	5771
823.83	5760
823.97	5688
824.11	5509
824.25	5551
824.389	5570
824.529	5619
824.669	5539
824.809	5661
824.949	5699
825.089	5585
825.228	5570
825.368	5436
825.508	5398
825.648	5345
825.787	5433
825.927	5341
826.067	5311
826.206	5307
826.346	5353
826.485	5463
826.625	5417
826.765	5554
826.904	5505
827.044	5273
827.183	5151
827.323	5181
827.462	5277
827.601	5159
827.741	5208
827.88	5136
828.02	5094
828.159	5254
828.298	5265
828.437	5425
828.577	5318
828.716	5478
828.855	5322
828.994	5181
829.134	5128
829.273	5189
829.412	5147
829.551	5204
829.69	5162
829.829	5181
829.968	5406
830.107	5273
830.246	5299
830.385	5151
830.524	5181
830.663	5071
830.802	5045
830.941	4904
831.08	4873
831.219	4980
831.357	4915
831.496	5204
831.635	4968
831.774	4858
831.913	4889
832.051	4774
832.19	4744
832.329	4877
832.467	4710
832.606	4660
832.744	4729
832.883	4744
833.022	4755
833.16	4793
833.299	4797
833.437	4835
833.576	4831
833.714	4900
833.852	4961
833.991	4866
834.129	4927
834.267	4976
834.406	4972
834.544	5018
834.682	4984
834.821	4999
834.959	5174
835.097	5010
835.235	5181
835.373	5105
835.511	5105
835.65	5022
835.788	5071
835.926	4908
836.064	4854
836.202	4927
836.34	5124
836.478	5235
836.615	5121
836.753	5227
836.891	5277
837.029	5254
837.167	5193
837.305	5132
837.443	5193
837.58	5102
837.718	5246
837.856	5193
837.993	5166
838.131	5181
838.269	5258
838.406	5204
838.544	5220
838.681	5037
838.819	5014
838.956	4870
839.094	4877
839.231	5010
839.369	5090
839.506	5364
839.643	5292
839.781	5128
839.918	5018
840.055	5075
840.193	5121
840.33	5090
840.467	5155
840.604	5136
840.742	5474
840.879	5086
841.016	5090
841.153	5151
841.29	5395
841.427	5254
841.564	5311
841.701	5398
841.838	5277
841.975	5246
842.112	5250
842.249	5159
842.385	5109
842.522	5326
842.659	5178
842.796	5140
842.933	5174
843.069	5178
843.206	5136
843.343	5322
843.479	5201
843.616	5261
843.752	5045
843.889	5025
844.025	5181
844.162	4999
844.298	5193
844.435	5109
844.571	5037
844.708	5193
844.844	5242
844.98	5398
845.117	5292
845.253	5151
845.389	5052
845.525	5212
845.661	5178
845.798	4961
845.934	5147
846.07	5079
846.206	5174
846.342	5280
846.478	5189
846.614	5033
846.75	4968
846.886	4995
847.022	5159
847.158	5022
847.294	5109
847.429	5090
847.565	5071
847.701	5303
847.837	4847
847.972	4793
848.108	4942
848.244	4949
848.379	4793
848.515	4691
848.65	4733
848.786	4755
848.921	4771
849.057	4919
849.192	4938
849.328	4816
849.463	4839
849.598	4748
849.734	4729
849.869	4687
850.004	4672
850.14	4634
850.275	4599
850.41	4481
850.545	4565
850.68	4611
850.815	4626
850.95	4656
851.085	4812
851.22	4759
851.355	4714
851.49	4645
851.625	4641
851.76	4656
851.895	4535
852.03	4527
852.165	4637
852.299	4763
852.434	4782
852.569	4729
852.703	4824
852.838	4866
852.973	4904
853.107	4904
853.242	4706
853.376	4675
853.511	4554
853.645	4634
853.78	4778
853.914	4721
854.048	4637
854.183	4615
854.317	4710
854.451	4835
854.585	4698
854.72	4664
854.854	4748
854.988	4607
855.122	4653
855.256	4516
855.39	4691
855.524	4752
855.658	4721
855.792	4710
855.926	4763
856.06	4748
856.194	4771
856.327	4683
856.461	4580
856.595	4588
856.729	4687
856.862	4774
856.996	4664
857.13	4801
857.263	4782
857.397	4839
857.53	4653
857.664	4744
857.797	4801
857.931	4736
858.064	4698
858.197	4748
858.331	4706
858.464	4588
858.597	4523
858.731	4641
858.864	4622
858.997	4580
859.13	4679
859.263	4656
859.396	4733
859.529	4577
859.662	4538
859.795	4542
859.928	4603
860.061	4778
860.194	4748
860.327	4626
860.46	4592
860.592	4744
860.725	4744
860.858	4717
860.99	4550
861.123	4523
861.256	4531
861.388	4649
861.521	5315
861.653	4428
861.786	4455
861.918	4478
862.05	4554
862.183	4542
862.315	4645
862.447	4622
862.58	4531
862.712	4390
862.844	4386
862.976	4508
863.108	4481
863.24	4752
863.372	4314
863.504	4424
863.636	4375
863.768	4470
863.9	4443
864.032	4363
864.164	4394
864.296	4451
864.428	4542
864.559	4558
864.691	4489
864.823	4538
864.954	4504
865.086	4500
865.217	4432
865.349	4413
865.48	4447
865.612	4489
865.743	4607
865.875	4455
866.006	4440
866.137	4455
866.269	4409
866.4	4436
866.531	4474
866.662	4386
866.793	4432
866.924	4386
867.055	4504
867.186	4459
867.317	4436
867.448	4352
867.579	4352
867.71	4402
867.841	4348
867.972	4466
868.103	4474
868.233	4459
868.364	4432
868.495	4485
868.625	4694
868.756	4755
868.886	4531
869.017	4656
869.147	4736
869.278	4812
869.408	4637
869.539	4694
869.669	4744
869.799	4664
869.929	4786
870.06	4797
870.19	4911
870.32	4873
870.45	4934
870.58	4995
870.71	5098
870.84	5041
870.97	4934
871.1	4889
871.23	5166
871.36	5113
871.489	5014
871.619	5018
871.749	5064
871.879	5181
872.008	5231
872.138	5052
872.267	5025
872.397	4828
872.526	4797
872.656	4729
872.785	4763
872.915	4911
873.044	5048
873.173	4968
873.303	4980
873.432	4968
873.561	4976
873.69	4976
873.819	4870
873.948	4915
874.077	4828
874.206	4759
874.335	4839
874.464	4942
874.593	5098
874.722	5006
874.851	5041
874.979	5052
875.108	5003
875.237	4911
875.365	4850
875.494	4892
875.623	5003
875.751	4824
875.88	4900
876.008	4972
876.136	5056
876.265	5220
876.393	5364
876.521	5258
876.65	5208
876.778	5162
876.906	5033
877.034	5003
877.162	5064
877.29	4984
877.418	5029
877.546	5056
877.674	5064
877.802	5075
877.93	5010
878.058	4965
878.185	4923
878.313	4930
878.441	4987
878.568	4797
878.696	4854
878.824	4961
878.951	5010
879.079	5109
879.206	5318
879.333	5102
879.461	4957
879.588	4984
879.715	5098
879.842	5227
879.97	5033
880.097	4774
880.224	4740
880.351	4828
880.478	4820
880.605	4831
880.732	4793
880.859	5128
880.986	4854
881.112	4881
881.239	4774
881.366	4660
881.493	4622
881.619	4561
881.746	4645
881.872	4626
881.999	4637
882.125	4698
882.252	4809
882.378	4801
882.505	4976
882.631	4831
882.757	4641
882.883	4702
883.01	4714
883.136	4668
883.262	4615
883.388	4626
883.514	4828
883.64	4881
883.766	4797
883.892	4653
884.018	4717
884.143	4896
884.269	5003
884.395	4725
884.52	4626
884.646	4675
884.772	4592
884.897	4565
885.023	4675
885.148	4763
885.274	4866
885.399	4831
885.524	4687
885.65	4706
885.775	4767
885.9	4744
886.025	4870
886.15	4790
886.275	4729
886.4	4679
886.525	4767
886.65	4679
886.775	4687
886.9	4885
887.025	4984
887.149	4793
887.274	4672
887.399	4592
887.523	4607
887.648	4569
887.773	4611
887.897	4790
888.021	4793
888.146	4675
888.27	4782
888.395	4900
888.519	4790
888.643	4748
888.767	4843
888.891	4694
889.015	4569
889.139	4664
889.263	4615
889.387	4763
889.511	4942
889.635	4774
889.759	4641
889.883	4649
890.006	4683
890.13	4797
890.254	4630
890.377	4683
890.501	4546
890.624	4558
890.748	4660
890.871	4516
890.995	4394
891.118	4375
891.241	4489
891.364	4542
891.488	4603
891.611	4508
891.734	4546
891.857	4615
891.98	4573
892.103	4675
892.226	4588
892.349	4497
892.471	4432
892.594	4538
892.717	4672
892.839	4615
892.962	4630
893.085	4599
893.207	4611
893.33	4489
893.452	4558
893.575	4645
893.697	4538
893.819	4763
893.941	4843
894.064	4782
894.186	4577
894.308	4622
894.43	4774
894.552	4809
894.674	4809
894.796	4516
894.918	4607
895.04	4554
895.161	4702
895.283	4634
895.405	4554
895.526	4660
895.648	4687
895.769	4710
895.891	4714
896.012	4694
896.134	4729
896.255	4687
896.376	4618
896.498	4622
896.619	4649
896.74	4611
896.861	4622
896.982	4930
897.103	5102
897.224	4881
897.345	4763
897.466	4653
897.587	4744
897.708	4885
897.828	4816
897.949	4702
898.07	4569
898.19	4626
898.311	4862
898.431	4687
898.552	4694
898.672	4866
898.792	4831
898.913	4733
899.033	4607
899.153	4546
899.273	4428
899.393	4519
899.513	4531
899.633	4546
899.753	4546
899.873	4550
899.993	4546
900.113	4542
900.232	4558
900.352	4523
900.472	4489
900.591	4409
900.711	4489
900.83	4428
900.95	4603
901.069	4694
901.189	4580
901.308	4390
901.427	4299
901.546	4375
901.665	4436
901.784	4538
901.904	4405
902.023	4329
902.141	4192
902.26	4181
902.379	4291
902.498	4280
902.617	4238
902.735	4402
902.854	4363
902.973	4363
903.091	4211
903.21	4211
903.328	4318
903.446	4261
903.565	4261
903.683	4367
903.801	4310
903.919	4398
904.038	4459
904.156	4310
904.274	4428
904.392	4352
904.51	4405
904.627	4462
904.745	4546
904.863	4660
904.981	4402
905.098	4284
905.216	4386
905.334	4413
905.451	4428
905.569	4417
905.686	4542
905.803	4523
905.921	4356
906.038	4573
906.155	4481
906.272	4417
906.389	4489
906.506	4318
906.623	4318
906.74	4386
906.857	4322
906.974	4383
907.091	4531
907.208	4687
907.324	4577
907.441	4504
907.557	4337
907.674	4344
907.79	4325
907.907	4413
908.023	4493
908.139	4402
908.256	4413
908.372	4485
908.488	4424
908.604	4405
908.72	4352
908.836	4371
908.952	4371
909.068	4417
909.184	4580
909.3	4485
909.415	4599
909.531	4573
909.647	4398
909.762	4371
909.878	4356
909.993	4489
910.108	4417
910.224	4421
910.339	4470
910.454	4409
910.57	4306
910.685	4257
910.8	4615
910.915	4618
911.03	4523
911.145	4348
911.259	4318
911.374	4348
911.489	4318
911.604	4360
911.718	4150
911.833	4192
911.947	4036
912.062	4029
912.176	4173
912.291	4238
912.405	4268
912.519	4485
912.633	4466
912.748	4337
912.862	4299
912.976	4211
913.09	4112
913.204	4227
913.318	4257
913.431	4341
913.545	4337
913.659	4470
913.772	4314
913.886	4253
914	4196
914.113	4344
914.226	4466
914.34	4428
914.453	4261
914.566	4440
914.68	4295
914.793	4329
914.906	4131
915.019	4143
915.132	4105
915.245	4207
915.358	4188
915.47	4249
915.583	4276
915.696	4303
915.809	4390
915.921	4421
916.034	4268
916.146	4242
916.259	4287
916.371	4432
916.483	4341
916.595	4265
916.708	4318
916.82	4341
916.932	4375
917.044	4352
917.156	4325
917.268	4230
917.38	4227
917.491	4261
917.603	4348
917.715	4440
917.826	4474
917.938	4363
918.049	4261
918.161	4428
918.272	4523
918.384	4523
918.495	4447
918.606	4287
918.717	4246
918.828	4352
918.939	4413
919.05	4306
919.161	4337
919.272	4139
919.383	4219
919.494	4451
919.604	4615
919.715	4455
919.826	4337
919.936	4428
920.047	4550
920.157	4493
920.267	4721
920.378	4504
920.488	4500
920.598	4744
920.708	4866
920.818	4740
920.928	4828
921.038	5041
921.148	4957
921.258	4672
921.368	4577
921.477	4489
921.587	4516
921.697	4413
921.806	4546
921.916	4474
922.025	4276
922.134	4261
922.244	4314
922.353	4310
922.462	4181
922.571	4135
922.68	3998
922.789	4017
922.898	4071
923.007	4013
923.116	4097
923.224	4128
923.333	4078
923.442	3998
923.55	4040
923.659	4078
923.767	4139
923.876	4048
923.984	4158
924.092	3998
924.201	4101
924.309	4109
924.417	4139
924.525	4097
924.633	4128
924.741	5060
924.849	3922
924.956	4166
925.064	4025
925.172	3949
925.279	3994
925.387	4093
925.494	4101
925.602	4215
925.709	4204
925.816	4116
925.924	4177
926.031	4242
926.138	4181
926.245	4223
926.352	4131
926.459	4276
926.566	4276
926.673	4177
926.779	4109
926.886	4120
926.993	4044
927.099	3998
927.206	3983
927.312	3972
927.419	4109
927.525	4067
927.631	4139
927.737	4010
927.843	3991
927.95	3884
928.056	4002
928.162	4002
928.267	4090
928.373	4702
928.479	4120
928.585	3915
928.69	4074
928.796	4116
928.901	3991
929.007	3892
929.112	4032
929.218	4017
929.323	4013
929.428	4010
929.533	4143
929.638	3945
929.743	3983
929.848	4071
929.953	4025
930.058	3949
930.163	3816
930.267	3846
930.372	4006
930.477	3835
930.581	4086
930.685	3945
930.79	3869
930.894	3892
930.998	3838
931.103	4044
931.207	3694
931.311	3720
931.415	3690
931.519	3545
931.623	3576
