Data from test_V78500241_678.txt Node
Date: Fri Mar 25 16:53:42 CST 2022
User: usil
Spectrometer: V785-0024
Trigger mode: 0
Integration Time (sec): 4.000000E-1
Scans to average: 1
Nonlinearity correction enabled: false
Boxcar width: 0
Storing dark spectrum: false
XAxis mode: Wavelengths
Number of Pixels in Spectrum: 1024
>>>>>Begin Spectral Data<<<<<
801.071	7970
801.214	8027
801.356	7921
801.499	7841
801.641	7727
801.783	7833
801.926	8001
802.068	7963
802.211	8001
802.353	7944
802.496	7868
802.638	7986
802.78	7940
802.923	7909
803.065	7830
803.208	7833
803.35	8001
803.492	8065
803.635	8092
803.777	7993
803.919	8107
804.061	8400
804.204	8069
804.346	8005
804.488	7982
804.63	8020
804.773	7986
804.915	8073
805.057	8263
805.199	8092
805.341	8218
805.483	8275
805.626	8202
805.768	8123
805.91	8187
806.052	8161
806.194	8069
806.336	8317
806.478	8043
806.62	8115
806.762	8130
806.904	8275
807.046	8469
807.188	8301
807.33	8298
807.472	8355
807.614	8157
807.756	8149
807.898	7959
808.04	7769
808.182	7902
808.324	7913
808.465	7887
808.607	8016
808.749	8065
808.891	8225
809.033	8355
809.174	8172
809.316	8084
809.458	8001
809.6	7978
809.741	7997
809.883	8065
810.025	8065
810.166	8084
810.308	8001
810.45	7959
810.591	7913
810.733	7784
810.875	7639
811.016	7457
811.158	7510
811.299	7636
811.441	7734
811.582	7681
811.724	7571
811.865	7514
812.007	7521
812.148	7506
812.29	7628
812.431	7689
812.573	7845
812.714	7936
812.855	8100
812.997	8183
813.138	8351
813.279	8157
813.421	8164
813.562	8058
813.703	7849
813.845	7788
813.986	7426
814.127	7282
814.268	7282
814.41	7251
814.551	7160
814.692	7091
814.833	7061
814.974	7065
815.115	7095
815.256	6973
815.397	6951
815.539	6958
815.68	6795
815.821	6798
815.962	6848
816.103	6821
816.244	6711
816.385	6574
816.526	6601
816.666	6498
816.807	6308
816.948	6429
817.089	6464
817.23	6445
817.371	6380
817.512	6365
817.653	6418
817.793	6388
817.934	6414
818.075	6479
818.216	6448
818.356	6391
818.497	6186
818.638	6114
818.778	6083
818.919	6087
819.06	6110
819.2	6292
819.341	6296
819.481	6388
819.622	6456
819.762	6711
819.903	6703
820.043	6551
820.184	6536
820.324	6544
820.465	6703
820.605	6616
820.746	6566
820.886	6445
821.026	6627
821.167	6703
821.307	6757
821.447	6768
821.588	6635
821.728	6517
821.868	6433
822.008	6327
822.149	6342
822.289	6338
822.429	6182
822.569	6026
822.709	6091
822.849	5916
822.99	5885
823.13	5977
823.27	5946
823.41	5771
823.55	5764
823.69	5752
823.83	5805
823.97	5592
824.11	5558
824.25	5535
824.389	5524
824.529	5585
824.669	5501
824.809	5615
824.949	5649
825.089	5638
825.228	5558
825.368	5372
825.508	5379
825.648	5318
825.787	5433
825.927	5364
826.067	5258
826.206	5318
826.346	5425
826.485	5398
826.625	5414
826.765	5512
826.904	5459
827.044	5197
827.183	5193
827.323	5155
827.462	5204
827.601	5216
827.741	5128
827.88	5235
828.02	5121
828.159	5216
828.298	5273
828.437	5425
828.577	5277
828.716	5501
828.855	5296
828.994	5162
829.134	5185
829.273	5189
829.412	5128
829.551	5098
829.69	5124
829.829	5242
829.968	5318
830.107	5261
830.246	5246
830.385	5197
830.524	5147
830.663	5086
830.802	4987
830.941	4881
831.08	4885
831.219	4980
831.357	4984
831.496	5128
831.635	4930
831.774	4862
831.913	4828
832.051	4698
832.19	4786
832.329	4816
832.467	4714
832.606	4637
832.744	4691
832.883	4668
833.022	4679
833.16	4797
833.299	4839
833.437	4778
833.576	4824
833.714	4774
833.852	4889
833.991	4919
834.129	4934
834.267	4972
834.406	4873
834.544	4915
834.682	5010
834.821	4972
834.959	5189
835.097	4980
835.235	5162
835.373	5079
835.511	5105
835.65	5060
835.788	5033
835.926	4873
836.064	4854
836.202	4900
836.34	5121
836.478	5246
836.615	5064
836.753	5174
836.891	5250
837.029	5250
837.167	5140
837.305	5117
837.443	5155
837.58	5083
837.718	5231
837.856	5201
837.993	5094
838.131	5223
838.269	5155
838.406	5212
838.544	5185
838.681	4995
838.819	5003
838.956	4885
839.094	4892
839.231	4957
839.369	5151
839.506	5406
839.643	5220
839.781	5014
839.918	5067
840.055	5094
840.193	5067
840.33	5121
840.467	5109
840.604	5216
840.742	5455
840.879	5109
841.016	5079
841.153	5113
841.29	5372
841.427	5326
841.564	5269
841.701	5379
841.838	5265
841.975	5189
842.112	5246
842.249	5140
842.385	5124
842.522	5311
842.659	5143
842.796	5140
842.933	5204
843.069	5140
843.206	5189
843.343	5258
843.479	5201
843.616	5201
843.752	5014
843.889	5006
844.025	5212
844.162	5029
844.298	5201
844.435	5056
844.571	5064
844.708	5212
844.844	5258
844.98	5311
845.117	5235
845.253	5155
845.389	5071
845.525	5151
845.661	5132
845.798	4999
845.934	5181
846.07	5071
846.206	5185
846.342	5254
846.478	5189
846.614	4980
846.75	4923
846.886	4915
847.022	5147
847.158	5033
847.294	5037
847.429	5090
847.565	5041
847.701	5292
847.837	4820
847.972	4824
848.108	4965
848.244	4908
848.379	4733
848.515	4706
848.65	4729
848.786	4660
848.921	4759
849.057	4816
849.192	4892
849.328	4797
849.463	4828
849.598	4812
849.734	4721
849.869	4687
850.004	4641
850.14	4626
850.275	4554
850.41	4516
850.545	4546
850.68	4565
850.815	4668
850.95	4618
851.085	4866
851.22	4740
851.355	4592
851.49	4599
851.625	4592
851.76	4592
851.895	4558
852.03	4519
852.165	4630
852.299	4736
852.434	4778
852.569	4725
852.703	4786
852.838	4801
852.973	4915
853.107	4900
853.242	4736
853.376	4679
853.511	4523
853.645	4577
853.78	4805
853.914	4706
854.048	4660
854.183	4691
854.317	4679
854.451	4870
854.585	4664
854.72	4622
854.854	4771
854.988	4565
855.122	4653
855.256	4569
855.39	4645
855.524	4805
855.658	4717
855.792	4717
855.926	4717
856.06	4782
856.194	4752
856.327	4748
856.461	4653
856.595	4607
856.729	4687
856.862	4801
856.996	4725
857.13	4752
857.263	4828
857.397	4820
857.53	4702
857.664	4740
857.797	4771
857.931	4805
858.064	4733
858.197	4805
858.331	4691
858.464	4641
858.597	4607
858.731	4687
858.864	4687
858.997	4599
859.13	4691
859.263	4733
859.396	4748
859.529	4656
859.662	4573
859.795	4561
859.928	4679
860.061	4835
860.194	4839
860.327	4698
860.46	4630
860.592	4710
860.725	4782
860.858	4759
860.99	4649
861.123	4531
861.256	4584
861.388	4649
861.521	5254
861.653	4504
861.786	4462
861.918	4523
862.05	4558
862.183	4592
862.315	4641
862.447	4706
862.58	4615
862.712	4489
862.844	4371
862.976	4504
863.108	4470
863.24	4877
863.372	4367
863.504	4478
863.636	4421
863.768	4527
863.9	4451
864.032	4390
864.164	4432
864.296	4493
864.428	4561
864.559	4607
864.691	4527
864.823	4554
864.954	4546
865.086	4558
865.217	4459
865.349	4405
865.48	4466
865.612	4535
865.743	4645
865.875	4489
866.006	4500
866.137	4527
866.269	4462
866.4	4478
866.531	4459
866.662	4459
866.793	4451
866.924	4443
867.055	4481
867.186	4478
867.317	4459
867.448	4428
867.579	4428
867.71	4409
867.841	4409
867.972	4504
868.103	4481
868.233	4462
868.364	4478
868.495	4535
868.625	4656
868.756	4752
868.886	4588
869.017	4584
869.147	4790
869.278	4778
869.408	4691
869.539	4660
869.669	4748
869.799	4721
869.929	4748
870.06	4706
870.19	4946
870.32	4915
870.45	5003
870.58	5083
870.71	5079
870.84	5124
870.97	4965
871.1	4957
871.23	5155
871.36	5181
871.489	5045
871.619	5102
871.749	5155
871.879	5223
872.008	5166
872.138	5090
872.267	5010
872.397	4892
872.526	4858
872.656	4714
872.785	4790
872.915	4934
873.044	5014
873.173	4965
873.303	5064
873.432	4987
873.561	4968
873.69	4930
873.819	4881
873.948	4980
874.077	4824
874.206	4733
874.335	4839
874.464	4904
874.593	5060
874.722	5003
874.851	5170
874.979	5048
875.108	5052
875.237	4911
875.365	4896
875.494	4908
875.623	4968
875.751	4873
875.88	4896
876.008	4946
876.136	5025
876.265	5223
876.393	5341
876.521	5280
876.65	5261
876.778	5208
876.906	5079
877.034	5037
877.162	5083
877.29	5090
877.418	5102
877.546	5064
877.674	5067
877.802	5071
877.93	4991
878.058	5006
878.185	4927
878.313	4995
878.441	4976
878.568	4858
878.696	4930
878.824	5029
878.951	5067
879.079	5136
879.206	5242
879.333	5086
879.461	4953
879.588	5045
879.715	5159
879.842	5261
879.97	5067
880.097	4786
880.224	4778
880.351	4835
880.478	4858
880.605	4835
880.732	4759
880.859	5094
880.986	4908
881.112	4949
881.239	4831
881.366	4683
881.493	4645
881.619	4672
881.746	4630
881.872	4755
881.999	4687
882.125	4755
882.252	4858
882.378	4824
882.505	5006
882.631	4816
882.757	4714
882.883	4763
883.01	4782
883.136	4675
883.262	4645
883.388	4626
883.514	4824
883.64	4889
883.766	4831
883.892	4721
884.018	4710
884.143	4968
884.269	5025
884.395	4710
884.52	4607
884.646	4649
884.772	4592
884.897	4622
885.023	4714
885.148	4835
885.274	4923
885.399	4763
885.524	4736
885.65	4744
885.775	4809
885.9	4774
886.025	4892
886.15	4797
886.275	4774
886.4	4721
886.525	4771
886.65	4714
886.775	4729
886.9	4938
887.025	5090
887.149	4873
887.274	4603
887.399	4580
887.523	4626
887.648	4592
887.773	4645
887.897	4774
888.021	4835
888.146	4702
888.27	4824
888.395	4923
888.519	4812
888.643	4858
888.767	4809
888.891	4691
889.015	4706
889.139	4710
889.263	4656
889.387	4793
889.511	4870
889.635	4774
889.759	4714
889.883	4691
890.006	4771
890.13	4839
890.254	4649
890.377	4698
890.501	4500
890.624	4554
890.748	4649
890.871	4580
890.995	4443
891.118	4383
891.241	4550
891.364	4554
891.488	4622
891.611	4558
891.734	4573
891.857	4645
891.98	4611
892.103	4615
892.226	4573
892.349	4577
892.471	4440
892.594	4607
892.717	4675
892.839	4573
892.962	4626
893.085	4679
893.207	4660
893.33	4459
893.452	4489
893.575	4637
893.697	4630
893.819	4790
893.941	4854
894.064	4744
894.186	4580
894.308	4637
894.43	4710
894.552	4828
894.674	4812
894.796	4580
894.918	4596
895.04	4561
895.161	4771
895.283	4687
895.405	4599
895.526	4656
895.648	4637
895.769	4675
895.891	4774
896.012	4790
896.134	4748
896.255	4725
896.376	4679
896.498	4611
896.619	4717
896.74	4630
896.861	4679
896.982	4915
897.103	5086
897.224	4835
897.345	4759
897.466	4698
897.587	4729
897.708	4858
897.828	4759
897.949	4702
898.07	4580
898.19	4664
898.311	4839
898.431	4774
898.552	4729
898.672	4843
898.792	4801
898.913	4793
899.033	4698
899.153	4535
899.273	4451
899.393	4500
899.513	4584
899.633	4538
899.753	4504
899.873	4512
899.993	4618
900.113	4542
900.232	4603
900.352	4577
900.472	4478
900.591	4451
900.711	4478
900.83	4497
900.95	4615
901.069	4660
901.189	4573
901.308	4360
901.427	4344
901.546	4428
901.665	4508
901.784	4538
901.904	4383
902.023	4344
902.141	4215
902.26	4204
902.379	4310
902.498	4215
902.617	4268
902.735	4371
902.854	4417
902.973	4348
903.091	4261
903.21	4227
903.328	4291
903.446	4367
903.565	4314
903.683	4356
903.801	4295
903.919	4386
904.038	4405
904.156	4333
904.274	4470
904.392	4462
904.51	4447
904.627	4481
904.745	4599
904.863	4679
904.981	4432
905.098	4337
905.216	4390
905.334	4470
905.451	4447
905.569	4440
905.686	4569
905.803	4622
905.921	4462
906.038	4603
906.155	4519
906.272	4424
906.389	4504
906.506	4390
906.623	4363
906.74	4413
906.857	4268
906.974	4405
907.091	4668
907.208	4710
907.324	4626
907.441	4558
907.557	4348
907.674	4390
907.79	4299
907.907	4390
908.023	4504
908.139	4489
908.256	4443
908.372	4462
908.488	4474
908.604	4402
908.72	4356
908.836	4352
908.952	4436
909.068	4417
909.184	4561
909.3	4497
909.415	4561
909.531	4558
909.647	4348
909.762	4402
909.878	4344
909.993	4440
910.108	4436
910.224	4402
910.339	4531
910.454	4443
910.57	4329
910.685	4314
910.8	4694
910.915	4580
911.03	4481
911.145	4341
911.259	4337
911.374	4421
911.489	4341
911.604	4249
911.718	4188
911.833	4257
911.947	4078
912.062	4071
912.176	4230
912.291	4310
912.405	4291
912.519	4500
912.633	4523
912.748	4371
912.862	4341
912.976	4238
913.09	4147
913.204	4230
913.318	4284
913.431	4383
913.545	4424
913.659	4485
913.772	4390
913.886	4276
914	4219
914.113	4348
914.226	4451
914.34	4421
914.453	4276
914.566	4478
914.68	4337
914.793	4341
914.906	4154
915.019	4139
915.132	4124
915.245	4204
915.358	4261
915.47	4253
915.583	4287
915.696	4329
915.809	4440
915.921	4421
916.034	4276
916.146	4265
916.259	4261
916.371	4402
916.483	4424
916.595	4272
916.708	4314
916.82	4276
916.932	4390
917.044	4318
917.156	4310
917.268	4253
917.38	4299
917.491	4306
917.603	4333
917.715	4443
917.826	4455
917.938	4333
918.049	4265
918.161	4409
918.272	4599
918.384	4538
918.495	4462
918.606	4314
918.717	4257
918.828	4299
918.939	4413
919.05	4246
919.161	4310
919.272	4131
919.383	4261
919.494	4447
919.604	4599
919.715	4447
919.826	4356
919.936	4443
920.047	4542
920.157	4504
920.267	4714
920.378	4554
920.488	4459
920.598	4717
920.708	4892
920.818	4744
920.928	4790
921.038	4961
921.148	4942
921.258	4653
921.368	4550
921.477	4523
921.587	4470
921.697	4367
921.806	4569
921.916	4489
922.025	4272
922.134	4295
922.244	4284
922.353	4333
922.462	4219
922.571	4173
922.68	3972
922.789	4021
922.898	4025
923.007	4029
923.116	4143
923.224	4109
923.333	4116
923.442	4006
923.55	3994
923.659	4044
923.767	4131
923.876	3994
923.984	4154
924.092	4025
924.201	4082
924.309	4147
924.417	4109
924.525	4131
924.633	4154
924.741	5117
924.849	3991
924.956	4147
925.064	3987
925.172	3979
925.279	4021
925.387	4051
925.494	4078
925.602	4276
925.709	4238
925.816	4090
925.924	4192
926.031	4265
926.138	4246
926.245	4249
926.352	4135
926.459	4303
926.566	4367
926.673	4211
926.779	4109
926.886	4150
926.993	4021
927.099	3975
927.206	3983
927.312	4021
927.419	4078
927.525	4074
927.631	4135
927.737	4006
927.843	4010
927.95	3857
928.056	3994
928.162	3994
928.267	4071
928.373	4740
928.479	4173
928.585	3926
928.69	4063
928.796	4131
928.901	3998
929.007	3899
929.112	4040
929.218	4013
929.323	4002
929.428	4010
929.533	4162
929.638	3964
929.743	4029
929.848	4048
929.953	4063
930.058	3987
930.163	3835
930.267	3873
930.372	4006
930.477	3827
930.581	4112
930.685	3994
930.79	3884
930.894	3915
930.998	3930
931.103	4147
931.207	3789
931.311	3736
931.415	3701
931.519	3561
931.623	3633
