Data from test_V78500241_1057.txt Node
Date: Fri Mar 25 16:56:21 CST 2022
User: usil
Spectrometer: V785-0024
Trigger mode: 0
Integration Time (sec): 4.000000E-1
Scans to average: 1
Nonlinearity correction enabled: false
Boxcar width: 0
Storing dark spectrum: false
XAxis mode: Wavelengths
Number of Pixels in Spectrum: 1024
>>>>>Begin Spectral Data<<<<<
801.071	8126
801.214	8115
801.356	7845
801.499	7932
801.641	7826
801.783	7799
801.926	7936
802.068	7944
802.211	7925
802.353	8031
802.496	7830
802.638	7860
802.78	7959
802.923	7951
803.065	7906
803.208	7917
803.35	8005
803.492	8092
803.635	8176
803.777	8039
803.919	8199
804.061	8484
804.204	8240
804.346	8081
804.488	8039
804.63	8119
804.773	8077
804.915	8123
805.057	8317
805.199	8149
805.341	8229
805.483	8225
805.626	8214
805.768	8111
805.91	8187
806.052	8233
806.194	8149
806.336	8282
806.478	8103
806.62	8081
806.762	8073
806.904	8233
807.046	8480
807.188	8298
807.33	8279
807.472	8301
807.614	8126
807.756	8050
807.898	7963
808.04	7894
808.182	7868
808.324	7909
808.465	7970
808.607	8100
808.749	8119
808.891	8229
809.033	8313
809.174	8176
809.316	8130
809.458	8054
809.6	7997
809.741	8046
809.883	7974
810.025	8103
810.166	8016
810.308	8005
810.45	8077
810.591	7917
810.733	7757
810.875	7658
811.016	7510
811.158	7499
811.299	7594
811.441	7776
811.582	7677
811.724	7624
811.865	7533
812.007	7590
812.148	7616
812.29	7662
812.431	7788
812.573	7902
812.714	7967
812.855	8142
812.997	8153
813.138	8271
813.279	8233
813.421	8202
813.562	7993
813.703	7944
813.845	7814
813.986	7430
814.127	7320
814.268	7247
814.41	7171
814.551	7141
814.692	7164
814.833	7099
814.974	7126
815.115	7137
815.256	6993
815.397	6882
815.539	7000
815.68	6848
815.821	6859
815.962	6837
816.103	6852
816.244	6779
816.385	6597
816.526	6631
816.666	6506
816.807	6327
816.948	6437
817.089	6475
817.23	6441
817.371	6395
817.512	6445
817.653	6357
817.793	6403
817.934	6445
818.075	6445
818.216	6448
818.356	6380
818.497	6304
818.638	6117
818.778	6209
818.919	6098
819.06	6216
819.2	6289
819.341	6323
819.481	6365
819.622	6517
819.762	6764
819.903	6673
820.043	6623
820.184	6525
820.324	6566
820.465	6730
820.605	6635
820.746	6642
820.886	6551
821.026	6665
821.167	6646
821.307	6787
821.447	6749
821.588	6677
821.728	6582
821.868	6502
822.008	6376
822.149	6395
822.289	6361
822.429	6171
822.569	6068
822.709	6110
822.849	5927
822.99	5942
823.13	5931
823.27	5973
823.41	5764
823.55	5832
823.69	5760
823.83	5813
823.97	5691
824.11	5543
824.25	5581
824.389	5566
824.529	5589
824.669	5505
824.809	5657
824.949	5619
825.089	5649
825.228	5573
825.368	5455
825.508	5360
825.648	5383
825.787	5334
825.927	5379
826.067	5296
826.206	5341
826.346	5410
826.485	5357
826.625	5448
826.765	5520
826.904	5463
827.044	5242
827.183	5178
827.323	5151
827.462	5235
827.601	5151
827.741	5178
827.88	5201
828.02	5143
828.159	5242
828.298	5296
828.437	5337
828.577	5269
828.716	5524
828.855	5307
828.994	5185
829.134	5193
829.273	5227
829.412	5094
829.551	5105
829.69	5124
829.829	5273
829.968	5383
830.107	5284
830.246	5299
830.385	5208
830.524	5185
830.663	5041
830.802	4961
830.941	4873
831.08	4885
831.219	4995
831.357	4987
831.496	5174
831.635	4919
831.774	4889
831.913	4828
832.051	4767
832.19	4687
832.329	4870
832.467	4721
832.606	4664
832.744	4744
832.883	4714
833.022	4759
833.16	4786
833.299	4858
833.437	4850
833.576	4809
833.714	4858
833.852	4877
833.991	4892
834.129	4900
834.267	5003
834.406	4892
834.544	4961
834.682	5010
834.821	4987
834.959	5143
835.097	5025
835.235	5147
835.373	5105
835.511	5105
835.65	5010
835.788	5048
835.926	4930
836.064	4911
836.202	4847
836.34	5147
836.478	5254
836.615	5136
836.753	5208
836.891	5280
837.029	5273
837.167	5254
837.305	5174
837.443	5136
837.58	5147
837.718	5250
837.856	5235
837.993	5162
838.131	5197
838.269	5223
838.406	5193
838.544	5227
838.681	5056
838.819	4995
838.956	4953
839.094	4942
839.231	4949
839.369	5079
839.506	5433
839.643	5250
839.781	5094
839.918	5041
840.055	5113
840.193	5140
840.33	5083
840.467	5117
840.604	5128
840.742	5395
840.879	5094
841.016	5117
841.153	5208
841.29	5368
841.427	5318
841.564	5334
841.701	5349
841.838	5261
841.975	5223
842.112	5326
842.249	5136
842.385	5094
842.522	5307
842.659	5193
842.796	5105
842.933	5181
843.069	5140
843.206	5166
843.343	5273
843.479	5231
843.616	5231
843.752	5018
843.889	4942
844.025	5220
844.162	5014
844.298	5239
844.435	5086
844.571	5052
844.708	5204
844.844	5326
844.98	5280
845.117	5261
845.253	5140
845.389	5056
845.525	5170
845.661	5136
845.798	5048
845.934	5132
846.07	5090
846.206	5231
846.342	5273
846.478	5189
846.614	5033
846.75	4938
846.886	4972
847.022	5071
847.158	5014
847.294	5048
847.429	5064
847.565	5037
847.701	5330
847.837	4850
847.972	4812
848.108	4957
848.244	4938
848.379	4786
848.515	4729
848.65	4729
848.786	4755
848.921	4782
849.057	4877
849.192	4889
849.328	4816
849.463	4881
849.598	4793
849.734	4812
849.869	4668
850.004	4611
850.14	4675
850.275	4615
850.41	4500
850.545	4584
850.68	4618
850.815	4592
850.95	4637
851.085	4831
851.22	4691
851.355	4668
851.49	4641
851.625	4603
851.76	4634
851.895	4531
852.03	4519
852.165	4664
852.299	4714
852.434	4771
852.569	4725
852.703	4816
852.838	4870
852.973	4870
853.107	4938
853.242	4752
853.376	4656
853.511	4542
853.645	4592
853.78	4828
853.914	4637
854.048	4668
854.183	4641
854.317	4683
854.451	4873
854.585	4672
854.72	4645
854.854	4744
854.988	4622
855.122	4603
855.256	4538
855.39	4649
855.524	4782
855.658	4706
855.792	4687
855.926	4736
856.06	4763
856.194	4748
856.327	4675
856.461	4611
856.595	4626
856.729	4637
856.862	4717
856.996	4660
857.13	4721
857.263	4755
857.397	4744
857.53	4664
857.664	4736
857.797	4717
857.931	4801
858.064	4656
858.197	4786
858.331	4653
858.464	4641
858.597	4497
858.731	4641
858.864	4618
858.997	4618
859.13	4675
859.263	4634
859.396	4683
859.529	4596
859.662	4550
859.795	4523
859.928	4603
860.061	4752
860.194	4763
860.327	4596
860.46	4546
860.592	4653
860.725	4740
860.858	4714
860.99	4523
861.123	4508
861.256	4500
861.388	4607
861.521	5353
861.653	4516
861.786	4432
861.918	4451
862.05	4493
862.183	4493
862.315	4630
862.447	4645
862.58	4538
862.712	4375
862.844	4318
862.976	4489
863.108	4447
863.24	4885
863.372	4371
863.504	4432
863.636	4405
863.768	4519
863.9	4443
864.032	4386
864.164	4417
864.296	4436
864.428	4535
864.559	4565
864.691	4558
864.823	4535
864.954	4519
865.086	4527
865.217	4428
865.349	4432
865.48	4424
865.612	4538
865.743	4618
865.875	4478
866.006	4428
866.137	4451
866.269	4443
866.4	4447
866.531	4398
866.662	4394
866.793	4398
866.924	4421
867.055	4478
867.186	4451
867.317	4440
867.448	4405
867.579	4360
867.71	4371
867.841	4367
867.972	4436
868.103	4481
868.233	4447
868.364	4474
868.495	4508
868.625	4645
868.756	4702
868.886	4626
869.017	4592
869.147	4793
869.278	4744
869.408	4611
869.539	4603
869.669	4687
869.799	4660
869.929	4755
870.06	4748
870.19	4911
870.32	4908
870.45	4934
870.58	5064
870.71	5029
870.84	5067
870.97	4953
871.1	4896
871.23	5105
871.36	5113
871.489	4995
871.619	5067
871.749	5056
871.879	5117
872.008	5189
872.138	5041
872.267	4995
872.397	4828
872.526	4809
872.656	4714
872.785	4786
872.915	4889
873.044	5041
873.173	4930
873.303	4919
873.432	4965
873.561	4980
873.69	4877
873.819	4801
873.948	4881
874.077	4847
874.206	4748
874.335	4812
874.464	4923
874.593	5052
874.722	4942
874.851	5075
874.979	5048
875.108	5006
875.237	4934
875.365	4812
875.494	4938
875.623	4976
875.751	4820
875.88	4896
876.008	4946
876.136	4972
876.265	5239
876.393	5322
876.521	5250
876.65	5201
876.778	5151
876.906	5102
877.034	4972
877.162	5014
877.29	4961
877.418	5010
877.546	5014
877.674	5113
877.802	4980
877.93	5029
878.058	4934
878.185	4877
878.313	4995
878.441	4873
878.568	4774
878.696	4915
878.824	4961
878.951	4995
879.079	5121
879.206	5273
879.333	5022
879.461	4965
879.588	4961
879.715	5071
879.842	5193
879.97	5041
880.097	4725
880.224	4790
880.351	4801
880.478	4797
880.605	4793
880.732	4801
880.859	5048
880.986	4854
881.112	4881
881.239	4774
881.366	4702
881.493	4599
881.619	4615
881.746	4611
881.872	4664
881.999	4584
882.125	4660
882.252	4733
882.378	4831
882.505	4923
882.631	4752
882.757	4622
882.883	4714
883.01	4725
883.136	4649
883.262	4554
883.388	4645
883.514	4812
883.64	4877
883.766	4805
883.892	4653
884.018	4683
884.143	4866
884.269	4980
884.395	4744
884.52	4618
884.646	4664
884.772	4596
884.897	4573
885.023	4660
885.148	4790
885.274	4892
885.399	4793
885.524	4649
885.65	4660
885.775	4725
885.9	4637
886.025	4847
886.15	4786
886.275	4744
886.4	4664
886.525	4664
886.65	4675
886.775	4698
886.9	4908
887.025	4999
887.149	4820
887.274	4683
887.399	4569
887.523	4580
887.648	4546
887.773	4577
887.897	4759
888.021	4759
888.146	4656
888.27	4843
888.395	4923
888.519	4752
888.643	4847
888.767	4790
888.891	4694
889.015	4561
889.139	4634
889.263	4618
889.387	4736
889.511	4839
889.635	4790
889.759	4653
889.883	4683
890.006	4748
890.13	4793
890.254	4580
890.377	4694
890.501	4561
890.624	4500
890.748	4622
890.871	4493
890.995	4413
891.118	4394
891.241	4474
891.364	4535
891.488	4618
891.611	4466
891.734	4542
891.857	4603
891.98	4550
892.103	4645
892.226	4622
892.349	4538
892.471	4440
892.594	4550
892.717	4577
892.839	4538
892.962	4607
893.085	4675
893.207	4569
893.33	4459
893.452	4523
893.575	4637
893.697	4588
893.819	4755
893.941	4847
894.064	4774
894.186	4615
894.308	4531
894.43	4740
894.552	4790
894.674	4729
894.796	4546
894.918	4618
895.04	4565
895.161	4694
895.283	4660
895.405	4573
895.526	4618
895.648	4714
895.769	4645
895.891	4675
896.012	4759
896.134	4698
896.255	4653
896.376	4630
896.498	4603
896.619	4672
896.74	4622
896.861	4679
896.982	4904
897.103	5090
897.224	4873
897.345	4683
897.466	4656
897.587	4763
897.708	4759
897.828	4771
897.949	4679
898.07	4577
898.19	4645
898.311	4771
898.431	4592
898.552	4763
898.672	4847
898.792	4820
898.913	4714
899.033	4592
899.153	4512
899.273	4440
899.393	4462
899.513	4504
899.633	4508
899.753	4497
899.873	4508
899.993	4558
900.113	4455
900.232	4634
900.352	4523
900.472	4481
900.591	4417
900.711	4478
900.83	4436
900.95	4535
901.069	4637
901.189	4554
901.308	4303
901.427	4318
901.546	4344
901.665	4432
901.784	4535
901.904	4383
902.023	4291
902.141	4169
902.26	4143
902.379	4272
902.498	4242
902.617	4227
902.735	4371
902.854	4402
902.973	4360
903.091	4223
903.21	4192
903.328	4303
903.446	4306
903.565	4238
903.683	4371
903.801	4246
903.919	4386
904.038	4432
904.156	4303
904.274	4398
904.392	4375
904.51	4417
904.627	4466
904.745	4596
904.863	4675
904.981	4383
905.098	4284
905.216	4371
905.334	4466
905.451	4440
905.569	4451
905.686	4523
905.803	4558
905.921	4390
906.038	4550
906.155	4470
906.272	4413
906.389	4451
906.506	4383
906.623	4337
906.74	4440
906.857	4325
906.974	4344
907.091	4542
907.208	4645
907.324	4603
907.441	4493
907.557	4352
907.674	4333
907.79	4280
907.907	4375
908.023	4474
908.139	4466
908.256	4432
908.372	4455
908.488	4447
908.604	4356
908.72	4318
908.836	4360
908.952	4367
909.068	4390
909.184	4588
909.3	4493
909.415	4535
909.531	4584
909.647	4303
909.762	4375
909.878	4333
909.993	4413
910.108	4341
910.224	4398
910.339	4512
910.454	4383
910.57	4352
910.685	4261
910.8	4637
910.915	4596
911.03	4451
911.145	4291
911.259	4356
911.374	4318
911.489	4303
911.604	4261
911.718	4185
911.833	4177
911.947	4086
912.062	4055
912.176	4215
912.291	4215
912.405	4253
912.519	4443
912.633	4466
912.748	4341
912.862	4310
912.976	4162
913.09	4086
913.204	4177
913.318	4268
913.431	4390
913.545	4360
913.659	4474
913.772	4310
913.886	4253
914	4177
914.113	4367
914.226	4402
914.34	4402
914.453	4242
914.566	4409
914.68	4314
914.793	4360
914.906	4166
915.019	4071
915.132	4044
915.245	4120
915.358	4204
915.47	4253
915.583	4253
915.696	4276
915.809	4409
915.921	4436
916.034	4211
916.146	4272
916.259	4211
916.371	4367
916.483	4329
916.595	4253
916.708	4325
916.82	4306
916.932	4344
917.044	4371
917.156	4363
917.268	4261
917.38	4295
917.491	4257
917.603	4341
917.715	4363
917.826	4424
917.938	4356
918.049	4207
918.161	4386
918.272	4531
918.384	4535
918.495	4440
918.606	4284
918.717	4200
918.828	4341
918.939	4417
919.05	4238
919.161	4303
919.272	4124
919.383	4261
919.494	4443
919.604	4603
919.715	4409
919.826	4383
919.936	4379
920.047	4527
920.157	4508
920.267	4714
920.378	4527
920.488	4508
920.598	4683
920.708	4843
920.818	4759
920.928	4786
921.038	4942
921.148	4889
921.258	4558
921.368	4546
921.477	4470
921.587	4447
921.697	4356
921.806	4592
921.916	4459
922.025	4253
922.134	4306
922.244	4185
922.353	4318
922.462	4158
922.571	4093
922.68	3998
922.789	4002
922.898	4021
923.007	4013
923.116	4101
923.224	4029
923.333	4105
923.442	3960
923.55	3972
923.659	3998
923.767	4025
923.876	4055
923.984	4071
924.092	3975
924.201	4059
924.309	4086
924.417	4120
924.525	4082
924.633	4078
924.741	5003
924.849	3888
924.956	4116
925.064	3937
925.172	3903
925.279	3945
925.387	4040
925.494	4071
925.602	4185
925.709	4150
925.816	4017
925.924	4120
926.031	4196
926.138	4200
926.245	4188
926.352	4048
926.459	4223
926.566	4287
926.673	4120
926.779	4071
926.886	4093
926.993	3960
927.099	3964
927.206	3907
927.312	3930
927.419	4029
927.525	4013
927.631	4067
927.737	4006
927.843	3968
927.95	3804
928.056	3949
928.162	3979
928.267	4059
928.373	4637
928.479	4177
928.585	3873
928.69	4074
928.796	4086
928.901	3892
929.007	3812
929.112	4013
929.218	3983
929.323	3968
929.428	3922
929.533	4116
929.638	3956
929.743	3956
929.848	3998
929.953	3972
930.058	3941
930.163	3728
930.267	3846
930.372	3941
930.477	3785
930.581	4105
930.685	3918
930.79	3808
930.894	3873
930.998	3838
931.103	4002
931.207	3682
931.311	3705
931.415	3656
931.519	3504
931.623	3504
