Data from test_V78500241_2024.txt Node
Date: Fri Mar 25 17:03:04 CST 2022
User: usil
Spectrometer: V785-0024
Trigger mode: 0
Integration Time (sec): 4.000000E-1
Scans to average: 1
Nonlinearity correction enabled: false
Boxcar width: 0
Storing dark spectrum: false
XAxis mode: Wavelengths
Number of Pixels in Spectrum: 1024
>>>>>Begin Spectral Data<<<<<
801.071	7986
801.214	7959
801.356	7860
801.499	7788
801.641	7803
801.783	7795
801.926	7974
802.068	7978
802.211	8016
802.353	7936
802.496	7849
802.638	7833
802.78	7909
802.923	7906
803.065	7890
803.208	7811
803.35	8008
803.492	8012
803.635	8172
803.777	7986
803.919	8043
804.061	8389
804.204	8180
804.346	8031
804.488	7951
804.63	8024
804.773	7978
804.915	8039
805.057	8256
805.199	8225
805.341	8176
805.483	8256
805.626	8275
805.768	8081
805.91	8218
806.052	8229
806.194	8123
806.336	8271
806.478	8100
806.62	8046
806.762	8161
806.904	8290
807.046	8480
807.188	8374
807.33	8229
807.472	8317
807.614	8149
807.756	8115
807.898	7967
808.04	7883
808.182	7856
808.324	7856
808.465	7875
808.607	8062
808.749	8111
808.891	8218
809.033	8267
809.174	8172
809.316	8065
809.458	8005
809.6	8020
809.741	8043
809.883	8020
810.025	8134
810.166	7997
810.308	8054
810.45	8031
810.591	7868
810.733	7715
810.875	7620
811.016	7495
811.158	7480
811.299	7575
811.441	7769
811.582	7655
811.724	7548
811.865	7518
812.007	7559
812.148	7559
812.29	7636
812.431	7784
812.573	7921
812.714	7959
812.855	8161
812.997	8218
813.138	8237
813.279	8142
813.421	8073
813.562	7856
813.703	7856
813.845	7753
813.986	7381
814.127	7228
814.268	7133
814.41	7187
814.551	7190
814.692	7198
814.833	7027
814.974	7084
815.115	7050
815.256	6981
815.397	6890
815.539	7050
815.68	6810
815.821	6745
815.962	6844
816.103	6795
816.244	6715
816.385	6639
816.526	6582
816.666	6460
816.807	6323
816.948	6498
817.089	6464
817.23	6395
817.371	6346
817.512	6357
817.653	6445
817.793	6331
817.934	6414
818.075	6429
818.216	6426
818.356	6437
818.497	6254
818.638	6129
818.778	6110
818.919	6155
819.06	6155
819.2	6281
819.341	6323
819.481	6331
819.622	6483
819.762	6715
819.903	6677
820.043	6623
820.184	6563
820.324	6593
820.465	6684
820.605	6703
820.746	6669
820.886	6448
821.026	6658
821.167	6696
821.307	6825
821.447	6776
821.588	6692
821.728	6585
821.868	6460
822.008	6338
822.149	6399
822.289	6292
822.429	6190
822.569	6076
822.709	6121
822.849	5939
822.99	5965
823.13	5912
823.27	5969
823.41	5752
823.55	5733
823.69	5760
823.83	5756
823.97	5653
824.11	5551
824.25	5509
824.389	5478
824.529	5596
824.669	5486
824.809	5589
824.949	5649
825.089	5562
825.228	5611
825.368	5387
825.508	5364
825.648	5326
825.787	5353
825.927	5391
826.067	5318
826.206	5265
826.346	5368
826.485	5414
826.625	5322
826.765	5558
826.904	5414
827.044	5246
827.183	5181
827.323	5102
827.462	5261
827.601	5147
827.741	5185
827.88	5159
828.02	5105
828.159	5204
828.298	5292
828.437	5360
828.577	5254
828.716	5486
828.855	5265
828.994	5151
829.134	5140
829.273	5197
829.412	5140
829.551	5109
829.69	5128
829.829	5239
829.968	5360
830.107	5250
830.246	5326
830.385	5143
830.524	5109
830.663	5048
830.802	4991
830.941	4877
831.08	4908
831.219	4995
831.357	4949
831.496	5174
831.635	4942
831.774	4881
831.913	4904
832.051	4733
832.19	4725
832.329	4847
832.467	4687
832.606	4615
832.744	4816
832.883	4706
833.022	4744
833.16	4816
833.299	4831
833.437	4839
833.576	4858
833.714	4839
833.852	4908
833.991	4923
834.129	4968
834.267	4934
834.406	4919
834.544	4972
834.682	4991
834.821	4987
834.959	5159
835.097	5033
835.235	5178
835.373	5045
835.511	5128
835.65	5022
835.788	4980
835.926	4892
836.064	4866
836.202	4923
836.34	5178
836.478	5189
836.615	5102
836.753	5197
836.891	5280
837.029	5231
837.167	5204
837.305	5102
837.443	5124
837.58	5067
837.718	5254
837.856	5181
837.993	5121
838.131	5208
838.269	5242
838.406	5197
838.544	5239
838.681	5029
838.819	4991
838.956	4911
839.094	4923
839.231	5006
839.369	5018
839.506	5436
839.643	5269
839.781	5041
839.918	5052
840.055	5083
840.193	5075
840.33	5094
840.467	5124
840.604	5204
840.742	5444
840.879	5105
841.016	5102
841.153	5155
841.29	5368
841.427	5360
841.564	5318
841.701	5395
841.838	5254
841.975	5223
842.112	5318
842.249	5102
842.385	5098
842.522	5288
842.659	5193
842.796	5147
842.933	5147
843.069	5109
843.206	5105
843.343	5288
843.479	5220
843.616	5277
843.752	5003
843.889	5037
844.025	5193
844.162	4995
844.298	5201
844.435	5037
844.571	5041
844.708	5170
844.844	5330
844.98	5353
845.117	5318
845.253	5121
845.389	5025
845.525	5204
845.661	5132
845.798	5018
845.934	5109
846.07	5037
846.206	5212
846.342	5277
846.478	5132
846.614	5029
846.75	4999
846.886	4927
847.022	5132
847.158	4976
847.294	5075
847.429	5079
847.565	5079
847.701	5315
847.837	4831
847.972	4812
848.108	4965
848.244	4980
848.379	4752
848.515	4721
848.65	4698
848.786	4767
848.921	4801
849.057	4911
849.192	4923
849.328	4824
849.463	4809
849.598	4748
849.734	4774
849.869	4656
850.004	4656
850.14	4630
850.275	4615
850.41	4531
850.545	4550
850.68	4622
850.815	4653
850.95	4634
851.085	4862
851.22	4755
851.355	4694
851.49	4618
851.625	4603
851.76	4626
851.895	4577
852.03	4531
852.165	4664
852.299	4744
852.434	4786
852.569	4725
852.703	4714
852.838	4900
852.973	4927
853.107	4908
853.242	4744
853.376	4691
853.511	4550
853.645	4596
853.78	4797
853.914	4649
854.048	4641
854.183	4645
854.317	4717
854.451	4809
854.585	4721
854.72	4607
854.854	4733
854.988	4603
855.122	4656
855.256	4516
855.39	4702
855.524	4782
855.658	4725
855.792	4664
855.926	4725
856.06	4797
856.194	4793
856.327	4710
856.461	4618
856.595	4599
856.729	4611
856.862	4755
856.996	4691
857.13	4710
857.263	4733
857.397	4793
857.53	4588
857.664	4698
857.797	4767
857.931	4710
858.064	4641
858.197	4763
858.331	4626
858.464	4637
858.597	4523
858.731	4637
858.864	4626
858.997	4641
859.13	4721
859.263	4626
859.396	4729
859.529	4611
859.662	4603
859.795	4573
859.928	4618
860.061	4683
860.194	4748
860.327	4622
860.46	4538
860.592	4645
860.725	4714
860.858	4683
860.99	4554
861.123	4516
861.256	4546
861.388	4584
861.521	5254
861.653	4466
861.786	4436
861.918	4440
862.05	4481
862.183	4538
862.315	4592
862.447	4615
862.58	4504
862.712	4398
862.844	4383
862.976	4485
863.108	4455
863.24	4774
863.372	4352
863.504	4424
863.636	4405
863.768	4485
863.9	4424
864.032	4375
864.164	4402
864.296	4478
864.428	4546
864.559	4577
864.691	4569
864.823	4455
864.954	4451
865.086	4512
865.217	4413
865.349	4421
865.48	4451
865.612	4504
865.743	4626
865.875	4474
866.006	4455
866.137	4432
866.269	4470
866.4	4398
866.531	4402
866.662	4394
866.793	4402
866.924	4417
867.055	4474
867.186	4417
867.317	4367
867.448	4352
867.579	4402
867.71	4409
867.841	4383
867.972	4497
868.103	4500
868.233	4432
868.364	4443
868.495	4470
868.625	4660
868.756	4759
868.886	4538
869.017	4607
869.147	4824
869.278	4809
869.408	4637
869.539	4622
869.669	4733
869.799	4641
869.929	4763
870.06	4721
870.19	4923
870.32	4885
870.45	4900
870.58	5033
870.71	5117
870.84	5147
870.97	4927
871.1	4862
871.23	5132
871.36	5105
871.489	5025
871.619	5079
871.749	5079
871.879	5071
872.008	5212
872.138	5010
872.267	4946
872.397	4881
872.526	4767
872.656	4687
872.785	4755
872.915	4999
873.044	4968
873.173	4946
873.303	4957
873.432	4991
873.561	4938
873.69	4847
873.819	4866
873.948	4862
874.077	4824
874.206	4774
874.335	4854
874.464	4915
874.593	5083
874.722	4965
874.851	5105
874.979	5071
875.108	5045
875.237	4873
875.365	4896
875.494	4881
875.623	4972
875.751	4873
875.88	4854
876.008	4972
876.136	5041
876.265	5189
876.393	5322
876.521	5250
876.65	5189
876.778	5128
876.906	5124
877.034	5003
877.162	5094
877.29	5006
877.418	5033
877.546	5010
877.674	5033
877.802	5045
877.93	5003
878.058	4923
878.185	4839
878.313	4934
878.441	4938
878.568	4755
878.696	4866
878.824	4995
878.951	4968
879.079	5132
879.206	5273
879.333	5071
879.461	4987
879.588	5052
879.715	5140
879.842	5197
879.97	4976
880.097	4778
880.224	4771
880.351	4797
880.478	4847
880.605	4809
880.732	4755
880.859	5105
880.986	4881
881.112	4919
881.239	4744
881.366	4668
881.493	4626
881.619	4573
881.746	4611
881.872	4603
881.999	4626
882.125	4679
882.252	4866
882.378	4778
882.505	4927
882.631	4790
882.757	4656
882.883	4675
883.01	4710
883.136	4630
883.262	4630
883.388	4611
883.514	4767
883.64	4892
883.766	4812
883.892	4675
884.018	4759
884.143	4847
884.269	4942
884.395	4637
884.52	4641
884.646	4618
884.772	4622
884.897	4542
885.023	4679
885.148	4733
885.274	4873
885.399	4755
885.524	4736
885.65	4672
885.775	4694
885.9	4702
886.025	4828
886.15	4805
886.275	4725
886.4	4649
886.525	4755
886.65	4675
886.775	4729
886.9	4900
887.025	5056
887.149	4809
887.274	4675
887.399	4618
887.523	4603
887.648	4535
887.773	4577
887.897	4733
888.021	4816
888.146	4626
888.27	4763
888.395	4862
888.519	4858
888.643	4847
888.767	4809
888.891	4630
889.015	4607
889.139	4634
889.263	4588
889.387	4733
889.511	4835
889.635	4771
889.759	4626
889.883	4622
890.006	4706
890.13	4801
890.254	4577
890.377	4645
890.501	4546
890.624	4485
890.748	4649
890.871	4546
890.995	4386
891.118	4417
891.241	4466
891.364	4531
891.488	4645
891.611	4512
891.734	4512
891.857	4569
891.98	4554
892.103	4664
892.226	4565
892.349	4565
892.471	4428
892.594	4531
892.717	4558
892.839	4554
892.962	4615
893.085	4675
893.207	4584
893.33	4409
893.452	4538
893.575	4645
893.697	4615
893.819	4740
893.941	4782
894.064	4812
894.186	4558
894.308	4573
894.43	4744
894.552	4820
894.674	4771
894.796	4561
894.918	4615
895.04	4558
895.161	4725
895.283	4698
895.405	4596
895.526	4611
895.648	4691
895.769	4694
895.891	4675
896.012	4687
896.134	4694
896.255	4649
896.376	4622
896.498	4569
896.619	4679
896.74	4584
896.861	4599
896.982	4896
897.103	5014
897.224	4790
897.345	4755
897.466	4649
897.587	4694
897.708	4847
897.828	4759
897.949	4645
898.07	4554
898.19	4656
898.311	4824
898.431	4706
898.552	4706
898.672	4812
898.792	4809
898.913	4683
899.033	4603
899.153	4516
899.273	4455
899.393	4462
899.513	4481
899.633	4542
899.753	4558
899.873	4500
899.993	4603
900.113	4554
900.232	4535
900.352	4504
900.472	4451
900.591	4390
900.711	4474
900.83	4394
900.95	4577
901.069	4675
901.189	4542
901.308	4352
901.427	4303
901.546	4352
901.665	4455
901.784	4531
901.904	4386
902.023	4306
902.141	4166
902.26	4177
902.379	4253
902.498	4219
902.617	4204
902.735	4356
902.854	4367
902.973	4348
903.091	4181
903.21	4219
903.328	4291
903.446	4322
903.565	4280
903.683	4371
903.801	4276
903.919	4386
904.038	4428
904.156	4306
904.274	4485
904.392	4363
904.51	4417
904.627	4443
904.745	4527
904.863	4618
904.981	4352
905.098	4310
905.216	4409
905.334	4405
905.451	4409
905.569	4371
905.686	4523
905.803	4558
905.921	4443
906.038	4485
906.155	4466
906.272	4413
906.389	4428
906.506	4329
906.623	4379
906.74	4405
906.857	4291
906.974	4417
907.091	4592
907.208	4672
907.324	4630
907.441	4500
907.557	4402
907.674	4379
907.79	4333
907.907	4390
908.023	4497
908.139	4447
908.256	4424
908.372	4497
908.488	4432
908.604	4375
908.72	4314
908.836	4379
908.952	4417
909.068	4447
909.184	4577
909.3	4474
909.415	4577
909.531	4596
909.647	4409
909.762	4428
909.878	4341
909.993	4455
910.108	4466
910.224	4413
910.339	4512
910.454	4443
910.57	4428
910.685	4356
910.8	4698
910.915	4603
911.03	4523
911.145	4383
911.259	4352
911.374	4424
911.489	4333
911.604	4337
911.718	4253
911.833	4253
911.947	4071
912.062	4074
912.176	4230
912.291	4280
912.405	4291
912.519	4500
912.633	4535
912.748	4379
912.862	4344
912.976	4242
913.09	4128
913.204	4230
913.318	4291
913.431	4421
913.545	4436
913.659	4485
913.772	4405
913.886	4287
914	4257
914.113	4424
914.226	4455
914.34	4394
914.453	4291
914.566	4428
914.68	4356
914.793	4356
914.906	4234
915.019	4154
915.132	4082
915.245	4196
915.358	4238
915.47	4295
915.583	4314
915.696	4360
915.809	4462
915.921	4459
916.034	4287
916.146	4257
916.259	4284
916.371	4432
916.483	4318
916.595	4242
916.708	4344
916.82	4337
916.932	4306
917.044	4360
917.156	4394
917.268	4249
917.38	4303
917.491	4306
917.603	4390
917.715	4462
917.826	4443
917.938	4367
918.049	4295
918.161	4394
918.272	4573
918.384	4592
918.495	4462
918.606	4344
918.717	4268
918.828	4329
918.939	4386
919.05	4295
919.161	4436
919.272	4162
919.383	4253
919.494	4485
919.604	4637
919.715	4386
919.826	4379
919.936	4455
920.047	4550
920.157	4558
920.267	4706
920.378	4561
920.488	4516
920.598	4702
920.708	4881
920.818	4805
920.928	4767
921.038	4968
921.148	4957
921.258	4660
921.368	4561
921.477	4531
921.587	4481
921.697	4459
921.806	4592
921.916	4432
922.025	4272
922.134	4341
922.244	4257
922.353	4375
922.462	4215
922.571	4124
922.68	4078
922.789	3991
922.898	4051
923.007	4044
923.116	4078
923.224	4090
923.333	4097
923.442	4036
923.55	3991
923.659	4078
923.767	4097
923.876	4013
923.984	4169
924.092	4021
924.201	4105
924.309	4101
924.417	4192
924.525	4063
924.633	4120
924.741	5064
924.849	3964
924.956	4200
925.064	3968
925.172	3945
925.279	3979
925.387	4120
925.494	4059
925.602	4219
925.709	4238
925.816	4128
925.924	4154
926.031	4314
926.138	4200
926.245	4230
926.352	4181
926.459	4276
926.566	4379
926.673	4150
926.779	4131
926.886	4063
926.993	4010
927.099	4036
927.206	3945
927.312	3991
927.419	4101
927.525	4067
927.631	4074
927.737	3987
927.843	3953
927.95	3930
928.056	3979
928.162	4032
928.267	4109
928.373	4584
928.479	4166
928.585	3915
928.69	4048
928.796	4059
928.901	3994
929.007	3884
929.112	4044
929.218	4051
929.323	4006
929.428	3945
929.533	4109
929.638	3972
929.743	3987
929.848	4051
929.953	4021
930.058	3941
930.163	3804
930.267	3857
930.372	4025
930.477	3850
930.581	4139
930.685	3956
930.79	3835
930.894	3903
930.998	3880
931.103	4025
931.207	3759
931.311	3740
931.415	3747
931.519	3561
931.623	3580
