Data from test_V78500241_2413.txt Node
Date: Fri Mar 25 17:05:46 CST 2022
User: usil
Spectrometer: V785-0024
Trigger mode: 0
Integration Time (sec): 4.000000E-1
Scans to average: 1
Nonlinearity correction enabled: false
Boxcar width: 0
Storing dark spectrum: false
XAxis mode: Wavelengths
Number of Pixels in Spectrum: 1024
>>>>>Begin Spectral Data<<<<<
801.071	8012
801.214	8020
801.356	7928
801.499	7868
801.641	7830
801.783	7799
801.926	8008
802.068	7909
802.211	7978
802.353	7986
802.496	7887
802.638	7887
802.78	7944
802.923	7940
803.065	7959
803.208	7849
803.35	8020
803.492	8107
803.635	8168
803.777	8027
803.919	8206
804.061	8473
804.204	8195
804.346	8077
804.488	8027
804.63	8142
804.773	8035
804.915	8073
805.057	8355
805.199	8176
805.341	8290
805.483	8305
805.626	8229
805.768	8176
805.91	8229
806.052	8233
806.194	8149
806.336	8309
806.478	8096
806.62	8043
806.762	8043
806.904	8187
807.046	8461
807.188	8305
807.33	8294
807.472	8309
807.614	8180
807.756	8119
807.898	8027
808.04	7898
808.182	7959
808.324	7871
808.465	7970
808.607	8035
808.749	8161
808.891	8229
809.033	8355
809.174	8210
809.316	8046
809.458	8123
809.6	7970
809.741	8119
809.883	8069
810.025	8134
810.166	8126
810.308	8005
810.45	8008
810.591	7932
810.733	7742
810.875	7696
811.016	7552
811.158	7480
811.299	7537
811.441	7750
811.582	7772
811.724	7605
811.865	7537
812.007	7605
812.148	7567
812.29	7651
812.431	7818
812.573	7837
812.714	8062
812.855	8187
812.997	8229
813.138	8366
813.279	8145
813.421	8035
813.562	8103
813.703	7860
813.845	7780
813.986	7457
814.127	7305
814.268	7278
814.41	7228
814.551	7129
814.692	7270
814.833	7114
814.974	7114
815.115	7145
815.256	7057
815.397	7008
815.539	6935
815.68	6806
815.821	6783
815.962	6882
816.103	6848
816.244	6734
816.385	6585
816.526	6642
816.666	6536
816.807	6289
816.948	6525
817.089	6521
817.23	6464
817.371	6407
817.512	6380
817.653	6388
817.793	6384
817.934	6445
818.075	6486
818.216	6456
818.356	6388
818.497	6369
818.638	6232
818.778	6194
818.919	6144
819.06	6266
819.2	6410
819.341	6357
819.481	6422
819.622	6604
819.762	6783
819.903	6741
820.043	6654
820.184	6627
820.324	6646
820.465	6734
820.605	6719
820.746	6654
820.886	6604
821.026	6673
821.167	6818
821.307	6806
821.447	6833
821.588	6711
821.728	6566
821.868	6498
822.008	6361
822.149	6361
822.289	6365
822.429	6205
822.569	6106
822.709	6148
822.849	5946
822.99	5870
823.13	5927
823.27	6007
823.41	5824
823.55	5828
823.69	5794
823.83	5748
823.97	5615
824.11	5573
824.25	5516
824.389	5577
824.529	5653
824.669	5509
824.809	5695
824.949	5623
825.089	5600
825.228	5634
825.368	5433
825.508	5349
825.648	5387
825.787	5372
825.927	5391
826.067	5292
826.206	5318
826.346	5417
826.485	5406
826.625	5410
826.765	5581
826.904	5528
827.044	5254
827.183	5246
827.323	5151
827.462	5288
827.601	5204
827.741	5189
827.88	5258
828.02	5113
828.159	5258
828.298	5311
828.437	5337
828.577	5322
828.716	5505
828.855	5337
828.994	5189
829.134	5162
829.273	5204
829.412	5132
829.551	5151
829.69	5189
829.829	5280
829.968	5391
830.107	5288
830.246	5265
830.385	5216
830.524	5162
830.663	5037
830.802	4987
830.941	4946
831.08	4877
831.219	5010
831.357	4995
831.496	5143
831.635	4984
831.774	4873
831.913	4881
832.051	4763
832.19	4812
832.329	4835
832.467	4683
832.606	4679
832.744	4752
832.883	4729
833.022	4679
833.16	4763
833.299	4816
833.437	4812
833.576	4820
833.714	4839
833.852	4923
833.991	4949
834.129	4991
834.267	4927
834.406	4938
834.544	4976
834.682	4949
834.821	4987
834.959	5151
835.097	4961
835.235	5208
835.373	5143
835.511	5056
835.65	5056
835.788	5048
835.926	4938
836.064	4873
836.202	4953
836.34	5178
836.478	5246
836.615	5140
836.753	5265
836.891	5261
837.029	5231
837.167	5246
837.305	5197
837.443	5185
837.58	5094
837.718	5246
837.856	5185
837.993	5185
838.131	5269
838.269	5235
838.406	5220
838.544	5193
838.681	5041
838.819	5045
838.956	4934
839.094	4930
839.231	4923
839.369	5056
839.506	5436
839.643	5307
839.781	5041
839.918	5060
840.055	5147
840.193	5086
840.33	5079
840.467	5105
840.604	5166
840.742	5471
840.879	5105
841.016	5132
841.153	5166
841.29	5402
841.427	5353
841.564	5315
841.701	5353
841.838	5345
841.975	5250
842.112	5299
842.249	5113
842.385	5117
842.522	5326
842.659	5223
842.796	5204
842.933	5201
843.069	5166
843.206	5201
843.343	5391
843.479	5239
843.616	5258
843.752	5075
843.889	5029
844.025	5197
844.162	5071
844.298	5246
844.435	5048
844.571	5064
844.708	5178
844.844	5280
844.98	5334
845.117	5345
845.253	5174
845.389	5075
845.525	5166
845.661	5155
845.798	5056
845.934	5193
846.07	5064
846.206	5201
846.342	5318
846.478	5189
846.614	5045
846.75	5025
846.886	4961
847.022	5132
847.158	5041
847.294	5071
847.429	5117
847.565	5067
847.701	5318
847.837	4904
847.972	4828
848.108	4946
848.244	4965
848.379	4790
848.515	4755
848.65	4733
848.786	4759
848.921	4793
849.057	4908
849.192	4896
849.328	4786
849.463	4839
849.598	4805
849.734	4748
849.869	4672
850.004	4660
850.14	4641
850.275	4611
850.41	4485
850.545	4561
850.68	4607
850.815	4679
850.95	4683
851.085	4843
851.22	4736
851.355	4725
851.49	4634
851.625	4653
851.76	4675
851.895	4569
852.03	4538
852.165	4622
852.299	4729
852.434	4805
852.569	4748
852.703	4782
852.838	4835
852.973	4923
853.107	4908
853.242	4736
853.376	4641
853.511	4554
853.645	4630
853.78	4816
853.914	4683
854.048	4641
854.183	4653
854.317	4752
854.451	4812
854.585	4714
854.72	4645
854.854	4748
854.988	4611
855.122	4630
855.256	4584
855.39	4664
855.524	4763
855.658	4710
855.792	4691
855.926	4774
856.06	4729
856.194	4801
856.327	4721
856.461	4580
856.595	4634
856.729	4584
856.862	4778
856.996	4691
857.13	4759
857.263	4786
857.397	4862
857.53	4660
857.664	4714
857.797	4824
857.931	4778
858.064	4717
858.197	4755
858.331	4687
858.464	4656
858.597	4550
858.731	4653
858.864	4675
858.997	4656
859.13	4679
859.263	4649
859.396	4759
859.529	4641
859.662	4626
859.795	4603
859.928	4683
860.061	4831
860.194	4809
860.327	4641
860.46	4618
860.592	4763
860.725	4736
860.858	4778
860.99	4599
861.123	4561
861.256	4573
861.388	4706
861.521	5357
861.653	4558
861.786	4535
861.918	4519
862.05	4573
862.183	4599
862.315	4641
862.447	4717
862.58	4588
862.712	4447
862.844	4360
862.976	4527
863.108	4531
863.24	4824
863.372	4432
863.504	4459
863.636	4459
863.768	4561
863.9	4489
864.032	4402
864.164	4428
864.296	4508
864.428	4592
864.559	4596
864.691	4580
864.823	4634
864.954	4561
865.086	4565
865.217	4493
865.349	4500
865.48	4531
865.612	4519
865.743	4645
865.875	4489
866.006	4440
866.137	4554
866.269	4508
866.4	4500
866.531	4489
866.662	4470
866.793	4478
866.924	4432
867.055	4546
867.186	4478
867.317	4500
867.448	4405
867.579	4417
867.71	4428
867.841	4379
867.972	4497
868.103	4508
868.233	4500
868.364	4432
868.495	4569
868.625	4660
868.756	4812
868.886	4626
869.017	4675
869.147	4801
869.278	4904
869.408	4733
869.539	4634
869.669	4744
869.799	4702
869.929	4816
870.06	4790
870.19	4942
870.32	4942
870.45	4942
870.58	5056
870.71	5071
870.84	5159
870.97	4987
871.1	4934
871.23	5174
871.36	5162
871.489	5048
871.619	5140
871.749	5147
871.879	5170
872.008	5246
872.138	5132
872.267	5006
872.397	4930
872.526	4831
872.656	4767
872.785	4797
872.915	5014
873.044	5033
873.173	4987
873.303	4995
873.432	4957
873.561	4957
873.69	4919
873.819	4896
873.948	4980
874.077	4828
874.206	4828
874.335	4805
874.464	4961
874.593	5037
874.722	5037
874.851	5178
874.979	5083
875.108	5060
875.237	4961
875.365	4911
875.494	4930
875.623	5048
875.751	4843
875.88	4934
876.008	4984
876.136	5029
876.265	5246
876.393	5379
876.521	5292
876.65	5326
876.778	5166
876.906	5105
877.034	5079
877.162	5079
877.29	4991
877.418	5121
877.546	5086
877.674	5064
877.802	5067
877.93	5105
878.058	4957
878.185	4915
878.313	5010
878.441	4980
878.568	4866
878.696	4915
878.824	5037
878.951	5041
879.079	5185
879.206	5307
879.333	5155
879.461	4972
879.588	5029
879.715	5132
879.842	5307
879.97	5022
880.097	4805
880.224	4763
880.351	4854
880.478	4862
880.605	4828
880.732	4881
880.859	5113
880.986	4927
881.112	4980
881.239	4831
881.366	4668
881.493	4679
881.619	4596
881.746	4626
881.872	4721
881.999	4679
882.125	4675
882.252	4812
882.378	4847
882.505	4987
882.631	4854
882.757	4702
882.883	4778
883.01	4740
883.136	4683
883.262	4615
883.388	4634
883.514	4828
883.64	4938
883.766	4790
883.892	4706
884.018	4824
884.143	4904
884.269	5018
884.395	4702
884.52	4668
884.646	4664
884.772	4603
884.897	4603
885.023	4706
885.148	4816
885.274	4892
885.399	4831
885.524	4759
885.65	4668
885.775	4717
885.9	4679
886.025	4877
886.15	4793
886.275	4759
886.4	4710
886.525	4729
886.65	4717
886.775	4698
886.9	4900
887.025	5033
887.149	4866
887.274	4679
887.399	4656
887.523	4660
887.648	4630
887.773	4596
887.897	4782
888.021	4782
888.146	4694
888.27	4820
888.395	4919
888.519	4828
888.643	4866
888.767	4828
888.891	4706
889.015	4611
889.139	4679
889.263	4672
889.387	4786
889.511	4885
889.635	4790
889.759	4626
889.883	4645
890.006	4721
890.13	4839
890.254	4672
890.377	4679
890.501	4565
890.624	4550
890.748	4668
890.871	4542
890.995	4478
891.118	4436
891.241	4527
891.364	4565
891.488	4626
891.611	4519
891.734	4584
891.857	4687
891.98	4577
892.103	4660
892.226	4596
892.349	4550
892.471	4466
892.594	4558
892.717	4622
892.839	4588
892.962	4603
893.085	4721
893.207	4607
893.33	4489
893.452	4558
893.575	4645
893.697	4603
893.819	4828
893.941	4839
894.064	4793
894.186	4584
894.308	4592
894.43	4778
894.552	4870
894.674	4835
894.796	4607
894.918	4645
895.04	4565
895.161	4733
895.283	4714
895.405	4618
895.526	4641
895.648	4702
895.769	4717
895.891	4778
896.012	4778
896.134	4740
896.255	4630
896.376	4626
896.498	4596
896.619	4683
896.74	4645
896.861	4653
896.982	4930
897.103	5105
897.224	4847
897.345	4774
897.466	4740
897.587	4729
897.708	4889
897.828	4828
897.949	4698
898.07	4558
898.19	4599
898.311	4885
898.431	4717
898.552	4694
898.672	4835
898.792	4858
898.913	4759
899.033	4653
899.153	4508
899.273	4428
899.393	4489
899.513	4561
899.633	4523
899.753	4523
899.873	4519
899.993	4626
900.113	4565
900.232	4569
900.352	4573
900.472	4535
900.591	4440
900.711	4550
900.83	4443
900.95	4626
901.069	4706
901.189	4558
901.308	4379
901.427	4363
901.546	4440
901.665	4478
901.784	4523
901.904	4394
902.023	4390
902.141	4215
902.26	4158
902.379	4371
902.498	4276
902.617	4249
902.735	4390
902.854	4443
902.973	4356
903.091	4242
903.21	4257
903.328	4322
903.446	4333
903.565	4306
903.683	4348
903.801	4310
903.919	4409
904.038	4497
904.156	4356
904.274	4504
904.392	4386
904.51	4440
904.627	4535
904.745	4546
904.863	4668
904.981	4383
905.098	4379
905.216	4363
905.334	4424
905.451	4447
905.569	4436
905.686	4561
905.803	4618
905.921	4466
906.038	4599
906.155	4508
906.272	4405
906.389	4508
906.506	4356
906.623	4390
906.74	4402
906.857	4310
906.974	4394
907.091	4580
907.208	4660
907.324	4653
907.441	4519
907.557	4325
907.674	4348
907.79	4379
907.907	4436
908.023	4538
908.139	4481
908.256	4462
908.372	4489
908.488	4440
908.604	4386
908.72	4314
908.836	4386
908.952	4371
909.068	4402
909.184	4558
909.3	4523
909.415	4573
909.531	4599
909.647	4402
909.762	4379
909.878	4329
909.993	4455
910.108	4398
910.224	4462
910.339	4573
910.454	4398
910.57	4390
910.685	4352
910.8	4660
910.915	4592
911.03	4508
911.145	4360
911.259	4348
911.374	4352
911.489	4310
911.604	4276
911.718	4188
911.833	4230
911.947	4086
912.062	4059
912.176	4207
912.291	4276
912.405	4276
912.519	4485
912.633	4485
912.748	4356
912.862	4303
912.976	4196
913.09	4150
913.204	4211
913.318	4280
913.431	4383
913.545	4371
913.659	4428
913.772	4363
913.886	4265
914	4238
914.113	4421
914.226	4447
914.34	4390
914.453	4257
914.566	4440
914.68	4344
914.793	4360
914.906	4234
915.019	4147
915.132	4093
915.245	4238
915.358	4207
915.47	4299
915.583	4265
915.696	4322
915.809	4386
915.921	4489
916.034	4299
916.146	4291
916.259	4204
916.371	4405
916.483	4306
916.595	4318
916.708	4371
916.82	4333
916.932	4314
917.044	4371
917.156	4337
917.268	4257
917.38	4280
917.491	4341
917.603	4322
917.715	4405
917.826	4447
917.938	4379
918.049	4253
918.161	4390
918.272	4523
918.384	4485
918.495	4451
918.606	4333
918.717	4287
918.828	4329
918.939	4394
919.05	4287
919.161	4390
919.272	4128
919.383	4249
919.494	4474
919.604	4607
919.715	4462
919.826	4337
919.936	4440
920.047	4500
920.157	4512
920.267	4706
920.378	4569
920.488	4455
920.598	4729
920.708	4870
920.818	4774
920.928	4824
921.038	4965
921.148	4892
921.258	4656
921.368	4538
921.477	4523
921.587	4470
921.697	4402
921.806	4500
921.916	4459
922.025	4272
922.134	4230
922.244	4253
922.353	4344
922.462	4185
922.571	4166
922.68	4048
922.789	3937
922.898	3998
923.007	3968
923.116	4128
923.224	4036
923.333	4093
923.442	4044
923.55	3964
923.659	4051
923.767	4135
923.876	4006
923.984	4139
924.092	3983
924.201	4051
924.309	4082
924.417	4143
924.525	4082
924.633	4093
924.741	5075
924.849	3926
924.956	4109
925.064	4002
925.172	3934
925.279	3945
925.387	4105
925.494	4048
925.602	4211
925.709	4150
925.816	4044
925.924	4082
926.031	4215
926.138	4173
926.245	4234
926.352	4101
926.459	4303
926.566	4352
926.673	4124
926.779	4120
926.886	4078
926.993	4032
927.099	3972
927.206	3930
927.312	3960
927.419	4074
927.525	4017
927.631	4048
927.737	3979
927.843	3983
927.95	3850
928.056	3960
928.162	4010
928.267	4067
928.373	4679
928.479	4135
928.585	3838
928.69	4029
928.796	4086
928.901	3949
929.007	3857
929.112	3979
929.218	3983
929.323	3945
929.428	3953
929.533	4090
929.638	3903
929.743	3964
929.848	4074
929.953	3968
930.058	3953
930.163	3812
930.267	3819
930.372	3964
930.477	3800
930.581	4051
930.685	3956
930.79	3835
930.894	3918
930.998	3888
931.103	4078
931.207	3736
931.311	3686
931.415	3660
931.519	3530
931.623	3538
