Data from test_V78500241_2313.txt Node
Date: Fri Mar 25 17:05:05 CST 2022
User: usil
Spectrometer: V785-0024
Trigger mode: 0
Integration Time (sec): 4.000000E-1
Scans to average: 1
Nonlinearity correction enabled: false
Boxcar width: 0
Storing dark spectrum: false
XAxis mode: Wavelengths
Number of Pixels in Spectrum: 1024
>>>>>Begin Spectral Data<<<<<
801.071	7997
801.214	8008
801.356	7860
801.499	7940
801.641	7784
801.783	7776
801.926	7944
802.068	7947
802.211	8001
802.353	8039
802.496	7803
802.638	7841
802.78	7970
802.923	7913
803.065	7841
803.208	7875
803.35	8020
803.492	8103
803.635	8206
803.777	8008
803.919	8119
804.061	8488
804.204	8180
804.346	8027
804.488	8005
804.63	8016
804.773	7989
804.915	8088
805.057	8233
805.199	8134
805.341	8237
805.483	8187
805.626	8225
805.768	8142
805.91	8275
806.052	8221
806.194	8115
806.336	8343
806.478	8073
806.62	8100
806.762	8065
806.904	8183
807.046	8492
807.188	8377
807.33	8271
807.472	8339
807.614	8168
807.756	8161
807.898	7940
808.04	7845
808.182	7887
808.324	7928
808.465	7974
808.607	8130
808.749	8126
808.891	8298
809.033	8267
809.174	8237
809.316	7989
809.458	8107
809.6	8069
809.741	8065
809.883	8065
810.025	8126
810.166	8039
810.308	8092
810.45	7894
810.591	7852
810.733	7788
810.875	7658
811.016	7506
811.158	7403
811.299	7601
811.441	7693
811.582	7651
811.724	7533
811.865	7434
812.007	7636
812.148	7571
812.29	7590
812.431	7746
812.573	7856
812.714	8001
812.855	8073
812.997	8202
813.138	8286
813.279	8111
813.421	8039
813.562	7932
813.703	7837
813.845	7757
813.986	7460
814.127	7164
814.268	7209
814.41	7221
814.551	7145
814.692	7213
814.833	7088
814.974	7050
815.115	7118
815.256	7031
815.397	6924
815.539	6928
815.68	6810
815.821	6802
815.962	6871
816.103	6848
816.244	6696
816.385	6570
816.526	6639
816.666	6509
816.807	6300
816.948	6414
817.089	6456
817.23	6486
817.371	6346
817.512	6399
817.653	6376
817.793	6357
817.934	6388
818.075	6467
818.216	6388
818.356	6429
818.497	6262
818.638	6102
818.778	6155
818.919	6178
819.06	6117
819.2	6342
819.341	6361
819.481	6399
819.622	6578
819.762	6753
819.903	6696
820.043	6604
820.184	6570
820.324	6570
820.465	6673
820.605	6658
820.746	6635
820.886	6494
821.026	6635
821.167	6696
821.307	6764
821.447	6741
821.588	6677
821.728	6578
821.868	6506
822.008	6365
822.149	6315
822.289	6350
822.429	6133
822.569	6114
822.709	6175
822.849	5908
822.99	5908
823.13	5878
823.27	5878
823.41	5805
823.55	5752
823.69	5764
823.83	5779
823.97	5611
824.11	5501
824.25	5444
824.389	5577
824.529	5623
824.669	5558
824.809	5630
824.949	5649
825.089	5619
825.228	5592
825.368	5395
825.508	5353
825.648	5330
825.787	5353
825.927	5349
826.067	5307
826.206	5284
826.346	5303
826.485	5379
826.625	5398
826.765	5512
826.904	5444
827.044	5220
827.183	5159
827.323	5102
827.462	5220
827.601	5121
827.741	5201
827.88	5204
828.02	5045
828.159	5258
828.298	5261
828.437	5330
828.577	5269
828.716	5440
828.855	5311
828.994	5124
829.134	5143
829.273	5181
829.412	5121
829.551	5102
829.69	5136
829.829	5273
829.968	5292
830.107	5292
830.246	5258
830.385	5109
830.524	5140
830.663	5079
830.802	4961
830.941	4904
831.08	4847
831.219	4946
831.357	4968
831.496	5174
831.635	4911
831.774	4816
831.913	4816
832.051	4733
832.19	4786
832.329	4866
832.467	4702
832.606	4675
832.744	4714
832.883	4691
833.022	4725
833.16	4752
833.299	4858
833.437	4805
833.576	4843
833.714	4824
833.852	4847
833.991	4870
834.129	4930
834.267	4915
834.406	4942
834.544	4938
834.682	4965
834.821	4968
834.959	5140
835.097	5045
835.235	5143
835.373	5079
835.511	5086
835.65	5041
835.788	5045
835.926	4946
836.064	4885
836.202	4908
836.34	5174
836.478	5284
836.615	5178
836.753	5223
836.891	5318
837.029	5227
837.167	5231
837.305	5197
837.443	5162
837.58	5121
837.718	5269
837.856	5242
837.993	5212
838.131	5296
838.269	5227
838.406	5239
838.544	5254
838.681	5037
838.819	5045
838.956	4930
839.094	4976
839.231	5018
839.369	5140
839.506	5414
839.643	5318
839.781	5086
839.918	5060
840.055	5124
840.193	5124
840.33	5128
840.467	5124
840.604	5231
840.742	5486
840.879	5075
841.016	5128
841.153	5166
841.29	5417
841.427	5364
841.564	5353
841.701	5387
841.838	5284
841.975	5216
842.112	5250
842.249	5185
842.385	5132
842.522	5357
842.659	5143
842.796	5162
842.933	5254
843.069	5178
843.206	5208
843.343	5326
843.479	5269
843.616	5315
843.752	5086
843.889	5071
844.025	5265
844.162	5052
844.298	5246
844.435	5105
844.571	5098
844.708	5242
844.844	5299
844.98	5387
845.117	5357
845.253	5220
845.389	5170
845.525	5227
845.661	5166
845.798	5075
845.934	5117
846.07	5067
846.206	5273
846.342	5292
846.478	5208
846.614	5022
846.75	4991
846.886	4972
847.022	5159
847.158	4999
847.294	5075
847.429	5166
847.565	5109
847.701	5322
847.837	4831
847.972	4820
848.108	4946
848.244	5029
848.379	4782
848.515	4782
848.65	4740
848.786	4809
848.921	4771
849.057	4885
849.192	4919
849.328	4831
849.463	4850
849.598	4812
849.734	4786
849.869	4698
850.004	4679
850.14	4698
850.275	4645
850.41	4538
850.545	4596
850.68	4641
850.815	4656
850.95	4649
851.085	4908
851.22	4714
851.355	4679
851.49	4656
851.625	4641
851.76	4649
851.895	4584
852.03	4618
852.165	4683
852.299	4774
852.434	4771
852.569	4771
852.703	4805
852.838	4870
852.973	4957
853.107	4930
853.242	4748
853.376	4710
853.511	4519
853.645	4672
853.78	4839
853.914	4687
854.048	4702
854.183	4653
854.317	4748
854.451	4892
854.585	4687
854.72	4637
854.854	4790
854.988	4611
855.122	4645
855.256	4569
855.39	4656
855.524	4831
855.658	4744
855.792	4710
855.926	4771
856.06	4782
856.194	4790
856.327	4736
856.461	4622
856.595	4729
856.729	4645
856.862	4790
856.996	4736
857.13	4771
857.263	4771
857.397	4812
857.53	4694
857.664	4763
857.797	4759
857.931	4805
858.064	4714
858.197	4721
858.331	4668
858.464	4634
858.597	4519
858.731	4641
858.864	4656
858.997	4607
859.13	4683
859.263	4694
859.396	4698
859.529	4618
859.662	4637
859.795	4523
859.928	4641
860.061	4843
860.194	4786
860.327	4645
860.46	4588
860.592	4733
860.725	4721
860.858	4721
860.99	4649
861.123	4580
861.256	4538
861.388	4660
861.521	5292
861.653	4508
861.786	4497
861.918	4478
862.05	4546
862.183	4546
862.315	4622
862.447	4668
862.58	4603
862.712	4432
862.844	4379
862.976	4470
863.108	4523
863.24	4892
863.372	4318
863.504	4432
863.636	4417
863.768	4546
863.9	4432
864.032	4394
864.164	4451
864.296	4538
864.428	4512
864.559	4607
864.691	4584
864.823	4561
864.954	4531
865.086	4504
865.217	4500
865.349	4474
865.48	4485
865.612	4493
865.743	4622
865.875	4493
866.006	4451
866.137	4459
866.269	4459
866.4	4478
866.531	4428
866.662	4459
866.793	4424
866.924	4455
867.055	4516
867.186	4478
867.317	4470
867.448	4379
867.579	4424
867.71	4417
867.841	4398
867.972	4500
868.103	4481
868.233	4489
868.364	4443
868.495	4527
868.625	4691
868.756	4740
868.886	4569
869.017	4618
869.147	4778
869.278	4782
869.408	4721
869.539	4668
869.669	4755
869.799	4679
869.929	4801
870.06	4809
870.19	4953
870.32	4961
870.45	4980
870.58	5045
870.71	5083
870.84	5121
870.97	4930
871.1	4896
871.23	5170
871.36	5147
871.489	5086
871.619	5132
871.749	5136
871.879	5155
872.008	5185
872.138	5067
872.267	4972
872.397	4873
872.526	4793
872.656	4774
872.785	4862
872.915	4968
873.044	5067
873.173	4957
873.303	4965
873.432	5006
873.561	4972
873.69	4881
873.819	4904
873.948	4942
874.077	4801
874.206	4828
874.335	4866
874.464	4980
874.593	5117
874.722	4987
874.851	5064
874.979	5075
875.108	5083
875.237	4949
875.365	4904
875.494	4946
875.623	5025
875.751	4820
875.88	4934
876.008	5006
876.136	5083
876.265	5277
876.393	5360
876.521	5220
876.65	5258
876.778	5143
876.906	5090
877.034	5037
877.162	5075
877.29	4984
877.418	5113
877.546	5052
877.674	5075
877.802	5003
877.93	5014
878.058	4915
878.185	4930
878.313	5048
878.441	4980
878.568	4843
878.696	4915
878.824	4984
878.951	4968
879.079	5162
879.206	5353
879.333	5121
879.461	5064
879.588	5048
879.715	5151
879.842	5223
879.97	5064
880.097	4812
880.224	4752
880.351	4809
880.478	4812
880.605	4843
880.732	4839
880.859	5136
880.986	4919
881.112	4957
881.239	4824
881.366	4672
881.493	4645
881.619	4615
881.746	4664
881.872	4641
881.999	4607
882.125	4664
882.252	4793
882.378	4816
882.505	4972
882.631	4873
882.757	4725
882.883	4725
883.01	4763
883.136	4660
883.262	4645
883.388	4607
883.514	4831
883.64	4896
883.766	4835
883.892	4714
884.018	4744
884.143	4915
884.269	5083
884.395	4668
884.52	4626
884.646	4653
884.772	4573
884.897	4592
885.023	4637
885.148	4843
885.274	4854
885.399	4793
885.524	4763
885.65	4675
885.775	4725
885.9	4763
886.025	4915
886.15	4835
886.275	4721
886.4	4706
886.525	4790
886.65	4691
886.775	4698
886.9	4915
887.025	5041
887.149	4790
887.274	4668
887.399	4565
887.523	4645
887.648	4603
887.773	4565
887.897	4771
888.021	4809
888.146	4687
888.27	4824
888.395	4946
888.519	4793
888.643	4805
888.767	4892
888.891	4679
889.015	4622
889.139	4691
889.263	4618
889.387	4752
889.511	4881
889.635	4839
889.759	4653
889.883	4630
890.006	4763
890.13	4854
890.254	4580
890.377	4691
890.501	4561
890.624	4523
890.748	4649
890.871	4474
890.995	4405
891.118	4405
891.241	4470
891.364	4561
891.488	4683
891.611	4504
891.734	4535
891.857	4603
891.98	4546
892.103	4649
892.226	4584
892.349	4546
892.471	4428
892.594	4542
892.717	4626
892.839	4580
892.962	4634
893.085	4637
893.207	4615
893.33	4459
893.452	4527
893.575	4637
893.697	4558
893.819	4831
893.941	4820
894.064	4801
894.186	4626
894.308	4584
894.43	4698
894.552	4843
894.674	4778
894.796	4592
894.918	4641
895.04	4622
895.161	4691
895.283	4618
895.405	4611
895.526	4687
895.648	4687
895.769	4714
895.891	4717
896.012	4706
896.134	4759
896.255	4717
896.376	4675
896.498	4611
896.619	4706
896.74	4626
896.861	4698
896.982	4908
897.103	5109
897.224	4850
897.345	4733
897.466	4714
897.587	4752
897.708	4870
897.828	4847
897.949	4653
898.07	4603
898.19	4637
898.311	4831
898.431	4637
898.552	4782
898.672	4824
898.792	4835
898.913	4759
899.033	4626
899.153	4531
899.273	4462
899.393	4535
899.513	4497
899.633	4527
899.753	4565
899.873	4459
899.993	4569
900.113	4550
900.232	4607
900.352	4546
900.472	4481
900.591	4436
900.711	4497
900.83	4466
900.95	4626
901.069	4683
901.189	4577
901.308	4367
901.427	4344
901.546	4417
901.665	4478
901.784	4535
901.904	4413
902.023	4337
902.141	4177
902.26	4166
902.379	4295
902.498	4238
902.617	4230
902.735	4383
902.854	4371
902.973	4329
903.091	4185
903.21	4249
903.328	4333
903.446	4253
903.565	4272
903.683	4325
903.801	4310
903.919	4417
904.038	4390
904.156	4314
904.274	4409
904.392	4371
904.51	4409
904.627	4474
904.745	4599
904.863	4645
904.981	4390
905.098	4318
905.216	4383
905.334	4440
905.451	4409
905.569	4459
905.686	4615
905.803	4550
905.921	4405
906.038	4519
906.155	4462
906.272	4386
906.389	4455
906.506	4352
906.623	4402
906.74	4363
906.857	4265
906.974	4398
907.091	4565
907.208	4725
907.324	4607
907.441	4535
907.557	4360
907.674	4337
907.79	4303
907.907	4360
908.023	4497
908.139	4489
908.256	4440
908.372	4500
908.488	4504
908.604	4356
908.72	4356
908.836	4383
908.952	4383
909.068	4466
909.184	4592
909.3	4523
909.415	4626
909.531	4580
909.647	4405
909.762	4405
909.878	4402
909.993	4466
910.108	4451
910.224	4424
910.339	4474
910.454	4405
910.57	4375
910.685	4341
910.8	4706
910.915	4622
911.03	4489
911.145	4379
911.259	4310
911.374	4383
911.489	4352
911.604	4306
911.718	4253
911.833	4257
911.947	4112
912.062	4090
912.176	4299
912.291	4314
912.405	4287
912.519	4523
912.633	4607
912.748	4417
912.862	4367
912.976	4253
913.09	4131
913.204	4249
913.318	4314
913.431	4405
913.545	4424
913.659	4470
913.772	4413
913.886	4341
914	4253
914.113	4424
914.226	4485
914.34	4436
914.453	4272
914.566	4459
914.68	4352
914.793	4337
914.906	4227
915.019	4185
915.132	4150
915.245	4230
915.358	4280
915.47	4265
915.583	4295
915.696	4314
915.809	4459
915.921	4500
916.034	4325
916.146	4276
916.259	4299
916.371	4398
916.483	4363
916.595	4306
916.708	4405
916.82	4356
916.932	4322
917.044	4333
917.156	4386
917.268	4265
917.38	4306
917.491	4341
917.603	4341
917.715	4481
917.826	4443
917.938	4379
918.049	4310
918.161	4462
918.272	4584
918.384	4546
918.495	4523
918.606	4352
918.717	4268
918.828	4363
918.939	4405
919.05	4348
919.161	4348
919.272	4166
919.383	4268
919.494	4493
919.604	4679
919.715	4421
919.826	4398
919.936	4405
920.047	4546
920.157	4516
920.267	4710
920.378	4577
920.488	4538
920.598	4744
920.708	4904
920.818	4771
920.928	4824
921.038	4976
921.148	4961
921.258	4641
921.368	4580
921.477	4538
921.587	4500
921.697	4386
921.806	4611
921.916	4443
922.025	4303
922.134	4322
922.244	4272
922.353	4409
922.462	4227
922.571	4143
922.68	4013
922.789	4002
922.898	4116
923.007	4013
923.116	4162
923.224	4086
923.333	4090
923.442	4032
923.55	4036
923.659	4040
923.767	4116
923.876	4097
923.984	4143
924.092	4002
924.201	4090
924.309	4116
924.417	4150
924.525	4147
924.633	4166
924.741	5105
924.849	3934
924.956	4158
925.064	3998
925.172	3911
925.279	3998
925.387	4086
925.494	4124
925.602	4242
925.709	4192
925.816	4090
925.924	4185
926.031	4261
926.138	4196
926.245	4246
926.352	4139
926.459	4306
926.566	4295
926.673	4219
926.779	4109
926.886	4124
926.993	4036
927.099	3956
927.206	3987
927.312	3953
927.419	4093
927.525	4063
927.631	4116
927.737	3987
927.843	3945
927.95	3869
928.056	3983
928.162	4036
928.267	4071
928.373	4714
928.479	4181
928.585	3922
928.69	4071
928.796	4090
928.901	4021
929.007	3880
929.112	4032
929.218	3953
929.323	3994
929.428	3968
929.533	4139
929.638	3941
929.743	4025
929.848	4067
929.953	4040
930.058	3956
930.163	3804
930.267	3827
930.372	3975
930.477	3857
930.581	4109
930.685	4010
930.79	3831
930.894	3888
930.998	3937
931.103	4074
931.207	3755
931.311	3713
931.415	3671
931.519	3610
931.623	3584
