Data from test_V78500241_173.txt Node
Date: Fri Mar 25 16:50:12 CST 2022
User: usil
Spectrometer: V785-0024
Trigger mode: 0
Integration Time (sec): 4.000000E-1
Scans to average: 1
Nonlinearity correction enabled: false
Boxcar width: 0
Storing dark spectrum: false
XAxis mode: Wavelengths
Number of Pixels in Spectrum: 1024
>>>>>Begin Spectral Data<<<<<
801.071	8062
801.214	7970
801.356	7826
801.499	7833
801.641	7814
801.783	7814
801.926	7974
802.068	7989
802.211	7982
802.353	7963
802.496	7837
802.638	7974
802.78	7967
802.923	7925
803.065	7799
803.208	7769
803.35	8012
803.492	8031
803.635	8138
803.777	7947
803.919	8069
804.061	8370
804.204	8088
804.346	8005
804.488	7936
804.63	8138
804.773	7909
804.915	8100
805.057	8233
805.199	8123
805.341	8157
805.483	8157
805.626	8126
805.768	8138
805.91	8229
806.052	8172
806.194	8126
806.336	8286
806.478	8058
806.62	7997
806.762	8103
806.904	8221
807.046	8450
807.188	8275
807.33	8370
807.472	8336
807.614	8123
807.756	8180
807.898	8035
808.04	7879
808.182	7917
808.324	7925
808.465	7951
808.607	8043
808.749	8020
808.891	8218
809.033	8351
809.174	8149
809.316	8054
809.458	8092
809.6	7982
809.741	8050
809.883	8050
810.025	8043
810.166	8084
810.308	7986
810.45	7921
810.591	7887
810.733	7746
810.875	7731
811.016	7559
811.158	7552
811.299	7552
811.441	7708
811.582	7753
811.724	7609
811.865	7575
812.007	7643
812.148	7594
812.29	7582
812.431	7761
812.573	7864
812.714	8039
812.855	8214
812.997	8183
813.138	8343
813.279	8237
813.421	8123
813.562	7940
813.703	7822
813.845	7731
813.986	7483
814.127	7255
814.268	7270
814.41	7202
814.551	7126
814.692	7206
814.833	7080
814.974	7118
815.115	7145
815.256	6954
815.397	6951
815.539	6962
815.68	6787
815.821	6844
815.962	6890
816.103	6886
816.244	6722
816.385	6684
816.526	6662
816.666	6506
816.807	6357
816.948	6418
817.089	6418
817.23	6369
817.371	6338
817.512	6388
817.653	6391
817.793	6365
817.934	6437
818.075	6391
818.216	6395
818.356	6452
818.497	6220
818.638	6159
818.778	6148
818.919	6167
819.06	6110
819.2	6327
819.341	6350
819.481	6380
819.622	6506
819.762	6738
819.903	6665
820.043	6616
820.184	6620
820.324	6547
820.465	6654
820.605	6642
820.746	6688
820.886	6494
821.026	6700
821.167	6730
821.307	6768
821.447	6768
821.588	6642
821.728	6593
821.868	6506
822.008	6319
822.149	6388
822.289	6346
822.429	6140
822.569	6136
822.709	6106
822.849	5923
822.99	5821
823.13	5904
823.27	5977
823.41	5840
823.55	5805
823.69	5752
823.83	5775
823.97	5718
824.11	5490
824.25	5528
824.389	5581
824.529	5600
824.669	5520
824.809	5634
824.949	5665
825.089	5611
825.228	5551
825.368	5402
825.508	5326
825.648	5398
825.787	5383
825.927	5345
826.067	5280
826.206	5311
826.346	5387
826.485	5387
826.625	5410
826.765	5551
826.904	5505
827.044	5277
827.183	5212
827.323	5143
827.462	5246
827.601	5162
827.741	5174
827.88	5223
828.02	5113
828.159	5246
828.298	5299
828.437	5364
828.577	5265
828.716	5467
828.855	5322
828.994	5223
829.134	5250
829.273	5239
829.412	5220
829.551	5193
829.69	5208
829.829	5292
829.968	5360
830.107	5318
830.246	5318
830.385	5208
830.524	5193
830.663	5136
830.802	4991
830.941	4911
831.08	4915
831.219	5022
831.357	4976
831.496	5185
831.635	4942
831.774	4881
831.913	4927
832.051	4790
832.19	4816
832.329	4908
832.467	4763
832.606	4710
832.744	4763
832.883	4778
833.022	4774
833.16	4870
833.299	4866
833.437	4862
833.576	4862
833.714	4923
833.852	4949
833.991	4961
834.129	5083
834.267	4991
834.406	4953
834.544	5029
834.682	5071
834.821	5003
834.959	5166
835.097	5025
835.235	5189
835.373	5128
835.511	5109
835.65	5124
835.788	5140
835.926	4995
836.064	4881
836.202	4949
836.34	5239
836.478	5292
836.615	5197
836.753	5292
836.891	5337
837.029	5280
837.167	5242
837.305	5239
837.443	5231
837.58	5105
837.718	5265
837.856	5258
837.993	5246
838.131	5292
838.269	5242
838.406	5246
838.544	5193
838.681	5109
838.819	5098
838.956	4965
839.094	4900
839.231	5037
839.369	5117
839.506	5448
839.643	5311
839.781	5147
839.918	5014
840.055	5174
840.193	5117
840.33	5136
840.467	5208
840.604	5204
840.742	5429
840.879	5147
841.016	5166
841.153	5204
841.29	5402
841.427	5379
841.564	5398
841.701	5417
841.838	5337
841.975	5280
842.112	5341
842.249	5197
842.385	5136
842.522	5379
842.659	5239
842.796	5212
842.933	5223
843.069	5159
843.206	5132
843.343	5357
843.479	5239
843.616	5345
843.752	5075
843.889	5041
844.025	5265
844.162	5079
844.298	5242
844.435	5136
844.571	5113
844.708	5227
844.844	5330
844.98	5376
845.117	5334
845.253	5140
845.389	5143
845.525	5178
845.661	5155
845.798	5136
845.934	5162
846.07	5052
846.206	5201
846.342	5280
846.478	5258
846.614	5037
846.75	5014
846.886	4934
847.022	5197
847.158	5056
847.294	5105
847.429	5113
847.565	5067
847.701	5368
847.837	4900
847.972	4824
848.108	5006
848.244	5006
848.379	4797
848.515	4778
848.65	4763
848.786	4744
848.921	4793
849.057	4911
849.192	4919
849.328	4862
849.463	4847
849.598	4816
849.734	4790
849.869	4740
850.004	4714
850.14	4729
850.275	4679
850.41	4542
850.545	4573
850.68	4603
850.815	4626
850.95	4641
851.085	4911
851.22	4759
851.355	4759
851.49	4622
851.625	4645
851.76	4691
851.895	4607
852.03	4580
852.165	4687
852.299	4786
852.434	4843
852.569	4778
852.703	4820
852.838	4854
852.973	4965
853.107	4980
853.242	4729
853.376	4740
853.511	4649
853.645	4656
853.78	4862
853.914	4729
854.048	4729
854.183	4683
854.317	4759
854.451	4885
854.585	4736
854.72	4656
854.854	4828
854.988	4611
855.122	4634
855.256	4577
855.39	4691
855.524	4812
855.658	4778
855.792	4717
855.926	4744
856.06	4812
856.194	4847
856.327	4748
856.461	4618
856.595	4675
856.729	4694
856.862	4782
856.996	4778
857.13	4809
857.263	4763
857.397	4847
857.53	4694
857.664	4755
857.797	4782
857.931	4828
858.064	4790
858.197	4790
858.331	4717
858.464	4668
858.597	4599
858.731	4660
858.864	4672
858.997	4668
859.13	4710
859.263	4706
859.396	4736
859.529	4618
859.662	4611
859.795	4531
859.928	4622
860.061	4778
860.194	4824
860.327	4637
860.46	4603
860.592	4763
860.725	4786
860.858	4721
860.99	4618
861.123	4580
861.256	4584
861.388	4653
861.521	5448
861.653	4550
861.786	4478
861.918	4500
862.05	4565
862.183	4607
862.315	4630
862.447	4702
862.58	4592
862.712	4474
862.844	4360
862.976	4504
863.108	4500
863.24	4923
863.372	4405
863.504	4516
863.636	4459
863.768	4542
863.9	4512
864.032	4424
864.164	4459
864.296	4500
864.428	4611
864.559	4573
864.691	4516
864.823	4550
864.954	4531
865.086	4535
865.217	4519
865.349	4436
865.48	4481
865.612	4596
865.743	4687
865.875	4481
866.006	4447
866.137	4478
866.269	4497
866.4	4485
866.531	4451
866.662	4390
866.793	4504
866.924	4485
867.055	4550
867.186	4535
867.317	4398
867.448	4459
867.579	4417
867.71	4497
867.841	4462
867.972	4569
868.103	4493
868.233	4500
868.364	4481
868.495	4489
868.625	4740
868.756	4782
868.886	4630
869.017	4668
869.147	4873
869.278	4835
869.408	4717
869.539	4645
869.669	4771
869.799	4630
869.929	4820
870.06	4759
870.19	5045
870.32	4911
870.45	4976
870.58	5018
870.71	5166
870.84	5136
870.97	4938
871.1	4946
871.23	5140
871.36	5124
871.489	5075
871.619	5128
871.749	5121
871.879	5155
872.008	5201
872.138	5102
872.267	5018
872.397	4911
872.526	4858
872.656	4759
872.785	4870
872.915	4987
873.044	5075
873.173	5025
873.303	5029
873.432	4984
873.561	4980
873.69	4911
873.819	4946
873.948	4976
874.077	4850
874.206	4778
874.335	4835
874.464	4938
874.593	5136
874.722	4984
874.851	5162
874.979	5098
875.108	5064
875.237	4946
875.365	4927
875.494	4976
875.623	5022
875.751	4885
875.88	4919
876.008	5052
876.136	5079
876.265	5212
876.393	5387
876.521	5292
876.65	5254
876.778	5216
876.906	5067
877.034	4991
877.162	5090
877.29	5086
877.418	5086
877.546	5056
877.674	5124
877.802	5033
877.93	5083
878.058	5018
878.185	4965
878.313	5006
878.441	4965
878.568	4850
878.696	4927
878.824	4968
878.951	5048
879.079	5162
879.206	5299
879.333	5151
879.461	4968
879.588	5022
879.715	5151
879.842	5303
879.97	5025
880.097	4824
880.224	4748
880.351	4839
880.478	4828
880.605	4877
880.732	4877
880.859	5121
880.986	4923
881.112	4919
881.239	4831
881.366	4687
881.493	4653
881.619	4618
881.746	4687
881.872	4672
881.999	4706
882.125	4702
882.252	4767
882.378	4839
882.505	4980
882.631	4828
882.757	4748
882.883	4702
883.01	4725
883.136	4717
883.262	4607
883.388	4679
883.514	4873
883.64	4858
883.766	4850
883.892	4733
884.018	4710
884.143	4934
884.269	5025
884.395	4691
884.52	4656
884.646	4694
884.772	4603
884.897	4615
885.023	4702
885.148	4824
885.274	4908
885.399	4850
885.524	4729
885.65	4668
885.775	4797
885.9	4698
886.025	4892
886.15	4805
886.275	4744
886.4	4733
886.525	4740
886.65	4679
886.775	4668
886.9	4873
887.025	5105
887.149	4778
887.274	4660
887.399	4611
887.523	4630
887.648	4603
887.773	4626
887.897	4786
888.021	4774
888.146	4683
888.27	4866
888.395	4892
888.519	4831
888.643	4904
888.767	4839
888.891	4714
889.015	4588
889.139	4710
889.263	4675
889.387	4774
889.511	4900
889.635	4786
889.759	4641
889.883	4687
890.006	4778
890.13	4858
890.254	4679
890.377	4687
890.501	4607
890.624	4516
890.748	4675
890.871	4569
890.995	4512
891.118	4409
891.241	4538
891.364	4592
891.488	4672
891.611	4519
891.734	4573
891.857	4630
891.98	4546
892.103	4679
892.226	4634
892.349	4561
892.471	4451
892.594	4584
892.717	4630
892.839	4626
892.962	4603
893.085	4733
893.207	4656
893.33	4516
893.452	4607
893.575	4687
893.697	4607
893.819	4820
893.941	4866
894.064	4767
894.186	4573
894.308	4622
894.43	4752
894.552	4850
894.674	4820
894.796	4599
894.918	4630
895.04	4607
895.161	4694
895.283	4691
895.405	4634
895.526	4675
895.648	4725
895.769	4694
895.891	4759
896.012	4801
896.134	4767
896.255	4725
896.376	4649
896.498	4634
896.619	4683
896.74	4634
896.861	4679
896.982	4942
897.103	5083
897.224	4866
897.345	4786
897.466	4687
897.587	4755
897.708	4873
897.828	4793
897.949	4714
898.07	4626
898.19	4660
898.311	4866
898.431	4714
898.552	4740
898.672	4854
898.792	4816
898.913	4767
899.033	4634
899.153	4474
899.273	4455
899.393	4512
899.513	4527
899.633	4558
899.753	4580
899.873	4538
899.993	4607
900.113	4546
900.232	4653
900.352	4599
900.472	4493
900.591	4413
900.711	4538
900.83	4455
900.95	4634
901.069	4706
901.189	4596
901.308	4379
901.427	4367
901.546	4371
901.665	4436
901.784	4481
901.904	4421
902.023	4329
902.141	4211
902.26	4223
902.379	4348
902.498	4265
902.617	4268
902.735	4424
902.854	4447
902.973	4363
903.091	4238
903.21	4249
903.328	4363
903.446	4303
903.565	4287
903.683	4379
903.801	4291
903.919	4394
904.038	4470
904.156	4348
904.274	4485
904.392	4462
904.51	4447
904.627	4504
904.745	4649
904.863	4664
904.981	4466
905.098	4333
905.216	4413
905.334	4497
905.451	4440
905.569	4466
905.686	4634
905.803	4634
905.921	4436
906.038	4596
906.155	4554
906.272	4485
906.389	4470
906.506	4390
906.623	4451
906.74	4405
906.857	4329
906.974	4440
907.091	4622
907.208	4725
907.324	4634
907.441	4550
907.557	4383
907.674	4417
907.79	4379
907.907	4424
908.023	4542
908.139	4569
908.256	4516
908.372	4550
908.488	4481
908.604	4405
908.72	4405
908.836	4428
908.952	4470
909.068	4470
909.184	4660
909.3	4512
909.415	4637
909.531	4622
909.647	4390
909.762	4440
909.878	4421
909.993	4504
910.108	4504
910.224	4478
910.339	4558
910.454	4462
910.57	4451
910.685	4371
910.8	4660
910.915	4706
911.03	4531
911.145	4367
911.259	4409
911.374	4436
911.489	4386
911.604	4363
911.718	4211
911.833	4314
911.947	4166
912.062	4105
912.176	4261
912.291	4272
912.405	4371
912.519	4512
912.633	4584
912.748	4459
912.862	4386
912.976	4230
913.09	4154
913.204	4242
913.318	4337
913.431	4386
913.545	4398
913.659	4527
913.772	4386
913.886	4341
914	4265
914.113	4485
914.226	4470
914.34	4424
914.453	4242
914.566	4497
914.68	4383
914.793	4390
914.906	4177
915.019	4188
915.132	4143
915.245	4219
915.358	4261
915.47	4291
915.583	4360
915.696	4386
915.809	4474
915.921	4462
916.034	4303
916.146	4291
916.259	4246
916.371	4398
916.483	4421
916.595	4314
916.708	4352
916.82	4383
916.932	4379
917.044	4371
917.156	4398
917.268	4284
917.38	4344
917.491	4329
917.603	4383
917.715	4542
917.826	4489
917.938	4440
918.049	4329
918.161	4428
918.272	4618
918.384	4569
918.495	4500
918.606	4360
918.717	4360
918.828	4436
918.939	4409
919.05	4318
919.161	4409
919.272	4150
919.383	4261
919.494	4523
919.604	4675
919.715	4481
919.826	4424
919.936	4497
920.047	4535
920.157	4516
920.267	4755
920.378	4573
920.488	4584
920.598	4752
920.708	4961
920.818	4805
920.928	4828
921.038	5014
921.148	4987
921.258	4691
921.368	4634
921.477	4584
921.587	4527
921.697	4432
921.806	4618
921.916	4478
922.025	4337
922.134	4306
922.244	4246
922.353	4398
922.462	4276
922.571	4173
922.68	4109
922.789	4025
922.898	4063
923.007	4010
923.116	4139
923.224	4112
923.333	4105
923.442	4044
923.55	4013
923.659	4082
923.767	4169
923.876	4044
923.984	4143
924.092	4059
924.201	4090
924.309	4162
924.417	4158
924.525	4105
924.633	4120
924.741	4949
924.849	3975
924.956	4101
925.064	4017
925.172	4002
925.279	3968
925.387	4101
925.494	4116
925.602	4284
925.709	4204
925.816	4139
925.924	4185
926.031	4299
926.138	4207
926.245	4211
926.352	4135
926.459	4303
926.566	4329
926.673	4181
926.779	4150
926.886	4139
926.993	4021
927.099	4029
927.206	3972
927.312	3983
927.419	4128
927.525	4112
927.631	4139
927.737	4051
927.843	3968
927.95	3888
928.056	3998
928.162	4093
928.267	4131
928.373	4706
928.479	4173
928.585	3979
928.69	4101
928.796	4086
928.901	4006
929.007	3899
929.112	4078
929.218	4021
929.323	3956
929.428	3964
929.533	4147
929.638	3960
929.743	4006
929.848	4051
929.953	4036
930.058	3983
930.163	3816
930.267	3896
930.372	4010
930.477	3869
930.581	4116
930.685	3998
930.79	3888
930.894	3876
930.998	3876
931.103	4093
931.207	3743
931.311	3751
931.415	3747
931.519	3568
931.623	3633
