Data from test_V78500241_187.txt Node
Date: Fri Mar 25 16:50:18 CST 2022
User: usil
Spectrometer: V785-0024
Trigger mode: 0
Integration Time (sec): 4.000000E-1
Scans to average: 1
Nonlinearity correction enabled: false
Boxcar width: 0
Storing dark spectrum: false
XAxis mode: Wavelengths
Number of Pixels in Spectrum: 1024
>>>>>Begin Spectral Data<<<<<
801.071	7955
801.214	7959
801.356	7799
801.499	7799
801.641	7776
801.783	7879
801.926	7989
802.068	8046
802.211	8039
802.353	8027
802.496	7917
802.638	7978
802.78	7989
802.923	7906
803.065	7822
803.208	7856
803.35	8024
803.492	8046
803.635	8142
803.777	7989
803.919	8107
804.061	8396
804.204	8088
804.346	8043
804.488	7967
804.63	8043
804.773	7917
804.915	8016
805.057	8279
805.199	8145
805.341	8172
805.483	8339
805.626	8244
805.768	8039
805.91	8183
806.052	8176
806.194	8107
806.336	8332
806.478	8077
806.62	8088
806.762	8149
806.904	8233
807.046	8419
807.188	8366
807.33	8275
807.472	8259
807.614	8153
807.756	8062
807.898	7947
808.04	7902
808.182	7864
808.324	7970
808.465	7906
808.607	8043
808.749	8107
808.891	8240
809.033	8309
809.174	8233
809.316	8031
809.458	8073
809.6	7925
809.741	8058
809.883	7967
810.025	8092
810.166	8035
810.308	8016
810.45	7989
810.591	7944
810.733	7753
810.875	7753
811.016	7460
811.158	7537
811.299	7651
811.441	7795
811.582	7715
811.724	7578
811.865	7537
812.007	7582
812.148	7582
812.29	7651
812.431	7826
812.573	7879
812.714	8016
812.855	8149
812.997	8259
813.138	8301
813.279	8214
813.421	8016
813.562	8035
813.703	7925
813.845	7811
813.986	7457
814.127	7270
814.268	7293
814.41	7164
814.551	7114
814.692	7263
814.833	7118
814.974	7179
815.115	7126
815.256	6981
815.397	6981
815.539	6958
815.68	6844
815.821	6760
815.962	6863
816.103	6806
816.244	6684
816.385	6669
816.526	6700
816.666	6521
816.807	6350
816.948	6403
817.089	6422
817.23	6460
817.371	6365
817.512	6471
817.653	6380
817.793	6357
817.934	6418
818.075	6471
818.216	6388
818.356	6369
818.497	6216
818.638	6083
818.778	6121
818.919	6129
819.06	6148
819.2	6300
819.341	6289
819.481	6300
819.622	6494
819.762	6741
819.903	6692
820.043	6574
820.184	6593
820.324	6582
820.465	6711
820.605	6722
820.746	6677
820.886	6506
821.026	6665
821.167	6711
821.307	6776
821.447	6749
821.588	6662
821.728	6623
821.868	6464
822.008	6308
822.149	6327
822.289	6376
822.429	6159
822.569	6053
822.709	6136
822.849	5859
822.99	5927
823.13	5958
823.27	5901
823.41	5771
823.55	5794
823.69	5786
823.83	5729
823.97	5703
824.11	5585
824.25	5630
824.389	5630
824.529	5623
824.669	5551
824.809	5600
824.949	5703
825.089	5630
825.228	5581
825.368	5387
825.508	5318
825.648	5341
825.787	5357
825.927	5395
826.067	5311
826.206	5254
826.346	5357
826.485	5436
826.625	5440
826.765	5535
826.904	5463
827.044	5273
827.183	5208
827.323	5170
827.462	5242
827.601	5201
827.741	5223
827.88	5201
828.02	5170
828.159	5246
828.298	5345
828.437	5387
828.577	5280
828.716	5486
828.855	5296
828.994	5151
829.134	5181
829.273	5231
829.412	5105
829.551	5189
829.69	5197
829.829	5265
829.968	5391
830.107	5273
830.246	5261
830.385	5220
830.524	5159
830.663	5071
830.802	4984
830.941	4858
831.08	4889
831.219	4995
831.357	4991
831.496	5132
831.635	4915
831.774	4816
831.913	4870
832.051	4702
832.19	4771
832.329	4847
832.467	4714
832.606	4611
832.744	4755
832.883	4721
833.022	4721
833.16	4809
833.299	4839
833.437	4847
833.576	4843
833.714	4854
833.852	4858
833.991	4881
834.129	5025
834.267	4984
834.406	4953
834.544	4999
834.682	4972
834.821	4995
834.959	5159
835.097	4968
835.235	5166
835.373	5086
835.511	5086
835.65	5045
835.788	5075
835.926	4927
836.064	4919
836.202	4911
836.34	5162
836.478	5208
836.615	5113
836.753	5231
836.891	5296
837.029	5246
837.167	5185
837.305	5140
837.443	5121
837.58	5045
837.718	5231
837.856	5239
837.993	5113
838.131	5242
838.269	5231
838.406	5216
838.544	5223
838.681	5067
838.819	4980
838.956	4911
839.094	4911
839.231	4999
839.369	5117
839.506	5459
839.643	5284
839.781	5064
839.918	5014
840.055	5094
840.193	5067
840.33	5105
840.467	5113
840.604	5181
840.742	5372
840.879	5045
841.016	5094
841.153	5140
841.29	5357
841.427	5372
841.564	5330
841.701	5379
841.838	5261
841.975	5254
842.112	5246
842.249	5136
842.385	5143
842.522	5334
842.659	5181
842.796	5166
842.933	5197
843.069	5147
843.206	5147
843.343	5311
843.479	5231
843.616	5235
843.752	5006
843.889	5018
844.025	5216
844.162	5037
844.298	5261
844.435	5094
844.571	5094
844.708	5239
844.844	5273
844.98	5372
845.117	5322
845.253	5136
845.389	5064
845.525	5178
845.661	5185
845.798	5041
845.934	5132
846.07	5025
846.206	5170
846.342	5273
846.478	5140
846.614	5045
846.75	4987
846.886	4942
847.022	5193
847.158	5029
847.294	5048
847.429	5086
847.565	5029
847.701	5292
847.837	4850
847.972	4812
848.108	5010
848.244	4911
848.379	4778
848.515	4748
848.65	4660
848.786	4755
848.921	4786
849.057	4961
849.192	4908
849.328	4824
849.463	4835
849.598	4820
849.734	4733
849.869	4710
850.004	4603
850.14	4717
850.275	4664
850.41	4493
850.545	4550
850.68	4550
850.815	4634
850.95	4622
851.085	4877
851.22	4733
851.355	4660
851.49	4637
851.625	4607
851.76	4656
851.895	4565
852.03	4550
852.165	4679
852.299	4691
852.434	4763
852.569	4812
852.703	4809
852.838	4843
852.973	4984
853.107	4900
853.242	4774
853.376	4687
853.511	4542
853.645	4596
853.78	4828
853.914	4634
854.048	4679
854.183	4679
854.317	4702
854.451	4862
854.585	4645
854.72	4626
854.854	4782
854.988	4603
855.122	4622
855.256	4516
855.39	4630
855.524	4816
855.658	4702
855.792	4702
855.926	4744
856.06	4782
856.194	4801
856.327	4687
856.461	4599
856.595	4653
856.729	4588
856.862	4725
856.996	4710
857.13	4733
857.263	4736
857.397	4839
857.53	4611
857.664	4736
857.797	4729
857.931	4748
858.064	4717
858.197	4710
858.331	4634
858.464	4618
858.597	4531
858.731	4668
858.864	4615
858.997	4637
859.13	4706
859.263	4714
859.396	4706
859.529	4596
859.662	4565
859.795	4592
859.928	4668
860.061	4782
860.194	4763
860.327	4645
860.46	4546
860.592	4721
860.725	4733
860.858	4736
860.99	4565
861.123	4538
861.256	4497
861.388	4626
861.521	5372
861.653	4481
861.786	4485
861.918	4485
862.05	4527
862.183	4538
862.315	4588
862.447	4660
862.58	4546
862.712	4394
862.844	4322
862.976	4447
863.108	4451
863.24	4900
863.372	4348
863.504	4394
863.636	4413
863.768	4459
863.9	4413
864.032	4371
864.164	4447
864.296	4489
864.428	4558
864.559	4554
864.691	4558
864.823	4512
864.954	4497
865.086	4527
865.217	4417
865.349	4417
865.48	4493
865.612	4523
865.743	4603
865.875	4478
866.006	4417
866.137	4459
866.269	4474
866.4	4474
866.531	4455
866.662	4398
866.793	4421
866.924	4428
867.055	4527
867.186	4466
867.317	4440
867.448	4348
867.579	4390
867.71	4459
867.841	4386
867.972	4508
868.103	4500
868.233	4519
868.364	4508
868.495	4497
868.625	4656
868.756	4774
868.886	4516
869.017	4596
869.147	4752
869.278	4786
869.408	4714
869.539	4672
869.669	4721
869.799	4660
869.929	4774
870.06	4706
870.19	4949
870.32	4953
870.45	4885
870.58	4991
870.71	5094
870.84	5079
870.97	4919
871.1	4923
871.23	5155
871.36	5136
871.489	5071
871.619	5086
871.749	5132
871.879	5124
872.008	5193
872.138	5029
872.267	4961
872.397	4862
872.526	4873
872.656	4778
872.785	4820
872.915	4965
873.044	5018
873.173	4968
873.303	4991
873.432	5006
873.561	4980
873.69	4850
873.819	4889
873.948	4946
874.077	4790
874.206	4797
874.335	4831
874.464	4949
874.593	5098
874.722	4938
874.851	5079
874.979	5109
875.108	5045
875.237	4949
875.365	4934
875.494	4908
875.623	5041
875.751	4854
875.88	4877
876.008	5033
876.136	5052
876.265	5185
876.393	5398
876.521	5239
876.65	5246
876.778	5159
876.906	5083
877.034	5003
877.162	5037
877.29	5022
877.418	5056
877.546	5037
877.674	5056
877.802	5014
877.93	5064
878.058	4930
878.185	4885
878.313	4976
878.441	4949
878.568	4759
878.696	4923
878.824	4991
878.951	5018
879.079	5193
879.206	5345
879.333	5105
879.461	5003
879.588	5025
879.715	5136
879.842	5220
879.97	5056
880.097	4778
880.224	4824
880.351	4786
880.478	4835
880.605	4847
880.732	4752
880.859	5102
880.986	4923
881.112	4896
881.239	4816
881.366	4691
881.493	4599
881.619	4565
881.746	4649
881.872	4660
881.999	4653
882.125	4717
882.252	4816
882.378	4831
882.505	4938
882.631	4778
882.757	4691
882.883	4725
883.01	4710
883.136	4683
883.262	4649
883.388	4660
883.514	4801
883.64	4850
883.766	4828
883.892	4694
884.018	4778
884.143	4911
884.269	5025
884.395	4710
884.52	4675
884.646	4641
884.772	4618
884.897	4538
885.023	4706
885.148	4801
885.274	4896
885.399	4847
885.524	4736
885.65	4721
885.775	4748
885.9	4759
886.025	4866
886.15	4805
886.275	4721
886.4	4725
886.525	4729
886.65	4698
886.775	4656
886.9	4923
887.025	5060
887.149	4847
887.274	4656
887.399	4592
887.523	4668
887.648	4668
887.773	4569
887.897	4793
888.021	4812
888.146	4721
888.27	4790
888.395	4915
888.519	4816
888.643	4805
888.767	4854
888.891	4656
889.015	4622
889.139	4630
889.263	4611
889.387	4786
889.511	4889
889.635	4805
889.759	4656
889.883	4653
890.006	4774
890.13	4831
890.254	4637
890.377	4698
890.501	4504
890.624	4596
890.748	4694
890.871	4550
890.995	4459
891.118	4405
891.241	4550
891.364	4519
891.488	4668
891.611	4493
891.734	4558
891.857	4634
891.98	4558
892.103	4691
892.226	4603
892.349	4554
892.471	4443
892.594	4546
892.717	4618
892.839	4603
892.962	4558
893.085	4653
893.207	4611
893.33	4497
893.452	4512
893.575	4691
893.697	4596
893.819	4797
893.941	4858
894.064	4786
894.186	4569
894.308	4626
894.43	4755
894.552	4816
894.674	4736
894.796	4596
894.918	4573
895.04	4580
895.161	4752
895.283	4649
895.405	4630
895.526	4637
895.648	4702
895.769	4729
895.891	4717
896.012	4748
896.134	4748
896.255	4687
896.376	4691
896.498	4675
896.619	4702
896.74	4618
896.861	4649
896.982	4984
897.103	5064
897.224	4854
897.345	4725
897.466	4653
897.587	4744
897.708	4854
897.828	4774
897.949	4717
898.07	4588
898.19	4634
898.311	4850
898.431	4649
898.552	4786
898.672	4854
898.792	4755
898.913	4744
899.033	4603
899.153	4516
899.273	4432
899.393	4470
899.513	4550
899.633	4554
899.753	4573
899.873	4493
899.993	4565
900.113	4527
900.232	4630
900.352	4538
900.472	4523
900.591	4413
900.711	4455
900.83	4459
900.95	4645
901.069	4672
901.189	4546
901.308	4352
901.427	4341
901.546	4409
901.665	4504
901.784	4497
901.904	4405
902.023	4329
902.141	4169
902.26	4215
902.379	4337
902.498	4280
902.617	4253
902.735	4409
902.854	4417
902.973	4379
903.091	4230
903.21	4261
903.328	4325
903.446	4272
903.565	4272
903.683	4413
903.801	4303
903.919	4417
904.038	4470
904.156	4314
904.274	4478
904.392	4417
904.51	4421
904.627	4440
904.745	4584
904.863	4622
904.981	4432
905.098	4344
905.216	4363
905.334	4428
905.451	4447
905.569	4462
905.686	4558
905.803	4580
905.921	4436
906.038	4577
906.155	4497
906.272	4394
906.389	4478
906.506	4348
906.623	4417
906.74	4424
906.857	4318
906.974	4394
907.091	4588
907.208	4725
907.324	4538
907.441	4500
907.557	4363
907.674	4341
907.79	4333
907.907	4405
908.023	4508
908.139	4470
908.256	4462
908.372	4478
908.488	4447
908.604	4303
908.72	4344
908.836	4348
908.952	4348
909.068	4413
909.184	4527
909.3	4493
909.415	4569
909.531	4561
909.647	4379
909.762	4421
909.878	4329
909.993	4421
910.108	4421
910.224	4379
910.339	4497
910.454	4440
910.57	4447
910.685	4329
910.8	4649
910.915	4611
911.03	4523
911.145	4322
911.259	4303
911.374	4421
911.489	4280
911.604	4276
911.718	4177
911.833	4169
911.947	4074
912.062	4051
912.176	4230
912.291	4242
912.405	4268
912.519	4478
912.633	4443
912.748	4371
912.862	4318
912.976	4200
913.09	4109
913.204	4196
913.318	4299
913.431	4398
913.545	4398
913.659	4402
913.772	4383
913.886	4265
914	4257
914.113	4371
914.226	4451
914.34	4394
914.453	4249
914.566	4440
914.68	4348
914.793	4322
914.906	4143
915.019	4150
915.132	4090
915.245	4169
915.358	4188
915.47	4211
915.583	4291
915.696	4333
915.809	4436
915.921	4462
916.034	4280
916.146	4268
916.259	4257
916.371	4367
916.483	4379
916.595	4227
916.708	4291
916.82	4299
916.932	4325
917.044	4360
917.156	4383
917.268	4249
917.38	4238
917.491	4291
917.603	4333
917.715	4375
917.826	4470
917.938	4379
918.049	4238
918.161	4386
918.272	4577
918.384	4527
918.495	4462
918.606	4352
918.717	4257
918.828	4394
918.939	4379
919.05	4287
919.161	4322
919.272	4124
919.383	4192
919.494	4451
919.604	4607
919.715	4455
919.826	4318
919.936	4417
920.047	4573
920.157	4512
920.267	4725
920.378	4550
920.488	4516
920.598	4679
920.708	4938
920.818	4782
920.928	4790
921.038	4976
921.148	4938
921.258	4653
921.368	4584
921.477	4512
921.587	4478
921.697	4367
921.806	4542
921.916	4436
922.025	4257
922.134	4284
922.244	4242
922.353	4379
922.462	4169
922.571	4097
922.68	3987
922.789	3956
922.898	4059
923.007	3998
923.116	4147
923.224	4059
923.333	4074
923.442	3979
923.55	3998
923.659	4048
923.767	4105
923.876	3991
923.984	4192
924.092	4002
924.201	4082
924.309	4090
924.417	4074
924.525	4074
924.633	4090
924.741	4877
924.849	3987
924.956	4143
925.064	3930
925.172	3945
925.279	3975
925.387	4048
925.494	4078
925.602	4234
925.709	4166
925.816	4086
925.924	4105
926.031	4242
926.138	4150
926.245	4169
926.352	4105
926.459	4280
926.566	4337
926.673	4166
926.779	4124
926.886	4131
926.993	4021
927.099	3945
927.206	3918
927.312	3899
927.419	4067
927.525	4013
927.631	4086
927.737	4002
927.843	3972
927.95	3880
928.056	4006
928.162	4025
928.267	4078
928.373	4672
928.479	4158
928.585	3854
928.69	4010
928.796	4112
928.901	3949
929.007	3869
929.112	4017
929.218	4006
929.323	3934
929.428	3937
929.533	4124
929.638	3915
929.743	3956
929.848	4074
929.953	4017
930.058	3956
930.163	3838
930.267	3835
930.372	4013
930.477	3781
930.581	4120
930.685	3956
930.79	3854
930.894	3884
930.998	3888
931.103	4044
931.207	3728
931.311	3701
931.415	3720
931.519	3523
931.623	3568
