Data from test_V78500241_1847.txt Node
Date: Fri Mar 25 17:01:50 CST 2022
User: usil
Spectrometer: V785-0024
Trigger mode: 0
Integration Time (sec): 4.000000E-1
Scans to average: 1
Nonlinearity correction enabled: false
Boxcar width: 0
Storing dark spectrum: false
XAxis mode: Wavelengths
Number of Pixels in Spectrum: 1024
>>>>>Begin Spectral Data<<<<<
801.071	7986
801.214	7978
801.356	7852
801.499	7875
801.641	7799
801.783	7864
801.926	7936
802.068	7898
802.211	8012
802.353	7944
802.496	7871
802.638	7822
802.78	7826
802.923	7936
803.065	7837
803.208	7837
803.35	7959
803.492	8073
803.635	8103
803.777	8020
803.919	8115
804.061	8415
804.204	8134
804.346	8005
804.488	8008
804.63	8027
804.773	7955
804.915	8111
805.057	8279
805.199	8176
805.341	8149
805.483	8305
805.626	8191
805.768	8115
805.91	8218
806.052	8187
806.194	8115
806.336	8309
806.478	8062
806.62	8077
806.762	8176
806.904	8324
807.046	8473
807.188	8362
807.33	8294
807.472	8343
807.614	8199
807.756	8142
807.898	8001
808.04	7921
808.182	7841
808.324	7814
808.465	7944
808.607	8035
808.749	8054
808.891	8210
809.033	8233
809.174	8195
809.316	8020
809.458	8103
809.6	8008
809.741	8077
809.883	7989
810.025	8035
810.166	8077
810.308	7978
810.45	7993
810.591	7788
810.733	7712
810.875	7696
811.016	7449
811.158	7460
811.299	7506
811.441	7731
811.582	7609
811.724	7480
811.865	7552
812.007	7632
812.148	7597
812.29	7601
812.431	7788
812.573	7852
812.714	7951
812.855	8134
812.997	8157
813.138	8218
813.279	8244
813.421	8111
813.562	7989
813.703	7807
813.845	7696
813.986	7403
814.127	7209
814.268	7263
814.41	7168
814.551	7190
814.692	7217
814.833	7053
814.974	7061
815.115	7061
815.256	6970
815.397	6932
815.539	6905
815.68	6844
815.821	6776
815.962	6859
816.103	6760
816.244	6700
816.385	6612
816.526	6544
816.666	6559
816.807	6357
816.948	6448
817.089	6513
817.23	6426
817.371	6338
817.512	6292
817.653	6376
817.793	6327
817.934	6380
818.075	6452
818.216	6361
818.356	6388
818.497	6167
818.638	6102
818.778	6125
818.919	6106
819.06	6152
819.2	6308
819.341	6357
819.481	6365
819.622	6517
819.762	6711
819.903	6703
820.043	6570
820.184	6506
820.324	6532
820.465	6650
820.605	6662
820.746	6707
820.886	6498
821.026	6639
821.167	6681
821.307	6738
821.447	6726
821.588	6646
821.728	6597
821.868	6464
822.008	6300
822.149	6399
822.289	6270
822.429	6178
822.569	6064
822.709	6148
822.849	5912
822.99	5931
823.13	5866
823.27	5901
823.41	5798
823.55	5824
823.69	5828
823.83	5798
823.97	5680
824.11	5516
824.25	5520
824.389	5608
824.529	5619
824.669	5516
824.809	5604
824.949	5653
825.089	5596
825.228	5520
825.368	5410
825.508	5330
825.648	5357
825.787	5391
825.927	5429
826.067	5315
826.206	5337
826.346	5406
826.485	5497
826.625	5429
826.765	5566
826.904	5490
827.044	5349
827.183	5254
827.323	5193
827.462	5254
827.601	5159
827.741	5181
827.88	5261
828.02	5189
828.159	5250
828.298	5341
828.437	5425
828.577	5277
828.716	5509
828.855	5353
828.994	5239
829.134	5147
829.273	5242
829.412	5201
829.551	5155
829.69	5197
829.829	5299
829.968	5364
830.107	5318
830.246	5315
830.385	5231
830.524	5140
830.663	5064
830.802	4987
830.941	4908
831.08	4949
831.219	5003
831.357	5033
831.496	5185
831.635	4991
831.774	4885
831.913	4889
832.051	4767
832.19	4801
832.329	4828
832.467	4733
832.606	4706
832.744	4767
832.883	4744
833.022	4725
833.16	4820
833.299	4843
833.437	4881
833.576	4850
833.714	4942
833.852	4889
833.991	4904
834.129	5010
834.267	4930
834.406	4968
834.544	5003
834.682	4957
834.821	5025
834.959	5147
835.097	4991
835.235	5185
835.373	5105
835.511	5140
835.65	5094
835.788	5075
835.926	4968
836.064	4904
836.202	4946
836.34	5235
836.478	5223
836.615	5170
836.753	5242
836.891	5250
837.029	5303
837.167	5223
837.305	5212
837.443	5185
837.58	5128
837.718	5265
837.856	5189
837.993	5170
838.131	5265
838.269	5216
838.406	5269
838.544	5220
838.681	5079
838.819	5033
838.956	4911
839.094	4885
839.231	5045
839.369	5033
839.506	5490
839.643	5296
839.781	5094
839.918	5102
840.055	5132
840.193	5143
840.33	5159
840.467	5155
840.604	5239
840.742	5486
840.879	5090
841.016	5090
841.153	5197
841.29	5395
841.427	5360
841.564	5341
841.701	5387
841.838	5299
841.975	5277
842.112	5307
842.249	5181
842.385	5185
842.522	5372
842.659	5193
842.796	5242
842.933	5242
843.069	5193
843.206	5143
843.343	5398
843.479	5288
843.616	5318
843.752	5079
843.889	5018
844.025	5159
844.162	5010
844.298	5201
844.435	5147
844.571	5105
844.708	5143
844.844	5280
844.98	5379
845.117	5353
845.253	5140
845.389	5124
845.525	5231
845.661	5174
845.798	5109
845.934	5140
846.07	5060
846.206	5261
846.342	5265
846.478	5204
846.614	5025
846.75	4968
846.886	4968
847.022	5170
847.158	5067
847.294	5079
847.429	5113
847.565	5071
847.701	5372
847.837	4858
847.972	4847
848.108	4984
848.244	5003
848.379	4847
848.515	4729
848.65	4736
848.786	4782
848.921	4778
849.057	4866
849.192	4904
849.328	4809
849.463	4847
849.598	4847
849.734	4793
849.869	4702
850.004	4717
850.14	4729
850.275	4675
850.41	4542
850.545	4569
850.68	4611
850.815	4645
850.95	4637
851.085	4896
851.22	4752
851.355	4694
851.49	4637
851.625	4675
851.76	4679
851.895	4542
852.03	4584
852.165	4679
852.299	4767
852.434	4778
852.569	4759
852.703	4850
852.838	4900
852.973	4934
853.107	4934
853.242	4778
853.376	4717
853.511	4596
853.645	4649
853.78	4862
853.914	4721
854.048	4694
854.183	4672
854.317	4752
854.451	4847
854.585	4694
854.72	4683
854.854	4763
854.988	4630
855.122	4649
855.256	4580
855.39	4717
855.524	4831
855.658	4744
855.792	4698
855.926	4721
856.06	4816
856.194	4843
856.327	4717
856.461	4687
856.595	4588
856.729	4702
856.862	4771
856.996	4691
857.13	4698
857.263	4778
857.397	4771
857.53	4694
857.664	4740
857.797	4729
857.931	4862
858.064	4675
858.197	4755
858.331	4645
858.464	4611
858.597	4538
858.731	4641
858.864	4645
858.997	4607
859.13	4729
859.263	4729
859.396	4714
859.529	4588
859.662	4580
859.795	4565
859.928	4637
860.061	4778
860.194	4733
860.327	4683
860.46	4580
860.592	4706
860.725	4797
860.858	4744
860.99	4672
861.123	4565
861.256	4569
861.388	4554
861.521	5383
861.653	4459
861.786	4474
861.918	4489
862.05	4527
862.183	4580
862.315	4569
862.447	4675
862.58	4523
862.712	4428
862.844	4379
862.976	4500
863.108	4459
863.24	4843
863.372	4371
863.504	4432
863.636	4394
863.768	4535
863.9	4455
864.032	4409
864.164	4405
864.296	4535
864.428	4569
864.559	4588
864.691	4565
864.823	4546
864.954	4485
865.086	4527
865.217	4489
865.349	4451
865.48	4478
865.612	4519
865.743	4615
865.875	4504
866.006	4485
866.137	4497
866.269	4474
866.4	4447
866.531	4493
866.662	4424
866.793	4417
866.924	4432
867.055	4550
867.186	4443
867.317	4478
867.448	4413
867.579	4443
867.71	4440
867.841	4402
867.972	4474
868.103	4500
868.233	4455
868.364	4500
868.495	4497
868.625	4675
868.756	4725
868.886	4615
869.017	4622
869.147	4797
869.278	4755
869.408	4683
869.539	4611
869.669	4733
869.799	4683
869.929	4767
870.06	4725
870.19	4968
870.32	4976
870.45	4976
870.58	5052
870.71	5094
870.84	5102
870.97	4965
871.1	4904
871.23	5162
871.36	5162
871.489	5075
871.619	5102
871.749	5102
871.879	5189
872.008	5204
872.138	5060
872.267	5003
872.397	4904
872.526	4809
872.656	4767
872.785	4873
872.915	4976
873.044	5014
873.173	4934
873.303	4976
873.432	4946
873.561	4987
873.69	4858
873.819	4866
873.948	4919
874.077	4862
874.206	4816
874.335	4790
874.464	4923
874.593	5105
874.722	5018
874.851	5098
874.979	5105
875.108	4999
875.237	4946
875.365	4877
875.494	4870
875.623	5010
875.751	4870
875.88	4843
876.008	4999
876.136	5029
876.265	5216
876.393	5357
876.521	5277
876.65	5227
876.778	5159
876.906	5098
877.034	5064
877.162	5056
877.29	4980
877.418	5075
877.546	5060
877.674	5094
877.802	5037
877.93	5025
878.058	4957
878.185	4892
878.313	4923
878.441	4957
878.568	4812
878.696	4881
878.824	5006
878.951	5022
879.079	5117
879.206	5284
879.333	5105
879.461	5029
879.588	5048
879.715	5189
879.842	5239
879.97	5052
880.097	4805
880.224	4729
880.351	4854
880.478	4778
880.605	4828
880.732	4763
880.859	5086
880.986	4919
881.112	4942
881.239	4778
881.366	4645
881.493	4660
881.619	4592
881.746	4687
881.872	4683
881.999	4675
882.125	4744
882.252	4771
882.378	4797
882.505	4957
882.631	4839
882.757	4664
882.883	4740
883.01	4767
883.136	4694
883.262	4615
883.388	4641
883.514	4793
883.64	4824
883.766	4797
883.892	4668
884.018	4771
884.143	4873
884.269	4976
884.395	4664
884.52	4660
884.646	4649
884.772	4679
884.897	4618
885.023	4668
885.148	4812
885.274	4923
885.399	4816
885.524	4702
885.65	4649
885.775	4767
885.9	4706
886.025	4854
886.15	4774
886.275	4717
886.4	4622
886.525	4714
886.65	4717
886.775	4698
886.9	4927
887.025	5064
887.149	4805
887.274	4630
887.399	4561
887.523	4599
887.648	4637
887.773	4615
887.897	4767
888.021	4763
888.146	4691
888.27	4805
888.395	4934
888.519	4790
888.643	4831
888.767	4820
888.891	4668
889.015	4634
889.139	4706
889.263	4637
889.387	4771
889.511	4854
889.635	4828
889.759	4645
889.883	4714
890.006	4725
890.13	4870
890.254	4618
890.377	4755
890.501	4596
890.624	4554
890.748	4596
890.871	4516
890.995	4432
891.118	4390
891.241	4546
891.364	4584
891.488	4645
891.611	4512
891.734	4558
891.857	4653
891.98	4554
892.103	4656
892.226	4592
892.349	4531
892.471	4428
892.594	4607
892.717	4584
892.839	4599
892.962	4561
893.085	4679
893.207	4615
893.33	4447
893.452	4519
893.575	4683
893.697	4577
893.819	4839
893.941	4843
894.064	4759
894.186	4550
894.308	4561
894.43	4721
894.552	4847
894.674	4786
894.796	4569
894.918	4607
895.04	4531
895.161	4683
895.283	4656
895.405	4607
895.526	4634
895.648	4744
895.769	4733
895.891	4714
896.012	4778
896.134	4759
896.255	4645
896.376	4649
896.498	4630
896.619	4637
896.74	4615
896.861	4630
896.982	4987
897.103	5079
897.224	4858
897.345	4759
897.466	4698
897.587	4744
897.708	4831
897.828	4812
897.949	4649
898.07	4538
898.19	4649
898.311	4885
898.431	4664
898.552	4831
898.672	4782
898.792	4782
898.913	4790
899.033	4653
899.153	4519
899.273	4428
899.393	4481
899.513	4535
899.633	4504
899.753	4554
899.873	4527
899.993	4558
900.113	4497
900.232	4588
900.352	4588
900.472	4485
900.591	4417
900.711	4500
900.83	4436
900.95	4607
901.069	4679
901.189	4512
901.308	4371
901.427	4310
901.546	4383
901.665	4512
901.784	4531
901.904	4405
902.023	4367
902.141	4215
902.26	4188
902.379	4337
902.498	4310
902.617	4238
902.735	4375
902.854	4421
902.973	4402
903.091	4192
903.21	4253
903.328	4306
903.446	4261
903.565	4230
903.683	4379
903.801	4322
903.919	4440
904.038	4440
904.156	4310
904.274	4443
904.392	4462
904.51	4466
904.627	4440
904.745	4637
904.863	4645
904.981	4413
905.098	4295
905.216	4356
905.334	4409
905.451	4478
905.569	4405
905.686	4550
905.803	4558
905.921	4402
906.038	4565
906.155	4451
906.272	4375
906.389	4470
906.506	4367
906.623	4432
906.74	4398
906.857	4318
906.974	4375
907.091	4542
907.208	4660
907.324	4580
907.441	4561
907.557	4363
907.674	4337
907.79	4310
907.907	4371
908.023	4440
908.139	4455
908.256	4443
908.372	4504
908.488	4489
908.604	4318
908.72	4276
908.836	4428
908.952	4375
909.068	4443
909.184	4580
909.3	4489
909.415	4584
909.531	4565
909.647	4322
909.762	4379
909.878	4363
909.993	4497
910.108	4402
910.224	4413
910.339	4504
910.454	4367
910.57	4367
910.685	4291
910.8	4565
910.915	4630
911.03	4512
911.145	4356
911.259	4360
911.374	4352
911.489	4299
911.604	4253
911.718	4169
911.833	4196
911.947	4074
912.062	4025
912.176	4219
912.291	4246
912.405	4291
912.519	4413
912.633	4459
912.748	4375
912.862	4341
912.976	4230
913.09	4055
913.204	4207
913.318	4242
913.431	4356
913.545	4417
913.659	4455
913.772	4341
913.886	4242
914	4207
914.113	4394
914.226	4455
914.34	4390
914.453	4257
914.566	4432
914.68	4299
914.793	4348
914.906	4166
915.019	4116
915.132	4055
915.245	4185
915.358	4238
915.47	4192
915.583	4310
915.696	4280
915.809	4375
915.921	4402
916.034	4246
916.146	4249
916.259	4211
916.371	4383
916.483	4322
916.595	4227
916.708	4303
916.82	4344
916.932	4303
917.044	4344
917.156	4268
917.268	4204
917.38	4284
917.491	4272
917.603	4352
917.715	4436
917.826	4447
917.938	4310
918.049	4253
918.161	4413
918.272	4558
918.384	4550
918.495	4398
918.606	4276
918.717	4268
918.828	4341
918.939	4363
919.05	4268
919.161	4329
919.272	4135
919.383	4223
919.494	4504
919.604	4637
919.715	4451
919.826	4386
919.936	4398
920.047	4538
920.157	4500
920.267	4679
920.378	4542
920.488	4527
920.598	4725
920.708	4885
920.818	4740
920.928	4714
921.038	4911
921.148	4877
921.258	4622
921.368	4561
921.477	4481
921.587	4474
921.697	4390
921.806	4546
921.916	4413
922.025	4280
922.134	4246
922.244	4238
922.353	4329
922.462	4215
922.571	4105
922.68	3998
922.789	4021
922.898	4025
923.007	4025
923.116	4128
923.224	4074
923.333	4055
923.442	3991
923.55	3975
923.659	4040
923.767	4112
923.876	4010
923.984	4101
924.092	3918
924.201	4109
924.309	4097
924.417	4143
924.525	4055
924.633	4105
924.741	4976
924.849	3945
924.956	4147
925.064	3998
925.172	3926
925.279	3949
925.387	4105
925.494	4040
925.602	4219
925.709	4196
925.816	4063
925.924	4116
926.031	4261
926.138	4128
926.245	4177
926.352	4105
926.459	4185
926.566	4306
926.673	4177
926.779	4048
926.886	4071
926.993	4010
927.099	3983
927.206	3968
927.312	3934
927.419	4036
927.525	4013
927.631	4097
927.737	3956
927.843	3937
927.95	3850
928.056	3956
928.162	3960
928.267	4082
928.373	4607
928.479	4078
928.585	3876
928.69	4078
928.796	4074
928.901	3998
929.007	3903
929.112	3994
929.218	3994
929.323	3926
929.428	3903
929.533	4101
929.638	3956
929.743	3991
929.848	4074
929.953	3960
930.058	3911
930.163	3804
930.267	3827
930.372	4002
930.477	3827
930.581	4044
930.685	3972
930.79	3800
930.894	3854
930.998	3926
931.103	4036
931.207	3713
931.311	3694
931.415	3690
931.519	3504
931.623	3534
