Data from test_V78500241_862.txt Node
Date: Fri Mar 25 16:54:59 CST 2022
User: usil
Spectrometer: V785-0024
Trigger mode: 0
Integration Time (sec): 4.000000E-1
Scans to average: 1
Nonlinearity correction enabled: false
Boxcar width: 0
Storing dark spectrum: false
XAxis mode: Wavelengths
Number of Pixels in Spectrum: 1024
>>>>>Begin Spectral Data<<<<<
801.071	8016
801.214	8008
801.356	7963
801.499	7841
801.641	7757
801.783	7887
801.926	7982
802.068	7944
802.211	7909
802.353	7986
802.496	7868
802.638	7951
802.78	7967
802.923	7947
803.065	7875
803.208	7913
803.35	8031
803.492	8123
803.635	8161
803.777	8077
803.919	8130
804.061	8362
804.204	8183
804.346	8027
804.488	7959
804.63	8096
804.773	8035
804.915	8031
805.057	8271
805.199	8126
805.341	8229
805.483	8275
805.626	8195
805.768	8153
805.91	8229
806.052	8191
806.194	8069
806.336	8313
806.478	8164
806.62	8043
806.762	8123
806.904	8267
807.046	8419
807.188	8347
807.33	8355
807.472	8347
807.614	8153
807.756	8126
807.898	7970
808.04	7864
808.182	7932
808.324	7875
808.465	7883
808.607	8035
808.749	8142
808.891	8138
809.033	8259
809.174	8172
809.316	8081
809.458	8031
809.6	7921
809.741	8012
809.883	8001
810.025	8062
810.166	8069
810.308	8035
810.45	8012
810.591	7963
810.733	7750
810.875	7685
811.016	7537
811.158	7483
811.299	7647
811.441	7723
811.582	7689
811.724	7540
811.865	7525
812.007	7548
812.148	7575
812.29	7590
812.431	7719
812.573	7841
812.714	7955
812.855	8149
812.997	8282
813.138	8332
813.279	8214
813.421	8123
813.562	8016
813.703	7860
813.845	7753
813.986	7506
814.127	7266
814.268	7247
814.41	7194
814.551	7103
814.692	7110
814.833	7053
814.974	7046
815.115	7069
815.256	7004
815.397	6875
815.539	6985
815.68	6825
815.821	6760
815.962	6871
816.103	6776
816.244	6696
816.385	6612
816.526	6673
816.666	6506
816.807	6277
816.948	6422
817.089	6494
817.23	6460
817.371	6395
817.512	6403
817.653	6357
817.793	6384
817.934	6399
818.075	6521
818.216	6426
818.356	6361
818.497	6262
818.638	6129
818.778	6140
818.919	6144
819.06	6175
819.2	6311
819.341	6304
819.481	6395
819.622	6555
819.762	6726
819.903	6722
820.043	6551
820.184	6578
820.324	6578
820.465	6673
820.605	6665
820.746	6601
820.886	6464
821.026	6662
821.167	6719
821.307	6738
821.447	6753
821.588	6684
821.728	6544
821.868	6513
822.008	6315
822.149	6388
822.289	6372
822.429	6152
822.569	6076
822.709	6053
822.849	5904
822.99	5920
823.13	5870
823.27	5901
823.41	5756
823.55	5809
823.69	5748
823.83	5802
823.97	5680
824.11	5535
824.25	5528
824.389	5585
824.529	5570
824.669	5509
824.809	5611
824.949	5714
825.089	5566
825.228	5634
825.368	5364
825.508	5311
825.648	5379
825.787	5311
825.927	5417
826.067	5303
826.206	5265
826.346	5387
826.485	5372
826.625	5448
826.765	5554
826.904	5478
827.044	5250
827.183	5166
827.323	5083
827.462	5231
827.601	5174
827.741	5189
827.88	5239
828.02	5132
828.159	5254
828.298	5299
828.437	5311
828.577	5303
828.716	5486
828.855	5353
828.994	5178
829.134	5181
829.273	5231
829.412	5170
829.551	5151
829.69	5197
829.829	5246
829.968	5406
830.107	5235
830.246	5277
830.385	5162
830.524	5151
830.663	5064
830.802	4965
830.941	4892
831.08	4870
831.219	4965
831.357	4976
831.496	5132
831.635	4934
831.774	4839
831.913	4828
832.051	4725
832.19	4740
832.329	4854
832.467	4702
832.606	4649
832.744	4733
832.883	4698
833.022	4725
833.16	4816
833.299	4805
833.437	4793
833.576	4820
833.714	4870
833.852	4927
833.991	4892
834.129	4991
834.267	4991
834.406	4896
834.544	4991
834.682	4949
834.821	4961
834.959	5132
835.097	5033
835.235	5151
835.373	5056
835.511	5094
835.65	5048
835.788	5041
835.926	4908
836.064	4862
836.202	4961
836.34	5071
836.478	5280
836.615	5128
836.753	5254
836.891	5292
837.029	5273
837.167	5223
837.305	5140
837.443	5140
837.58	5064
837.718	5201
837.856	5220
837.993	5056
838.131	5201
838.269	5197
838.406	5162
838.544	5174
838.681	5014
838.819	5014
838.956	4904
839.094	4942
839.231	4991
839.369	5025
839.506	5425
839.643	5223
839.781	5121
839.918	5018
840.055	5060
840.193	5094
840.33	5075
840.467	5162
840.604	5197
840.742	5444
840.879	5071
841.016	5098
841.153	5136
841.29	5330
841.427	5307
841.564	5353
841.701	5303
841.838	5277
841.975	5189
842.112	5261
842.249	5124
842.385	5079
842.522	5337
842.659	5155
842.796	5132
842.933	5166
843.069	5155
843.206	5178
843.343	5250
843.479	5212
843.616	5307
843.752	4927
843.889	4987
844.025	5250
844.162	4965
844.298	5220
844.435	5086
844.571	5041
844.708	5235
844.844	5322
844.98	5360
845.117	5246
845.253	5166
845.389	5075
845.525	5147
845.661	5128
845.798	5010
845.934	5132
846.07	5098
846.206	5178
846.342	5250
846.478	5242
846.614	5006
846.75	4995
846.886	4915
847.022	5117
847.158	5003
847.294	5083
847.429	5056
847.565	5025
847.701	5334
847.837	4877
847.972	4820
848.108	4957
848.244	4934
848.379	4740
848.515	4767
848.65	4710
848.786	4748
848.921	4820
849.057	4870
849.192	4942
849.328	4812
849.463	4854
849.598	4797
849.734	4721
849.869	4664
850.004	4626
850.14	4672
850.275	4645
850.41	4535
850.545	4565
850.68	4554
850.815	4626
850.95	4592
851.085	4824
851.22	4805
851.355	4706
851.49	4596
851.625	4645
851.76	4660
851.895	4569
852.03	4512
852.165	4645
852.299	4694
852.434	4778
852.569	4733
852.703	4763
852.838	4835
852.973	4919
853.107	4927
853.242	4744
853.376	4653
853.511	4504
853.645	4577
853.78	4786
853.914	4641
854.048	4656
854.183	4611
854.317	4618
854.451	4797
854.585	4691
854.72	4721
854.854	4790
854.988	4607
855.122	4565
855.256	4523
855.39	4649
855.524	4797
855.658	4740
855.792	4706
855.926	4721
856.06	4710
856.194	4771
856.327	4687
856.461	4592
856.595	4599
856.729	4637
856.862	4812
856.996	4672
857.13	4714
857.263	4752
857.397	4774
857.53	4622
857.664	4687
857.797	4763
857.931	4755
858.064	4706
858.197	4790
858.331	4664
858.464	4611
858.597	4531
858.731	4611
858.864	4668
858.997	4580
859.13	4660
859.263	4607
859.396	4691
859.529	4577
859.662	4634
859.795	4558
859.928	4664
860.061	4748
860.194	4755
860.327	4653
860.46	4535
860.592	4717
860.725	4702
860.858	4721
860.99	4550
861.123	4485
861.256	4500
861.388	4596
861.521	5315
861.653	4531
861.786	4481
861.918	4489
862.05	4508
862.183	4565
862.315	4565
862.447	4634
862.58	4542
862.712	4367
862.844	4314
862.976	4508
863.108	4443
863.24	4752
863.372	4333
863.504	4462
863.636	4386
863.768	4466
863.9	4402
864.032	4356
864.164	4386
864.296	4512
864.428	4470
864.559	4596
864.691	4527
864.823	4542
864.954	4478
865.086	4504
865.217	4455
865.349	4363
865.48	4451
865.612	4497
865.743	4641
865.875	4470
866.006	4402
866.137	4493
866.269	4421
866.4	4417
866.531	4383
866.662	4386
866.793	4379
866.924	4402
867.055	4421
867.186	4459
867.317	4443
867.448	4341
867.579	4413
867.71	4337
867.841	4386
867.972	4436
868.103	4360
868.233	4436
868.364	4409
868.495	4451
868.625	4645
868.756	4733
868.886	4569
869.017	4626
869.147	4755
869.278	4790
869.408	4691
869.539	4626
869.669	4679
869.799	4656
869.929	4740
870.06	4744
870.19	4904
870.32	4938
870.45	4946
870.58	4991
870.71	5102
870.84	5037
870.97	4991
871.1	4881
871.23	5147
871.36	5037
871.489	5041
871.619	5079
871.749	5048
871.879	5056
872.008	5117
872.138	5022
872.267	4946
872.397	4824
872.526	4809
872.656	4733
872.785	4809
872.915	4965
873.044	5025
873.173	4953
873.303	4995
873.432	4919
873.561	4923
873.69	4854
873.819	4877
873.948	4904
874.077	4820
874.206	4706
874.335	4790
874.464	4866
874.593	5052
874.722	4976
874.851	5136
874.979	5067
875.108	5022
875.237	4900
875.365	4862
875.494	4900
875.623	4953
875.751	4809
875.88	4881
876.008	4965
876.136	5067
876.265	5155
876.393	5318
876.521	5284
876.65	5223
876.778	5151
876.906	5075
877.034	5003
877.162	4984
877.29	4957
877.418	5022
877.546	4995
877.674	5025
877.802	5003
877.93	5010
878.058	4968
878.185	4850
878.313	4923
878.441	4892
878.568	4824
878.696	4892
878.824	4999
878.951	4957
879.079	5155
879.206	5227
879.333	5083
879.461	4938
879.588	5006
879.715	5132
879.842	5227
879.97	5010
880.097	4797
880.224	4733
880.351	4820
880.478	4805
880.605	4759
880.732	4797
880.859	5079
880.986	4889
881.112	4919
881.239	4809
881.366	4653
881.493	4592
881.619	4588
881.746	4592
881.872	4618
881.999	4611
882.125	4675
882.252	4736
882.378	4805
882.505	4938
882.631	4831
882.757	4653
882.883	4675
883.01	4740
883.136	4759
883.262	4603
883.388	4596
883.514	4778
883.64	4885
883.766	4763
883.892	4634
884.018	4714
884.143	4870
884.269	5018
884.395	4664
884.52	4649
884.646	4641
884.772	4573
884.897	4550
885.023	4653
885.148	4809
885.274	4854
885.399	4782
885.524	4679
885.65	4706
885.775	4736
885.9	4706
886.025	4866
886.15	4759
886.275	4668
886.4	4675
886.525	4694
886.65	4622
886.775	4729
886.9	4881
887.025	5022
887.149	4782
887.274	4679
887.399	4577
887.523	4584
887.648	4542
887.773	4516
887.897	4702
888.021	4805
888.146	4683
888.27	4744
888.395	4839
888.519	4752
888.643	4793
888.767	4759
888.891	4653
889.015	4561
889.139	4622
889.263	4577
889.387	4767
889.511	4873
889.635	4797
889.759	4603
889.883	4653
890.006	4740
890.13	4805
890.254	4611
890.377	4637
890.501	4558
890.624	4523
890.748	4645
890.871	4504
890.995	4447
891.118	4363
891.241	4512
891.364	4538
891.488	4607
891.611	4466
891.734	4527
891.857	4565
891.98	4531
892.103	4664
892.226	4599
892.349	4481
892.471	4394
892.594	4531
892.717	4622
892.839	4558
892.962	4599
893.085	4660
893.207	4596
893.33	4440
893.452	4538
893.575	4653
893.697	4573
893.819	4767
893.941	4824
894.064	4809
894.186	4550
894.308	4580
894.43	4755
894.552	4774
894.674	4778
894.796	4584
894.918	4603
895.04	4558
895.161	4725
895.283	4675
895.405	4580
895.526	4615
895.648	4691
895.769	4645
895.891	4714
896.012	4733
896.134	4714
896.255	4660
896.376	4596
896.498	4584
896.619	4687
896.74	4580
896.861	4679
896.982	4919
897.103	5022
897.224	4839
897.345	4740
897.466	4630
897.587	4706
897.708	4816
897.828	4805
897.949	4656
898.07	4561
898.19	4546
898.311	4812
898.431	4672
898.552	4752
898.672	4801
898.792	4744
898.913	4733
899.033	4599
899.153	4481
899.273	4421
899.393	4519
899.513	4485
899.633	4523
899.753	4504
899.873	4527
899.993	4565
900.113	4504
900.232	4573
900.352	4512
900.472	4443
900.591	4409
900.711	4462
900.83	4409
900.95	4634
901.069	4645
901.189	4497
901.308	4375
901.427	4295
901.546	4348
901.665	4481
901.784	4462
901.904	4402
902.023	4314
902.141	4211
902.26	4135
902.379	4314
902.498	4215
902.617	4207
902.735	4344
902.854	4348
902.973	4333
903.091	4192
903.21	4242
903.328	4280
903.446	4310
903.565	4261
903.683	4333
903.801	4314
903.919	4356
904.038	4440
904.156	4276
904.274	4375
904.392	4424
904.51	4440
904.627	4459
904.745	4531
904.863	4596
904.981	4379
905.098	4295
905.216	4329
905.334	4405
905.451	4367
905.569	4478
905.686	4523
905.803	4584
905.921	4356
906.038	4493
906.155	4470
906.272	4344
906.389	4451
906.506	4356
906.623	4363
906.74	4390
906.857	4284
906.974	4383
907.091	4580
907.208	4687
907.324	4611
907.441	4500
907.557	4303
907.674	4383
907.79	4284
907.907	4405
908.023	4481
908.139	4470
908.256	4409
908.372	4462
908.488	4405
908.604	4390
908.72	4333
908.836	4344
908.952	4348
909.068	4459
909.184	4542
909.3	4462
909.415	4542
909.531	4615
909.647	4383
909.762	4337
909.878	4322
909.993	4413
910.108	4379
910.224	4352
910.339	4462
910.454	4428
910.57	4318
910.685	4329
910.8	4630
910.915	4554
911.03	4516
911.145	4352
911.259	4322
911.374	4386
911.489	4249
911.604	4291
911.718	4185
911.833	4169
911.947	4036
912.062	4040
912.176	4200
912.291	4230
912.405	4230
912.519	4459
912.633	4489
912.748	4360
912.862	4333
912.976	4200
913.09	4048
913.204	4143
913.318	4284
913.431	4341
913.545	4341
913.659	4417
913.772	4348
913.886	4265
914	4234
914.113	4356
914.226	4451
914.34	4363
914.453	4188
914.566	4409
914.68	4265
914.793	4348
914.906	4135
915.019	4109
915.132	4071
915.245	4223
915.358	4185
915.47	4196
915.583	4261
915.696	4280
915.809	4383
915.921	4367
916.034	4253
916.146	4257
916.259	4242
916.371	4352
916.483	4352
916.595	4287
916.708	4299
916.82	4246
916.932	4333
917.044	4322
917.156	4314
917.268	4204
917.38	4246
917.491	4230
917.603	4299
917.715	4383
917.826	4443
917.938	4333
918.049	4230
918.161	4386
918.272	4565
918.384	4531
918.495	4413
918.606	4261
918.717	4253
918.828	4325
918.939	4291
919.05	4246
919.161	4291
919.272	4120
919.383	4242
919.494	4474
919.604	4611
919.715	4424
919.826	4352
919.936	4390
920.047	4542
920.157	4466
920.267	4717
920.378	4516
920.488	4478
920.598	4710
920.708	4927
920.818	4721
920.928	4782
921.038	4957
921.148	4946
921.258	4634
921.368	4565
921.477	4489
921.587	4405
921.697	4360
921.806	4489
921.916	4462
922.025	4284
922.134	4230
922.244	4234
922.353	4284
922.462	4192
922.571	4139
922.68	3987
922.789	3994
922.898	4006
923.007	3991
923.116	4135
923.224	4025
923.333	4063
923.442	3975
923.55	3972
923.659	4010
923.767	4086
923.876	3987
923.984	4105
924.092	3968
924.201	4059
924.309	4124
924.417	4135
924.525	4048
924.633	4109
924.741	4911
924.849	3915
924.956	4139
925.064	3930
925.172	3888
925.279	3945
925.387	4051
925.494	4055
925.602	4204
925.709	4181
925.816	4055
925.924	4166
926.031	4211
926.138	4162
926.245	4173
926.352	4105
926.459	4280
926.566	4299
926.673	4135
926.779	4109
926.886	4063
926.993	3964
927.099	4017
927.206	3896
927.312	3953
927.419	4032
927.525	4029
927.631	4059
927.737	3949
927.843	3949
927.95	3831
928.056	3949
928.162	3968
928.267	4051
928.373	4573
928.479	4082
928.585	3892
928.69	3998
928.796	4109
928.901	3960
929.007	3823
929.112	3975
929.218	3979
929.323	3930
929.428	3899
929.533	4112
929.638	3934
929.743	4002
929.848	4074
929.953	4032
930.058	3907
930.163	3781
930.267	3793
930.372	3987
930.477	3831
930.581	4086
930.685	3854
930.79	3797
930.894	3903
930.998	3831
931.103	4048
931.207	3686
931.311	3709
931.415	3667
931.519	3523
931.623	3492
