Data from test_V78500241_25.txt Node
Date: Fri Mar 25 16:49:10 CST 2022
User: usil
Spectrometer: V785-0024
Trigger mode: 0
Integration Time (sec): 4.000000E-1
Scans to average: 1
Nonlinearity correction enabled: false
Boxcar width: 0
Storing dark spectrum: false
XAxis mode: Wavelengths
Number of Pixels in Spectrum: 1024
>>>>>Begin Spectral Data<<<<<
801.071	8058
801.214	7993
801.356	7978
801.499	8046
801.641	7879
801.783	7875
801.926	8081
802.068	7959
802.211	8016
802.353	8046
802.496	7967
802.638	8024
802.78	8008
802.923	8001
803.065	7932
803.208	7902
803.35	8005
803.492	8145
803.635	8172
803.777	8050
803.919	8153
804.061	8385
804.204	8134
804.346	8039
804.488	7978
804.63	8062
804.773	8088
804.915	8035
805.057	8187
805.199	8187
805.341	8237
805.483	8343
805.626	8180
805.768	8206
805.91	8195
806.052	8187
806.194	8130
806.336	8309
806.478	8157
806.62	8138
806.762	8161
806.904	8237
807.046	8507
807.188	8381
807.33	8309
807.472	8362
807.614	8157
807.756	8168
807.898	8031
808.04	7993
808.182	7921
808.324	7913
808.465	7887
808.607	8096
808.749	8134
808.891	8244
809.033	8355
809.174	8164
809.316	8031
809.458	8073
809.6	8020
809.741	8077
809.883	8043
810.025	8084
810.166	8107
810.308	8001
810.45	8058
810.591	7921
810.733	7750
810.875	7731
811.016	7620
811.158	7533
811.299	7681
811.441	7868
811.582	7700
811.724	7559
811.865	7540
812.007	7689
812.148	7601
812.29	7696
812.431	7731
812.573	7925
812.714	7970
812.855	8088
812.997	8271
813.138	8328
813.279	8214
813.421	8180
813.562	8005
813.703	7887
813.845	7769
813.986	7533
814.127	7247
814.268	7312
814.41	7263
814.551	7240
814.692	7251
814.833	7080
814.974	7103
815.115	7103
815.256	6977
815.397	6886
815.539	6962
815.68	6821
815.821	6829
815.962	6890
816.103	6867
816.244	6722
816.385	6692
816.526	6650
816.666	6540
816.807	6380
816.948	6483
817.089	6479
817.23	6506
817.371	6429
817.512	6410
817.653	6395
817.793	6410
817.934	6410
818.075	6513
818.216	6506
818.356	6460
818.497	6277
818.638	6171
818.778	6163
818.919	6216
819.06	6201
819.2	6429
819.341	6350
819.481	6418
819.622	6582
819.762	6821
819.903	6730
820.043	6642
820.184	6658
820.324	6669
820.465	6745
820.605	6707
820.746	6673
820.886	6528
821.026	6696
821.167	6662
821.307	6863
821.447	6848
821.588	6760
821.728	6650
821.868	6525
822.008	6357
822.149	6376
822.289	6391
822.429	6194
822.569	6133
822.709	6194
822.849	5935
822.99	5988
823.13	5992
823.27	5973
823.41	5836
823.55	5813
823.69	5790
823.83	5855
823.97	5748
824.11	5592
824.25	5528
824.389	5585
824.529	5638
824.669	5592
824.809	5649
824.949	5691
825.089	5691
825.228	5627
825.368	5444
825.508	5402
825.648	5387
825.787	5421
825.927	5410
826.067	5322
826.206	5349
826.346	5433
826.485	5444
826.625	5497
826.765	5627
826.904	5520
827.044	5299
827.183	5261
827.323	5147
827.462	5296
827.601	5273
827.741	5208
827.88	5197
828.02	5128
828.159	5311
828.298	5337
828.437	5391
828.577	5330
828.716	5501
828.855	5345
828.994	5201
829.134	5220
829.273	5250
829.412	5143
829.551	5155
829.69	5231
829.829	5288
829.968	5425
830.107	5326
830.246	5330
830.385	5250
830.524	5166
830.663	5117
830.802	4965
830.941	4908
831.08	4938
831.219	5018
831.357	5014
831.496	5227
831.635	4949
831.774	4892
831.913	4889
832.051	4801
832.19	4771
832.329	4904
832.467	4725
832.606	4691
832.744	4721
832.883	4771
833.022	4752
833.16	4793
833.299	4828
833.437	4839
833.576	4816
833.714	4873
833.852	4923
833.991	4930
834.129	4930
834.267	4999
834.406	4961
834.544	5037
834.682	5033
834.821	4987
834.959	5178
835.097	5014
835.235	5216
835.373	5170
835.511	5189
835.65	5003
835.788	5048
835.926	4946
836.064	4927
836.202	4984
836.34	5212
836.478	5299
836.615	5189
836.753	5261
836.891	5334
837.029	5280
837.167	5250
837.305	5162
837.443	5121
837.58	5121
837.718	5379
837.856	5227
837.993	5181
838.131	5185
838.269	5273
838.406	5288
838.544	5223
838.681	5083
838.819	5041
838.956	4953
839.094	4972
839.231	5018
839.369	5124
839.506	5455
839.643	5307
839.781	5117
839.918	5079
840.055	5151
840.193	5079
840.33	5121
840.467	5105
840.604	5193
840.742	5459
840.879	5128
841.016	5113
841.153	5166
841.29	5360
841.427	5330
841.564	5387
841.701	5440
841.838	5292
841.975	5269
842.112	5284
842.249	5132
842.385	5170
842.522	5379
842.659	5181
842.796	5185
842.933	5265
843.069	5220
843.206	5216
843.343	5357
843.479	5220
843.616	5315
843.752	5079
843.889	5006
844.025	5254
844.162	5029
844.298	5216
844.435	5060
844.571	5102
844.708	5212
844.844	5307
844.98	5360
845.117	5292
845.253	5208
845.389	5083
845.525	5151
845.661	5136
845.798	5071
845.934	5220
846.07	5105
846.206	5201
846.342	5330
846.478	5189
846.614	5060
846.75	5003
846.886	4965
847.022	5189
847.158	5105
847.294	5079
847.429	5174
847.565	5083
847.701	5349
847.837	4934
847.972	4854
848.108	5006
848.244	4987
848.379	4767
848.515	4729
848.65	4755
848.786	4835
848.921	4816
849.057	4881
849.192	4957
849.328	4850
849.463	4900
849.598	4892
849.734	4774
849.869	4782
850.004	4630
850.14	4721
850.275	4656
850.41	4546
850.545	4596
850.68	4645
850.815	4637
850.95	4660
851.085	4870
851.22	4748
851.355	4721
851.49	4599
851.625	4672
851.76	4668
851.895	4588
852.03	4596
852.165	4694
852.299	4714
852.434	4812
852.569	4824
852.703	4839
852.838	4942
852.973	4938
853.107	4908
853.242	4755
853.376	4721
853.511	4607
853.645	4694
853.78	4816
853.914	4694
854.048	4744
854.183	4683
854.317	4748
854.451	4885
854.585	4729
854.72	4645
854.854	4748
854.988	4634
855.122	4672
855.256	4554
855.39	4725
855.524	4854
855.658	4744
855.792	4626
855.926	4790
856.06	4763
856.194	4812
856.327	4752
856.461	4641
856.595	4687
856.729	4641
856.862	4782
856.996	4702
857.13	4748
857.263	4767
857.397	4816
857.53	4702
857.664	4744
857.797	4847
857.931	4850
858.064	4683
858.197	4805
858.331	4675
858.464	4691
858.597	4577
858.731	4641
858.864	4733
858.997	4653
859.13	4687
859.263	4694
859.396	4748
859.529	4672
859.662	4634
859.795	4607
859.928	4675
860.061	4820
860.194	4782
860.327	4664
860.46	4588
860.592	4725
860.725	4778
860.858	4759
860.99	4618
861.123	4584
861.256	4603
861.388	4721
861.521	5448
861.653	4527
861.786	4455
861.918	4489
862.05	4577
862.183	4622
862.315	4649
862.447	4698
862.58	4618
862.712	4421
862.844	4383
862.976	4462
863.108	4466
863.24	4949
863.372	4383
863.504	4470
863.636	4424
863.768	4516
863.9	4470
864.032	4428
864.164	4478
864.296	4546
864.428	4596
864.559	4611
864.691	4558
864.823	4565
864.954	4584
865.086	4550
865.217	4531
865.349	4424
865.48	4535
865.612	4508
865.743	4702
865.875	4474
866.006	4462
866.137	4558
866.269	4508
866.4	4462
866.531	4485
866.662	4379
866.793	4478
866.924	4428
867.055	4546
867.186	4531
867.317	4417
867.448	4417
867.579	4470
867.71	4447
867.841	4398
867.972	4459
868.103	4462
868.233	4481
868.364	4485
868.495	4523
868.625	4683
868.756	4824
868.886	4675
869.017	4698
869.147	4854
869.278	4816
869.408	4740
869.539	4698
869.669	4805
869.799	4679
869.929	4755
870.06	4748
870.19	4987
870.32	4995
870.45	5003
870.58	5045
870.71	5147
870.84	5113
870.97	4953
871.1	4942
871.23	5181
871.36	5178
871.489	5045
871.619	5086
871.749	5136
871.879	5174
872.008	5250
872.138	5124
872.267	5075
872.397	4896
872.526	4850
872.656	4797
872.785	4828
872.915	4991
873.044	5090
873.173	4968
873.303	4999
873.432	4995
873.561	4965
873.69	4927
873.819	4923
873.948	4968
874.077	4866
874.206	4816
874.335	4828
874.464	4968
874.593	5128
874.722	5033
874.851	5201
874.979	5102
875.108	5094
875.237	4972
875.365	4908
875.494	4987
875.623	5010
875.751	4831
875.88	4930
876.008	5079
876.136	5117
876.265	5235
876.393	5395
876.521	5277
876.65	5235
876.778	5193
876.906	5071
877.034	5113
877.162	5159
877.29	4995
877.418	5086
877.546	5083
877.674	5090
877.802	5067
877.93	5094
878.058	5010
878.185	4911
878.313	4976
878.441	5006
878.568	4828
878.696	4896
878.824	5025
878.951	5033
879.079	5174
879.206	5296
879.333	5105
879.461	5083
879.588	5117
879.715	5166
879.842	5273
879.97	5025
880.097	4797
880.224	4824
880.351	4854
880.478	4877
880.605	4809
880.732	4847
880.859	5109
880.986	4881
881.112	4972
881.239	4831
881.366	4755
881.493	4691
881.619	4630
881.746	4672
881.872	4645
881.999	4675
882.125	4767
882.252	4843
882.378	4843
882.505	4991
882.631	4877
882.757	4668
882.883	4736
883.01	4752
883.136	4725
883.262	4656
883.388	4615
883.514	4866
883.64	4911
883.766	4809
883.892	4714
884.018	4736
884.143	4949
884.269	5025
884.395	4717
884.52	4634
884.646	4698
884.772	4664
884.897	4588
885.023	4771
885.148	4835
885.274	4900
885.399	4835
885.524	4759
885.65	4706
885.775	4782
885.9	4717
886.025	4896
886.15	4828
886.275	4824
886.4	4687
886.525	4740
886.65	4778
886.775	4729
886.9	4968
887.025	5064
887.149	4904
887.274	4706
887.399	4683
887.523	4634
887.648	4607
887.773	4637
887.897	4805
888.021	4831
888.146	4748
888.27	4885
888.395	4934
888.519	4816
888.643	4843
888.767	4847
888.891	4771
889.015	4637
889.139	4706
889.263	4660
889.387	4828
889.511	4919
889.635	4850
889.759	4664
889.883	4668
890.006	4774
890.13	4930
890.254	4694
890.377	4706
890.501	4561
890.624	4561
890.748	4679
890.871	4546
890.995	4428
891.118	4417
891.241	4607
891.364	4615
891.488	4664
891.611	4542
891.734	4599
891.857	4596
891.98	4588
892.103	4683
892.226	4645
892.349	4592
892.471	4459
892.594	4622
892.717	4588
892.839	4577
892.962	4641
893.085	4710
893.207	4634
893.33	4497
893.452	4561
893.575	4740
893.697	4634
893.819	4797
893.941	4881
894.064	4843
894.186	4630
894.308	4611
894.43	4774
894.552	4809
894.674	4797
894.796	4546
894.918	4653
895.04	4630
895.161	4752
895.283	4698
895.405	4607
895.526	4710
895.648	4729
895.769	4725
895.891	4767
896.012	4763
896.134	4698
896.255	4740
896.376	4683
896.498	4649
896.619	4759
896.74	4649
896.861	4668
896.982	4953
897.103	5162
897.224	4889
897.345	4797
897.466	4740
897.587	4748
897.708	4892
897.828	4782
897.949	4675
898.07	4584
898.19	4706
898.311	4831
898.431	4714
898.552	4767
898.672	4904
898.792	4839
898.913	4763
899.033	4653
899.153	4550
899.273	4478
899.393	4550
899.513	4561
899.633	4565
899.753	4588
899.873	4542
899.993	4626
900.113	4599
900.232	4664
900.352	4542
900.472	4516
900.591	4489
900.711	4580
900.83	4481
900.95	4660
901.069	4706
901.189	4580
901.308	4371
901.427	4356
901.546	4390
901.665	4546
901.784	4584
901.904	4436
902.023	4371
902.141	4200
902.26	4242
902.379	4371
902.498	4268
902.617	4284
902.735	4417
902.854	4428
902.973	4398
903.091	4284
903.21	4276
903.328	4344
903.446	4310
903.565	4303
903.683	4436
903.801	4257
903.919	4478
904.038	4474
904.156	4337
904.274	4516
904.392	4440
904.51	4451
904.627	4531
904.745	4653
904.863	4668
904.981	4489
905.098	4383
905.216	4402
905.334	4474
905.451	4462
905.569	4432
905.686	4615
905.803	4580
905.921	4493
906.038	4618
906.155	4523
906.272	4417
906.389	4554
906.506	4394
906.623	4409
906.74	4466
906.857	4325
906.974	4409
907.091	4607
907.208	4717
907.324	4607
907.441	4546
907.557	4443
907.674	4451
907.79	4337
907.907	4447
908.023	4558
908.139	4550
908.256	4481
908.372	4527
908.488	4485
908.604	4417
908.72	4383
908.836	4402
908.952	4428
909.068	4478
909.184	4580
909.3	4531
909.415	4592
909.531	4580
909.647	4413
909.762	4428
909.878	4432
909.993	4428
910.108	4466
910.224	4500
910.339	4550
910.454	4474
910.57	4424
910.685	4348
910.8	4664
910.915	4607
911.03	4493
911.145	4375
911.259	4333
911.374	4390
911.489	4348
911.604	4299
911.718	4188
911.833	4238
911.947	4128
912.062	4071
912.176	4253
912.291	4310
912.405	4276
912.519	4542
912.633	4558
912.748	4428
912.862	4322
912.976	4261
913.09	4128
913.204	4200
913.318	4280
913.431	4402
913.545	4383
913.659	4485
913.772	4432
913.886	4299
914	4257
914.113	4398
914.226	4440
914.34	4455
914.453	4287
914.566	4474
914.68	4363
914.793	4352
914.906	4173
915.019	4139
915.132	4109
915.245	4238
915.358	4204
915.47	4295
915.583	4287
915.696	4352
915.809	4447
915.921	4451
916.034	4284
916.146	4303
916.259	4234
916.371	4383
916.483	4363
916.595	4280
916.708	4352
916.82	4375
916.932	4383
917.044	4363
917.156	4383
917.268	4303
917.38	4310
917.491	4337
917.603	4379
917.715	4455
917.826	4512
917.938	4344
918.049	4291
918.161	4470
918.272	4596
918.384	4561
918.495	4550
918.606	4303
918.717	4284
918.828	4363
918.939	4413
919.05	4287
919.161	4390
919.272	4211
919.383	4280
919.494	4485
919.604	4679
919.715	4493
919.826	4390
919.936	4459
920.047	4546
920.157	4516
920.267	4721
920.378	4542
920.488	4550
920.598	4801
920.708	4995
920.818	4797
920.928	4805
921.038	5025
921.148	5045
921.258	4679
921.368	4611
921.477	4497
921.587	4527
921.697	4405
921.806	4584
921.916	4466
922.025	4341
922.134	4337
922.244	4253
922.353	4363
922.462	4169
922.571	4188
922.68	4010
922.789	4010
922.898	4013
923.007	4048
923.116	4120
923.224	4116
923.333	4093
923.442	4044
923.55	4093
923.659	4093
923.767	4154
923.876	4002
923.984	4150
924.092	4013
924.201	4120
924.309	4131
924.417	4135
924.525	4093
924.633	4139
924.741	5094
924.849	3937
924.956	4154
925.064	4032
925.172	3926
925.279	3998
925.387	4093
925.494	4078
925.602	4268
925.709	4234
925.816	4078
925.924	4150
926.031	4249
926.138	4207
926.245	4249
926.352	4116
926.459	4265
926.566	4303
926.673	4181
926.779	4150
926.886	4105
926.993	4029
927.099	4006
927.206	3964
927.312	3964
927.419	4101
927.525	4044
927.631	4131
927.737	4010
927.843	3953
927.95	3876
928.056	4013
928.162	4029
928.267	4067
928.373	4729
928.479	4173
928.585	3907
928.69	4082
928.796	4124
928.901	3991
929.007	3876
929.112	4048
929.218	4044
929.323	3972
929.428	3956
929.533	4147
929.638	3987
929.743	3991
929.848	4112
929.953	4078
930.058	3975
930.163	3797
930.267	3880
930.372	4013
930.477	3838
930.581	4105
930.685	4029
930.79	3819
930.894	3964
930.998	3903
931.103	4071
931.207	3740
931.311	3686
931.415	3720
931.519	3538
931.623	3584
