Data from test_V78500241_1516.txt Node
Date: Fri Mar 25 16:59:32 CST 2022
User: usil
Spectrometer: V785-0024
Trigger mode: 0
Integration Time (sec): 4.000000E-1
Scans to average: 1
Nonlinearity correction enabled: false
Boxcar width: 0
Storing dark spectrum: false
XAxis mode: Wavelengths
Number of Pixels in Spectrum: 1024
>>>>>Begin Spectral Data<<<<<
801.071	8027
801.214	7997
801.356	7928
801.499	7833
801.641	7792
801.783	7826
801.926	7970
802.068	7944
802.211	7993
802.353	7978
802.496	7769
802.638	7875
802.78	7955
802.923	7997
803.065	7845
803.208	7837
803.35	8024
803.492	8088
803.635	8210
803.777	8031
803.919	8164
804.061	8412
804.204	8187
804.346	8092
804.488	8008
804.63	8183
804.773	8119
804.915	8206
805.057	8271
805.199	8187
805.341	8210
805.483	8233
805.626	8259
805.768	8145
805.91	8183
806.052	8172
806.194	8130
806.336	8290
806.478	8199
806.62	8050
806.762	8176
806.904	8263
807.046	8484
807.188	8400
807.33	8355
807.472	8343
807.614	8195
807.756	8123
807.898	7951
808.04	7936
808.182	7936
808.324	7906
808.465	7932
808.607	8027
808.749	8157
808.891	8195
809.033	8301
809.174	8248
809.316	8138
809.458	8073
809.6	8008
809.741	8103
809.883	8062
810.025	8031
810.166	8062
810.308	8103
810.45	7989
810.591	7887
810.733	7795
810.875	7765
811.016	7567
811.158	7521
811.299	7666
811.441	7803
811.582	7655
811.724	7620
811.865	7563
812.007	7582
812.148	7533
812.29	7632
812.431	7734
812.573	7902
812.714	7986
812.855	8100
812.997	8237
813.138	8370
813.279	8237
813.421	8126
813.562	7982
813.703	7890
813.845	7742
813.986	7430
814.127	7232
814.268	7263
814.41	7225
814.551	7171
814.692	7293
814.833	7141
814.974	7080
815.115	7141
815.256	6951
815.397	6920
815.539	6970
815.68	6837
815.821	6806
815.962	6905
816.103	6840
816.244	6738
816.385	6665
816.526	6654
816.666	6479
816.807	6315
816.948	6433
817.089	6483
817.23	6475
817.371	6361
817.512	6418
817.653	6407
817.793	6399
817.934	6445
818.075	6483
818.216	6456
818.356	6437
818.497	6277
818.638	6171
818.778	6163
818.919	6083
819.06	6121
819.2	6319
819.341	6346
819.481	6395
819.622	6517
819.762	6703
819.903	6703
820.043	6623
820.184	6635
820.324	6623
820.465	6753
820.605	6684
820.746	6677
820.886	6517
821.026	6688
821.167	6722
821.307	6734
821.447	6863
821.588	6734
821.728	6639
821.868	6448
822.008	6319
822.149	6403
822.289	6403
822.429	6186
822.569	6155
822.709	6140
822.849	5950
822.99	5973
823.13	5977
823.27	5992
823.41	5859
823.55	5840
823.69	5844
823.83	5805
823.97	5668
824.11	5535
824.25	5501
824.389	5573
824.529	5649
824.669	5577
824.809	5634
824.949	5657
825.089	5630
825.228	5573
825.368	5402
825.508	5357
825.648	5360
825.787	5357
825.927	5391
826.067	5360
826.206	5277
826.346	5440
826.485	5444
826.625	5436
826.765	5604
826.904	5482
827.044	5292
827.183	5220
827.323	5181
827.462	5299
827.601	5227
827.741	5212
827.88	5231
828.02	5117
828.159	5288
828.298	5315
828.437	5406
828.577	5296
828.716	5505
828.855	5299
828.994	5159
829.134	5174
829.273	5189
829.412	5147
829.551	5147
829.69	5216
829.829	5261
829.968	5383
830.107	5231
830.246	5296
830.385	5193
830.524	5208
830.663	5105
830.802	4999
830.941	4923
831.08	4900
831.219	4995
831.357	4972
831.496	5170
831.635	4915
831.774	4835
831.913	4850
832.051	4778
832.19	4771
832.329	4854
832.467	4675
832.606	4645
832.744	4714
832.883	4759
833.022	4748
833.16	4793
833.299	4873
833.437	4828
833.576	4831
833.714	4873
833.852	4949
833.991	4972
834.129	4953
834.267	4980
834.406	4911
834.544	5029
834.682	4991
834.821	4953
834.959	5170
835.097	4987
835.235	5143
835.373	5113
835.511	5159
835.65	5029
835.788	5056
835.926	4938
836.064	4877
836.202	4923
836.34	5193
836.478	5254
836.615	5174
836.753	5216
836.891	5307
837.029	5280
837.167	5254
837.305	5197
837.443	5159
837.58	5098
837.718	5261
837.856	5242
837.993	5136
838.131	5242
838.269	5235
838.406	5254
838.544	5159
838.681	5071
838.819	5045
838.956	4934
839.094	4896
839.231	5025
839.369	5075
839.506	5497
839.643	5280
839.781	5083
839.918	4980
840.055	5128
840.193	5136
840.33	5079
840.467	5117
840.604	5189
840.742	5406
840.879	5083
841.016	5079
841.153	5147
841.29	5395
841.427	5292
841.564	5318
841.701	5368
841.838	5326
841.975	5258
842.112	5292
842.249	5193
842.385	5143
842.522	5292
842.659	5151
842.796	5162
842.933	5231
843.069	5174
843.206	5178
843.343	5280
843.479	5223
843.616	5307
843.752	5060
843.889	5037
844.025	5220
844.162	5022
844.298	5258
844.435	5033
844.571	5067
844.708	5201
844.844	5307
844.98	5360
845.117	5280
845.253	5132
845.389	5079
845.525	5147
845.661	5143
845.798	5052
845.934	5170
846.07	5056
846.206	5235
846.342	5265
846.478	5208
846.614	5010
846.75	4968
846.886	4911
847.022	5185
847.158	5006
847.294	5056
847.429	5071
847.565	5075
847.701	5280
847.837	4889
847.972	4824
848.108	4991
848.244	4927
848.379	4774
848.515	4759
848.65	4668
848.786	4763
848.921	4778
849.057	4919
849.192	4881
849.328	4873
849.463	4942
849.598	4797
849.734	4801
849.869	4710
850.004	4656
850.14	4679
850.275	4588
850.41	4538
850.545	4596
850.68	4675
850.815	4668
850.95	4649
851.085	4812
851.22	4763
851.355	4649
851.49	4569
851.625	4641
851.76	4622
851.895	4596
852.03	4527
852.165	4679
852.299	4717
852.434	4759
852.569	4714
852.703	4767
852.838	4858
852.973	4942
853.107	4923
853.242	4782
853.376	4672
853.511	4577
853.645	4649
853.78	4847
853.914	4702
854.048	4660
854.183	4668
854.317	4717
854.451	4900
854.585	4664
854.72	4664
854.854	4755
854.988	4618
855.122	4675
855.256	4554
855.39	4649
855.524	4850
855.658	4733
855.792	4687
855.926	4759
856.06	4782
856.194	4839
856.327	4694
856.461	4618
856.595	4653
856.729	4615
856.862	4733
856.996	4653
857.13	4729
857.263	4740
857.397	4812
857.53	4668
857.664	4744
857.797	4717
857.931	4778
858.064	4717
858.197	4744
858.331	4660
858.464	4645
858.597	4516
858.731	4675
858.864	4649
858.997	4630
859.13	4656
859.263	4649
859.396	4656
859.529	4603
859.662	4538
859.795	4577
859.928	4561
860.061	4858
860.194	4797
860.327	4645
860.46	4573
860.592	4725
860.725	4706
860.858	4763
860.99	4592
861.123	4546
861.256	4516
861.388	4592
861.521	5288
861.653	4508
861.786	4440
861.918	4485
862.05	4542
862.183	4584
862.315	4618
862.447	4683
862.58	4523
862.712	4383
862.844	4360
862.976	4466
863.108	4424
863.24	4759
863.372	4402
863.504	4402
863.636	4428
863.768	4462
863.9	4421
864.032	4386
864.164	4383
864.296	4447
864.428	4584
864.559	4577
864.691	4550
864.823	4485
864.954	4451
865.086	4516
865.217	4428
865.349	4375
865.48	4428
865.612	4489
865.743	4630
865.875	4504
866.006	4478
866.137	4485
866.269	4478
866.4	4462
866.531	4436
866.662	4417
866.793	4402
866.924	4428
867.055	4474
867.186	4466
867.317	4356
867.448	4360
867.579	4413
867.71	4398
867.841	4402
867.972	4432
868.103	4455
868.233	4470
868.364	4504
868.495	4516
868.625	4668
868.756	4790
868.886	4546
869.017	4618
869.147	4831
869.278	4793
869.408	4691
869.539	4660
869.669	4736
869.799	4694
869.929	4801
870.06	4759
870.19	4946
870.32	4908
870.45	4915
870.58	5025
870.71	5098
870.84	5098
870.97	4957
871.1	4953
871.23	5121
871.36	5155
871.489	5014
871.619	5048
871.749	5143
871.879	5159
872.008	5136
872.138	5056
872.267	4995
872.397	4843
872.526	4786
872.656	4706
872.785	4801
872.915	4904
873.044	4999
873.173	4961
873.303	4984
873.432	4949
873.561	4949
873.69	4831
873.819	4896
873.948	4949
874.077	4839
874.206	4767
874.335	4805
874.464	4972
874.593	5045
874.722	4987
874.851	5075
874.979	5056
875.108	5037
875.237	4873
875.365	4831
875.494	4908
875.623	4976
875.751	4862
875.88	4885
876.008	4987
876.136	5041
876.265	5170
876.393	5322
876.521	5254
876.65	5231
876.778	5193
876.906	5083
877.034	4984
877.162	5037
877.29	4953
877.418	5067
877.546	5056
877.674	5029
877.802	5022
877.93	5018
878.058	4923
878.185	4866
878.313	4927
878.441	4927
878.568	4809
878.696	4839
878.824	4972
878.951	4957
879.079	5143
879.206	5261
879.333	5113
879.461	5006
879.588	5003
879.715	5117
879.842	5223
879.97	4980
880.097	4820
880.224	4786
880.351	4801
880.478	4854
880.605	4767
880.732	4790
880.859	5086
880.986	4877
881.112	4946
881.239	4778
881.366	4649
881.493	4611
881.619	4554
881.746	4675
881.872	4653
881.999	4694
882.125	4706
882.252	4801
882.378	4786
882.505	4927
882.631	4809
882.757	4656
882.883	4691
883.01	4755
883.136	4710
883.262	4645
883.388	4573
883.514	4771
883.64	4870
883.766	4767
883.892	4687
884.018	4740
884.143	4858
884.269	5018
884.395	4664
884.52	4630
884.646	4649
884.772	4584
884.897	4558
885.023	4634
885.148	4763
885.274	4885
885.399	4809
885.524	4736
885.65	4714
885.775	4729
885.9	4675
886.025	4839
886.15	4767
886.275	4752
886.4	4645
886.525	4740
886.65	4710
886.775	4694
886.9	4938
887.025	4999
887.149	4820
887.274	4626
887.399	4542
887.523	4656
887.648	4580
887.773	4603
887.897	4774
888.021	4782
888.146	4668
888.27	4805
888.395	4934
888.519	4793
888.643	4831
888.767	4854
888.891	4683
889.015	4596
889.139	4645
889.263	4611
889.387	4744
889.511	4831
889.635	4831
889.759	4702
889.883	4641
890.006	4771
890.13	4797
890.254	4622
890.377	4634
890.501	4554
890.624	4508
890.748	4675
890.871	4531
890.995	4352
891.118	4356
891.241	4512
891.364	4542
891.488	4622
891.611	4466
891.734	4584
891.857	4615
891.98	4535
892.103	4611
892.226	4558
892.349	4588
892.471	4421
892.594	4584
892.717	4599
892.839	4622
892.962	4565
893.085	4660
893.207	4607
893.33	4428
893.452	4493
893.575	4641
893.697	4596
893.819	4790
893.941	4828
894.064	4809
894.186	4584
894.308	4573
894.43	4721
894.552	4828
894.674	4714
894.796	4596
894.918	4584
895.04	4615
895.161	4660
895.283	4607
895.405	4588
895.526	4660
895.648	4702
895.769	4672
895.891	4748
896.012	4782
896.134	4660
896.255	4672
896.376	4649
896.498	4626
896.619	4683
896.74	4569
896.861	4664
896.982	4908
897.103	5071
897.224	4831
897.345	4759
897.466	4717
897.587	4706
897.708	4866
897.828	4729
897.949	4675
898.07	4569
898.19	4649
898.311	4828
898.431	4649
898.552	4687
898.672	4763
898.792	4820
898.913	4786
899.033	4615
899.153	4478
899.273	4436
899.393	4489
899.513	4523
899.633	4565
899.753	4558
899.873	4531
899.993	4558
900.113	4535
900.232	4573
900.352	4577
900.472	4478
900.591	4428
900.711	4462
900.83	4440
900.95	4645
901.069	4630
901.189	4558
901.308	4375
901.427	4276
901.546	4367
901.665	4466
901.784	4538
901.904	4421
902.023	4295
902.141	4200
902.26	4158
902.379	4344
902.498	4185
902.617	4211
902.735	4344
902.854	4383
902.973	4341
903.091	4188
903.21	4204
903.328	4299
903.446	4234
903.565	4246
903.683	4371
903.801	4265
903.919	4436
904.038	4405
904.156	4272
904.274	4417
904.392	4360
904.51	4417
904.627	4497
904.745	4592
904.863	4626
904.981	4379
905.098	4299
905.216	4390
905.334	4451
905.451	4466
905.569	4424
905.686	4531
905.803	4531
905.921	4424
906.038	4542
906.155	4478
906.272	4398
906.389	4481
906.506	4314
906.623	4337
906.74	4409
906.857	4306
906.974	4348
907.091	4519
907.208	4733
907.324	4554
907.441	4516
907.557	4344
907.674	4322
907.79	4329
907.907	4379
908.023	4489
908.139	4489
908.256	4421
908.372	4417
908.488	4428
908.604	4379
908.72	4299
908.836	4360
908.952	4413
909.068	4440
909.184	4599
909.3	4497
909.415	4554
909.531	4500
909.647	4329
909.762	4348
909.878	4299
909.993	4402
910.108	4383
910.224	4413
910.339	4421
910.454	4371
910.57	4363
910.685	4295
910.8	4656
910.915	4592
911.03	4512
911.145	4310
911.259	4322
911.374	4348
911.489	4310
911.604	4257
911.718	4112
911.833	4192
911.947	4071
912.062	3991
912.176	4173
912.291	4238
912.405	4265
912.519	4436
912.633	4447
912.748	4360
912.862	4268
912.976	4219
913.09	4090
913.204	4188
913.318	4230
913.431	4405
913.545	4363
913.659	4405
913.772	4295
913.886	4230
914	4200
914.113	4417
914.226	4424
914.34	4436
914.453	4211
914.566	4440
914.68	4318
914.793	4276
914.906	4173
915.019	4109
915.132	4101
915.245	4185
915.358	4150
915.47	4223
915.583	4227
915.696	4348
915.809	4447
915.921	4402
916.034	4268
916.146	4257
916.259	4227
916.371	4390
916.483	4386
916.595	4284
916.708	4299
916.82	4337
916.932	4318
917.044	4325
917.156	4329
917.268	4249
917.38	4249
917.491	4219
917.603	4352
917.715	4394
917.826	4451
917.938	4360
918.049	4227
918.161	4405
918.272	4531
918.384	4497
918.495	4428
918.606	4295
918.717	4223
918.828	4363
918.939	4310
919.05	4246
919.161	4291
919.272	4162
919.383	4238
919.494	4432
919.604	4649
919.715	4394
919.826	4306
919.936	4390
920.047	4535
920.157	4481
920.267	4687
920.378	4542
920.488	4466
920.598	4679
920.708	4847
920.818	4763
920.928	4786
921.038	4908
921.148	4984
921.258	4611
921.368	4596
921.477	4459
921.587	4443
921.697	4352
921.806	4542
921.916	4409
922.025	4265
922.134	4318
922.244	4196
922.353	4310
922.462	4166
922.571	4101
922.68	4010
922.789	3998
922.898	4010
923.007	3975
923.116	4093
923.224	4071
923.333	4063
923.442	3983
923.55	3960
923.659	4032
923.767	4124
923.876	4006
923.984	4139
924.092	3934
924.201	4082
924.309	4078
924.417	4150
924.525	4063
924.633	4086
924.741	4885
924.849	3960
924.956	4112
925.064	3960
925.172	3873
925.279	3975
925.387	4055
925.494	4029
925.602	4219
925.709	4200
925.816	4074
925.924	4139
926.031	4192
926.138	4150
926.245	4196
926.352	4055
926.459	4188
926.566	4287
926.673	4173
926.779	4082
926.886	4082
926.993	3926
927.099	3983
927.206	3896
927.312	3945
927.419	4013
927.525	3998
927.631	4086
927.737	4013
927.843	3964
927.95	3838
928.056	3876
928.162	3979
928.267	4067
928.373	4577
928.479	4093
928.585	3865
928.69	3991
928.796	4063
928.901	3956
929.007	3861
929.112	3960
929.218	3956
929.323	3918
929.428	3960
929.533	4082
929.638	3876
929.743	3926
929.848	4029
929.953	3968
930.058	3888
930.163	3770
930.267	3846
930.372	3972
930.477	3789
930.581	4086
930.685	3918
930.79	3785
930.894	3876
930.998	3831
931.103	4025
931.207	3633
931.311	3671
931.415	3644
931.519	3507
931.623	3526
