Data from test_V78500241_21.txt Node
Date: Fri Mar 25 16:49:09 CST 2022
User: usil
Spectrometer: V785-0024
Trigger mode: 0
Integration Time (sec): 4.000000E-1
Scans to average: 1
Nonlinearity correction enabled: false
Boxcar width: 0
Storing dark spectrum: false
XAxis mode: Wavelengths
Number of Pixels in Spectrum: 1024
>>>>>Begin Spectral Data<<<<<
801.071	8126
801.214	8115
801.356	8043
801.499	8065
801.641	7932
801.783	7906
801.926	7963
802.068	8077
802.211	8062
802.353	8084
802.496	7906
802.638	7970
802.78	8035
802.923	7978
803.065	7906
803.208	7883
803.35	8039
803.492	8123
803.635	8161
803.777	7986
803.919	8123
804.061	8362
804.204	8176
804.346	8050
804.488	8001
804.63	8073
804.773	8008
804.915	8191
805.057	8294
805.199	8206
805.341	8240
805.483	8309
805.626	8286
805.768	8210
805.91	8282
806.052	8199
806.194	8092
806.336	8290
806.478	8138
806.62	8176
806.762	8195
806.904	8336
807.046	8446
807.188	8434
807.33	8248
807.472	8320
807.614	8187
807.756	8168
807.898	7986
808.04	7955
808.182	7940
808.324	7940
808.465	7940
808.607	8039
808.749	8103
808.891	8176
809.033	8286
809.174	8191
809.316	8084
809.458	8081
809.6	7986
809.741	7970
809.883	7974
810.025	8024
810.166	8119
810.308	8054
810.45	8134
810.591	7894
810.733	7746
810.875	7712
811.016	7670
811.158	7594
811.299	7731
811.441	7841
811.582	7753
811.724	7670
811.865	7582
812.007	7609
812.148	7670
812.29	7643
812.431	7780
812.573	7890
812.714	8027
812.855	8092
812.997	8180
813.138	8347
813.279	8138
813.421	8115
813.562	8039
813.703	7898
813.845	7776
813.986	7468
814.127	7316
814.268	7259
814.41	7236
814.551	7198
814.692	7251
814.833	7099
814.974	7110
815.115	7145
815.256	7019
815.397	6913
815.539	6958
815.68	6882
815.821	6821
815.962	6901
816.103	6829
816.244	6787
816.385	6642
816.526	6658
816.666	6517
816.807	6372
816.948	6509
817.089	6486
817.23	6422
817.371	6407
817.512	6395
817.653	6395
817.793	6422
817.934	6445
818.075	6490
818.216	6490
818.356	6429
818.497	6308
818.638	6205
818.778	6152
818.919	6171
819.06	6270
819.2	6369
819.341	6407
819.481	6388
819.622	6612
819.762	6802
819.903	6772
820.043	6623
820.184	6635
820.324	6673
820.465	6741
820.605	6711
820.746	6681
820.886	6582
821.026	6669
821.167	6753
821.307	6787
821.447	6863
821.588	6741
821.728	6563
821.868	6566
822.008	6372
822.149	6467
822.289	6391
822.429	6216
822.569	6152
822.709	6175
822.849	6030
822.99	6026
823.13	6049
823.27	5961
823.41	5824
823.55	5893
823.69	5874
823.83	5870
823.97	5828
824.11	5543
824.25	5566
824.389	5642
824.529	5672
824.669	5642
824.809	5729
824.949	5748
825.089	5688
825.228	5634
825.368	5516
825.508	5421
825.648	5444
825.787	5520
825.927	5463
826.067	5379
826.206	5395
826.346	5425
826.485	5497
826.625	5509
826.765	5619
826.904	5558
827.044	5288
827.183	5318
827.323	5235
827.462	5315
827.601	5201
827.741	5311
827.88	5265
828.02	5208
828.159	5296
828.298	5402
828.437	5421
828.577	5406
828.716	5528
828.855	5406
828.994	5265
829.134	5269
829.273	5280
829.412	5258
829.551	5231
829.69	5296
829.829	5376
829.968	5459
830.107	5391
830.246	5337
830.385	5296
830.524	5212
830.663	5147
830.802	5086
830.941	4942
831.08	4885
831.219	5075
831.357	5022
831.496	5212
831.635	5033
831.774	4980
831.913	4930
832.051	4820
832.19	4812
832.329	4934
832.467	4831
832.606	4706
832.744	4805
832.883	4809
833.022	4793
833.16	4892
833.299	4892
833.437	4961
833.576	4915
833.714	4961
833.852	4930
833.991	4957
834.129	5052
834.267	5025
834.406	4984
834.544	5033
834.682	5052
834.821	5033
834.959	5277
835.097	5060
835.235	5242
835.373	5166
835.511	5147
835.65	5079
835.788	5086
835.926	4965
836.064	4961
836.202	5010
836.34	5227
836.478	5311
836.615	5181
836.753	5341
836.891	5357
837.029	5383
837.167	5318
837.305	5231
837.443	5261
837.58	5143
837.718	5296
837.856	5318
837.993	5246
838.131	5353
838.269	5273
838.406	5273
838.544	5277
838.681	5136
838.819	5079
838.956	4999
839.094	4995
839.231	5010
839.369	5136
839.506	5505
839.643	5364
839.781	5098
839.918	5102
840.055	5151
840.193	5132
840.33	5197
840.467	5254
840.604	5299
840.742	5551
840.879	5128
841.016	5143
841.153	5212
841.29	5478
841.427	5425
841.564	5391
841.701	5436
841.838	5368
841.975	5353
842.112	5368
842.249	5174
842.385	5231
842.522	5368
842.659	5235
842.796	5292
842.933	5239
843.069	5242
843.206	5235
843.343	5360
843.479	5261
843.616	5357
843.752	5086
843.889	5067
844.025	5307
844.162	5052
844.298	5318
844.435	5193
844.571	5136
844.708	5254
844.844	5341
844.98	5455
845.117	5368
845.253	5185
845.389	5140
845.525	5250
845.661	5212
845.798	5094
845.934	5258
846.07	5166
846.206	5250
846.342	5364
846.478	5216
846.614	5121
846.75	5075
846.886	5045
847.022	5288
847.158	5086
847.294	5174
847.429	5128
847.565	5132
847.701	5448
847.837	4919
847.972	4927
848.108	5022
848.244	5018
848.379	4843
848.515	4824
848.65	4786
848.786	4809
848.921	4850
849.057	4968
849.192	4972
849.328	4866
849.463	4927
849.598	4839
849.734	4831
849.869	4797
850.004	4714
850.14	4752
850.275	4717
850.41	4584
850.545	4626
850.68	4641
850.815	4687
850.95	4649
851.085	4915
851.22	4812
851.355	4691
851.49	4694
851.625	4740
851.76	4717
851.895	4694
852.03	4618
852.165	4691
852.299	4820
852.434	4835
852.569	4790
852.703	4797
852.838	4927
852.973	5003
853.107	4991
853.242	4809
853.376	4763
853.511	4622
853.645	4748
853.78	4892
853.914	4721
854.048	4771
854.183	4729
854.317	4771
854.451	4919
854.585	4744
854.72	4744
854.854	4767
854.988	4668
855.122	4755
855.256	4588
855.39	4725
855.524	4858
855.658	4771
855.792	4767
855.926	4782
856.06	4835
856.194	4892
856.327	4748
856.461	4683
856.595	4717
856.729	4664
856.862	4824
856.996	4782
857.13	4786
857.263	4847
857.397	4911
857.53	4691
857.664	4797
857.797	4809
857.931	4889
858.064	4755
858.197	4786
858.331	4717
858.464	4691
858.597	4561
858.731	4687
858.864	4698
858.997	4660
859.13	4702
859.263	4717
859.396	4812
859.529	4634
859.662	4664
859.795	4641
859.928	4694
860.061	4828
860.194	4873
860.327	4698
860.46	4641
860.592	4752
860.725	4774
860.858	4854
860.99	4649
861.123	4580
861.256	4561
861.388	4664
861.521	5455
861.653	4538
861.786	4519
861.918	4519
862.05	4611
862.183	4634
862.315	4683
862.447	4717
862.58	4656
862.712	4443
862.844	4383
862.976	4558
863.108	4535
863.24	4968
863.372	4409
863.504	4474
863.636	4512
863.768	4573
863.9	4512
864.032	4455
864.164	4432
864.296	4573
864.428	4626
864.559	4656
864.691	4554
864.823	4618
864.954	4561
865.086	4542
865.217	4523
865.349	4504
865.48	4527
865.612	4523
865.743	4702
865.875	4558
866.006	4523
866.137	4538
866.269	4512
866.4	4527
866.531	4512
866.662	4455
866.793	4443
866.924	4462
867.055	4550
867.186	4462
867.317	4459
867.448	4398
867.579	4451
867.71	4500
867.841	4417
867.972	4538
868.103	4569
868.233	4500
868.364	4554
868.495	4584
868.625	4717
868.756	4877
868.886	4618
869.017	4706
869.147	4828
869.278	4847
869.408	4725
869.539	4645
869.669	4771
869.799	4778
869.929	4793
870.06	4824
870.19	5071
870.32	5010
870.45	5006
870.58	5083
870.71	5166
870.84	5178
870.97	5029
871.1	5006
871.23	5223
871.36	5212
871.489	5098
871.619	5151
871.749	5155
871.879	5170
872.008	5265
872.138	5121
872.267	5045
872.397	4885
872.526	4858
872.656	4771
872.785	4858
872.915	5056
873.044	5162
873.173	4995
873.303	5041
873.432	5029
873.561	4991
873.69	4923
873.819	4965
873.948	4968
874.077	4927
874.206	4889
874.335	4858
874.464	5003
874.593	5170
874.722	5041
874.851	5155
874.979	5140
875.108	5086
875.237	4980
875.365	4968
875.494	5010
875.623	5018
875.751	4946
875.88	4953
876.008	5037
876.136	5109
876.265	5277
876.393	5387
876.521	5307
876.65	5296
876.778	5242
876.906	5159
877.034	5064
877.162	5109
877.29	5102
877.418	5143
877.546	5117
877.674	5109
877.802	5105
877.93	5083
878.058	5033
878.185	4987
878.313	5064
878.441	5033
878.568	4862
878.696	4911
878.824	5037
878.951	5079
879.079	5201
879.206	5349
879.333	5162
879.461	5037
879.588	5090
879.715	5189
879.842	5326
879.97	5045
880.097	4824
880.224	4809
880.351	4850
880.478	4927
880.605	4850
880.732	4850
880.859	5124
880.986	4938
881.112	5025
881.239	4854
881.366	4797
881.493	4653
881.619	4618
881.746	4691
881.872	4702
881.999	4725
882.125	4767
882.252	4824
882.378	4900
882.505	5037
882.631	4816
882.757	4733
882.883	4805
883.01	4752
883.136	4793
883.262	4653
883.388	4729
883.514	4828
883.64	4968
883.766	4824
883.892	4782
884.018	4790
884.143	4995
884.269	5045
884.395	4721
884.52	4698
884.646	4649
884.772	4653
884.897	4668
885.023	4755
885.148	4892
885.274	4980
885.399	4847
885.524	4790
885.65	4736
885.775	4805
885.9	4759
886.025	4927
886.15	4885
886.275	4721
886.4	4706
886.525	4786
886.65	4755
886.775	4755
886.9	4900
887.025	5083
887.149	4816
887.274	4653
887.399	4706
887.523	4675
887.648	4675
887.773	4622
887.897	4835
888.021	4812
888.146	4740
888.27	4885
888.395	4987
888.519	4896
888.643	4881
888.767	4816
888.891	4748
889.015	4679
889.139	4752
889.263	4660
889.387	4824
889.511	4934
889.635	4820
889.759	4683
889.883	4706
890.006	4763
890.13	4900
890.254	4660
890.377	4778
890.501	4573
890.624	4615
890.748	4706
890.871	4561
890.995	4481
891.118	4443
891.241	4569
891.364	4580
891.488	4694
891.611	4531
891.734	4637
891.857	4634
891.98	4634
892.103	4660
892.226	4660
892.349	4558
892.471	4497
892.594	4603
892.717	4675
892.839	4622
892.962	4656
893.085	4714
893.207	4679
893.33	4546
893.452	4535
893.575	4694
893.697	4672
893.819	4911
893.941	4934
894.064	4866
894.186	4645
894.308	4611
894.43	4809
894.552	4839
894.674	4771
894.796	4584
894.918	4706
895.04	4592
895.161	4774
895.283	4698
895.405	4649
895.526	4675
895.648	4759
895.769	4740
895.891	4763
896.012	4790
896.134	4828
896.255	4778
896.376	4729
896.498	4645
896.619	4725
896.74	4660
896.861	4736
896.982	4976
897.103	5102
897.224	4923
897.345	4797
897.466	4687
897.587	4763
897.708	4900
897.828	4828
897.949	4782
898.07	4603
898.19	4710
898.311	4847
898.431	4744
898.552	4778
898.672	4900
898.792	4885
898.913	4778
899.033	4698
899.153	4573
899.273	4481
899.393	4523
899.513	4599
899.633	4580
899.753	4527
899.873	4558
899.993	4649
900.113	4592
900.232	4653
900.352	4622
900.472	4538
900.591	4451
900.711	4531
900.83	4497
900.95	4615
901.069	4702
901.189	4584
901.308	4493
901.427	4371
901.546	4447
901.665	4542
901.784	4535
901.904	4451
902.023	4341
902.141	4280
902.26	4230
902.379	4398
902.498	4284
902.617	4287
902.735	4417
902.854	4481
902.973	4424
903.091	4219
903.21	4303
903.328	4344
903.446	4325
903.565	4303
903.683	4428
903.801	4291
903.919	4462
904.038	4481
904.156	4367
904.274	4512
904.392	4474
904.51	4478
904.627	4508
904.745	4645
904.863	4675
904.981	4451
905.098	4348
905.216	4329
905.334	4466
905.451	4497
905.569	4451
905.686	4592
905.803	4615
905.921	4436
906.038	4550
906.155	4527
906.272	4481
906.389	4462
906.506	4383
906.623	4398
906.74	4417
906.857	4341
906.974	4417
907.091	4603
907.208	4714
907.324	4660
907.441	4577
907.557	4455
907.674	4367
907.79	4352
907.907	4421
908.023	4554
908.139	4512
908.256	4478
908.372	4535
908.488	4497
908.604	4432
908.72	4432
908.836	4413
908.952	4409
909.068	4470
909.184	4634
909.3	4554
909.415	4649
909.531	4596
909.647	4367
909.762	4383
909.878	4402
909.993	4493
910.108	4440
910.224	4504
910.339	4497
910.454	4485
910.57	4417
910.685	4356
910.8	4687
910.915	4637
911.03	4538
911.145	4375
911.259	4356
911.374	4383
911.489	4341
911.604	4333
911.718	4219
911.833	4268
911.947	4109
912.062	4116
912.176	4246
912.291	4257
912.405	4325
912.519	4538
912.633	4558
912.748	4409
912.862	4398
912.976	4253
913.09	4097
913.204	4185
913.318	4265
913.431	4409
913.545	4405
913.659	4493
913.772	4447
913.886	4272
914	4280
914.113	4478
914.226	4508
914.34	4459
914.453	4314
914.566	4542
914.68	4325
914.793	4344
914.906	4200
915.019	4154
915.132	4109
915.245	4242
915.358	4200
915.47	4265
915.583	4348
915.696	4356
915.809	4440
915.921	4485
916.034	4337
916.146	4295
916.259	4314
916.371	4402
916.483	4402
916.595	4329
916.708	4356
916.82	4386
916.932	4390
917.044	4386
917.156	4363
917.268	4268
917.38	4344
917.491	4325
917.603	4409
917.715	4398
917.826	4489
917.938	4398
918.049	4272
918.161	4459
918.272	4615
918.384	4588
918.495	4508
918.606	4356
918.717	4284
918.828	4375
918.939	4443
919.05	4287
919.161	4402
919.272	4169
919.383	4261
919.494	4508
919.604	4687
919.715	4489
919.826	4398
919.936	4459
920.047	4569
920.157	4550
920.267	4763
920.378	4573
920.488	4584
920.598	4752
920.708	4930
920.818	4786
920.928	4793
921.038	4961
921.148	4991
921.258	4694
921.368	4573
921.477	4584
921.587	4512
921.697	4405
921.806	4588
921.916	4424
922.025	4318
922.134	4295
922.244	4303
922.353	4341
922.462	4211
922.571	4158
922.68	4116
922.789	4059
922.898	4021
923.007	4090
923.116	4147
923.224	4124
923.333	4097
923.442	4006
923.55	4010
923.659	4090
923.767	4112
923.876	4021
923.984	4139
924.092	3972
924.201	4086
924.309	4143
924.417	4135
924.525	4074
924.633	4173
924.741	5079
924.849	3945
924.956	4200
925.064	4013
925.172	3937
925.279	4002
925.387	4150
925.494	4105
925.602	4249
925.709	4219
925.816	4109
925.924	4150
926.031	4333
926.138	4238
926.245	4265
926.352	4162
926.459	4268
926.566	4371
926.673	4196
926.779	4135
926.886	4109
926.993	4048
927.099	3987
927.206	4002
927.312	3983
927.419	4139
927.525	4067
927.631	4207
927.737	4010
927.843	3998
927.95	3903
928.056	3956
928.162	4071
928.267	4131
928.373	4740
928.479	4143
928.585	3922
928.69	4063
928.796	4147
928.901	4051
929.007	3884
929.112	4021
929.218	3991
929.323	3983
929.428	4002
929.533	4166
929.638	3945
929.743	4013
929.848	4074
929.953	4063
930.058	3918
930.163	3819
930.267	3857
930.372	4048
930.477	3850
930.581	4128
930.685	4032
930.79	3861
930.894	3941
930.998	3896
931.103	4116
931.207	3766
931.311	3762
931.415	3732
931.519	3587
931.623	3595
