Data from test_V78500241_2786.txt Node
Date: Fri Mar 25 17:08:22 CST 2022
User: usil
Spectrometer: V785-0024
Trigger mode: 0
Integration Time (sec): 4.000000E-1
Scans to average: 1
Nonlinearity correction enabled: false
Boxcar width: 0
Storing dark spectrum: false
XAxis mode: Wavelengths
Number of Pixels in Spectrum: 1024
>>>>>Begin Spectral Data<<<<<
801.071	8005
801.214	8035
801.356	7871
801.499	7845
801.641	7795
801.783	7784
801.926	8001
802.068	7921
802.211	7978
802.353	7955
802.496	7906
802.638	7906
802.78	7932
802.923	7856
803.065	7864
803.208	7928
803.35	8031
803.492	8096
803.635	8202
803.777	8035
803.919	8191
804.061	8400
804.204	8123
804.346	8100
804.488	8020
804.63	8103
804.773	7970
804.915	8153
805.057	8271
805.199	8180
805.341	8214
805.483	8275
805.626	8218
805.768	8164
805.91	8267
806.052	8267
806.194	8134
806.336	8339
806.478	8142
806.62	8096
806.762	8126
806.904	8206
807.046	8431
807.188	8389
807.33	8286
807.472	8294
807.614	8218
807.756	8065
807.898	8031
808.04	7947
808.182	7967
808.324	7875
808.465	7902
808.607	8084
808.749	8149
808.891	8153
809.033	8385
809.174	8218
809.316	8020
809.458	8119
809.6	8001
809.741	8062
809.883	8081
810.025	8130
810.166	8088
810.308	8062
810.45	8031
810.591	7898
810.733	7689
810.875	7677
811.016	7582
811.158	7510
811.299	7628
811.441	7822
811.582	7681
811.724	7624
811.865	7533
812.007	7605
812.148	7594
812.29	7708
812.431	7738
812.573	7902
812.714	7982
812.855	8157
812.997	8210
813.138	8294
813.279	8176
813.421	8161
813.562	8073
813.703	7807
813.845	7757
813.986	7476
814.127	7278
814.268	7221
814.41	7206
814.551	7149
814.692	7175
814.833	7107
814.974	7080
815.115	7160
815.256	6932
815.397	6977
815.539	6913
815.68	6802
815.821	6840
815.962	6844
816.103	6871
816.244	6715
816.385	6597
816.526	6639
816.666	6467
816.807	6315
816.948	6426
817.089	6486
817.23	6399
817.371	6418
817.512	6399
817.653	6372
817.793	6376
817.934	6414
818.075	6445
818.216	6498
818.356	6429
818.497	6235
818.638	6087
818.778	6140
818.919	6129
819.06	6121
819.2	6273
819.341	6296
819.481	6388
819.622	6506
819.762	6722
819.903	6730
820.043	6654
820.184	6597
820.324	6616
820.465	6722
820.605	6703
820.746	6719
820.886	6559
821.026	6681
821.167	6703
821.307	6776
821.447	6802
821.588	6707
821.728	6559
821.868	6506
822.008	6308
822.149	6304
822.289	6334
822.429	6144
822.569	6129
822.709	6110
822.849	5920
822.99	5939
823.13	5927
823.27	5950
823.41	5855
823.55	5748
823.69	5779
823.83	5798
823.97	5676
824.11	5501
824.25	5547
824.389	5600
824.529	5619
824.669	5558
824.809	5653
824.949	5630
825.089	5562
825.228	5512
825.368	5402
825.508	5330
825.648	5326
825.787	5357
825.927	5376
826.067	5273
826.206	5311
826.346	5364
826.485	5425
826.625	5452
826.765	5543
826.904	5444
827.044	5273
827.183	5174
827.323	5151
827.462	5280
827.601	5136
827.741	5193
827.88	5197
828.02	5124
828.159	5193
828.298	5242
828.437	5357
828.577	5277
828.716	5493
828.855	5315
828.994	5140
829.134	5128
829.273	5136
829.412	5151
829.551	5159
829.69	5132
829.829	5212
829.968	5395
830.107	5242
830.246	5296
830.385	5136
830.524	5121
830.663	5060
830.802	4949
830.941	4946
831.08	4873
831.219	5006
831.357	4953
831.496	5212
831.635	4930
831.774	4839
831.913	4839
832.051	4767
832.19	4752
832.329	4801
832.467	4706
832.606	4592
832.744	4733
832.883	4714
833.022	4748
833.16	4782
833.299	4801
833.437	4801
833.576	4831
833.714	4850
833.852	4873
833.991	4927
834.129	4934
834.267	4953
834.406	4900
834.544	4972
834.682	4938
834.821	4934
834.959	5170
835.097	4991
835.235	5170
835.373	5079
835.511	5083
835.65	5029
835.788	5022
835.926	4889
836.064	4858
836.202	4892
836.34	5166
836.478	5223
836.615	5147
836.753	5227
836.891	5296
837.029	5242
837.167	5170
837.305	5143
837.443	5128
837.58	5086
837.718	5280
837.856	5178
837.993	5151
838.131	5197
838.269	5239
838.406	5185
838.544	5235
838.681	5041
838.819	5033
838.956	4908
839.094	4927
839.231	4957
839.369	5109
839.506	5433
839.643	5246
839.781	5041
839.918	5010
840.055	5075
840.193	5075
840.33	5079
840.467	5151
840.604	5208
840.742	5421
840.879	5056
841.016	5113
841.153	5136
841.29	5364
841.427	5284
841.564	5337
841.701	5398
841.838	5288
841.975	5220
842.112	5223
842.249	5113
842.385	5124
842.522	5353
842.659	5140
842.796	5174
842.933	5204
843.069	5193
843.206	5174
843.343	5303
843.479	5216
843.616	5223
843.752	5003
843.889	5010
844.025	5162
844.162	4995
844.298	5231
844.435	5060
844.571	5037
844.708	5193
844.844	5307
844.98	5337
845.117	5307
845.253	5155
845.389	5086
845.525	5189
845.661	5147
845.798	5064
845.934	5174
846.07	5048
846.206	5170
846.342	5303
846.478	5162
846.614	4976
846.75	4927
846.886	4965
847.022	5105
847.158	5045
847.294	5079
847.429	5090
847.565	5060
847.701	5311
847.837	4854
847.972	4797
848.108	4938
848.244	4934
848.379	4763
848.515	4725
848.65	4755
848.786	4748
848.921	4740
849.057	4843
849.192	4870
849.328	4831
849.463	4870
849.598	4805
849.734	4778
849.869	4668
850.004	4603
850.14	4714
850.275	4630
850.41	4546
850.545	4554
850.68	4622
850.815	4668
850.95	4645
851.085	4820
851.22	4729
851.355	4641
851.49	4603
851.625	4656
851.76	4611
851.895	4577
852.03	4542
852.165	4634
852.299	4714
852.434	4790
852.569	4752
852.703	4793
852.838	4812
852.973	4877
853.107	4911
853.242	4710
853.376	4694
853.511	4519
853.645	4607
853.78	4759
853.914	4733
854.048	4653
854.183	4592
854.317	4672
854.451	4805
854.585	4656
854.72	4603
854.854	4691
854.988	4592
855.122	4641
855.256	4500
855.39	4641
855.524	4771
855.658	4687
855.792	4675
855.926	4714
856.06	4812
856.194	4755
856.327	4744
856.461	4611
856.595	4618
856.729	4573
856.862	4759
856.996	4679
857.13	4771
857.263	4744
857.397	4820
857.53	4615
857.664	4755
857.797	4744
857.931	4790
858.064	4672
858.197	4744
858.331	4630
858.464	4611
858.597	4542
858.731	4634
858.864	4615
858.997	4615
859.13	4664
859.263	4660
859.396	4729
859.529	4607
859.662	4542
859.795	4504
859.928	4622
860.061	4763
860.194	4755
860.327	4611
860.46	4538
860.592	4744
860.725	4714
860.858	4763
860.99	4573
861.123	4531
861.256	4489
861.388	4634
861.521	5296
861.653	4493
861.786	4417
861.918	4462
862.05	4584
862.183	4558
862.315	4599
862.447	4664
862.58	4546
862.712	4394
862.844	4325
862.976	4459
863.108	4432
863.24	4759
863.372	4386
863.504	4409
863.636	4421
863.768	4455
863.9	4440
864.032	4379
864.164	4417
864.296	4500
864.428	4618
864.559	4523
864.691	4516
864.823	4535
864.954	4462
865.086	4508
865.217	4436
865.349	4405
865.48	4493
865.612	4497
865.743	4615
865.875	4470
866.006	4402
866.137	4421
866.269	4485
866.4	4424
866.531	4379
866.662	4398
866.793	4424
866.924	4394
867.055	4485
867.186	4443
867.317	4451
867.448	4390
867.579	4432
867.71	4371
867.841	4371
867.972	4462
868.103	4481
868.233	4474
868.364	4512
868.495	4508
868.625	4694
868.756	4759
868.886	4542
869.017	4615
869.147	4771
869.278	4774
869.408	4626
869.539	4615
869.669	4755
869.799	4637
869.929	4752
870.06	4733
870.19	4987
870.32	4908
870.45	4957
870.58	5075
870.71	5121
870.84	5098
870.97	4957
871.1	4934
871.23	5162
871.36	5121
871.489	5048
871.619	5071
871.749	5083
871.879	5155
872.008	5185
872.138	5037
872.267	4991
872.397	4889
872.526	4763
872.656	4729
872.785	4771
872.915	4968
873.044	5067
873.173	4984
873.303	4972
873.432	5010
873.561	4953
873.69	4900
873.819	4892
873.948	4923
874.077	4835
874.206	4733
874.335	4782
874.464	4889
874.593	5003
874.722	4915
874.851	5102
874.979	5060
875.108	5052
875.237	4892
875.365	4862
875.494	4911
875.623	4995
875.751	4809
875.88	4866
876.008	4987
876.136	5067
876.265	5208
876.393	5353
876.521	5273
876.65	5227
876.778	5166
876.906	5067
877.034	4968
877.162	5045
877.29	5014
877.418	5052
877.546	5041
877.674	5010
877.802	5006
877.93	4984
878.058	4889
878.185	4900
878.313	4953
878.441	4911
878.568	4805
878.696	4904
878.824	4923
878.951	4976
879.079	5155
879.206	5280
879.333	5102
879.461	4999
879.588	5010
879.715	5162
879.842	5170
879.97	5014
880.097	4790
880.224	4717
880.351	4839
880.478	4759
880.605	4790
880.732	4748
880.859	5079
880.986	4824
881.112	4934
881.239	4778
881.366	4675
881.493	4607
881.619	4615
881.746	4630
881.872	4637
881.999	4664
882.125	4668
882.252	4748
882.378	4812
882.505	4946
882.631	4774
882.757	4691
882.883	4729
883.01	4721
883.136	4660
883.262	4580
883.388	4603
883.514	4793
883.64	4828
883.766	4725
883.892	4687
884.018	4717
884.143	4930
884.269	4995
884.395	4694
884.52	4672
884.646	4634
884.772	4599
884.897	4596
885.023	4637
885.148	4816
885.274	4919
885.399	4843
885.524	4744
885.65	4675
885.775	4725
885.9	4694
886.025	4877
886.15	4736
886.275	4740
886.4	4656
886.525	4725
886.65	4691
886.775	4717
886.9	4889
887.025	5025
887.149	4847
887.274	4687
887.399	4561
887.523	4584
887.648	4550
887.773	4592
887.897	4717
888.021	4790
888.146	4679
888.27	4831
888.395	4908
888.519	4809
888.643	4812
888.767	4847
888.891	4679
889.015	4573
889.139	4687
889.263	4603
889.387	4759
889.511	4881
889.635	4809
889.759	4634
889.883	4645
890.006	4721
890.13	4820
890.254	4615
890.377	4630
890.501	4542
890.624	4519
890.748	4656
890.871	4500
890.995	4451
891.118	4375
891.241	4569
891.364	4493
891.488	4615
891.611	4455
891.734	4527
891.857	4615
891.98	4554
892.103	4687
892.226	4550
892.349	4516
892.471	4443
892.594	4531
892.717	4596
892.839	4584
892.962	4565
893.085	4687
893.207	4618
893.33	4459
893.452	4478
893.575	4622
893.697	4538
893.819	4809
893.941	4797
894.064	4755
894.186	4569
894.308	4573
894.43	4748
894.552	4873
894.674	4755
894.796	4577
894.918	4584
895.04	4588
895.161	4706
895.283	4634
895.405	4577
895.526	4637
895.648	4702
895.769	4706
895.891	4733
896.012	4725
896.134	4740
896.255	4664
896.376	4634
896.498	4611
896.619	4698
896.74	4538
896.861	4637
896.982	4930
897.103	5094
897.224	4843
897.345	4729
897.466	4672
897.587	4702
897.708	4850
897.828	4786
897.949	4668
898.07	4584
898.19	4634
898.311	4850
898.431	4717
898.552	4759
898.672	4812
898.792	4805
898.913	4778
899.033	4611
899.153	4504
899.273	4432
899.393	4538
899.513	4596
899.633	4512
899.753	4527
899.873	4527
899.993	4558
900.113	4550
900.232	4573
900.352	4550
900.472	4519
900.591	4394
900.711	4459
900.83	4436
900.95	4611
901.069	4679
901.189	4535
901.308	4390
901.427	4284
901.546	4383
901.665	4489
901.784	4512
901.904	4299
902.023	4284
902.141	4219
902.26	4181
902.379	4276
902.498	4242
902.617	4227
902.735	4371
902.854	4451
902.973	4371
903.091	4211
903.21	4207
903.328	4314
903.446	4280
903.565	4265
903.683	4341
903.801	4265
903.919	4428
904.038	4409
904.156	4299
904.274	4402
904.392	4367
904.51	4409
904.627	4459
904.745	4535
904.863	4645
904.981	4436
905.098	4325
905.216	4360
905.334	4497
905.451	4455
905.569	4409
905.686	4527
905.803	4569
905.921	4424
906.038	4592
906.155	4436
906.272	4413
906.389	4455
906.506	4306
906.623	4352
906.74	4409
906.857	4333
906.974	4402
907.091	4584
907.208	4664
907.324	4588
907.441	4497
907.557	4295
907.674	4360
907.79	4318
907.907	4402
908.023	4489
908.139	4455
908.256	4390
908.372	4470
908.488	4451
908.604	4306
908.72	4295
908.836	4386
908.952	4352
909.068	4413
909.184	4565
909.3	4523
909.415	4630
909.531	4550
909.647	4360
909.762	4405
909.878	4333
909.993	4424
910.108	4367
910.224	4383
910.339	4459
910.454	4379
910.57	4352
910.685	4303
910.8	4660
910.915	4637
911.03	4459
911.145	4333
911.259	4383
911.374	4386
911.489	4295
911.604	4284
911.718	4169
911.833	4196
911.947	4082
912.062	3983
912.176	4211
912.291	4265
912.405	4253
912.519	4455
912.633	4478
912.748	4360
912.862	4314
912.976	4196
913.09	4097
913.204	4173
913.318	4272
913.431	4344
913.545	4352
913.659	4432
913.772	4341
913.886	4253
914	4246
914.113	4409
914.226	4451
914.34	4409
914.453	4261
914.566	4440
914.68	4333
914.793	4306
914.906	4207
915.019	4097
915.132	4116
915.245	4188
915.358	4192
915.47	4287
915.583	4261
915.696	4306
915.809	4447
915.921	4413
916.034	4280
916.146	4207
916.259	4230
916.371	4383
916.483	4344
916.595	4246
916.708	4310
916.82	4272
916.932	4276
917.044	4344
917.156	4310
917.268	4223
917.38	4299
917.491	4291
917.603	4375
917.715	4421
917.826	4459
917.938	4341
918.049	4253
918.161	4363
918.272	4504
918.384	4554
918.495	4455
918.606	4295
918.717	4238
918.828	4295
918.939	4379
919.05	4310
919.161	4325
919.272	4154
919.383	4249
919.494	4443
919.604	4637
919.715	4428
919.826	4363
919.936	4367
920.047	4489
920.157	4504
920.267	4683
920.378	4561
920.488	4519
920.598	4755
920.708	4812
920.818	4744
920.928	4767
921.038	4930
921.148	4927
921.258	4599
921.368	4504
921.477	4489
921.587	4440
921.697	4341
921.806	4580
921.916	4462
922.025	4268
922.134	4257
922.244	4219
922.353	4356
922.462	4215
922.571	4139
922.68	4021
922.789	3926
922.898	4082
923.007	3987
923.116	4071
923.224	4025
923.333	4131
923.442	3953
923.55	3991
923.659	4006
923.767	4112
923.876	4025
923.984	4166
924.092	3964
924.201	4078
924.309	4044
924.417	4090
924.525	4082
924.633	4124
924.741	4885
924.849	3979
924.956	4131
925.064	3972
925.172	3926
925.279	3987
925.387	4074
925.494	4093
925.602	4207
925.709	4185
925.816	4082
925.924	4131
926.031	4238
926.138	4150
926.245	4196
926.352	4124
926.459	4227
926.566	4322
926.673	4116
926.779	4078
926.886	4128
926.993	3953
927.099	3972
927.206	3953
927.312	3918
927.419	4101
927.525	4074
927.631	4086
927.737	3934
927.843	3983
927.95	3808
928.056	3918
928.162	4021
928.267	4055
928.373	4706
928.479	4154
928.585	3850
928.69	4013
928.796	4074
928.901	3960
929.007	3842
929.112	3998
929.218	3975
929.323	3953
929.428	3915
929.533	4093
929.638	3949
929.743	3964
929.848	4029
929.953	3987
930.058	3949
930.163	3751
930.267	3816
930.372	4010
930.477	3785
930.581	4078
930.685	3964
930.79	3812
930.894	3842
930.998	3850
931.103	4006
931.207	3698
931.311	3736
931.415	3675
931.519	3469
931.623	3515
