Data from test_V78500241_1892.txt Node
Date: Fri Mar 25 17:02:09 CST 2022
User: usil
Spectrometer: V785-0024
Trigger mode: 0
Integration Time (sec): 4.000000E-1
Scans to average: 1
Nonlinearity correction enabled: false
Boxcar width: 0
Storing dark spectrum: false
XAxis mode: Wavelengths
Number of Pixels in Spectrum: 1024
>>>>>Begin Spectral Data<<<<<
801.071	7997
801.214	7909
801.356	7864
801.499	7845
801.641	7738
801.783	7734
801.926	7947
802.068	7959
802.211	8005
802.353	7909
802.496	7841
802.638	7841
802.78	7856
802.923	7890
803.065	7830
803.208	7795
803.35	7940
803.492	8103
803.635	8149
803.777	7955
803.919	8119
804.061	8423
804.204	8134
804.346	8046
804.488	7921
804.63	8039
804.773	7986
804.915	8050
805.057	8305
805.199	8142
805.341	8142
805.483	8252
805.626	8259
805.768	8096
805.91	8195
806.052	8157
806.194	8096
806.336	8225
806.478	8092
806.62	8016
806.762	8092
806.904	8282
807.046	8461
807.188	8286
807.33	8267
807.472	8320
807.614	8130
807.756	8100
807.898	7955
808.04	7856
808.182	7833
808.324	7826
808.465	7868
808.607	8081
808.749	8107
808.891	8202
809.033	8301
809.174	8161
809.316	8035
809.458	8100
809.6	7997
809.741	8001
809.883	7967
810.025	8111
810.166	8054
810.308	8020
810.45	7932
810.591	7784
810.733	7772
810.875	7636
811.016	7468
811.158	7457
811.299	7563
811.441	7662
811.582	7636
811.724	7567
811.865	7586
812.007	7590
812.148	7548
812.29	7624
812.431	7788
812.573	7841
812.714	7925
812.855	8138
812.997	8199
813.138	8263
813.279	8119
813.421	8012
813.562	7921
813.703	7837
813.845	7784
813.986	7369
814.127	7198
814.268	7209
814.41	7236
814.551	7156
814.692	7244
814.833	7099
814.974	7080
815.115	7084
815.256	6951
815.397	6916
815.539	6935
815.68	6787
815.821	6700
815.962	6863
816.103	6764
816.244	6688
816.385	6578
816.526	6528
816.666	6456
816.807	6296
816.948	6414
817.089	6448
817.23	6418
817.371	6376
817.512	6388
817.653	6380
817.793	6315
817.934	6361
818.075	6448
818.216	6399
818.356	6426
818.497	6228
818.638	6041
818.778	6129
818.919	6159
819.06	6091
819.2	6273
819.341	6357
819.481	6323
819.622	6528
819.762	6726
819.903	6703
820.043	6642
820.184	6593
820.324	6544
820.465	6616
820.605	6673
820.746	6692
820.886	6490
821.026	6604
821.167	6692
821.307	6802
821.447	6757
821.588	6642
821.728	6589
821.868	6456
822.008	6285
822.149	6304
822.289	6388
822.429	6155
822.569	6057
822.709	6072
822.849	5870
822.99	5893
823.13	5901
823.27	5920
823.41	5767
823.55	5771
823.69	5775
823.83	5786
823.97	5646
824.11	5581
824.25	5562
824.389	5528
824.529	5600
824.669	5452
824.809	5600
824.949	5596
825.089	5570
825.228	5581
825.368	5421
825.508	5402
825.648	5360
825.787	5417
825.927	5376
826.067	5311
826.206	5315
826.346	5337
826.485	5440
826.625	5448
826.765	5562
826.904	5482
827.044	5250
827.183	5201
827.323	5174
827.462	5277
827.601	5189
827.741	5231
827.88	5216
828.02	5124
828.159	5292
828.298	5357
828.437	5376
828.577	5318
828.716	5505
828.855	5341
828.994	5170
829.134	5140
829.273	5235
829.412	5216
829.551	5181
829.69	5170
829.829	5280
829.968	5376
830.107	5277
830.246	5303
830.385	5208
830.524	5132
830.663	5117
830.802	5014
830.941	4961
831.08	4942
831.219	5041
831.357	4995
831.496	5235
831.635	4927
831.774	4881
831.913	4885
832.051	4714
832.19	4740
832.329	4847
832.467	4759
832.606	4687
832.744	4733
832.883	4729
833.022	4782
833.16	4843
833.299	4850
833.437	4873
833.576	4854
833.714	4828
833.852	4835
833.991	4946
834.129	4999
834.267	4976
834.406	4877
834.544	4991
834.682	5010
834.821	4968
834.959	5170
835.097	4995
835.235	5140
835.373	5147
835.511	5162
835.65	5102
835.788	5045
835.926	4965
836.064	4896
836.202	4923
836.34	5174
836.478	5284
836.615	5121
836.753	5292
836.891	5387
837.029	5231
837.167	5220
837.305	5197
837.443	5189
837.58	5079
837.718	5292
837.856	5258
837.993	5151
838.131	5318
838.269	5223
838.406	5212
838.544	5189
838.681	5075
838.819	5022
838.956	4908
839.094	4968
839.231	4987
839.369	5098
839.506	5463
839.643	5288
839.781	5079
839.918	5006
840.055	5094
840.193	5151
840.33	5170
840.467	5132
840.604	5227
840.742	5452
840.879	5121
841.016	5113
841.153	5151
841.29	5391
841.427	5357
841.564	5383
841.701	5341
841.838	5303
841.975	5311
842.112	5311
842.249	5174
842.385	5170
842.522	5372
842.659	5223
842.796	5185
842.933	5250
843.069	5193
843.206	5220
843.343	5311
843.479	5299
843.616	5311
843.752	5075
843.889	5003
844.025	5223
844.162	5052
844.298	5239
844.435	5064
844.571	5056
844.708	5181
844.844	5284
844.98	5341
845.117	5322
845.253	5201
845.389	5113
845.525	5155
845.661	5143
845.798	5113
845.934	5155
846.07	5094
846.206	5208
846.342	5299
846.478	5178
846.614	5064
846.75	4965
846.886	4930
847.022	5079
847.158	5071
847.294	5090
847.429	5098
847.565	5079
847.701	5357
847.837	4885
847.972	4850
848.108	4976
848.244	4965
848.379	4843
848.515	4755
848.65	4736
848.786	4771
848.921	4809
849.057	4911
849.192	4896
849.328	4828
849.463	4866
849.598	4828
849.734	4801
849.869	4702
850.004	4611
850.14	4687
850.275	4645
850.41	4550
850.545	4611
850.68	4603
850.815	4660
850.95	4653
851.085	4801
851.22	4782
851.355	4668
851.49	4653
851.625	4626
851.76	4683
851.895	4596
852.03	4558
852.165	4691
852.299	4748
852.434	4805
852.569	4748
852.703	4752
852.838	4923
852.973	4938
853.107	4911
853.242	4748
853.376	4736
853.511	4565
853.645	4596
853.78	4824
853.914	4714
854.048	4721
854.183	4698
854.317	4744
854.451	4820
854.585	4668
854.72	4675
854.854	4755
854.988	4641
855.122	4675
855.256	4565
855.39	4649
855.524	4793
855.658	4752
855.792	4702
855.926	4725
856.06	4828
856.194	4820
856.327	4721
856.461	4634
856.595	4603
856.729	4698
856.862	4736
856.996	4698
857.13	4721
857.263	4752
857.397	4831
857.53	4668
857.664	4748
857.797	4793
857.931	4828
858.064	4710
858.197	4740
858.331	4660
858.464	4622
858.597	4535
858.731	4607
858.864	4679
858.997	4653
859.13	4660
859.263	4683
859.396	4698
859.529	4577
859.662	4596
859.795	4519
859.928	4687
860.061	4774
860.194	4801
860.327	4645
860.46	4588
860.592	4710
860.725	4694
860.858	4771
860.99	4558
861.123	4531
861.256	4599
861.388	4649
861.521	5429
861.653	4474
861.786	4428
861.918	4542
862.05	4546
862.183	4535
862.315	4611
862.447	4698
862.58	4565
862.712	4402
862.844	4363
862.976	4474
863.108	4436
863.24	4908
863.372	4348
863.504	4440
863.636	4455
863.768	4504
863.9	4478
864.032	4390
864.164	4394
864.296	4531
864.428	4577
864.559	4561
864.691	4554
864.823	4554
864.954	4451
865.086	4531
865.217	4493
865.349	4451
865.48	4493
865.612	4489
865.743	4645
865.875	4470
866.006	4440
866.137	4523
866.269	4504
866.4	4421
866.531	4466
866.662	4436
866.793	4398
866.924	4451
867.055	4478
867.186	4508
867.317	4474
867.448	4383
867.579	4432
867.71	4455
867.841	4360
867.972	4478
868.103	4462
868.233	4440
868.364	4493
868.495	4523
868.625	4672
868.756	4797
868.886	4596
869.017	4630
869.147	4816
869.278	4820
869.408	4691
869.539	4694
869.669	4694
869.799	4672
869.929	4790
870.06	4778
870.19	4938
870.32	4892
870.45	5006
870.58	5041
870.71	5102
870.84	5140
870.97	4961
871.1	4949
871.23	5159
871.36	5121
871.489	5052
871.619	5064
871.749	5136
871.879	5132
872.008	5189
872.138	5010
872.267	5018
872.397	4835
872.526	4828
872.656	4721
872.785	4793
872.915	5025
873.044	5060
873.173	4949
873.303	4984
873.432	4946
873.561	4991
873.69	4885
873.819	4923
873.948	4934
874.077	4850
874.206	4698
874.335	4881
874.464	4965
874.593	5079
874.722	4889
874.851	5102
874.979	5105
875.108	5090
875.237	4949
875.365	4877
875.494	4877
875.623	4961
875.751	4862
875.88	4927
876.008	4976
876.136	5025
876.265	5204
876.393	5334
876.521	5277
876.65	5185
876.778	5170
876.906	5045
877.034	5041
877.162	5083
877.29	5003
877.418	5094
877.546	5098
877.674	5041
877.802	5037
877.93	4987
878.058	4953
878.185	4870
878.313	4976
878.441	4995
878.568	4839
878.696	4946
878.824	4934
878.951	5006
879.079	5086
879.206	5280
879.333	5143
879.461	4999
879.588	5003
879.715	5098
879.842	5250
879.97	5010
880.097	4774
880.224	4782
880.351	4774
880.478	4820
880.605	4797
880.732	4774
880.859	5094
880.986	4908
881.112	4934
881.239	4816
881.366	4691
881.493	4622
881.619	4622
881.746	4641
881.872	4653
881.999	4691
882.125	4668
882.252	4820
882.378	4870
882.505	5003
882.631	4831
882.757	4679
882.883	4771
883.01	4801
883.136	4679
883.262	4630
883.388	4611
883.514	4778
883.64	4847
883.766	4759
883.892	4698
884.018	4687
884.143	4889
884.269	5014
884.395	4702
884.52	4637
884.646	4691
884.772	4599
884.897	4588
885.023	4698
885.148	4797
885.274	4862
885.399	4850
885.524	4767
885.65	4714
885.775	4729
885.9	4725
886.025	4908
886.15	4824
886.275	4744
886.4	4672
886.525	4744
886.65	4714
886.775	4683
886.9	4862
887.025	5022
887.149	4782
887.274	4656
887.399	4565
887.523	4603
887.648	4588
887.773	4588
887.897	4721
888.021	4809
888.146	4698
888.27	4847
888.395	4885
888.519	4801
888.643	4812
888.767	4835
888.891	4672
889.015	4615
889.139	4634
889.263	4618
889.387	4740
889.511	4847
889.635	4809
889.759	4656
889.883	4653
890.006	4752
890.13	4843
890.254	4626
890.377	4694
890.501	4577
890.624	4565
890.748	4626
890.871	4493
890.995	4489
891.118	4394
891.241	4519
891.364	4561
891.488	4653
891.611	4478
891.734	4565
891.857	4618
891.98	4569
892.103	4672
892.226	4577
892.349	4523
892.471	4451
892.594	4565
892.717	4588
892.839	4630
892.962	4618
893.085	4649
893.207	4615
893.33	4459
893.452	4478
893.575	4698
893.697	4622
893.819	4805
893.941	4839
894.064	4828
894.186	4596
894.308	4573
894.43	4729
894.552	4877
894.674	4778
894.796	4588
894.918	4596
895.04	4596
895.161	4729
895.283	4649
895.405	4641
895.526	4596
895.648	4679
895.769	4725
895.891	4714
896.012	4725
896.134	4710
896.255	4668
896.376	4649
896.498	4592
896.619	4702
896.74	4599
896.861	4645
896.982	4915
897.103	5048
897.224	4805
897.345	4786
897.466	4691
897.587	4736
897.708	4850
897.828	4763
897.949	4702
898.07	4599
898.19	4664
898.311	4835
898.431	4672
898.552	4767
898.672	4782
898.792	4797
898.913	4725
899.033	4626
899.153	4538
899.273	4474
899.393	4455
899.513	4531
899.633	4584
899.753	4478
899.873	4466
899.993	4565
900.113	4512
900.232	4558
900.352	4527
900.472	4504
900.591	4405
900.711	4493
900.83	4417
900.95	4622
901.069	4664
901.189	4573
901.308	4360
901.427	4318
901.546	4402
901.665	4466
901.784	4470
901.904	4417
902.023	4325
902.141	4185
902.26	4219
902.379	4375
902.498	4265
902.617	4276
902.735	4367
902.854	4421
902.973	4348
903.091	4230
903.21	4246
903.328	4322
903.446	4310
903.565	4238
903.683	4379
903.801	4310
903.919	4409
904.038	4421
904.156	4363
904.274	4489
904.392	4405
904.51	4440
904.627	4474
904.745	4592
904.863	4641
904.981	4447
905.098	4344
905.216	4409
905.334	4428
905.451	4470
905.569	4485
905.686	4592
905.803	4626
905.921	4474
906.038	4573
906.155	4535
906.272	4440
906.389	4489
906.506	4402
906.623	4428
906.74	4432
906.857	4356
906.974	4383
907.091	4626
907.208	4729
907.324	4626
907.441	4527
907.557	4379
907.674	4348
907.79	4367
907.907	4443
908.023	4519
908.139	4527
908.256	4455
908.372	4519
908.488	4523
908.604	4402
908.72	4341
908.836	4402
908.952	4451
909.068	4474
909.184	4611
909.3	4508
909.415	4668
909.531	4599
909.647	4356
909.762	4428
909.878	4417
909.993	4489
910.108	4428
910.224	4443
910.339	4565
910.454	4459
910.57	4375
910.685	4318
910.8	4698
910.915	4615
911.03	4565
911.145	4310
911.259	4367
911.374	4421
911.489	4325
911.604	4318
911.718	4257
911.833	4200
911.947	4139
912.062	4086
912.176	4223
912.291	4272
912.405	4287
912.519	4497
912.633	4542
912.748	4402
912.862	4341
912.976	4295
913.09	4135
913.204	4238
913.318	4299
913.431	4375
913.545	4424
913.659	4447
913.772	4390
913.886	4318
914	4227
914.113	4379
914.226	4493
914.34	4455
914.453	4280
914.566	4470
914.68	4333
914.793	4367
914.906	4185
915.019	4147
915.132	4109
915.245	4204
915.358	4207
915.47	4207
915.583	4306
915.696	4295
915.809	4421
915.921	4485
916.034	4299
916.146	4265
916.259	4223
916.371	4386
916.483	4405
916.595	4287
916.708	4386
916.82	4383
916.932	4310
917.044	4390
917.156	4333
917.268	4261
917.38	4284
917.491	4310
917.603	4402
917.715	4443
917.826	4436
917.938	4443
918.049	4299
918.161	4481
918.272	4565
918.384	4569
918.495	4447
918.606	4314
918.717	4253
918.828	4398
918.939	4402
919.05	4276
919.161	4356
919.272	4105
919.383	4310
919.494	4462
919.604	4687
919.715	4478
919.826	4432
919.936	4436
920.047	4554
920.157	4512
920.267	4744
920.378	4546
920.488	4527
920.598	4736
920.708	4908
920.818	4767
920.928	4748
921.038	4980
921.148	4938
921.258	4641
921.368	4607
921.477	4546
921.587	4485
921.697	4386
921.806	4641
921.916	4470
922.025	4287
922.134	4329
922.244	4261
922.353	4333
922.462	4204
922.571	4169
922.68	4025
922.789	4036
922.898	4067
923.007	4055
923.116	4143
923.224	4074
923.333	4093
923.442	4040
923.55	4017
923.659	4032
923.767	4128
923.876	4017
923.984	4181
924.092	4010
924.201	4097
924.309	4116
924.417	4139
924.525	4105
924.633	4116
924.741	5086
924.849	3956
924.956	4169
925.064	3991
925.172	3934
925.279	4013
925.387	4101
925.494	4082
925.602	4261
925.709	4227
925.816	4086
925.924	4090
926.031	4287
926.138	4173
926.245	4253
926.352	4143
926.459	4299
926.566	4318
926.673	4200
926.779	4116
926.886	4128
926.993	3968
927.099	3972
927.206	3949
927.312	3960
927.419	4101
927.525	4059
927.631	4120
927.737	3964
927.843	4002
927.95	3846
928.056	4059
928.162	4025
928.267	4105
928.373	4630
928.479	4120
928.585	3945
928.69	4071
928.796	4135
928.901	3972
929.007	3880
929.112	4059
929.218	4025
929.323	3960
929.428	3960
929.533	4154
929.638	3918
929.743	3968
929.848	4063
929.953	4010
930.058	3991
930.163	3785
930.267	3842
930.372	4002
930.477	3857
930.581	4105
930.685	4017
930.79	3876
930.894	3903
930.998	3911
931.103	4048
931.207	3709
931.311	3732
931.415	3698
931.519	3584
931.623	3572
