Data from test_V78500241_2726.txt Node
Date: Fri Mar 25 17:07:57 CST 2022
User: usil
Spectrometer: V785-0024
Trigger mode: 0
Integration Time (sec): 4.000000E-1
Scans to average: 1
Nonlinearity correction enabled: false
Boxcar width: 0
Storing dark spectrum: false
XAxis mode: Wavelengths
Number of Pixels in Spectrum: 1024
>>>>>Begin Spectral Data<<<<<
801.071	8016
801.214	7986
801.356	7925
801.499	7898
801.641	7856
801.783	7864
801.926	7986
802.068	7906
802.211	7963
802.353	8027
802.496	7932
802.638	7887
802.78	7993
802.923	7936
803.065	7845
803.208	7856
803.35	7986
803.492	8142
803.635	8191
803.777	8096
803.919	8195
804.061	8495
804.204	8210
804.346	8016
804.488	8008
804.63	8134
804.773	8027
804.915	8145
805.057	8313
805.199	8164
805.341	8172
805.483	8237
805.626	8244
805.768	8134
805.91	8282
806.052	8237
806.194	8100
806.336	8305
806.478	8134
806.62	8107
806.762	8123
806.904	8267
807.046	8446
807.188	8488
807.33	8366
807.472	8313
807.614	8233
807.756	8172
807.898	8035
808.04	7879
808.182	7913
808.324	7936
808.465	8035
808.607	8123
808.749	8164
808.891	8305
809.033	8240
809.174	8229
809.316	8149
809.458	8084
809.6	7978
809.741	8024
809.883	8084
810.025	8218
810.166	8035
810.308	8054
810.45	7997
810.591	7909
810.733	7807
810.875	7723
811.016	7590
811.158	7559
811.299	7601
811.441	7757
811.582	7712
811.724	7548
811.865	7590
812.007	7563
812.148	7597
812.29	7624
812.431	7792
812.573	7967
812.714	7947
812.855	8153
812.997	8221
813.138	8271
813.279	8237
813.421	8126
813.562	8088
813.703	7921
813.845	7734
813.986	7483
814.127	7270
814.268	7301
814.41	7168
814.551	7114
814.692	7198
814.833	7099
814.974	7149
815.115	7080
815.256	6901
815.397	6890
815.539	6935
815.68	6787
815.821	6768
815.962	6882
816.103	6840
816.244	6730
816.385	6677
816.526	6688
816.666	6555
816.807	6350
816.948	6456
817.089	6532
817.23	6483
817.371	6422
817.512	6361
817.653	6418
817.793	6361
817.934	6410
818.075	6460
818.216	6509
818.356	6433
818.497	6289
818.638	6182
818.778	6159
818.919	6152
819.06	6220
819.2	6346
819.341	6308
819.481	6372
819.622	6517
819.762	6722
819.903	6745
820.043	6631
820.184	6547
820.324	6658
820.465	6757
820.605	6703
820.746	6707
820.886	6467
821.026	6631
821.167	6722
821.307	6844
821.447	6753
821.588	6684
821.728	6528
821.868	6486
822.008	6361
822.149	6407
822.289	6380
822.429	6171
822.569	6136
822.709	6136
822.849	5999
822.99	5908
823.13	5942
823.27	5931
823.41	5832
823.55	5748
823.69	5809
823.83	5836
823.97	5657
824.11	5611
824.25	5512
824.389	5570
824.529	5596
824.669	5558
824.809	5634
824.949	5642
825.089	5611
825.228	5589
825.368	5410
825.508	5387
825.648	5398
825.787	5383
825.927	5368
826.067	5345
826.206	5269
826.346	5349
826.485	5425
826.625	5425
826.765	5532
826.904	5497
827.044	5280
827.183	5254
827.323	5136
827.462	5258
827.601	5185
827.741	5223
827.88	5227
828.02	5155
828.159	5216
828.298	5315
828.437	5337
828.577	5235
828.716	5455
828.855	5292
828.994	5166
829.134	5181
829.273	5174
829.412	5159
829.551	5128
829.69	5189
829.829	5273
829.968	5406
830.107	5315
830.246	5322
830.385	5151
830.524	5204
830.663	5086
830.802	5010
830.941	4858
831.08	4904
831.219	5006
831.357	4987
831.496	5170
831.635	4942
831.774	4885
831.913	4854
832.051	4744
832.19	4759
832.329	4824
832.467	4733
832.606	4618
832.744	4721
832.883	4706
833.022	4725
833.16	4801
833.299	4828
833.437	4850
833.576	4839
833.714	4927
833.852	4923
833.991	4885
834.129	4953
834.267	4908
834.406	4908
834.544	4904
834.682	4984
834.821	4980
834.959	5189
835.097	5006
835.235	5143
835.373	5052
835.511	5060
835.65	5018
835.788	5045
835.926	4923
836.064	4877
836.202	4949
836.34	5136
836.478	5239
836.615	5140
836.753	5212
836.891	5334
837.029	5307
837.167	5197
837.305	5159
837.443	5121
837.58	5113
837.718	5269
837.856	5208
837.993	5159
838.131	5227
838.269	5220
838.406	5220
838.544	5166
838.681	5037
838.819	5018
838.956	4877
839.094	4866
839.231	5041
839.369	5056
839.506	5448
839.643	5261
839.781	5079
839.918	5006
840.055	5083
840.193	5109
840.33	5124
840.467	5155
840.604	5140
840.742	5421
840.879	5079
841.016	5086
841.153	5132
841.29	5345
841.427	5322
841.564	5311
841.701	5410
841.838	5299
841.975	5254
842.112	5258
842.249	5117
842.385	5117
842.522	5269
842.659	5178
842.796	5147
842.933	5201
843.069	5193
843.206	5143
843.343	5307
843.479	5223
843.616	5311
843.752	5033
843.889	5003
844.025	5227
844.162	5006
844.298	5227
844.435	5105
844.571	5098
844.708	5208
844.844	5337
844.98	5322
845.117	5318
845.253	5185
845.389	5075
845.525	5155
845.661	5117
845.798	5025
845.934	5174
846.07	5075
846.206	5201
846.342	5277
846.478	5189
846.614	5056
846.75	4961
846.886	4930
847.022	5121
847.158	5041
847.294	5075
847.429	5136
847.565	5045
847.701	5311
847.837	4843
847.972	4797
848.108	4976
848.244	4957
848.379	4809
848.515	4763
848.65	4691
848.786	4759
848.921	4759
849.057	4881
849.192	4934
849.328	4828
849.463	4858
849.598	4809
849.734	4759
849.869	4656
850.004	4630
850.14	4660
850.275	4630
850.41	4523
850.545	4527
850.68	4641
850.815	4672
850.95	4630
851.085	4820
851.22	4748
851.355	4714
851.49	4580
851.625	4603
851.76	4618
851.895	4569
852.03	4577
852.165	4672
852.299	4763
852.434	4816
852.569	4748
852.703	4793
852.838	4824
852.973	4949
853.107	4961
853.242	4740
853.376	4679
853.511	4554
853.645	4611
853.78	4805
853.914	4759
854.048	4729
854.183	4618
854.317	4694
854.451	4835
854.585	4698
854.72	4664
854.854	4744
854.988	4603
855.122	4622
855.256	4550
855.39	4687
855.524	4755
855.658	4721
855.792	4675
855.926	4752
856.06	4767
856.194	4816
856.327	4714
856.461	4611
856.595	4630
856.729	4626
856.862	4748
856.996	4702
857.13	4706
857.263	4759
857.397	4820
857.53	4626
857.664	4721
857.797	4733
857.931	4801
858.064	4694
858.197	4714
858.331	4672
858.464	4596
858.597	4580
858.731	4599
858.864	4691
858.997	4599
859.13	4618
859.263	4664
859.396	4744
859.529	4615
859.662	4599
859.795	4531
859.928	4634
860.061	4767
860.194	4778
860.327	4580
860.46	4561
860.592	4687
860.725	4710
860.858	4717
860.99	4607
861.123	4508
861.256	4523
861.388	4649
861.521	5307
861.653	4474
861.786	4485
861.918	4466
862.05	4519
862.183	4523
862.315	4569
862.447	4679
862.58	4561
862.712	4379
862.844	4287
862.976	4451
863.108	4455
863.24	4767
863.372	4333
863.504	4447
863.636	4371
863.768	4478
863.9	4398
864.032	4367
864.164	4367
864.296	4462
864.428	4558
864.559	4565
864.691	4565
864.823	4523
864.954	4478
865.086	4497
865.217	4390
865.349	4428
865.48	4447
865.612	4451
865.743	4660
865.875	4443
866.006	4451
866.137	4466
866.269	4504
866.4	4417
866.531	4455
866.662	4383
866.793	4398
866.924	4394
867.055	4470
867.186	4481
867.317	4421
867.448	4371
867.579	4318
867.71	4402
867.841	4398
867.972	4421
868.103	4481
868.233	4462
868.364	4421
868.495	4493
868.625	4660
868.756	4782
868.886	4546
869.017	4573
869.147	4793
869.278	4809
869.408	4649
869.539	4577
869.669	4710
869.799	4683
869.929	4801
870.06	4736
870.19	4927
870.32	4957
870.45	4908
870.58	5033
870.71	5113
870.84	5086
870.97	4987
871.1	4900
871.23	5090
871.36	5143
871.489	4991
871.619	5121
871.749	5022
871.879	5105
872.008	5147
872.138	5067
872.267	4984
872.397	4839
872.526	4816
872.656	4752
872.785	4786
872.915	4961
873.044	4984
873.173	4915
873.303	4991
873.432	4953
873.561	4946
873.69	4866
873.819	4866
873.948	4866
874.077	4824
874.206	4729
874.335	4763
874.464	4904
874.593	5086
874.722	4889
874.851	5075
874.979	5037
875.108	4999
875.237	4953
875.365	4877
875.494	4915
875.623	4957
875.751	4831
875.88	4896
876.008	4953
876.136	5083
876.265	5212
876.393	5387
876.521	5311
876.65	5162
876.778	5185
876.906	5098
877.034	5014
877.162	5003
877.29	5006
877.418	5025
877.546	5029
877.674	5025
877.802	5109
877.93	4991
878.058	4904
878.185	4908
878.313	4911
878.441	4961
878.568	4809
878.696	4892
878.824	4972
878.951	4999
879.079	5143
879.206	5250
879.333	5098
879.461	5003
879.588	4995
879.715	5105
879.842	5242
879.97	5041
880.097	4862
880.224	4706
880.351	4847
880.478	4797
880.605	4805
880.732	4839
880.859	5083
880.986	4866
881.112	4930
881.239	4740
881.366	4691
881.493	4580
881.619	4573
881.746	4615
881.872	4679
881.999	4714
882.125	4714
882.252	4793
882.378	4854
882.505	4968
882.631	4797
882.757	4645
882.883	4729
883.01	4710
883.136	4675
883.262	4637
883.388	4607
883.514	4797
883.64	4904
883.766	4778
883.892	4645
884.018	4725
884.143	4870
884.269	5041
884.395	4733
884.52	4622
884.646	4630
884.772	4611
884.897	4550
885.023	4672
885.148	4824
885.274	4892
885.399	4809
885.524	4698
885.65	4717
885.775	4721
885.9	4694
886.025	4812
886.15	4778
886.275	4721
886.4	4664
886.525	4755
886.65	4721
886.775	4702
886.9	4904
887.025	5060
887.149	4786
887.274	4687
887.399	4580
887.523	4569
887.648	4561
887.773	4611
887.897	4710
888.021	4839
888.146	4679
888.27	4812
888.395	4934
888.519	4820
888.643	4809
888.767	4850
888.891	4691
889.015	4603
889.139	4687
889.263	4622
889.387	4710
889.511	4820
889.635	4797
889.759	4637
889.883	4630
890.006	4736
890.13	4778
890.254	4630
890.377	4710
890.501	4516
890.624	4512
890.748	4656
890.871	4531
890.995	4402
891.118	4379
891.241	4535
891.364	4554
891.488	4630
891.611	4531
891.734	4519
891.857	4622
891.98	4577
892.103	4645
892.226	4630
892.349	4561
892.471	4417
892.594	4542
892.717	4584
892.839	4588
892.962	4596
893.085	4675
893.207	4577
893.33	4485
893.452	4535
893.575	4683
893.697	4592
893.819	4812
893.941	4835
894.064	4755
894.186	4596
894.308	4599
894.43	4771
894.552	4828
894.674	4752
894.796	4542
894.918	4588
895.04	4546
895.161	4710
895.283	4645
895.405	4577
895.526	4653
895.648	4702
895.769	4744
895.891	4694
896.012	4736
896.134	4733
896.255	4668
896.376	4668
896.498	4634
896.619	4710
896.74	4565
896.861	4630
896.982	4987
897.103	5056
897.224	4850
897.345	4763
897.466	4649
897.587	4717
897.708	4839
897.828	4816
897.949	4721
898.07	4580
898.19	4607
898.311	4854
898.431	4675
898.552	4729
898.672	4831
898.792	4816
898.913	4740
899.033	4592
899.153	4558
899.273	4504
899.393	4504
899.513	4508
899.633	4535
899.753	4535
899.873	4542
899.993	4592
900.113	4584
900.232	4630
900.352	4561
900.472	4455
900.591	4405
900.711	4451
900.83	4447
900.95	4618
901.069	4714
901.189	4592
901.308	4383
901.427	4303
901.546	4367
901.665	4443
901.784	4527
901.904	4383
902.023	4295
902.141	4166
902.26	4200
902.379	4280
902.498	4261
902.617	4238
902.735	4421
902.854	4409
902.973	4367
903.091	4215
903.21	4238
903.328	4242
903.446	4272
903.565	4299
903.683	4375
903.801	4257
903.919	4413
904.038	4451
904.156	4352
904.274	4436
904.392	4436
904.51	4432
904.627	4447
904.745	4634
904.863	4626
904.981	4405
905.098	4322
905.216	4379
905.334	4451
905.451	4436
905.569	4481
905.686	4561
905.803	4569
905.921	4409
906.038	4523
906.155	4447
906.272	4409
906.389	4398
906.506	4363
906.623	4341
906.74	4405
906.857	4246
906.974	4390
907.091	4584
907.208	4687
907.324	4611
907.441	4481
907.557	4295
907.674	4371
907.79	4352
907.907	4386
908.023	4478
908.139	4481
908.256	4470
908.372	4508
908.488	4478
908.604	4363
908.72	4337
908.836	4363
908.952	4432
909.068	4394
909.184	4561
909.3	4493
909.415	4558
909.531	4596
909.647	4379
909.762	4383
909.878	4329
909.993	4455
910.108	4413
910.224	4409
910.339	4508
910.454	4424
910.57	4367
910.685	4306
910.8	4664
910.915	4588
911.03	4550
911.145	4291
911.259	4291
911.374	4398
911.489	4314
911.604	4287
911.718	4158
911.833	4200
911.947	4097
912.062	4032
912.176	4223
912.291	4249
912.405	4196
912.519	4470
912.633	4512
912.748	4386
912.862	4268
912.976	4246
913.09	4086
913.204	4143
913.318	4333
913.431	4310
913.545	4363
913.659	4413
913.772	4337
913.886	4242
914	4249
914.113	4379
914.226	4432
914.34	4436
914.453	4280
914.566	4447
914.68	4337
914.793	4322
914.906	4139
915.019	4120
915.132	4078
915.245	4158
915.358	4261
915.47	4272
915.583	4238
915.696	4303
915.809	4466
915.921	4481
916.034	4272
916.146	4230
916.259	4227
916.371	4352
916.483	4344
916.595	4291
916.708	4318
916.82	4325
916.932	4344
917.044	4344
917.156	4344
917.268	4268
917.38	4249
917.491	4276
917.603	4344
917.715	4459
917.826	4417
917.938	4318
918.049	4265
918.161	4409
918.272	4546
918.384	4565
918.495	4432
918.606	4306
918.717	4223
918.828	4348
918.939	4360
919.05	4253
919.161	4322
919.272	4173
919.383	4246
919.494	4493
919.604	4664
919.715	4398
919.826	4363
919.936	4436
920.047	4481
920.157	4459
920.267	4717
920.378	4535
920.488	4523
920.598	4740
920.708	4900
920.818	4809
920.928	4801
921.038	4976
921.148	4904
921.258	4637
921.368	4561
921.477	4474
921.587	4493
921.697	4386
921.806	4523
921.916	4474
922.025	4276
922.134	4299
922.244	4265
922.353	4394
922.462	4166
922.571	4135
922.68	4055
922.789	4002
922.898	4048
923.007	3968
923.116	4105
923.224	4097
923.333	4067
923.442	4002
923.55	4029
923.659	4036
923.767	4112
923.876	4010
923.984	4154
924.092	3998
924.201	4093
924.309	4112
924.417	4143
924.525	4109
924.633	4143
924.741	5025
924.849	3915
924.956	4147
925.064	3968
925.172	3930
925.279	3972
925.387	4044
925.494	4055
925.602	4215
925.709	4192
925.816	4048
925.924	4128
926.031	4268
926.138	4192
926.245	4185
926.352	4128
926.459	4230
926.566	4344
926.673	4147
926.779	4048
926.886	4131
926.993	4006
927.099	3972
927.206	3960
927.312	3956
927.419	4101
927.525	4021
927.631	4116
927.737	3953
927.843	3968
927.95	3827
928.056	3949
928.162	4021
928.267	4120
928.373	4626
928.479	4082
928.585	3846
928.69	3991
928.796	4105
928.901	3975
929.007	3835
929.112	4032
929.218	4006
929.323	3998
929.428	3964
929.533	4101
929.638	3915
929.743	3991
929.848	4051
929.953	3998
930.058	3964
930.163	3778
930.267	3846
930.372	3983
930.477	3804
930.581	4059
930.685	3956
930.79	3869
930.894	3899
930.998	3854
931.103	4086
931.207	3709
931.311	3663
931.415	3675
931.519	3526
931.623	3496
