Data from test_V78500241_490.txt Node
Date: Fri Mar 25 16:52:24 CST 2022
User: usil
Spectrometer: V785-0024
Trigger mode: 0
Integration Time (sec): 4.000000E-1
Scans to average: 1
Nonlinearity correction enabled: false
Boxcar width: 0
Storing dark spectrum: false
XAxis mode: Wavelengths
Number of Pixels in Spectrum: 1024
>>>>>Begin Spectral Data<<<<<
801.071	8012
801.214	8005
801.356	7879
801.499	7917
801.641	7811
801.783	7883
801.926	8046
802.068	8016
802.211	8016
802.353	7997
802.496	7955
802.638	7856
802.78	7978
802.923	7925
803.065	7875
803.208	7845
803.35	7894
803.492	8046
803.635	8176
803.777	8020
803.919	8134
804.061	8465
804.204	8145
804.346	7997
804.488	7955
804.63	8111
804.773	8005
804.915	8111
805.057	8343
805.199	8164
805.341	8210
805.483	8279
805.626	8134
805.768	8073
805.91	8164
806.052	8168
806.194	8103
806.336	8317
806.478	8058
806.62	8081
806.762	8138
806.904	8244
807.046	8446
807.188	8294
807.33	8233
807.472	8362
807.614	8157
807.756	8096
807.898	7978
808.04	7879
808.182	7978
808.324	7955
808.465	7868
808.607	8012
808.749	8092
808.891	8218
809.033	8282
809.174	8149
809.316	8016
809.458	8062
809.6	7963
809.741	8062
809.883	8039
810.025	8123
810.166	8126
810.308	8062
810.45	7986
810.591	7898
810.733	7712
810.875	7677
811.016	7567
811.158	7533
811.299	7624
811.441	7742
811.582	7723
811.724	7559
811.865	7556
812.007	7647
812.148	7594
812.29	7655
812.431	7696
812.573	7921
812.714	8043
812.855	8195
812.997	8309
813.138	8351
813.279	8233
813.421	8210
813.562	8077
813.703	7906
813.845	7833
813.986	7571
814.127	7339
814.268	7335
814.41	7320
814.551	7171
814.692	7183
814.833	7076
814.974	7152
815.115	7122
815.256	6993
815.397	6894
815.539	6954
815.68	6829
815.821	6814
815.962	6878
816.103	6867
816.244	6730
816.385	6707
816.526	6631
816.666	6532
816.807	6289
816.948	6448
817.089	6479
817.23	6445
817.371	6395
817.512	6418
817.653	6399
817.793	6391
817.934	6452
818.075	6448
818.216	6441
818.356	6369
818.497	6239
818.638	6133
818.778	6190
818.919	6106
819.06	6163
819.2	6292
819.341	6315
819.481	6407
819.622	6574
819.762	6719
819.903	6707
820.043	6597
820.184	6486
820.324	6620
820.465	6665
820.605	6669
820.746	6574
820.886	6486
821.026	6688
821.167	6673
821.307	6829
821.447	6760
821.588	6601
821.728	6544
821.868	6464
822.008	6334
822.149	6346
822.289	6323
822.429	6209
822.569	6106
822.709	6102
822.849	5912
822.99	5855
823.13	5939
823.27	5992
823.41	5798
823.55	5844
823.69	5771
823.83	5802
823.97	5699
824.11	5551
824.25	5501
824.389	5547
824.529	5566
824.669	5562
824.809	5608
824.949	5649
825.089	5642
825.228	5596
825.368	5360
825.508	5299
825.648	5349
825.787	5387
825.927	5368
826.067	5269
826.206	5307
826.346	5406
826.485	5410
826.625	5395
826.765	5539
826.904	5421
827.044	5288
827.183	5181
827.323	5128
827.462	5254
827.601	5212
827.741	5216
827.88	5227
828.02	5147
828.159	5216
828.298	5303
828.437	5395
828.577	5269
828.716	5505
828.855	5326
828.994	5181
829.134	5143
829.273	5220
829.412	5174
829.551	5136
829.69	5132
829.829	5181
829.968	5337
830.107	5246
830.246	5280
830.385	5178
830.524	5155
830.663	5025
830.802	5025
830.941	4908
831.08	4873
831.219	5056
831.357	4999
831.496	5162
831.635	4987
831.774	4835
831.913	4824
832.051	4729
832.19	4820
832.329	4847
832.467	4736
832.606	4637
832.744	4729
832.883	4744
833.022	4721
833.16	4790
833.299	4816
833.437	4839
833.576	4850
833.714	4885
833.852	4843
833.991	4892
834.129	4930
834.267	4942
834.406	4919
834.544	4965
834.682	4976
834.821	4919
834.959	5162
835.097	4968
835.235	5174
835.373	5102
835.511	5159
835.65	5056
835.788	5060
835.926	4934
836.064	4942
836.202	4919
836.34	5178
836.478	5227
836.615	5109
836.753	5181
836.891	5261
837.029	5235
837.167	5185
837.305	5189
837.443	5117
837.58	5086
837.718	5239
837.856	5197
837.993	5117
838.131	5292
838.269	5261
838.406	5193
838.544	5216
838.681	5003
838.819	4987
838.956	4957
839.094	4919
839.231	4946
839.369	5105
839.506	5452
839.643	5277
839.781	5102
839.918	5037
840.055	5136
840.193	5071
840.33	5117
840.467	5162
840.604	5178
840.742	5433
840.879	5048
841.016	5018
841.153	5147
841.29	5440
841.427	5379
841.564	5288
841.701	5387
841.838	5326
841.975	5254
842.112	5246
842.249	5159
842.385	5128
842.522	5357
842.659	5178
842.796	5136
842.933	5235
843.069	5189
843.206	5170
843.343	5307
843.479	5242
843.616	5227
843.752	5056
843.889	4984
844.025	5231
844.162	5033
844.298	5223
844.435	5090
844.571	5102
844.708	5178
844.844	5292
844.98	5379
845.117	5315
845.253	5151
845.389	5124
845.525	5159
845.661	5124
845.798	5056
845.934	5185
846.07	5064
846.206	5250
846.342	5307
846.478	5166
846.614	5018
846.75	5022
846.886	4991
847.022	5090
847.158	5025
847.294	5075
847.429	5128
847.565	5083
847.701	5299
847.837	4892
847.972	4809
848.108	4957
848.244	4946
848.379	4755
848.515	4706
848.65	4721
848.786	4763
848.921	4790
849.057	4847
849.192	4889
849.328	4812
849.463	4831
849.598	4828
849.734	4820
849.869	4649
850.004	4675
850.14	4698
850.275	4596
850.41	4512
850.545	4558
850.68	4645
850.815	4672
850.95	4626
851.085	4835
851.22	4790
851.355	4706
851.49	4637
851.625	4630
851.76	4656
851.895	4527
852.03	4516
852.165	4653
852.299	4706
852.434	4816
852.569	4721
852.703	4782
852.838	4828
852.973	4892
853.107	4938
853.242	4774
853.376	4687
853.511	4588
853.645	4660
853.78	4793
853.914	4733
854.048	4675
854.183	4656
854.317	4740
854.451	4858
854.585	4694
854.72	4649
854.854	4733
854.988	4626
855.122	4634
855.256	4516
855.39	4675
855.524	4748
855.658	4687
855.792	4679
855.926	4755
856.06	4748
856.194	4812
856.327	4729
856.461	4618
856.595	4634
856.729	4649
856.862	4729
856.996	4694
857.13	4759
857.263	4702
857.397	4805
857.53	4634
857.664	4763
857.797	4752
857.931	4828
858.064	4668
858.197	4740
858.331	4672
858.464	4645
858.597	4519
858.731	4672
858.864	4656
858.997	4561
859.13	4660
859.263	4675
859.396	4717
859.529	4561
859.662	4618
859.795	4580
859.928	4596
860.061	4805
860.194	4774
860.327	4637
860.46	4538
860.592	4706
860.725	4702
860.858	4748
860.99	4565
861.123	4508
861.256	4573
861.388	4615
861.521	5353
861.653	4459
861.786	4413
861.918	4455
862.05	4516
862.183	4573
862.315	4603
862.447	4656
862.58	4577
862.712	4440
862.844	4337
862.976	4443
863.108	4504
863.24	4782
863.372	4348
863.504	4405
863.636	4402
863.768	4447
863.9	4394
864.032	4383
864.164	4348
864.296	4451
864.428	4550
864.559	4588
864.691	4538
864.823	4561
864.954	4504
865.086	4569
865.217	4478
865.349	4451
865.48	4424
865.612	4512
865.743	4637
865.875	4478
866.006	4417
866.137	4451
866.269	4481
866.4	4413
866.531	4413
866.662	4394
866.793	4402
866.924	4440
867.055	4516
867.186	4409
867.317	4413
867.448	4341
867.579	4413
867.71	4390
867.841	4379
867.972	4474
868.103	4451
868.233	4432
868.364	4432
868.495	4478
868.625	4714
868.756	4767
868.886	4577
869.017	4656
869.147	4816
869.278	4809
869.408	4637
869.539	4630
869.669	4672
869.799	4691
869.929	4759
870.06	4740
870.19	5010
870.32	4972
870.45	4919
870.58	5010
870.71	5105
870.84	5128
870.97	4972
871.1	4923
871.23	5140
871.36	5140
871.489	5018
871.619	5029
871.749	5109
871.879	5128
872.008	5159
872.138	5029
872.267	4961
872.397	4870
872.526	4854
872.656	4752
872.785	4812
872.915	4961
873.044	5048
873.173	4953
873.303	4946
873.432	4968
873.561	4972
873.69	4858
873.819	4885
873.948	4885
874.077	4873
874.206	4763
874.335	4805
874.464	4923
874.593	5086
874.722	4999
874.851	5083
874.979	5048
875.108	5037
875.237	4919
875.365	4919
875.494	4915
875.623	4946
875.751	4843
875.88	4892
876.008	4953
876.136	5037
876.265	5220
876.393	5368
876.521	5208
876.65	5208
876.778	5155
876.906	5094
877.034	5010
877.162	5052
877.29	4984
877.418	5136
877.546	5090
877.674	5025
877.802	5056
877.93	4999
878.058	4942
878.185	4877
878.313	5018
878.441	4923
878.568	4786
878.696	4847
878.824	4938
878.951	5029
879.079	5105
879.206	5341
879.333	5064
879.461	4961
879.588	5075
879.715	5102
879.842	5235
879.97	4980
880.097	4771
880.224	4710
880.351	4812
880.478	4835
880.605	4862
880.732	4782
880.859	5098
880.986	4873
881.112	4919
881.239	4790
881.366	4656
881.493	4653
881.619	4554
881.746	4607
881.872	4687
881.999	4641
882.125	4687
882.252	4763
882.378	4805
882.505	4938
882.631	4873
882.757	4649
882.883	4736
883.01	4755
883.136	4691
883.262	4618
883.388	4626
883.514	4854
883.64	4828
883.766	4752
883.892	4721
884.018	4729
884.143	4877
884.269	5037
884.395	4691
884.52	4687
884.646	4641
884.772	4607
884.897	4573
885.023	4717
885.148	4793
885.274	4892
885.399	4835
885.524	4736
885.65	4698
885.775	4778
885.9	4714
886.025	4812
886.15	4771
886.275	4736
886.4	4637
886.525	4729
886.65	4618
886.775	4717
886.9	4968
887.025	5041
887.149	4786
887.274	4637
887.399	4584
887.523	4573
887.648	4603
887.773	4550
887.897	4759
888.021	4767
888.146	4641
888.27	4820
888.395	4915
888.519	4812
888.643	4828
888.767	4824
888.891	4717
889.015	4603
889.139	4634
889.263	4592
889.387	4790
889.511	4831
889.635	4805
889.759	4637
889.883	4664
890.006	4740
890.13	4820
890.254	4660
890.377	4683
890.501	4592
890.624	4516
890.748	4637
890.871	4535
890.995	4443
891.118	4379
891.241	4508
891.364	4569
891.488	4649
891.611	4516
891.734	4489
891.857	4599
891.98	4558
892.103	4656
892.226	4584
892.349	4535
892.471	4409
892.594	4554
892.717	4634
892.839	4573
892.962	4615
893.085	4672
893.207	4630
893.33	4455
893.452	4535
893.575	4664
893.697	4577
893.819	4809
893.941	4881
894.064	4767
894.186	4649
894.308	4573
894.43	4736
894.552	4854
894.674	4812
894.796	4584
894.918	4611
895.04	4577
895.161	4725
895.283	4733
895.405	4573
895.526	4634
895.648	4649
895.769	4656
895.891	4721
896.012	4740
896.134	4774
896.255	4664
896.376	4656
896.498	4569
896.619	4691
896.74	4630
896.861	4637
896.982	4915
897.103	5079
897.224	4843
897.345	4725
897.466	4645
897.587	4702
897.708	4873
897.828	4816
897.949	4675
898.07	4554
898.19	4630
898.311	4839
898.431	4683
898.552	4744
898.672	4835
898.792	4805
898.913	4752
899.033	4656
899.153	4470
899.273	4417
899.393	4462
899.513	4523
899.633	4523
899.753	4599
899.873	4538
899.993	4569
900.113	4535
900.232	4630
900.352	4531
900.472	4478
900.591	4417
900.711	4508
900.83	4432
900.95	4611
901.069	4637
901.189	4519
901.308	4417
901.427	4325
901.546	4428
901.665	4462
901.784	4504
901.904	4440
902.023	4344
902.141	4177
902.26	4147
902.379	4333
902.498	4261
902.617	4246
902.735	4383
902.854	4428
902.973	4367
903.091	4185
903.21	4253
903.328	4287
903.446	4314
903.565	4261
903.683	4329
903.801	4295
903.919	4413
904.038	4478
904.156	4318
904.274	4440
904.392	4383
904.51	4466
904.627	4523
904.745	4569
904.863	4615
904.981	4398
905.098	4291
905.216	4341
905.334	4390
905.451	4451
905.569	4421
905.686	4592
905.803	4561
905.921	4421
906.038	4561
906.155	4478
906.272	4386
906.389	4470
906.506	4329
906.623	4379
906.74	4371
906.857	4318
906.974	4360
907.091	4538
907.208	4668
907.324	4577
907.441	4535
907.557	4325
907.674	4375
907.79	4356
907.907	4386
908.023	4519
908.139	4478
908.256	4436
908.372	4470
908.488	4398
908.604	4367
908.72	4314
908.836	4383
908.952	4375
909.068	4478
909.184	4546
909.3	4489
909.415	4603
909.531	4611
909.647	4383
909.762	4348
909.878	4360
909.993	4417
910.108	4421
910.224	4367
910.339	4500
910.454	4409
910.57	4352
910.685	4280
910.8	4672
910.915	4558
911.03	4497
911.145	4367
911.259	4360
911.374	4367
911.489	4344
911.604	4284
911.718	4173
911.833	4185
911.947	4078
912.062	4036
912.176	4234
912.291	4219
912.405	4265
912.519	4440
912.633	4508
912.748	4360
912.862	4322
912.976	4177
913.09	4109
913.204	4204
913.318	4242
913.431	4360
913.545	4386
913.659	4405
913.772	4344
913.886	4280
914	4223
914.113	4367
914.226	4436
914.34	4421
914.453	4227
914.566	4421
914.68	4284
914.793	4363
914.906	4158
915.019	4135
915.132	4078
915.245	4173
915.358	4223
915.47	4257
915.583	4253
915.696	4287
915.809	4390
915.921	4363
916.034	4261
916.146	4227
916.259	4246
916.371	4383
916.483	4360
916.595	4242
916.708	4333
916.82	4371
916.932	4329
917.044	4314
917.156	4329
917.268	4238
917.38	4280
917.491	4261
917.603	4352
917.715	4432
917.826	4409
917.938	4371
918.049	4261
918.161	4413
918.272	4512
918.384	4538
918.495	4470
918.606	4261
918.717	4280
918.828	4310
918.939	4371
919.05	4242
919.161	4310
919.272	4173
919.383	4242
919.494	4474
919.604	4637
919.715	4462
919.826	4322
919.936	4383
920.047	4538
920.157	4527
920.267	4733
920.378	4531
920.488	4478
920.598	4729
920.708	4900
920.818	4774
920.928	4782
921.038	4942
921.148	4919
921.258	4637
921.368	4558
921.477	4519
921.587	4459
921.697	4409
921.806	4531
921.916	4436
922.025	4219
922.134	4303
922.244	4253
922.353	4367
922.462	4169
922.571	4090
922.68	3998
922.789	3987
922.898	3979
923.007	4006
923.116	4131
923.224	4067
923.333	4071
923.442	3968
923.55	4021
923.659	4021
923.767	4086
923.876	3998
923.984	4131
924.092	4006
924.201	4093
924.309	4116
924.417	4131
924.525	4032
924.633	4097
924.741	5045
924.849	3937
924.956	4143
925.064	3968
925.172	3911
925.279	3930
925.387	4078
925.494	4109
925.602	4188
925.709	4169
925.816	4025
925.924	4131
926.031	4238
926.138	4177
926.245	4200
926.352	4074
926.459	4253
926.566	4303
926.673	4169
926.779	4139
926.886	4063
926.993	3968
927.099	3911
927.206	3949
927.312	3930
927.419	4078
927.525	4017
927.631	4067
927.737	3979
927.843	3949
927.95	3861
928.056	3949
928.162	4002
928.267	4086
928.373	4675
928.479	4166
928.585	3869
928.69	4048
928.796	4059
928.901	4010
929.007	3857
929.112	4013
929.218	4025
929.323	3926
929.428	3964
929.533	4112
929.638	3896
929.743	3953
929.848	4063
929.953	4040
930.058	3918
930.163	3766
930.267	3835
930.372	3987
930.477	3774
930.581	4120
930.685	3926
930.79	3816
930.894	3876
930.998	3911
931.103	4059
931.207	3709
931.311	3698
931.415	3644
931.519	3515
931.623	3614
