Data from test_V78500241_1939.txt Node
Date: Fri Mar 25 17:02:28 CST 2022
User: usil
Spectrometer: V785-0024
Trigger mode: 0
Integration Time (sec): 4.000000E-1
Scans to average: 1
Nonlinearity correction enabled: false
Boxcar width: 0
Storing dark spectrum: false
XAxis mode: Wavelengths
Number of Pixels in Spectrum: 1024
>>>>>Begin Spectral Data<<<<<
801.071	7993
801.214	8065
801.356	7879
801.499	7841
801.641	7879
801.783	7856
801.926	7982
802.068	7928
802.211	7989
802.353	8027
802.496	7811
802.638	7803
802.78	7849
802.923	7852
803.065	7906
803.208	7890
803.35	7974
803.492	8123
803.635	8183
803.777	8001
803.919	8100
804.061	8457
804.204	8138
804.346	8035
804.488	7970
804.63	8088
804.773	7932
804.915	8107
805.057	8358
805.199	8130
805.341	8161
805.483	8195
805.626	8221
805.768	8157
805.91	8240
806.052	8256
806.194	8130
806.336	8202
806.478	8096
806.62	8069
806.762	8176
806.904	8237
807.046	8526
807.188	8423
807.33	8381
807.472	8301
807.614	8161
807.756	8195
807.898	8043
808.04	7864
808.182	7902
808.324	7898
808.465	7947
808.607	8073
808.749	8123
808.891	8240
809.033	8279
809.174	8244
809.316	8081
809.458	8046
809.6	8046
809.741	8012
809.883	8073
810.025	8088
810.166	8024
810.308	8027
810.45	7951
810.591	7875
810.733	7734
810.875	7647
811.016	7480
811.158	7445
811.299	7559
811.441	7715
811.582	7670
811.724	7571
811.865	7548
812.007	7601
812.148	7582
812.29	7601
812.431	7807
812.573	7902
812.714	8046
812.855	8134
812.997	8187
813.138	8275
813.279	8180
813.421	8069
813.562	7978
813.703	7792
813.845	7746
813.986	7415
814.127	7217
814.268	7198
814.41	7217
814.551	7194
814.692	7217
814.833	7107
814.974	7160
815.115	7103
815.256	7015
815.397	6947
815.539	6905
815.68	6810
815.821	6764
815.962	6848
816.103	6859
816.244	6696
816.385	6654
816.526	6608
816.666	6498
816.807	6334
816.948	6456
817.089	6498
817.23	6445
817.371	6350
817.512	6399
817.653	6372
817.793	6353
817.934	6429
818.075	6456
818.216	6433
818.356	6475
818.497	6277
818.638	6144
818.778	6155
818.919	6144
819.06	6171
819.2	6338
819.341	6323
819.481	6380
819.622	6585
819.762	6768
819.903	6673
820.043	6654
820.184	6578
820.324	6631
820.465	6669
820.605	6646
820.746	6700
820.886	6509
821.026	6650
821.167	6684
821.307	6802
821.447	6749
821.588	6650
821.728	6563
821.868	6498
822.008	6361
822.149	6391
822.289	6350
822.429	6163
822.569	6091
822.709	6182
822.849	5882
822.99	5889
823.13	5973
823.27	5927
823.41	5798
823.55	5729
823.69	5805
823.83	5722
823.97	5691
824.11	5543
824.25	5573
824.389	5573
824.529	5592
824.669	5493
824.809	5642
824.949	5688
825.089	5653
825.228	5547
825.368	5379
825.508	5330
825.648	5372
825.787	5368
825.927	5326
826.067	5315
826.206	5288
826.346	5379
826.485	5444
826.625	5414
826.765	5547
826.904	5509
827.044	5258
827.183	5239
827.323	5136
827.462	5288
827.601	5166
827.741	5239
827.88	5212
828.02	5121
828.159	5231
828.298	5322
828.437	5326
828.577	5231
828.716	5440
828.855	5360
828.994	5178
829.134	5166
829.273	5178
829.412	5124
829.551	5132
829.69	5231
829.829	5261
829.968	5299
830.107	5261
830.246	5299
830.385	5155
830.524	5098
830.663	5045
830.802	4987
830.941	4858
831.08	4896
831.219	5006
831.357	4984
831.496	5113
831.635	4900
831.774	4881
831.913	4847
832.051	4790
832.19	4752
832.329	4824
832.467	4714
832.606	4668
832.744	4698
832.883	4725
833.022	4706
833.16	4809
833.299	4847
833.437	4797
833.576	4862
833.714	4923
833.852	4843
833.991	4877
834.129	4965
834.267	4976
834.406	4904
834.544	4949
834.682	4976
834.821	4968
834.959	5147
835.097	4976
835.235	5147
835.373	5067
835.511	5117
835.65	5033
835.788	4995
835.926	4870
836.064	4934
836.202	4862
836.34	5121
836.478	5235
836.615	5086
836.753	5227
836.891	5299
837.029	5212
837.167	5155
837.305	5162
837.443	5193
837.58	5105
837.718	5231
837.856	5140
837.993	5151
838.131	5242
838.269	5220
838.406	5216
838.544	5155
838.681	5052
838.819	4976
838.956	4873
839.094	4908
839.231	4911
839.369	5102
839.506	5421
839.643	5273
839.781	5090
839.918	4999
840.055	5098
840.193	5159
840.33	5121
840.467	5121
840.604	5189
840.742	5433
840.879	5079
841.016	5033
841.153	5193
841.29	5364
841.427	5341
841.564	5288
841.701	5357
841.838	5254
841.975	5242
842.112	5178
842.249	5170
842.385	5132
842.522	5280
842.659	5208
842.796	5128
842.933	5159
843.069	5121
843.206	5143
843.343	5315
843.479	5261
843.616	5303
843.752	5056
843.889	4999
844.025	5216
844.162	5029
844.298	5170
844.435	5067
844.571	5083
844.708	5159
844.844	5364
844.98	5379
845.117	5273
845.253	5162
845.389	5102
845.525	5201
845.661	5220
845.798	5052
845.934	5189
846.07	5037
846.206	5189
846.342	5311
846.478	5162
846.614	5010
846.75	4987
846.886	4984
847.022	5147
847.158	5056
847.294	5079
847.429	5140
847.565	5098
847.701	5311
847.837	4938
847.972	4885
848.108	4999
848.244	4980
848.379	4835
848.515	4786
848.65	4771
848.786	4801
848.921	4828
849.057	4942
849.192	4942
849.328	4786
849.463	4847
849.598	4820
849.734	4774
849.869	4733
850.004	4675
850.14	4714
850.275	4672
850.41	4550
850.545	4561
850.68	4656
850.815	4691
850.95	4656
851.085	4873
851.22	4759
851.355	4721
851.49	4706
851.625	4580
851.76	4672
851.895	4611
852.03	4603
852.165	4721
852.299	4790
852.434	4812
852.569	4812
852.703	4793
852.838	4805
852.973	4980
853.107	4965
853.242	4774
853.376	4729
853.511	4577
853.645	4656
853.78	4835
853.914	4698
854.048	4687
854.183	4687
854.317	4748
854.451	4900
854.585	4721
854.72	4683
854.854	4797
854.988	4656
855.122	4694
855.256	4558
855.39	4645
855.524	4812
855.658	4721
855.792	4774
855.926	4744
856.06	4778
856.194	4843
856.327	4736
856.461	4641
856.595	4672
856.729	4645
856.862	4805
856.996	4759
857.13	4759
857.263	4755
857.397	4866
857.53	4649
857.664	4740
857.797	4786
857.931	4816
858.064	4672
858.197	4831
858.331	4687
858.464	4592
858.597	4577
858.731	4660
858.864	4683
858.997	4641
859.13	4714
859.263	4702
859.396	4721
859.529	4645
859.662	4615
859.795	4573
859.928	4725
860.061	4755
860.194	4786
860.327	4653
860.46	4599
860.592	4740
860.725	4767
860.858	4744
860.99	4618
861.123	4573
861.256	4538
861.388	4637
861.521	5261
861.653	4470
861.786	4497
861.918	4527
862.05	4531
862.183	4546
862.315	4656
862.447	4717
862.58	4561
862.712	4413
862.844	4363
862.976	4512
863.108	4459
863.24	4786
863.372	4413
863.504	4478
863.636	4451
863.768	4516
863.9	4462
864.032	4421
864.164	4390
864.296	4455
864.428	4577
864.559	4535
864.691	4519
864.823	4565
864.954	4554
865.086	4531
865.217	4516
865.349	4440
865.48	4500
865.612	4478
865.743	4649
865.875	4512
866.006	4504
866.137	4497
866.269	4455
866.4	4497
866.531	4451
866.662	4436
866.793	4470
866.924	4459
867.055	4535
867.186	4535
867.317	4394
867.448	4394
867.579	4447
867.71	4424
867.841	4371
867.972	4481
868.103	4512
868.233	4462
868.364	4481
868.495	4527
868.625	4698
868.756	4828
868.886	4542
869.017	4584
869.147	4801
869.278	4797
869.408	4714
869.539	4683
869.669	4763
869.799	4710
869.929	4790
870.06	4710
870.19	5037
870.32	4949
870.45	5003
870.58	5037
870.71	5117
870.84	5071
870.97	4991
871.1	4889
871.23	5140
871.36	5185
871.489	5022
871.619	5136
871.749	5117
871.879	5162
872.008	5193
872.138	5105
872.267	4972
872.397	4889
872.526	4805
872.656	4752
872.785	4850
872.915	5014
873.044	5064
873.173	4984
873.303	4942
873.432	4999
873.561	4949
873.69	4885
873.819	4866
873.948	4965
874.077	4873
874.206	4786
874.335	4889
874.464	4953
874.593	5064
874.722	5014
874.851	5105
874.979	5075
875.108	5075
875.237	4896
875.365	4904
875.494	4915
875.623	5060
875.751	4839
875.88	4885
876.008	5010
876.136	5086
876.265	5265
876.393	5318
876.521	5223
876.65	5231
876.778	5151
876.906	5109
877.034	5037
877.162	5041
877.29	5029
877.418	5105
877.546	4984
877.674	5071
877.802	5033
877.93	5029
878.058	4942
878.185	4915
878.313	5006
878.441	5014
878.568	4870
878.696	4877
878.824	4995
878.951	5014
879.079	5178
879.206	5330
879.333	5075
879.461	4987
879.588	5041
879.715	5151
879.842	5235
879.97	4991
880.097	4824
880.224	4801
880.351	4786
880.478	4835
880.605	4820
880.732	4805
880.859	5075
880.986	4862
881.112	4980
881.239	4896
881.366	4691
881.493	4645
881.619	4592
881.746	4668
881.872	4675
881.999	4683
882.125	4698
882.252	4805
882.378	4839
882.505	4995
882.631	4843
882.757	4679
882.883	4774
883.01	4748
883.136	4733
883.262	4573
883.388	4622
883.514	4850
883.64	4889
883.766	4820
883.892	4675
884.018	4729
884.143	4900
884.269	5006
884.395	4729
884.52	4645
884.646	4687
884.772	4573
884.897	4626
885.023	4717
885.148	4809
885.274	4820
885.399	4831
885.524	4733
885.65	4702
885.775	4831
885.9	4755
886.025	4889
886.15	4801
886.275	4759
886.4	4656
886.525	4736
886.65	4687
886.775	4683
886.9	4934
887.025	5071
887.149	4847
887.274	4660
887.399	4611
887.523	4596
887.648	4630
887.773	4634
887.897	4809
888.021	4740
888.146	4660
888.27	4812
888.395	4919
888.519	4839
888.643	4816
888.767	4839
888.891	4698
889.015	4660
889.139	4683
889.263	4664
889.387	4767
889.511	4923
889.635	4778
889.759	4630
889.883	4641
890.006	4774
890.13	4824
890.254	4672
890.377	4702
890.501	4565
890.624	4554
890.748	4687
890.871	4523
890.995	4428
891.118	4405
891.241	4535
891.364	4592
891.488	4634
891.611	4550
891.734	4565
891.857	4607
891.98	4573
892.103	4645
892.226	4664
892.349	4561
892.471	4443
892.594	4519
892.717	4599
892.839	4558
892.962	4634
893.085	4679
893.207	4592
893.33	4466
893.452	4500
893.575	4694
893.697	4641
893.819	4801
893.941	4812
894.064	4763
894.186	4626
894.308	4599
894.43	4774
894.552	4858
894.674	4782
894.796	4577
894.918	4603
895.04	4584
895.161	4714
895.283	4664
895.405	4569
895.526	4618
895.648	4725
895.769	4630
895.891	4759
896.012	4733
896.134	4767
896.255	4694
896.376	4656
896.498	4615
896.619	4698
896.74	4599
896.861	4656
896.982	4919
897.103	5140
897.224	4835
897.345	4740
897.466	4656
897.587	4752
897.708	4881
897.828	4759
897.949	4653
898.07	4573
898.19	4664
898.311	4831
898.431	4714
898.552	4767
898.672	4831
898.792	4843
898.913	4755
899.033	4641
899.153	4519
899.273	4474
899.393	4535
899.513	4538
899.633	4542
899.753	4561
899.873	4550
899.993	4649
900.113	4538
900.232	4577
900.352	4558
900.472	4519
900.591	4447
900.711	4504
900.83	4451
900.95	4603
901.069	4664
901.189	4565
901.308	4344
901.427	4337
901.546	4409
901.665	4455
901.784	4584
901.904	4413
902.023	4356
902.141	4211
902.26	4185
902.379	4306
902.498	4268
902.617	4261
902.735	4390
902.854	4424
902.973	4356
903.091	4246
903.21	4192
903.328	4306
903.446	4318
903.565	4306
903.683	4402
903.801	4291
903.919	4417
904.038	4436
904.156	4310
904.274	4462
904.392	4398
904.51	4417
904.627	4550
904.745	4561
904.863	4599
904.981	4390
905.098	4337
905.216	4348
905.334	4451
905.451	4455
905.569	4451
905.686	4561
905.803	4588
905.921	4459
906.038	4558
906.155	4478
906.272	4413
906.389	4493
906.506	4356
906.623	4436
906.74	4379
906.857	4287
906.974	4356
907.091	4592
907.208	4649
907.324	4618
907.441	4516
907.557	4394
907.674	4363
907.79	4322
907.907	4363
908.023	4466
908.139	4497
908.256	4421
908.372	4504
908.488	4470
908.604	4352
908.72	4325
908.836	4383
908.952	4383
909.068	4459
909.184	4634
909.3	4504
909.415	4584
909.531	4599
909.647	4344
909.762	4348
909.878	4344
909.993	4417
910.108	4405
910.224	4443
910.339	4519
910.454	4432
910.57	4360
910.685	4352
910.8	4656
910.915	4588
911.03	4531
911.145	4295
911.259	4322
911.374	4383
911.489	4306
911.604	4303
911.718	4234
911.833	4227
911.947	4101
912.062	3998
912.176	4280
912.291	4242
912.405	4284
912.519	4474
912.633	4478
912.748	4371
912.862	4333
912.976	4169
913.09	4112
913.204	4181
913.318	4234
913.431	4405
913.545	4405
913.659	4466
913.772	4375
913.886	4234
914	4268
914.113	4390
914.226	4462
914.34	4360
914.453	4261
914.566	4455
914.68	4265
914.793	4318
914.906	4162
915.019	4116
915.132	4097
915.245	4242
915.358	4192
915.47	4230
915.583	4268
915.696	4333
915.809	4379
915.921	4455
916.034	4306
916.146	4265
916.259	4215
916.371	4409
916.483	4360
916.595	4280
916.708	4318
916.82	4310
916.932	4329
917.044	4306
917.156	4322
917.268	4227
917.38	4284
917.491	4268
917.603	4341
917.715	4428
917.826	4402
917.938	4344
918.049	4223
918.161	4402
918.272	4565
918.384	4523
918.495	4459
918.606	4310
918.717	4246
918.828	4306
918.939	4409
919.05	4230
919.161	4318
919.272	4124
919.383	4242
919.494	4527
919.604	4580
919.715	4443
919.826	4344
919.936	4402
920.047	4500
920.157	4462
920.267	4729
920.378	4569
920.488	4531
920.598	4702
920.708	4835
920.818	4740
920.928	4767
921.038	4911
921.148	4930
921.258	4561
921.368	4554
921.477	4527
921.587	4497
921.697	4356
921.806	4550
921.916	4417
922.025	4230
922.134	4284
922.244	4280
922.353	4314
922.462	4154
922.571	4086
922.68	4025
922.789	3972
922.898	4029
923.007	4010
923.116	4101
923.224	4006
923.333	4093
923.442	3998
923.55	3975
923.659	4032
923.767	4097
923.876	4010
923.984	4116
924.092	3972
924.201	4090
924.309	4131
924.417	4124
924.525	4078
924.633	4150
924.741	5075
924.849	3922
924.956	4124
925.064	3987
925.172	3884
925.279	3937
925.387	4063
925.494	4074
925.602	4196
925.709	4200
925.816	4055
925.924	4135
926.031	4223
926.138	4169
926.245	4185
926.352	4074
926.459	4265
926.566	4306
926.673	4169
926.779	4040
926.886	4097
926.993	3956
927.099	3972
927.206	3884
927.312	3941
927.419	4051
927.525	4013
927.631	4097
927.737	4021
927.843	3953
927.95	3835
928.056	3960
928.162	4017
928.267	4082
928.373	4535
928.479	4101
928.585	3876
928.69	4025
928.796	4059
928.901	3972
929.007	3899
929.112	4002
929.218	3987
929.323	3896
929.428	3937
929.533	4139
929.638	3972
929.743	3960
929.848	4025
929.953	4017
930.058	3892
930.163	3804
930.267	3797
930.372	4055
930.477	3781
930.581	4090
930.685	3949
930.79	3812
930.894	3873
930.998	3854
931.103	4021
931.207	3709
931.311	3732
931.415	3682
931.519	3530
931.623	3526
