Data from test_V78500241_344.txt Node
Date: Fri Mar 25 16:51:23 CST 2022
User: usil
Spectrometer: V785-0024
Trigger mode: 0
Integration Time (sec): 4.000000E-1
Scans to average: 1
Nonlinearity correction enabled: false
Boxcar width: 0
Storing dark spectrum: false
XAxis mode: Wavelengths
Number of Pixels in Spectrum: 1024
>>>>>Begin Spectral Data<<<<<
801.071	8043
801.214	8069
801.356	7978
801.499	7879
801.641	7818
801.783	7868
801.926	7974
802.068	7944
802.211	8012
802.353	8046
802.496	7967
802.638	7887
802.78	7955
802.923	7932
803.065	7883
803.208	7826
803.35	7959
803.492	8027
803.635	8119
803.777	7925
803.919	8062
804.061	8492
804.204	8210
804.346	8092
804.488	7947
804.63	8103
804.773	8001
804.915	8039
805.057	8286
805.199	8172
805.341	8221
805.483	8256
805.626	8107
805.768	8111
805.91	8210
806.052	8157
806.194	8123
806.336	8351
806.478	8088
806.62	8130
806.762	8206
806.904	8233
807.046	8427
807.188	8366
807.33	8313
807.472	8339
807.614	8103
807.756	8138
807.898	8084
808.04	7887
808.182	7921
808.324	7875
808.465	7951
808.607	8081
808.749	8107
808.891	8168
809.033	8244
809.174	8218
809.316	8088
809.458	8039
809.6	7951
809.741	8096
809.883	7978
810.025	8092
810.166	8134
810.308	8054
810.45	7974
810.591	7932
810.733	7788
810.875	7708
811.016	7487
811.158	7578
811.299	7636
811.441	7845
811.582	7746
811.724	7582
811.865	7556
812.007	7643
812.148	7590
812.29	7616
812.431	7742
812.573	7868
812.714	7906
812.855	8096
812.997	8202
813.138	8290
813.279	8301
813.421	8073
813.562	8081
813.703	7856
813.845	7788
813.986	7495
814.127	7339
814.268	7285
814.41	7236
814.551	7133
814.692	7217
814.833	7114
814.974	7122
815.115	7126
815.256	6958
815.397	6928
815.539	7004
815.68	6741
815.821	6814
815.962	6928
816.103	6814
816.244	6700
816.385	6642
816.526	6658
816.666	6483
816.807	6300
816.948	6414
817.089	6418
817.23	6467
817.371	6372
817.512	6391
817.653	6418
817.793	6369
817.934	6441
818.075	6456
818.216	6395
818.356	6410
818.497	6201
818.638	6133
818.778	6186
818.919	6155
819.06	6140
819.2	6319
819.341	6342
819.481	6311
819.622	6486
819.762	6711
819.903	6703
820.043	6601
820.184	6639
820.324	6566
820.465	6700
820.605	6681
820.746	6692
820.886	6559
821.026	6730
821.167	6677
821.307	6798
821.447	6787
821.588	6665
821.728	6544
821.868	6536
822.008	6361
822.149	6376
822.289	6365
822.429	6133
822.569	6083
822.709	6102
822.849	5901
822.99	5889
823.13	5980
823.27	5893
823.41	5836
823.55	5798
823.69	5809
823.83	5748
823.97	5672
824.11	5539
824.25	5547
824.389	5585
824.529	5589
824.669	5554
824.809	5665
824.949	5642
825.089	5638
825.228	5539
825.368	5398
825.508	5334
825.648	5357
825.787	5429
825.927	5360
826.067	5330
826.206	5299
826.346	5368
826.485	5440
826.625	5414
826.765	5497
826.904	5452
827.044	5288
827.183	5231
827.323	5128
827.462	5227
827.601	5170
827.741	5212
827.88	5140
828.02	5060
828.159	5235
828.298	5277
828.437	5322
828.577	5307
828.716	5509
828.855	5357
828.994	5124
829.134	5178
829.273	5212
829.412	5136
829.551	5124
829.69	5197
829.829	5220
829.968	5410
830.107	5261
830.246	5250
830.385	5212
830.524	5185
830.663	5079
830.802	4949
830.941	4892
831.08	4923
831.219	5006
831.357	4968
831.496	5170
831.635	4908
831.774	4812
831.913	4824
832.051	4748
832.19	4740
832.329	4862
832.467	4679
832.606	4660
832.744	4763
832.883	4717
833.022	4706
833.16	4759
833.299	4828
833.437	4847
833.576	4835
833.714	4816
833.852	4881
833.991	4854
834.129	4972
834.267	4934
834.406	4919
834.544	4949
834.682	4919
834.821	4919
834.959	5140
835.097	4949
835.235	5124
835.373	5109
835.511	5064
835.65	5018
835.788	5003
835.926	4923
836.064	4843
836.202	4919
836.34	5162
836.478	5235
836.615	5136
836.753	5235
836.891	5242
837.029	5216
837.167	5189
837.305	5155
837.443	5105
837.58	5075
837.718	5242
837.856	5151
837.993	5117
838.131	5223
838.269	5181
838.406	5201
838.544	5201
838.681	5071
838.819	5045
838.956	4908
839.094	4961
839.231	4984
839.369	5128
839.506	5383
839.643	5318
839.781	5052
839.918	5025
840.055	5098
840.193	5079
840.33	5109
840.467	5155
840.604	5208
840.742	5463
840.879	5147
841.016	5109
841.153	5181
841.29	5334
841.427	5406
841.564	5368
841.701	5341
841.838	5299
841.975	5258
842.112	5341
842.249	5170
842.385	5109
842.522	5368
842.659	5170
842.796	5155
842.933	5204
843.069	5235
843.206	5159
843.343	5379
843.479	5246
843.616	5315
843.752	5086
843.889	5037
844.025	5231
844.162	5090
844.298	5242
844.435	5105
844.571	5086
844.708	5254
844.844	5315
844.98	5318
845.117	5311
845.253	5178
845.389	5117
845.525	5204
845.661	5204
845.798	5094
845.934	5201
846.07	5124
846.206	5246
846.342	5299
846.478	5208
846.614	5075
846.75	5018
846.886	4984
847.022	5216
847.158	5048
847.294	5083
847.429	5147
847.565	5143
847.701	5376
847.837	4957
847.972	4843
848.108	5006
848.244	4976
848.379	4824
848.515	4805
848.65	4752
848.786	4805
848.921	4812
849.057	4942
849.192	4938
849.328	4854
849.463	4904
849.598	4812
849.734	4797
849.869	4733
850.004	4706
850.14	4672
850.275	4698
850.41	4599
850.545	4584
850.68	4653
850.815	4672
850.95	4672
851.085	4866
851.22	4782
851.355	4691
851.49	4691
851.625	4683
851.76	4656
851.895	4588
852.03	4550
852.165	4675
852.299	4790
852.434	4847
852.569	4835
852.703	4793
852.838	4915
852.973	4972
853.107	4946
853.242	4729
853.376	4736
853.511	4615
853.645	4641
853.78	4858
853.914	4717
854.048	4744
854.183	4717
854.317	4717
854.451	4877
854.585	4744
854.72	4717
854.854	4828
854.988	4664
855.122	4740
855.256	4618
855.39	4755
855.524	4744
855.658	4805
855.792	4694
855.926	4774
856.06	4782
856.194	4904
856.327	4729
856.461	4702
856.595	4668
856.729	4668
856.862	4801
856.996	4660
857.13	4797
857.263	4828
857.397	4816
857.53	4694
857.664	4763
857.797	4805
857.931	4812
858.064	4748
858.197	4809
858.331	4660
858.464	4649
858.597	4519
858.731	4618
858.864	4637
858.997	4630
859.13	4702
859.263	4660
859.396	4736
859.529	4611
859.662	4615
859.795	4618
859.928	4694
860.061	4812
860.194	4771
860.327	4675
860.46	4603
860.592	4744
860.725	4759
860.858	4752
860.99	4611
861.123	4546
861.256	4542
861.388	4611
861.521	5353
861.653	4558
861.786	4462
861.918	4493
862.05	4596
862.183	4561
862.315	4641
862.447	4679
862.58	4569
862.712	4459
862.844	4325
862.976	4512
863.108	4512
863.24	4816
863.372	4383
863.504	4421
863.636	4462
863.768	4531
863.9	4531
864.032	4360
864.164	4489
864.296	4504
864.428	4561
864.559	4584
864.691	4580
864.823	4588
864.954	4527
865.086	4538
865.217	4500
865.349	4497
865.48	4527
865.612	4519
865.743	4649
865.875	4493
866.006	4455
866.137	4500
866.269	4474
866.4	4481
866.531	4443
866.662	4405
866.793	4478
866.924	4542
867.055	4512
867.186	4481
867.317	4497
867.448	4390
867.579	4451
867.71	4447
867.841	4402
867.972	4451
868.103	4508
868.233	4497
868.364	4466
868.495	4538
868.625	4683
868.756	4812
868.886	4626
869.017	4603
869.147	4801
869.278	4812
869.408	4694
869.539	4729
869.669	4725
869.799	4702
869.929	4782
870.06	4790
870.19	5025
870.32	4972
870.45	4968
870.58	5064
870.71	5079
870.84	5140
870.97	4968
871.1	4885
871.23	5185
871.36	5162
871.489	5083
871.619	5136
871.749	5147
871.879	5140
872.008	5197
872.138	5090
872.267	5006
872.397	4873
872.526	4850
872.656	4752
872.785	4862
872.915	4972
873.044	5041
873.173	4961
873.303	4957
873.432	4972
873.561	4991
873.69	4915
873.819	4881
873.948	4968
874.077	4854
874.206	4820
874.335	4892
874.464	4953
874.593	5098
874.722	5003
874.851	5151
874.979	5033
875.108	5041
875.237	4930
875.365	4961
875.494	4908
875.623	5010
875.751	4835
875.88	4889
876.008	5029
876.136	5037
876.265	5242
876.393	5429
876.521	5318
876.65	5288
876.778	5170
876.906	5113
877.034	5060
877.162	5105
877.29	5029
877.418	5102
877.546	5018
877.674	5083
877.802	5041
877.93	5060
878.058	4949
878.185	4892
878.313	4984
878.441	4968
878.568	4824
878.696	4919
878.824	5003
878.951	5003
879.079	5181
879.206	5307
879.333	5151
879.461	5025
879.588	5037
879.715	5166
879.842	5269
879.97	5048
880.097	4809
880.224	4759
880.351	4805
880.478	4854
880.605	4877
880.732	4854
880.859	5121
880.986	4885
881.112	4942
881.239	4831
881.366	4687
881.493	4599
881.619	4603
881.746	4660
881.872	4691
881.999	4710
882.125	4668
882.252	4774
882.378	4843
882.505	4995
882.631	4812
882.757	4691
882.883	4733
883.01	4752
883.136	4721
883.262	4653
883.388	4573
883.514	4835
883.64	4892
883.766	4782
883.892	4687
884.018	4736
884.143	4896
884.269	5052
884.395	4687
884.52	4672
884.646	4664
884.772	4611
884.897	4630
885.023	4714
885.148	4801
885.274	4847
885.399	4850
885.524	4725
885.65	4748
885.775	4752
885.9	4748
886.025	4866
886.15	4797
886.275	4748
886.4	4672
886.525	4748
886.65	4733
886.775	4763
886.9	4896
887.025	5033
887.149	4820
887.274	4698
887.399	4603
887.523	4580
887.648	4599
887.773	4622
887.897	4812
888.021	4774
888.146	4698
888.27	4862
888.395	4946
888.519	4797
888.643	4835
888.767	4816
888.891	4721
889.015	4637
889.139	4656
889.263	4626
889.387	4805
889.511	4881
889.635	4873
889.759	4675
889.883	4653
890.006	4755
890.13	4847
890.254	4672
890.377	4710
890.501	4599
890.624	4592
890.748	4694
890.871	4538
890.995	4462
891.118	4455
891.241	4596
891.364	4569
891.488	4702
891.611	4542
891.734	4573
891.857	4683
891.98	4580
892.103	4679
892.226	4649
892.349	4561
892.471	4421
892.594	4554
892.717	4641
892.839	4561
892.962	4641
893.085	4729
893.207	4550
893.33	4535
893.452	4527
893.575	4687
893.697	4561
893.819	4812
893.941	4908
894.064	4759
894.186	4660
894.308	4577
894.43	4717
894.552	4820
894.674	4828
894.796	4577
894.918	4645
895.04	4596
895.161	4767
895.283	4668
895.405	4630
895.526	4706
895.648	4729
895.769	4710
895.891	4725
896.012	4729
896.134	4725
896.255	4714
896.376	4710
896.498	4679
896.619	4706
896.74	4622
896.861	4679
896.982	4953
897.103	5113
897.224	4790
897.345	4812
897.466	4672
897.587	4786
897.708	4900
897.828	4759
897.949	4668
898.07	4584
898.19	4691
898.311	4828
898.431	4687
898.552	4824
898.672	4866
898.792	4885
898.913	4790
899.033	4645
899.153	4497
899.273	4466
899.393	4462
899.513	4535
899.633	4584
899.753	4523
899.873	4558
899.993	4622
900.113	4523
900.232	4588
900.352	4561
900.472	4516
900.591	4428
900.711	4516
900.83	4470
900.95	4653
901.069	4664
901.189	4596
901.308	4428
901.427	4337
901.546	4375
901.665	4512
901.784	4538
901.904	4424
902.023	4379
902.141	4242
902.26	4181
902.379	4325
902.498	4249
902.617	4219
902.735	4356
902.854	4432
902.973	4390
903.091	4238
903.21	4299
903.328	4291
903.446	4314
903.565	4295
903.683	4363
903.801	4268
903.919	4421
904.038	4474
904.156	4337
904.274	4455
904.392	4421
904.51	4512
904.627	4489
904.745	4577
904.863	4664
904.981	4386
905.098	4379
905.216	4402
905.334	4436
905.451	4432
905.569	4493
905.686	4542
905.803	4577
905.921	4432
906.038	4478
906.155	4489
906.272	4421
906.389	4466
906.506	4386
906.623	4363
906.74	4432
906.857	4337
906.974	4363
907.091	4603
907.208	4752
907.324	4660
907.441	4542
907.557	4363
907.674	4344
907.79	4291
907.907	4379
908.023	4512
908.139	4516
908.256	4440
908.372	4500
908.488	4489
908.604	4367
908.72	4356
908.836	4379
908.952	4360
909.068	4497
909.184	4603
909.3	4489
909.415	4550
909.531	4596
909.647	4386
909.762	4390
909.878	4390
909.993	4474
910.108	4405
910.224	4462
910.339	4497
910.454	4424
910.57	4341
910.685	4310
910.8	4637
910.915	4630
911.03	4500
911.145	4356
911.259	4329
911.374	4379
911.489	4341
911.604	4280
911.718	4249
911.833	4234
911.947	4135
912.062	4082
912.176	4234
912.291	4238
912.405	4268
912.519	4447
912.633	4512
912.748	4383
912.862	4344
912.976	4185
913.09	4109
913.204	4192
913.318	4314
913.431	4390
913.545	4390
913.659	4493
913.772	4424
913.886	4276
914	4257
914.113	4375
914.226	4413
914.34	4402
914.453	4246
914.566	4432
914.68	4318
914.793	4314
914.906	4143
915.019	4158
915.132	4101
915.245	4196
915.358	4242
915.47	4246
915.583	4238
915.696	4299
915.809	4405
915.921	4443
916.034	4284
916.146	4291
916.259	4242
916.371	4428
916.483	4390
916.595	4265
916.708	4348
916.82	4348
916.932	4344
917.044	4367
917.156	4348
917.268	4291
917.38	4261
917.491	4291
917.603	4348
917.715	4436
917.826	4421
917.938	4356
918.049	4257
918.161	4432
918.272	4588
918.384	4569
918.495	4443
918.606	4303
918.717	4291
918.828	4356
918.939	4352
919.05	4227
919.161	4344
919.272	4124
919.383	4249
919.494	4493
919.604	4618
919.715	4459
919.826	4394
919.936	4440
920.047	4451
920.157	4523
920.267	4645
920.378	4542
920.488	4504
920.598	4740
920.708	4908
920.818	4771
920.928	4820
921.038	4968
921.148	4881
921.258	4637
921.368	4561
921.477	4489
921.587	4500
921.697	4386
921.806	4531
921.916	4409
922.025	4268
922.134	4310
922.244	4211
922.353	4352
922.462	4204
922.571	4139
922.68	4048
922.789	4006
922.898	4071
923.007	3998
923.116	4131
923.224	4071
923.333	4078
923.442	4006
923.55	4017
923.659	4025
923.767	4128
923.876	3979
923.984	4120
924.092	4017
924.201	4086
924.309	4135
924.417	4169
924.525	4067
924.633	4120
924.741	4938
924.849	3903
924.956	4135
925.064	4002
925.172	3888
925.279	3945
925.387	4029
925.494	4082
925.602	4227
925.709	4166
925.816	4036
925.924	4143
926.031	4230
926.138	4211
926.245	4223
926.352	4074
926.459	4261
926.566	4318
926.673	4154
926.779	4071
926.886	4063
926.993	3960
927.099	3949
927.206	3941
927.312	3979
927.419	4078
927.525	4017
927.631	4082
927.737	3956
927.843	3956
927.95	3884
928.056	3937
928.162	3991
928.267	4074
928.373	4710
928.479	4124
928.585	3884
928.69	4051
928.796	4116
928.901	3979
929.007	3827
929.112	4002
929.218	4006
929.323	3915
929.428	3930
929.533	4139
929.638	3937
929.743	3983
929.848	4040
929.953	3987
930.058	3926
930.163	3774
930.267	3800
930.372	4002
930.477	3831
930.581	4078
930.685	3964
930.79	3831
930.894	3892
930.998	3896
931.103	4082
931.207	3686
931.311	3705
931.415	3644
931.519	3561
931.623	3603
