Data from test_V78500241_1471.txt Node
Date: Fri Mar 25 16:59:13 CST 2022
User: usil
Spectrometer: V785-0024
Trigger mode: 0
Integration Time (sec): 4.000000E-1
Scans to average: 1
Nonlinearity correction enabled: false
Boxcar width: 0
Storing dark spectrum: false
XAxis mode: Wavelengths
Number of Pixels in Spectrum: 1024
>>>>>Begin Spectral Data<<<<<
801.071	8020
801.214	7978
801.356	7875
801.499	7871
801.641	7792
801.783	7845
801.926	7978
802.068	7898
802.211	8020
802.353	8024
802.496	7784
802.638	7868
802.78	7906
802.923	7856
803.065	7841
803.208	7921
803.35	7978
803.492	8088
803.635	8107
803.777	8035
803.919	8161
804.061	8450
804.204	8153
804.346	8065
804.488	7936
804.63	8084
804.773	7993
804.915	8123
805.057	8313
805.199	8164
805.341	8145
805.483	8259
805.626	8225
805.768	8054
805.91	8210
806.052	8206
806.194	8115
806.336	8275
806.478	8157
806.62	8111
806.762	8100
806.904	8332
807.046	8473
807.188	8328
807.33	8339
807.472	8366
807.614	8187
807.756	8100
807.898	8001
808.04	7849
808.182	7902
808.324	7879
808.465	7913
808.607	8016
808.749	8157
808.891	8149
809.033	8290
809.174	8168
809.316	8107
809.458	8062
809.6	7997
809.741	8005
809.883	8008
810.025	8027
810.166	8103
810.308	8077
810.45	7955
810.591	7871
810.733	7746
810.875	7655
811.016	7521
811.158	7514
811.299	7616
811.441	7712
811.582	7750
811.724	7605
811.865	7537
812.007	7636
812.148	7571
812.29	7636
812.431	7738
812.573	7883
812.714	7951
812.855	8111
812.997	8195
813.138	8355
813.279	8225
813.421	8100
813.562	8005
813.703	7822
813.845	7677
813.986	7426
814.127	7221
814.268	7244
814.41	7187
814.551	7149
814.692	7168
814.833	7088
814.974	7076
815.115	7080
815.256	6993
815.397	6943
815.539	6954
815.68	6821
815.821	6753
815.962	6833
816.103	6856
816.244	6688
816.385	6589
816.526	6547
816.666	6490
816.807	6292
816.948	6437
817.089	6494
817.23	6422
817.371	6414
817.512	6350
817.653	6357
817.793	6315
817.934	6414
818.075	6494
818.216	6399
818.356	6445
818.497	6175
818.638	6102
818.778	6171
818.919	6106
819.06	6178
819.2	6315
819.341	6346
819.481	6315
819.622	6521
819.762	6734
819.903	6722
820.043	6612
820.184	6662
820.324	6578
820.465	6639
820.605	6726
820.746	6662
820.886	6547
821.026	6662
821.167	6650
821.307	6783
821.447	6791
821.588	6654
821.728	6574
821.868	6486
822.008	6327
822.149	6361
822.289	6331
822.429	6144
822.569	6068
822.709	6133
822.849	5874
822.99	5904
823.13	5912
823.27	5958
823.41	5756
823.55	5844
823.69	5783
823.83	5737
823.97	5672
824.11	5532
824.25	5520
824.389	5581
824.529	5581
824.669	5577
824.809	5707
824.949	5688
825.089	5638
825.228	5600
825.368	5433
825.508	5383
825.648	5345
825.787	5433
825.927	5337
826.067	5315
826.206	5322
826.346	5383
826.485	5429
826.625	5448
826.765	5608
826.904	5532
827.044	5250
827.183	5181
827.323	5197
827.462	5242
827.601	5208
827.741	5223
827.88	5284
828.02	5178
828.159	5246
828.298	5357
828.437	5402
828.577	5303
828.716	5528
828.855	5326
828.994	5231
829.134	5189
829.273	5235
829.412	5174
829.551	5189
829.69	5223
829.829	5280
829.968	5353
830.107	5326
830.246	5326
830.385	5208
830.524	5090
830.663	5060
830.802	4999
830.941	4938
831.08	4923
831.219	5025
831.357	4957
831.496	5197
831.635	4957
831.774	4858
831.913	4881
832.051	4771
832.19	4824
832.329	4885
832.467	4763
832.606	4641
832.744	4721
832.883	4786
833.022	4782
833.16	4809
833.299	4835
833.437	4881
833.576	4900
833.714	4908
833.852	4930
833.991	4938
834.129	4999
834.267	4953
834.406	4892
834.544	5079
834.682	4991
834.821	4980
834.959	5204
835.097	4980
835.235	5113
835.373	5083
835.511	5124
835.65	5083
835.788	5071
835.926	4923
836.064	4892
836.202	4896
836.34	5170
836.478	5235
836.615	5121
836.753	5231
836.891	5265
837.029	5239
837.167	5201
837.305	5201
837.443	5143
837.58	5147
837.718	5265
837.856	5220
837.993	5197
838.131	5261
838.269	5250
838.406	5208
838.544	5223
838.681	5052
838.819	5048
838.956	4930
839.094	4946
839.231	5037
839.369	5124
839.506	5467
839.643	5288
839.781	5079
839.918	5079
840.055	5159
840.193	5079
840.33	5128
840.467	5159
840.604	5231
840.742	5455
840.879	5098
841.016	5109
841.153	5155
841.29	5402
841.427	5341
841.564	5315
841.701	5345
841.838	5273
841.975	5273
842.112	5315
842.249	5159
842.385	5178
842.522	5330
842.659	5189
842.796	5178
842.933	5220
843.069	5201
843.206	5151
843.343	5318
843.479	5254
843.616	5246
843.752	5067
843.889	5037
844.025	5235
844.162	5052
844.298	5216
844.435	5105
844.571	5086
844.708	5204
844.844	5315
844.98	5353
845.117	5277
845.253	5178
845.389	5037
845.525	5181
845.661	5140
845.798	5048
845.934	5124
846.07	5056
846.206	5254
846.342	5261
846.478	5204
846.614	5018
846.75	4938
846.886	4892
847.022	5166
847.158	5029
847.294	5048
847.429	5083
847.565	5025
847.701	5337
847.837	4873
847.972	4816
848.108	4980
848.244	4949
848.379	4771
848.515	4763
848.65	4752
848.786	4790
848.921	4790
849.057	4862
849.192	4870
849.328	4820
849.463	4801
849.598	4831
849.734	4763
849.869	4714
850.004	4656
850.14	4649
850.275	4653
850.41	4531
850.545	4561
850.68	4607
850.815	4622
850.95	4637
851.085	4858
851.22	4748
851.355	4694
851.49	4698
851.625	4710
851.76	4672
851.895	4592
852.03	4550
852.165	4710
852.299	4725
852.434	4809
852.569	4763
852.703	4786
852.838	4870
852.973	4919
853.107	4927
853.242	4763
853.376	4668
853.511	4558
853.645	4679
853.78	4801
853.914	4679
854.048	4675
854.183	4630
854.317	4702
854.451	4870
854.585	4664
854.72	4675
854.854	4801
854.988	4626
855.122	4641
855.256	4554
855.39	4733
855.524	4790
855.658	4771
855.792	4714
855.926	4702
856.06	4767
856.194	4805
856.327	4694
856.461	4603
856.595	4603
856.729	4630
856.862	4824
856.996	4679
857.13	4710
857.263	4790
857.397	4831
857.53	4672
857.664	4740
857.797	4767
857.931	4816
858.064	4687
858.197	4786
858.331	4615
858.464	4630
858.597	4577
858.731	4660
858.864	4672
858.997	4618
859.13	4656
859.263	4679
859.396	4714
859.529	4580
859.662	4599
859.795	4538
859.928	4645
860.061	4748
860.194	4778
860.327	4596
860.46	4542
860.592	4786
860.725	4721
860.858	4736
860.99	4634
861.123	4519
861.256	4508
861.388	4634
861.521	5417
861.653	4493
861.786	4478
861.918	4451
862.05	4584
862.183	4569
862.315	4618
862.447	4687
862.58	4554
862.712	4436
862.844	4394
862.976	4493
863.108	4447
863.24	4790
863.372	4352
863.504	4447
863.636	4432
863.768	4489
863.9	4443
864.032	4360
864.164	4394
864.296	4466
864.428	4592
864.559	4599
864.691	4538
864.823	4546
864.954	4569
865.086	4554
865.217	4443
865.349	4417
865.48	4436
865.612	4512
865.743	4660
865.875	4481
866.006	4462
866.137	4459
866.269	4462
866.4	4436
866.531	4478
866.662	4386
866.793	4405
866.924	4432
867.055	4508
867.186	4478
867.317	4402
867.448	4360
867.579	4409
867.71	4398
867.841	4402
867.972	4470
868.103	4478
868.233	4481
868.364	4519
868.495	4542
868.625	4691
868.756	4778
868.886	4596
869.017	4622
869.147	4805
869.278	4752
869.408	4691
869.539	4615
869.669	4710
869.799	4664
869.929	4793
870.06	4778
870.19	4972
870.32	4908
870.45	4934
870.58	5071
870.71	5067
870.84	5159
870.97	4919
871.1	4911
871.23	5170
871.36	5136
871.489	5006
871.619	5048
871.749	5098
871.879	5170
872.008	5239
872.138	5048
872.267	4987
872.397	4839
872.526	4843
872.656	4729
872.785	4812
872.915	4923
873.044	5086
873.173	4930
873.303	5003
873.432	4999
873.561	4976
873.69	4889
873.819	4843
873.948	4885
874.077	4801
874.206	4774
874.335	4752
874.464	4870
874.593	5067
874.722	4980
874.851	5075
874.979	5064
875.108	5060
875.237	4915
875.365	4915
875.494	4911
875.623	5025
875.751	4854
875.88	4885
876.008	4942
876.136	5094
876.265	5201
876.393	5364
876.521	5212
876.65	5181
876.778	5189
876.906	5117
877.034	5041
877.162	4995
877.29	4987
877.418	5052
877.546	5060
877.674	5006
877.802	4987
877.93	5056
878.058	4927
878.185	4885
878.313	4961
878.441	4938
878.568	4793
878.696	4870
878.824	4953
878.951	5003
879.079	5147
879.206	5303
879.333	5113
879.461	4976
879.588	5010
879.715	5083
879.842	5250
879.97	5079
880.097	4828
880.224	4774
880.351	4801
880.478	4824
880.605	4797
880.732	4763
880.859	5105
880.986	4915
881.112	4866
881.239	4809
881.366	4702
881.493	4599
881.619	4607
881.746	4641
881.872	4596
881.999	4645
882.125	4694
882.252	4793
882.378	4824
882.505	4953
882.631	4782
882.757	4679
882.883	4755
883.01	4759
883.136	4683
883.262	4573
883.388	4622
883.514	4820
883.64	4915
883.766	4828
883.892	4645
884.018	4748
884.143	4892
884.269	5018
884.395	4672
884.52	4668
884.646	4691
884.772	4622
884.897	4561
885.023	4660
885.148	4805
885.274	4839
885.399	4797
885.524	4672
885.65	4691
885.775	4740
885.9	4725
886.025	4847
886.15	4793
886.275	4702
886.4	4660
886.525	4694
886.65	4721
886.775	4748
886.9	4915
887.025	5029
887.149	4824
887.274	4664
887.399	4603
887.523	4630
887.648	4596
887.773	4607
887.897	4755
888.021	4793
888.146	4672
888.27	4847
888.395	4900
888.519	4850
888.643	4824
888.767	4847
888.891	4672
889.015	4675
889.139	4626
889.263	4592
889.387	4771
889.511	4885
889.635	4797
889.759	4653
889.883	4634
890.006	4736
890.13	4812
890.254	4630
890.377	4672
890.501	4535
890.624	4558
890.748	4645
890.871	4504
890.995	4470
891.118	4417
891.241	4504
891.364	4535
891.488	4649
891.611	4519
891.734	4577
891.857	4634
891.98	4577
892.103	4637
892.226	4618
892.349	4523
892.471	4489
892.594	4569
892.717	4588
892.839	4565
892.962	4626
893.085	4668
893.207	4592
893.33	4432
893.452	4519
893.575	4649
893.697	4603
893.819	4774
893.941	4801
894.064	4748
894.186	4561
894.308	4550
894.43	4778
894.552	4843
894.674	4725
894.796	4573
894.918	4607
895.04	4550
895.161	4729
895.283	4702
895.405	4603
895.526	4618
895.648	4725
895.769	4694
895.891	4706
896.012	4729
896.134	4717
896.255	4687
896.376	4607
896.498	4607
896.619	4668
896.74	4634
896.861	4618
896.982	4919
897.103	5079
897.224	4801
897.345	4755
897.466	4702
897.587	4714
897.708	4870
897.828	4790
897.949	4668
898.07	4546
898.19	4622
898.311	4896
898.431	4706
898.552	4717
898.672	4778
898.792	4782
898.913	4710
899.033	4675
899.153	4504
899.273	4421
899.393	4474
899.513	4531
899.633	4512
899.753	4516
899.873	4493
899.993	4596
900.113	4550
900.232	4599
900.352	4546
900.472	4478
900.591	4443
900.711	4573
900.83	4462
900.95	4607
901.069	4660
901.189	4565
901.308	4379
901.427	4287
901.546	4383
901.665	4474
901.784	4470
901.904	4421
902.023	4379
902.141	4211
902.26	4177
902.379	4322
902.498	4257
902.617	4246
902.735	4386
902.854	4432
902.973	4367
903.091	4169
903.21	4284
903.328	4314
903.446	4299
903.565	4291
903.683	4344
903.801	4272
903.919	4379
904.038	4459
904.156	4299
904.274	4451
904.392	4379
904.51	4424
904.627	4447
904.745	4577
904.863	4607
904.981	4360
905.098	4303
905.216	4303
905.334	4417
905.451	4417
905.569	4421
905.686	4527
905.803	4542
905.921	4383
906.038	4550
906.155	4481
906.272	4379
906.389	4493
906.506	4337
906.623	4356
906.74	4386
906.857	4329
906.974	4379
907.091	4588
907.208	4622
907.324	4611
907.441	4485
907.557	4352
907.674	4329
907.79	4287
907.907	4417
908.023	4489
908.139	4481
908.256	4459
908.372	4451
908.488	4436
908.604	4375
908.72	4322
908.836	4417
908.952	4363
909.068	4436
909.184	4573
909.3	4466
909.415	4569
909.531	4538
909.647	4352
909.762	4383
909.878	4352
909.993	4432
910.108	4409
910.224	4455
910.339	4459
910.454	4394
910.57	4383
910.685	4257
910.8	4618
910.915	4565
911.03	4500
911.145	4337
911.259	4325
911.374	4367
911.489	4261
911.604	4272
911.718	4173
911.833	4188
911.947	4101
912.062	4002
912.176	4230
912.291	4280
912.405	4249
912.519	4512
912.633	4535
912.748	4360
912.862	4253
912.976	4177
913.09	4097
913.204	4196
913.318	4230
913.431	4405
913.545	4390
913.659	4436
913.772	4322
913.886	4242
914	4219
914.113	4398
914.226	4466
914.34	4390
914.453	4215
914.566	4447
914.68	4325
914.793	4299
914.906	4177
915.019	4143
915.132	4082
915.245	4234
915.358	4211
915.47	4238
915.583	4257
915.696	4306
915.809	4405
915.921	4394
916.034	4238
916.146	4276
916.259	4204
916.371	4386
916.483	4375
916.595	4257
916.708	4352
916.82	4280
916.932	4333
917.044	4375
917.156	4329
917.268	4215
917.38	4291
917.491	4257
917.603	4348
917.715	4436
917.826	4443
917.938	4329
918.049	4215
918.161	4379
918.272	4523
918.384	4561
918.495	4405
918.606	4325
918.717	4223
918.828	4360
918.939	4348
919.05	4253
919.161	4341
919.272	4097
919.383	4219
919.494	4413
919.604	4675
919.715	4436
919.826	4333
919.936	4398
920.047	4523
920.157	4497
920.267	4687
920.378	4565
920.488	4573
920.598	4721
920.708	4854
920.818	4755
920.928	4752
921.038	4900
921.148	4873
921.258	4611
921.368	4603
921.477	4500
921.587	4447
921.697	4390
921.806	4577
921.916	4436
922.025	4249
922.134	4303
922.244	4227
922.353	4344
922.462	4150
922.571	4093
922.68	4025
922.789	3979
922.898	4071
923.007	3979
923.116	4074
923.224	4101
923.333	4048
923.442	3983
923.55	3972
923.659	4021
923.767	4120
923.876	3964
923.984	4082
924.092	3979
924.201	4101
924.309	4093
924.417	4120
924.525	4036
924.633	4112
924.741	5067
924.849	3926
924.956	4154
925.064	3968
925.172	3907
925.279	3983
925.387	4082
925.494	4048
925.602	4185
925.709	4181
925.816	4032
925.924	4082
926.031	4204
926.138	4131
926.245	4181
926.352	4059
926.459	4246
926.566	4272
926.673	4150
926.779	4086
926.886	4074
926.993	4006
927.099	3934
927.206	3926
927.312	3949
927.419	4063
927.525	4002
927.631	4086
927.737	3964
927.843	3972
927.95	3876
928.056	3983
928.162	3960
928.267	4082
928.373	4516
928.479	4097
928.585	3865
928.69	4029
928.796	4036
928.901	3937
929.007	3850
929.112	3964
929.218	3983
929.323	3937
929.428	3926
929.533	4131
929.638	3926
929.743	3979
929.848	4051
929.953	4010
930.058	3918
930.163	3804
930.267	3865
930.372	3979
930.477	3819
930.581	4086
930.685	3930
930.79	3808
930.894	3880
930.998	3838
931.103	4010
931.207	3743
931.311	3701
931.415	3713
931.519	3447
931.623	3526
