Data from test_V78500241_1392.txt Node
Date: Fri Mar 25 16:58:40 CST 2022
User: usil
Spectrometer: V785-0024
Trigger mode: 0
Integration Time (sec): 4.000000E-1
Scans to average: 1
Nonlinearity correction enabled: false
Boxcar width: 0
Storing dark spectrum: false
XAxis mode: Wavelengths
Number of Pixels in Spectrum: 1024
>>>>>Begin Spectral Data<<<<<
801.071	8031
801.214	8046
801.356	7894
801.499	7913
801.641	7826
801.783	7807
801.926	7967
802.068	7978
802.211	7986
802.353	8024
802.496	7818
802.638	7822
802.78	7890
802.923	7963
803.065	7906
803.208	7830
803.35	7925
803.492	8027
803.635	8119
803.777	8016
803.919	8107
804.061	8473
804.204	8157
804.346	8126
804.488	7963
804.63	8145
804.773	8073
804.915	8119
805.057	8309
805.199	8252
805.341	8221
805.483	8252
805.626	8206
805.768	8195
805.91	8225
806.052	8210
806.194	8081
806.336	8259
806.478	8069
806.62	8107
806.762	8176
806.904	8225
807.046	8514
807.188	8336
807.33	8229
807.472	8320
807.614	8176
807.756	8157
807.898	8027
808.04	7852
808.182	7909
808.324	7906
808.465	7883
808.607	8123
808.749	8164
808.891	8191
809.033	8298
809.174	8176
809.316	8088
809.458	8043
809.6	7997
809.741	8016
809.883	8081
810.025	8103
810.166	8054
810.308	8046
810.45	8031
810.591	7860
810.733	7795
810.875	7685
811.016	7495
811.158	7487
811.299	7658
811.441	7693
811.582	7715
811.724	7674
811.865	7609
812.007	7639
812.148	7616
812.29	7605
812.431	7784
812.573	7856
812.714	7902
812.855	8081
812.997	8153
813.138	8282
813.279	8214
813.421	8134
813.562	7982
813.703	7887
813.845	7772
813.986	7445
814.127	7247
814.268	7236
814.41	7149
814.551	7194
814.692	7228
814.833	7107
814.974	7095
815.115	7072
815.256	6951
815.397	6875
815.539	6890
815.68	6806
815.821	6760
815.962	6905
816.103	6825
816.244	6730
816.385	6593
816.526	6544
816.666	6441
816.807	6365
816.948	6407
817.089	6483
817.23	6441
817.371	6327
817.512	6391
817.653	6414
817.793	6399
817.934	6422
818.075	6471
818.216	6433
818.356	6365
818.497	6216
818.638	6136
818.778	6152
818.919	6148
819.06	6144
819.2	6353
819.341	6331
819.481	6422
819.622	6471
819.762	6700
819.903	6696
820.043	6593
820.184	6574
820.324	6631
820.465	6684
820.605	6688
820.746	6635
820.886	6521
821.026	6604
821.167	6631
821.307	6768
821.447	6787
821.588	6696
821.728	6627
821.868	6506
822.008	6342
822.149	6365
822.289	6342
822.429	6076
822.569	6038
822.709	6144
822.849	5901
822.99	5912
823.13	5977
823.27	5935
823.41	5764
823.55	5760
823.69	5790
823.83	5775
823.97	5642
824.11	5543
824.25	5528
824.389	5570
824.529	5615
824.669	5547
824.809	5665
824.949	5638
825.089	5627
825.228	5581
825.368	5376
825.508	5349
825.648	5337
825.787	5383
825.927	5322
826.067	5254
826.206	5277
826.346	5376
826.485	5410
826.625	5395
826.765	5570
826.904	5509
827.044	5212
827.183	5246
827.323	5140
827.462	5261
827.601	5227
827.741	5212
827.88	5246
828.02	5117
828.159	5242
828.298	5322
828.437	5341
828.577	5235
828.716	5482
828.855	5372
828.994	5136
829.134	5117
829.273	5151
829.412	5166
829.551	5159
829.69	5140
829.829	5204
829.968	5372
830.107	5220
830.246	5326
830.385	5178
830.524	5185
830.663	5014
830.802	4927
830.941	4908
831.08	4839
831.219	4987
831.357	4984
831.496	5109
831.635	4892
831.774	4862
831.913	4900
832.051	4698
832.19	4755
832.329	4797
832.467	4641
832.606	4641
832.744	4740
832.883	4706
833.022	4759
833.16	4809
833.299	4778
833.437	4801
833.576	4793
833.714	4809
833.852	4858
833.991	4866
834.129	4923
834.267	4949
834.406	4885
834.544	4957
834.682	4930
834.821	4927
834.959	5166
835.097	4957
835.235	5170
835.373	5083
835.511	5079
835.65	5022
835.788	5060
835.926	4934
836.064	4877
836.202	4946
836.34	5128
836.478	5216
836.615	5136
836.753	5181
836.891	5277
837.029	5231
837.167	5220
837.305	5155
837.443	5151
837.58	5060
837.718	5246
837.856	5189
837.993	5170
838.131	5239
838.269	5212
838.406	5166
838.544	5181
838.681	4991
838.819	4968
838.956	4873
839.094	4877
839.231	4961
839.369	5136
839.506	5436
839.643	5277
839.781	5033
839.918	5003
840.055	5090
840.193	5109
840.33	5109
840.467	5105
840.604	5193
840.742	5421
840.879	5071
841.016	5083
841.153	5147
841.29	5326
841.427	5280
841.564	5330
841.701	5337
841.838	5280
841.975	5231
842.112	5299
842.249	5132
842.385	5064
842.522	5318
842.659	5193
842.796	5124
842.933	5170
843.069	5113
843.206	5140
843.343	5357
843.479	5265
843.616	5307
843.752	5003
843.889	5014
844.025	5212
844.162	5033
844.298	5151
844.435	5060
844.571	5033
844.708	5170
844.844	5299
844.98	5292
845.117	5307
845.253	5128
845.389	5041
845.525	5140
845.661	5086
845.798	5083
845.934	5143
846.07	4999
846.206	5235
846.342	5277
846.478	5189
846.614	4999
846.75	4946
846.886	4949
847.022	5140
847.158	5033
847.294	5086
847.429	5067
847.565	4987
847.701	5284
847.837	4847
847.972	4816
848.108	4965
848.244	4957
848.379	4771
848.515	4736
848.65	4774
848.786	4733
848.921	4778
849.057	4866
849.192	4839
849.328	4801
849.463	4850
849.598	4786
849.734	4755
849.869	4710
850.004	4630
850.14	4691
850.275	4561
850.41	4508
850.545	4538
850.68	4596
850.815	4615
850.95	4615
851.085	4828
851.22	4736
851.355	4615
851.49	4592
851.625	4588
851.76	4672
851.895	4565
852.03	4535
852.165	4641
852.299	4736
852.434	4740
852.569	4740
852.703	4782
852.838	4809
852.973	4904
853.107	4927
853.242	4702
853.376	4698
853.511	4577
853.645	4634
853.78	4809
853.914	4679
854.048	4653
854.183	4603
854.317	4687
854.451	4816
854.585	4615
854.72	4641
854.854	4740
854.988	4626
855.122	4622
855.256	4481
855.39	4660
855.524	4801
855.658	4714
855.792	4641
855.926	4675
856.06	4820
856.194	4782
856.327	4683
856.461	4580
856.595	4634
856.729	4599
856.862	4729
856.996	4672
857.13	4683
857.263	4733
857.397	4801
857.53	4611
857.664	4748
857.797	4767
857.931	4755
858.064	4660
858.197	4744
858.331	4668
858.464	4622
858.597	4550
858.731	4630
858.864	4634
858.997	4649
859.13	4656
859.263	4679
859.396	4672
859.529	4569
859.662	4474
859.795	4565
859.928	4577
860.061	4793
860.194	4736
860.327	4649
860.46	4596
860.592	4672
860.725	4656
860.858	4721
860.99	4554
861.123	4542
861.256	4497
861.388	4561
861.521	5387
861.653	4447
861.786	4390
861.918	4455
862.05	4512
862.183	4565
862.315	4615
862.447	4634
862.58	4546
862.712	4375
862.844	4325
862.976	4459
863.108	4424
863.24	4862
863.372	4280
863.504	4409
863.636	4409
863.768	4493
863.9	4474
864.032	4356
864.164	4333
864.296	4489
864.428	4546
864.559	4592
864.691	4489
864.823	4508
864.954	4504
865.086	4550
865.217	4424
865.349	4421
865.48	4474
865.612	4497
865.743	4618
865.875	4478
866.006	4413
866.137	4451
866.269	4443
866.4	4402
866.531	4409
866.662	4432
866.793	4394
866.924	4390
867.055	4500
867.186	4413
867.317	4432
867.448	4333
867.579	4375
867.71	4371
867.841	4352
867.972	4489
868.103	4455
868.233	4485
868.364	4443
868.495	4493
868.625	4645
868.756	4771
868.886	4603
869.017	4622
869.147	4828
869.278	4748
869.408	4626
869.539	4603
869.669	4759
869.799	4645
869.929	4744
870.06	4710
870.19	4927
870.32	4949
870.45	4927
870.58	5048
870.71	5067
870.84	5037
870.97	4847
871.1	4873
871.23	5094
871.36	5045
871.489	5014
871.619	5052
871.749	5083
871.879	5079
872.008	5151
872.138	5056
872.267	4961
872.397	4843
872.526	4805
872.656	4733
872.785	4824
872.915	4919
873.044	5041
873.173	4927
873.303	4949
873.432	4942
873.561	4976
873.69	4858
873.819	4801
873.948	4862
874.077	4809
874.206	4759
874.335	4759
874.464	4858
874.593	5037
874.722	4930
874.851	5056
874.979	5029
875.108	4987
875.237	4831
875.365	4847
875.494	4873
875.623	4949
875.751	4820
875.88	4908
876.008	4976
876.136	5014
876.265	5185
876.393	5349
876.521	5299
876.65	5246
876.778	5181
876.906	5056
877.034	4991
877.162	5010
877.29	4938
877.418	5010
877.546	4999
877.674	5033
877.802	4961
877.93	4961
878.058	4877
878.185	4923
878.313	4915
878.441	4930
878.568	4854
878.696	4824
878.824	4915
878.951	4991
879.079	5113
879.206	5311
879.333	5086
879.461	4991
879.588	5006
879.715	5109
879.842	5181
879.97	5006
880.097	4778
880.224	4698
880.351	4786
880.478	4805
880.605	4801
880.732	4771
880.859	5079
880.986	4877
881.112	4889
881.239	4782
881.366	4675
881.493	4615
881.619	4569
881.746	4653
881.872	4649
881.999	4641
882.125	4645
882.252	4774
882.378	4767
882.505	4885
882.631	4809
882.757	4679
882.883	4683
883.01	4694
883.136	4641
883.262	4618
883.388	4603
883.514	4740
883.64	4839
883.766	4774
883.892	4694
884.018	4702
884.143	4870
884.269	5018
884.395	4672
884.52	4634
884.646	4622
884.772	4569
884.897	4542
885.023	4698
885.148	4774
885.274	4870
885.399	4786
885.524	4717
885.65	4637
885.775	4702
885.9	4698
886.025	4831
886.15	4805
886.275	4721
886.4	4645
886.525	4691
886.65	4691
886.775	4694
886.9	4873
887.025	5045
887.149	4759
887.274	4694
887.399	4550
887.523	4645
887.648	4558
887.773	4584
887.897	4675
888.021	4755
888.146	4694
888.27	4801
888.395	4862
888.519	4854
888.643	4824
888.767	4828
888.891	4679
889.015	4592
889.139	4656
889.263	4660
889.387	4736
889.511	4866
889.635	4763
889.759	4611
889.883	4626
890.006	4660
890.13	4782
890.254	4603
890.377	4668
890.501	4516
890.624	4493
890.748	4603
890.871	4455
890.995	4459
891.118	4428
891.241	4508
891.364	4523
891.488	4618
891.611	4455
891.734	4500
891.857	4596
891.98	4554
892.103	4611
892.226	4588
892.349	4546
892.471	4409
892.594	4535
892.717	4558
892.839	4558
892.962	4523
893.085	4626
893.207	4584
893.33	4481
893.452	4561
893.575	4668
893.697	4584
893.819	4748
893.941	4839
894.064	4790
894.186	4592
894.308	4569
894.43	4717
894.552	4824
894.674	4721
894.796	4584
894.918	4573
895.04	4558
895.161	4691
895.283	4672
895.405	4538
895.526	4573
895.648	4668
895.769	4664
895.891	4672
896.012	4694
896.134	4721
896.255	4668
896.376	4611
896.498	4626
896.619	4672
896.74	4607
896.861	4615
896.982	4892
897.103	5083
897.224	4831
897.345	4725
897.466	4694
897.587	4710
897.708	4839
897.828	4797
897.949	4672
898.07	4546
898.19	4660
898.311	4805
898.431	4660
898.552	4714
898.672	4767
898.792	4805
898.913	4752
899.033	4626
899.153	4466
899.273	4455
899.393	4512
899.513	4527
899.633	4508
899.753	4519
899.873	4493
899.993	4561
900.113	4565
900.232	4577
900.352	4580
900.472	4535
900.591	4390
900.711	4489
900.83	4447
900.95	4569
901.069	4649
901.189	4588
901.308	4341
901.427	4348
901.546	4390
901.665	4455
901.784	4504
901.904	4333
902.023	4344
902.141	4207
902.26	4143
902.379	4280
902.498	4192
902.617	4207
902.735	4386
902.854	4417
902.973	4363
903.091	4200
903.21	4242
903.328	4310
903.446	4268
903.565	4280
903.683	4329
903.801	4295
903.919	4363
904.038	4405
904.156	4287
904.274	4409
904.392	4409
904.51	4363
904.627	4531
904.745	4573
904.863	4649
904.981	4428
905.098	4295
905.216	4341
905.334	4424
905.451	4424
905.569	4478
905.686	4531
905.803	4569
905.921	4390
906.038	4565
906.155	4459
906.272	4394
906.389	4432
906.506	4375
906.623	4386
906.74	4394
906.857	4303
906.974	4390
907.091	4596
907.208	4683
907.324	4611
907.441	4470
907.557	4356
907.674	4348
907.79	4329
907.907	4348
908.023	4478
908.139	4462
908.256	4386
908.372	4481
908.488	4466
908.604	4314
908.72	4344
908.836	4363
908.952	4402
909.068	4447
909.184	4577
909.3	4481
909.415	4592
909.531	4538
909.647	4352
909.762	4383
909.878	4333
909.993	4436
910.108	4424
910.224	4371
910.339	4474
910.454	4428
910.57	4341
910.685	4291
910.8	4603
910.915	4584
911.03	4466
911.145	4291
911.259	4341
911.374	4386
911.489	4299
911.604	4272
911.718	4173
911.833	4219
911.947	4067
912.062	4021
912.176	4215
912.291	4257
912.405	4207
912.519	4497
912.633	4497
912.748	4352
912.862	4272
912.976	4173
913.09	4093
913.204	4128
913.318	4223
913.431	4383
913.545	4375
913.659	4470
913.772	4356
913.886	4249
914	4238
914.113	4379
914.226	4424
914.34	4398
914.453	4192
914.566	4371
914.68	4287
914.793	4337
914.906	4166
915.019	4078
915.132	4105
915.245	4147
915.358	4223
915.47	4200
915.583	4272
915.696	4337
915.809	4394
915.921	4417
916.034	4249
916.146	4268
916.259	4204
916.371	4348
916.483	4344
916.595	4306
916.708	4284
916.82	4348
916.932	4367
917.044	4314
917.156	4295
917.268	4227
917.38	4211
917.491	4291
917.603	4276
917.715	4455
917.826	4421
917.938	4322
918.049	4230
918.161	4322
918.272	4573
918.384	4489
918.495	4432
918.606	4299
918.717	4265
918.828	4363
918.939	4348
919.05	4223
919.161	4329
919.272	4074
919.383	4227
919.494	4428
919.604	4615
919.715	4424
919.826	4344
919.936	4394
920.047	4493
920.157	4466
920.267	4725
920.378	4538
920.488	4504
920.598	4733
920.708	4919
920.818	4710
920.928	4812
921.038	4930
921.148	4862
921.258	4622
921.368	4569
921.477	4455
921.587	4432
921.697	4356
921.806	4569
921.916	4398
922.025	4276
922.134	4234
922.244	4238
922.353	4272
922.462	4181
922.571	4131
922.68	3975
922.789	3968
922.898	3987
923.007	3979
923.116	4086
923.224	4067
923.333	4044
923.442	3949
923.55	3915
923.659	4029
923.767	4082
923.876	3994
923.984	4109
924.092	3994
924.201	4029
924.309	4048
924.417	4116
924.525	4006
924.633	4124
924.741	5029
924.849	3945
924.956	4116
925.064	3987
925.172	3903
925.279	3983
925.387	4021
925.494	4017
925.602	4249
925.709	4223
925.816	4017
925.924	4131
926.031	4223
926.138	4154
926.245	4196
926.352	4086
926.459	4257
926.566	4322
926.673	4188
926.779	4059
926.886	4021
926.993	3998
927.099	3934
927.206	3945
927.312	3953
927.419	4051
927.525	4029
927.631	4101
927.737	3994
927.843	3918
927.95	3846
928.056	3972
928.162	3975
928.267	4029
928.373	4706
928.479	4101
928.585	3892
928.69	4040
928.796	4021
928.901	3991
929.007	3846
929.112	4044
929.218	3964
929.323	3956
929.428	3934
929.533	4093
929.638	3888
929.743	3934
929.848	4078
929.953	4036
930.058	3903
930.163	3785
930.267	3793
930.372	3953
930.477	3800
930.581	4048
930.685	3915
930.79	3838
930.894	3888
930.998	3850
931.103	4048
931.207	3682
931.311	3698
931.415	3633
931.519	3496
931.623	3553
