Data from test_V78500241_1504.txt Node
Date: Fri Mar 25 16:59:27 CST 2022
User: usil
Spectrometer: V785-0024
Trigger mode: 0
Integration Time (sec): 4.000000E-1
Scans to average: 1
Nonlinearity correction enabled: false
Boxcar width: 0
Storing dark spectrum: false
XAxis mode: Wavelengths
Number of Pixels in Spectrum: 1024
>>>>>Begin Spectral Data<<<<<
801.071	7989
801.214	8001
801.356	7875
801.499	7860
801.641	7761
801.783	7822
801.926	8001
802.068	7944
802.211	7947
802.353	7993
802.496	7860
802.638	7826
802.78	7875
802.923	7944
803.065	7887
803.208	7841
803.35	7986
803.492	8088
803.635	8103
803.777	8035
803.919	8168
804.061	8415
804.204	8100
804.346	8046
804.488	8008
804.63	8100
804.773	8096
804.915	8161
805.057	8275
805.199	8202
805.341	8225
805.483	8248
805.626	8214
805.768	8134
805.91	8237
806.052	8199
806.194	8103
806.336	8267
806.478	8126
806.62	8020
806.762	8195
806.904	8279
807.046	8469
807.188	8305
807.33	8336
807.472	8317
807.614	8161
807.756	8138
807.898	7993
808.04	7890
808.182	7932
808.324	7807
808.465	7967
808.607	8134
808.749	8103
808.891	8202
809.033	8286
809.174	8145
809.316	7997
809.458	8054
809.6	8039
809.741	8027
809.883	7986
810.025	8077
810.166	8027
810.308	8001
810.45	8001
810.591	7845
810.733	7662
810.875	7666
811.016	7514
811.158	7518
811.299	7586
811.441	7715
811.582	7677
811.724	7552
811.865	7590
812.007	7556
812.148	7571
812.29	7658
812.431	7765
812.573	7852
812.714	7940
812.855	8096
812.997	8233
813.138	8336
813.279	8138
813.421	8180
813.562	7959
813.703	7837
813.845	7788
813.986	7449
814.127	7293
814.268	7232
814.41	7255
814.551	7149
814.692	7206
814.833	7091
814.974	7076
815.115	7129
815.256	6924
815.397	6970
815.539	6867
815.68	6844
815.821	6818
815.962	6882
816.103	6818
816.244	6658
816.385	6589
816.526	6635
816.666	6414
816.807	6292
816.948	6391
817.089	6422
817.23	6441
817.371	6372
817.512	6372
817.653	6376
817.793	6350
817.934	6323
818.075	6437
818.216	6350
818.356	6426
818.497	6235
818.638	6072
818.778	6121
818.919	6133
819.06	6133
819.2	6350
819.341	6323
819.481	6365
819.622	6486
819.762	6696
819.903	6722
820.043	6597
820.184	6585
820.324	6601
820.465	6745
820.605	6669
820.746	6608
820.886	6540
821.026	6654
821.167	6719
821.307	6798
821.447	6734
821.588	6688
821.728	6604
821.868	6467
822.008	6353
822.149	6353
822.289	6395
822.429	6148
822.569	6087
822.709	6209
822.849	5923
822.99	5935
823.13	5958
823.27	5946
823.41	5783
823.55	5779
823.69	5767
823.83	5824
823.97	5741
824.11	5535
824.25	5535
824.389	5562
824.529	5570
824.669	5558
824.809	5672
824.949	5695
825.089	5638
825.228	5551
825.368	5414
825.508	5406
825.648	5341
825.787	5436
825.927	5379
826.067	5341
826.206	5322
826.346	5478
826.485	5448
826.625	5455
826.765	5581
826.904	5490
827.044	5265
827.183	5246
827.323	5181
827.462	5220
827.601	5216
827.741	5185
827.88	5258
828.02	5136
828.159	5303
828.298	5315
828.437	5402
828.577	5273
828.716	5478
828.855	5337
828.994	5170
829.134	5189
829.273	5242
829.412	5185
829.551	5174
829.69	5208
829.829	5261
829.968	5425
830.107	5337
830.246	5280
830.385	5231
830.524	5086
830.663	5113
830.802	4995
830.941	4946
831.08	4972
831.219	5006
831.357	4976
831.496	5174
831.635	4946
831.774	4812
831.913	4889
832.051	4767
832.19	4782
832.329	4870
832.467	4721
832.606	4660
832.744	4725
832.883	4763
833.022	4763
833.16	4767
833.299	4881
833.437	4847
833.576	4900
833.714	4915
833.852	4889
833.991	4934
834.129	4942
834.267	4915
834.406	4919
834.544	5041
834.682	4999
834.821	4976
834.959	5239
835.097	5033
835.235	5204
835.373	5109
835.511	5140
835.65	5056
835.788	4995
835.926	4885
836.064	4904
836.202	4976
836.34	5227
836.478	5258
836.615	5197
836.753	5223
836.891	5322
837.029	5258
837.167	5216
837.305	5159
837.443	5178
837.58	5045
837.718	5216
837.856	5212
837.993	5193
838.131	5288
838.269	5273
838.406	5254
838.544	5223
838.681	5029
838.819	5045
838.956	4949
839.094	4976
839.231	5014
839.369	5140
839.506	5387
839.643	5311
839.781	5098
839.918	5075
840.055	5094
840.193	5128
840.33	5140
840.467	5166
840.604	5227
840.742	5493
840.879	5121
841.016	5113
841.153	5185
841.29	5383
841.427	5315
841.564	5303
841.701	5379
841.838	5353
841.975	5284
842.112	5303
842.249	5174
842.385	5174
842.522	5334
842.659	5181
842.796	5189
842.933	5223
843.069	5216
843.206	5178
843.343	5357
843.479	5254
843.616	5254
843.752	5056
843.889	5022
844.025	5216
844.162	5045
844.298	5208
844.435	5086
844.571	5037
844.708	5242
844.844	5357
844.98	5307
845.117	5307
845.253	5170
845.389	5170
845.525	5197
845.661	5162
845.798	5029
845.934	5178
846.07	5117
846.206	5223
846.342	5292
846.478	5166
846.614	5075
846.75	4976
846.886	4927
847.022	5143
847.158	5048
847.294	5094
847.429	5132
847.565	5109
847.701	5341
847.837	4870
847.972	4824
848.108	4961
848.244	4991
848.379	4778
848.515	4828
848.65	4736
848.786	4831
848.921	4828
849.057	4847
849.192	4968
849.328	4824
849.463	4904
849.598	4782
849.734	4797
849.869	4744
850.004	4653
850.14	4706
850.275	4645
850.41	4538
850.545	4603
850.68	4599
850.815	4656
850.95	4706
851.085	4892
851.22	4801
851.355	4706
851.49	4607
851.625	4634
851.76	4675
851.895	4618
852.03	4596
852.165	4702
852.299	4714
852.434	4809
852.569	4763
852.703	4854
852.838	4812
852.973	4961
853.107	4946
853.242	4771
853.376	4698
853.511	4580
853.645	4637
853.78	4778
853.914	4717
854.048	4717
854.183	4687
854.317	4736
854.451	4862
854.585	4755
854.72	4683
854.854	4774
854.988	4656
855.122	4653
855.256	4538
855.39	4694
855.524	4820
855.658	4736
855.792	4698
855.926	4755
856.06	4786
856.194	4839
856.327	4656
856.461	4611
856.595	4675
856.729	4679
856.862	4778
856.996	4717
857.13	4740
857.263	4809
857.397	4854
857.53	4698
857.664	4774
857.797	4755
857.931	4771
858.064	4668
858.197	4771
858.331	4694
858.464	4649
858.597	4588
858.731	4656
858.864	4664
858.997	4618
859.13	4653
859.263	4691
859.396	4725
859.529	4630
859.662	4599
859.795	4577
859.928	4622
860.061	4786
860.194	4790
860.327	4603
860.46	4569
860.592	4778
860.725	4706
860.858	4725
860.99	4622
861.123	4554
861.256	4542
861.388	4588
861.521	5341
861.653	4485
861.786	4493
861.918	4470
862.05	4523
862.183	4565
862.315	4599
862.447	4641
862.58	4538
862.712	4428
862.844	4333
862.976	4493
863.108	4512
863.24	4721
863.372	4360
863.504	4459
863.636	4436
863.768	4527
863.9	4440
864.032	4344
864.164	4466
864.296	4519
864.428	4546
864.559	4622
864.691	4546
864.823	4561
864.954	4519
865.086	4531
865.217	4470
865.349	4451
865.48	4451
865.612	4493
865.743	4660
865.875	4470
866.006	4455
866.137	4478
866.269	4481
866.4	4474
866.531	4432
866.662	4428
866.793	4424
866.924	4459
867.055	4497
867.186	4451
867.317	4386
867.448	4371
867.579	4409
867.71	4413
867.841	4394
867.972	4474
868.103	4470
868.233	4470
868.364	4485
868.495	4516
868.625	4698
868.756	4763
868.886	4577
869.017	4622
869.147	4774
869.278	4725
869.408	4683
869.539	4672
869.669	4691
869.799	4683
869.929	4812
870.06	4736
870.19	4961
870.32	4934
870.45	4923
870.58	5037
870.71	5094
870.84	5136
870.97	4942
871.1	4885
871.23	5181
871.36	5155
871.489	5014
871.619	5109
871.749	5071
871.879	5178
872.008	5201
872.138	5064
872.267	4980
872.397	4839
872.526	4847
872.656	4714
872.785	4828
872.915	4965
873.044	4976
873.173	4991
873.303	5052
873.432	4995
873.561	4987
873.69	4866
873.819	4900
873.948	4946
874.077	4873
874.206	4771
874.335	4809
874.464	4942
874.593	5098
874.722	4965
874.851	5094
874.979	5075
875.108	5006
875.237	4927
875.365	4877
875.494	4911
875.623	4976
875.751	4885
875.88	4881
876.008	5006
876.136	4999
876.265	5193
876.393	5307
876.521	5242
876.65	5197
876.778	5178
876.906	5083
877.034	5025
877.162	5041
877.29	5003
877.418	5041
877.546	4984
877.674	5079
877.802	5029
877.93	5064
878.058	4965
878.185	4908
878.313	4991
878.441	4927
878.568	4763
878.696	4934
878.824	4946
878.951	5025
879.079	5147
879.206	5372
879.333	5140
879.461	4972
879.588	5022
879.715	5094
879.842	5201
879.97	5022
880.097	4771
880.224	4733
880.351	4793
880.478	4843
880.605	4816
880.732	4801
880.859	5064
880.986	4908
881.112	4885
881.239	4824
881.366	4691
881.493	4622
881.619	4561
881.746	4675
881.872	4694
881.999	4634
882.125	4733
882.252	4812
882.378	4847
882.505	4968
882.631	4774
882.757	4672
882.883	4763
883.01	4767
883.136	4710
883.262	4603
883.388	4668
883.514	4835
883.64	4877
883.766	4752
883.892	4664
884.018	4717
884.143	4870
884.269	4991
884.395	4706
884.52	4653
884.646	4691
884.772	4592
884.897	4588
885.023	4630
885.148	4805
885.274	4820
885.399	4774
885.524	4687
885.65	4714
885.775	4763
885.9	4729
886.025	4847
886.15	4816
886.275	4740
886.4	4645
886.525	4729
886.65	4725
886.775	4714
886.9	4923
887.025	5045
887.149	4839
887.274	4721
887.399	4603
887.523	4630
887.648	4611
887.773	4588
887.897	4790
888.021	4771
888.146	4668
888.27	4870
888.395	4919
888.519	4801
888.643	4790
888.767	4839
888.891	4721
889.015	4611
889.139	4683
889.263	4584
889.387	4733
889.511	4904
889.635	4824
889.759	4641
889.883	4637
890.006	4710
890.13	4786
890.254	4592
890.377	4664
890.501	4546
890.624	4535
890.748	4641
890.871	4508
890.995	4462
891.118	4371
891.241	4546
891.364	4542
891.488	4645
891.611	4512
891.734	4527
891.857	4611
891.98	4531
892.103	4649
892.226	4561
892.349	4527
892.471	4440
892.594	4550
892.717	4599
892.839	4535
892.962	4622
893.085	4656
893.207	4596
893.33	4462
893.452	4523
893.575	4645
893.697	4569
893.819	4797
893.941	4839
894.064	4752
894.186	4550
894.308	4542
894.43	4717
894.552	4820
894.674	4710
894.796	4577
894.918	4592
895.04	4573
895.161	4675
895.283	4660
895.405	4580
895.526	4618
895.648	4683
895.769	4687
895.891	4672
896.012	4774
896.134	4729
896.255	4660
896.376	4630
896.498	4615
896.619	4672
896.74	4668
896.861	4584
896.982	4908
897.103	5113
897.224	4786
897.345	4702
897.466	4656
897.587	4733
897.708	4866
897.828	4782
897.949	4714
898.07	4558
898.19	4611
898.311	4793
898.431	4710
898.552	4790
898.672	4801
898.792	4816
898.913	4717
899.033	4569
899.153	4497
899.273	4417
899.393	4508
899.513	4558
899.633	4558
899.753	4599
899.873	4512
899.993	4615
900.113	4542
900.232	4542
900.352	4535
900.472	4485
900.591	4405
900.711	4466
900.83	4428
900.95	4622
901.069	4721
901.189	4580
901.308	4356
901.427	4291
901.546	4306
901.665	4493
901.784	4500
901.904	4432
902.023	4341
902.141	4150
902.26	4185
902.379	4299
902.498	4306
902.617	4227
902.735	4363
902.854	4371
902.973	4371
903.091	4204
903.21	4200
903.328	4352
903.446	4242
903.565	4303
903.683	4333
903.801	4306
903.919	4413
904.038	4402
904.156	4268
904.274	4428
904.392	4390
904.51	4402
904.627	4519
904.745	4588
904.863	4641
904.981	4360
905.098	4329
905.216	4356
905.334	4398
905.451	4443
905.569	4462
905.686	4577
905.803	4535
905.921	4405
906.038	4584
906.155	4504
906.272	4405
906.389	4413
906.506	4329
906.623	4344
906.74	4402
906.857	4299
906.974	4367
907.091	4527
907.208	4660
907.324	4577
907.441	4546
907.557	4367
907.674	4333
907.79	4344
907.907	4390
908.023	4489
908.139	4459
908.256	4417
908.372	4493
908.488	4466
908.604	4337
908.72	4325
908.836	4398
908.952	4390
909.068	4436
909.184	4516
909.3	4451
909.415	4554
909.531	4516
909.647	4356
909.762	4360
909.878	4390
909.993	4379
910.108	4386
910.224	4417
910.339	4489
910.454	4402
910.57	4383
910.685	4276
910.8	4653
910.915	4645
911.03	4527
911.145	4367
911.259	4344
911.374	4363
911.489	4363
911.604	4310
911.718	4181
911.833	4211
911.947	4063
912.062	4036
912.176	4166
912.291	4211
912.405	4265
912.519	4443
912.633	4474
912.748	4356
912.862	4341
912.976	4192
913.09	4139
913.204	4207
913.318	4238
913.431	4325
913.545	4405
913.659	4455
913.772	4405
913.886	4223
914	4223
914.113	4386
914.226	4462
914.34	4409
914.453	4207
914.566	4417
914.68	4379
914.793	4299
914.906	4147
915.019	4139
915.132	4082
915.245	4131
915.358	4246
915.47	4249
915.583	4249
915.696	4276
915.809	4451
915.921	4386
916.034	4284
916.146	4249
916.259	4246
916.371	4371
916.483	4329
916.595	4284
916.708	4325
916.82	4363
916.932	4284
917.044	4318
917.156	4284
917.268	4211
917.38	4272
917.491	4287
917.603	4341
917.715	4421
917.826	4413
917.938	4341
918.049	4246
918.161	4451
918.272	4546
918.384	4459
918.495	4459
918.606	4299
918.717	4238
918.828	4352
918.939	4371
919.05	4204
919.161	4318
919.272	4166
919.383	4238
919.494	4405
919.604	4592
919.715	4417
919.826	4291
919.936	4474
920.047	4485
920.157	4474
920.267	4694
920.378	4561
920.488	4493
920.598	4706
920.708	4889
920.818	4782
920.928	4740
921.038	4919
921.148	4911
921.258	4660
921.368	4546
921.477	4493
921.587	4485
921.697	4375
921.806	4565
921.916	4440
922.025	4276
922.134	4314
922.244	4207
922.353	4344
922.462	4150
922.571	4131
922.68	4010
922.789	3983
922.898	3972
923.007	3998
923.116	4090
923.224	4021
923.333	4082
923.442	3956
923.55	4006
923.659	4040
923.767	4093
923.876	4029
923.984	4090
924.092	3983
924.201	4067
924.309	4086
924.417	4162
924.525	4071
924.633	4116
924.741	4866
924.849	3918
924.956	4093
925.064	3934
925.172	3896
925.279	3972
925.387	4063
925.494	4006
925.602	4219
925.709	4181
925.816	4036
925.924	4112
926.031	4234
926.138	4154
926.245	4181
926.352	4097
926.459	4291
926.566	4310
926.673	4169
926.779	4082
926.886	4055
926.993	3964
927.099	3926
927.206	3918
927.312	3960
927.419	4044
927.525	4002
927.631	4090
927.737	3956
927.843	3975
927.95	3812
928.056	3987
928.162	3972
928.267	4067
928.373	4622
928.479	4124
928.585	3888
928.69	4059
928.796	4074
928.901	3979
929.007	3804
929.112	4059
929.218	3918
929.323	3945
929.428	3907
929.533	4135
929.638	3934
929.743	3972
929.848	4025
929.953	3991
930.058	3926
930.163	3770
930.267	3819
930.372	3945
930.477	3808
930.581	4059
930.685	3953
930.79	3797
930.894	3873
930.998	3861
931.103	4029
931.207	3675
931.311	3728
931.415	3705
931.519	3538
931.623	3568
