Data from test_V78500241_1525.txt Node
Date: Fri Mar 25 16:59:36 CST 2022
User: usil
Spectrometer: V785-0024
Trigger mode: 0
Integration Time (sec): 4.000000E-1
Scans to average: 1
Nonlinearity correction enabled: false
Boxcar width: 0
Storing dark spectrum: false
XAxis mode: Wavelengths
Number of Pixels in Spectrum: 1024
>>>>>Begin Spectral Data<<<<<
801.071	7986
801.214	8001
801.356	7830
801.499	7879
801.641	7818
801.783	7795
801.926	7951
802.068	7982
802.211	7986
802.353	7974
802.496	7822
802.638	7887
802.78	7932
802.923	7913
803.065	7788
803.208	7860
803.35	7928
803.492	8084
803.635	8084
803.777	8001
803.919	8126
804.061	8408
804.204	8103
804.346	8027
804.488	7951
804.63	8119
804.773	7967
804.915	8058
805.057	8240
805.199	8145
805.341	8252
805.483	8252
805.626	8191
805.768	8062
805.91	8153
806.052	8259
806.194	8103
806.336	8290
806.478	8092
806.62	8073
806.762	8115
806.904	8271
807.046	8526
807.188	8339
807.33	8317
807.472	8347
807.614	8111
807.756	8100
807.898	8005
808.04	7890
808.182	7909
808.324	7860
808.465	7894
808.607	8077
808.749	8081
808.891	8145
809.033	8290
809.174	8145
809.316	8115
809.458	7993
809.6	8046
809.741	8043
809.883	7993
810.025	8001
810.166	8073
810.308	8008
810.45	7986
810.591	7841
810.733	7693
810.875	7639
811.016	7502
811.158	7483
811.299	7624
811.441	7742
811.582	7685
811.724	7597
811.865	7544
812.007	7556
812.148	7510
812.29	7620
812.431	7822
812.573	7890
812.714	7936
812.855	8107
812.997	8240
813.138	8347
813.279	8168
813.421	8092
813.562	7967
813.703	7818
813.845	7719
813.986	7453
814.127	7266
814.268	7198
814.41	7198
814.551	7122
814.692	7187
814.833	7084
814.974	7091
815.115	7145
815.256	6939
815.397	6905
815.539	6932
815.68	6837
815.821	6703
815.962	6837
816.103	6818
816.244	6662
816.385	6566
816.526	6635
816.666	6448
816.807	6304
816.948	6399
817.089	6445
817.23	6445
817.371	6346
817.512	6391
817.653	6353
817.793	6334
817.934	6407
818.075	6433
818.216	6395
818.356	6342
818.497	6171
818.638	6068
818.778	6167
818.919	6171
819.06	6117
819.2	6311
819.341	6357
819.481	6308
819.622	6502
819.762	6726
819.903	6688
820.043	6536
820.184	6517
820.324	6585
820.465	6620
820.605	6620
820.746	6696
820.886	6521
821.026	6620
821.167	6692
821.307	6703
821.447	6779
821.588	6745
821.728	6601
821.868	6509
822.008	6323
822.149	6338
822.289	6342
822.429	6136
822.569	6041
822.709	6117
822.849	5939
822.99	5950
823.13	5908
823.27	5958
823.41	5802
823.55	5767
823.69	5790
823.83	5733
823.97	5649
824.11	5474
824.25	5478
824.389	5524
824.529	5573
824.669	5535
824.809	5589
824.949	5676
825.089	5592
825.228	5505
825.368	5410
825.508	5284
825.648	5353
825.787	5391
825.927	5357
826.067	5261
826.206	5292
826.346	5440
826.485	5376
826.625	5444
826.765	5539
826.904	5486
827.044	5201
827.183	5212
827.323	5117
827.462	5204
827.601	5166
827.741	5208
827.88	5246
828.02	5083
828.159	5254
828.298	5277
828.437	5341
828.577	5261
828.716	5410
828.855	5269
828.994	5162
829.134	5174
829.273	5193
829.412	5185
829.551	5166
829.69	5162
829.829	5265
829.968	5334
830.107	5258
830.246	5261
830.385	5155
830.524	5090
830.663	5060
830.802	4946
830.941	4908
831.08	4870
831.219	4968
831.357	4946
831.496	5147
831.635	4919
831.774	4858
831.913	4801
832.051	4755
832.19	4755
832.329	4805
832.467	4702
832.606	4618
832.744	4683
832.883	4717
833.022	4698
833.16	4778
833.299	4820
833.437	4797
833.576	4809
833.714	4850
833.852	4854
833.991	4904
834.129	4919
834.267	4904
834.406	4889
834.544	4999
834.682	4949
834.821	4930
834.959	5162
835.097	4980
835.235	5204
835.373	5060
835.511	5079
835.65	5052
835.788	5006
835.926	4949
836.064	4908
836.202	4877
836.34	5132
836.478	5223
836.615	5121
836.753	5185
836.891	5235
837.029	5258
837.167	5208
837.305	5166
837.443	5147
837.58	5056
837.718	5296
837.856	5197
837.993	5102
838.131	5277
838.269	5151
838.406	5159
838.544	5174
838.681	5029
838.819	4976
838.956	4957
839.094	4923
839.231	4961
839.369	5041
839.506	5440
839.643	5288
839.781	5071
839.918	4980
840.055	5098
840.193	5098
840.33	5090
840.467	5159
840.604	5181
840.742	5482
840.879	5052
841.016	5056
841.153	5162
841.29	5311
841.427	5315
841.564	5269
841.701	5372
841.838	5246
841.975	5170
842.112	5235
842.249	5090
842.385	5102
842.522	5322
842.659	5128
842.796	5109
842.933	5132
843.069	5136
843.206	5159
843.343	5242
843.479	5242
843.616	5242
843.752	5006
843.889	5006
844.025	5189
844.162	5010
844.298	5193
844.435	5045
844.571	5029
844.708	5166
844.844	5277
844.98	5296
845.117	5284
845.253	5174
845.389	5094
845.525	5136
845.661	5136
845.798	4995
845.934	5109
846.07	5033
846.206	5189
846.342	5280
846.478	5162
846.614	4995
846.75	4980
846.886	4938
847.022	5121
847.158	5018
847.294	5025
847.429	5105
847.565	5045
847.701	5277
847.837	4854
847.972	4824
848.108	4938
848.244	4938
848.379	4782
848.515	4759
848.65	4767
848.786	4710
848.921	4755
849.057	4889
849.192	4885
849.328	4809
849.463	4866
849.598	4763
849.734	4736
849.869	4721
850.004	4588
850.14	4626
850.275	4592
850.41	4516
850.545	4546
850.68	4603
850.815	4603
850.95	4618
851.085	4786
851.22	4748
851.355	4710
851.49	4634
851.625	4622
851.76	4649
851.895	4584
852.03	4538
852.165	4675
852.299	4702
852.434	4752
852.569	4736
852.703	4812
852.838	4839
852.973	4915
853.107	4934
853.242	4736
853.376	4675
853.511	4538
853.645	4630
853.78	4778
853.914	4691
854.048	4683
854.183	4698
854.317	4679
854.451	4824
854.585	4664
854.72	4615
854.854	4668
854.988	4599
855.122	4618
855.256	4538
855.39	4641
855.524	4771
855.658	4748
855.792	4702
855.926	4691
856.06	4793
856.194	4824
856.327	4656
856.461	4615
856.595	4588
856.729	4653
856.862	4694
856.996	4679
857.13	4710
857.263	4778
857.397	4759
857.53	4660
857.664	4744
857.797	4782
857.931	4793
858.064	4675
858.197	4710
858.331	4664
858.464	4641
858.597	4489
858.731	4641
858.864	4675
858.997	4634
859.13	4653
859.263	4710
859.396	4618
859.529	4615
859.662	4512
859.795	4538
859.928	4592
860.061	4755
860.194	4778
860.327	4622
860.46	4554
860.592	4702
860.725	4752
860.858	4717
860.99	4569
861.123	4478
861.256	4523
861.388	4561
861.521	5296
861.653	4478
861.786	4447
861.918	4474
862.05	4516
862.183	4611
862.315	4611
862.447	4653
862.58	4546
862.712	4409
862.844	4333
862.976	4447
863.108	4489
863.24	4755
863.372	4306
863.504	4379
863.636	4432
863.768	4462
863.9	4367
864.032	4405
864.164	4398
864.296	4481
864.428	4535
864.559	4535
864.691	4508
864.823	4504
864.954	4481
865.086	4489
865.217	4417
865.349	4436
865.48	4413
865.612	4478
865.743	4653
865.875	4459
866.006	4432
866.137	4451
866.269	4447
866.4	4413
866.531	4394
866.662	4424
866.793	4386
866.924	4379
867.055	4470
867.186	4409
867.317	4409
867.448	4367
867.579	4367
867.71	4424
867.841	4360
867.972	4462
868.103	4504
868.233	4451
868.364	4485
868.495	4485
868.625	4660
868.756	4759
868.886	4596
869.017	4649
869.147	4710
869.278	4778
869.408	4588
869.539	4599
869.669	4752
869.799	4599
869.929	4740
870.06	4691
870.19	4923
870.32	4911
870.45	4900
870.58	5018
870.71	5155
870.84	5124
870.97	4911
871.1	4934
871.23	5124
871.36	5117
871.489	5022
871.619	5117
871.749	5041
871.879	5094
872.008	5109
872.138	5025
872.267	4957
872.397	4870
872.526	4839
872.656	4721
872.785	4748
872.915	4965
873.044	5048
873.173	4946
873.303	4957
873.432	4885
873.561	4919
873.69	4889
873.819	4854
873.948	4858
874.077	4774
874.206	4744
874.335	4839
874.464	4946
874.593	5037
874.722	4930
874.851	5064
874.979	5052
875.108	5006
875.237	4923
875.365	4870
875.494	4873
875.623	4949
875.751	4816
875.88	4862
876.008	4972
876.136	5029
876.265	5227
876.393	5246
876.521	5273
876.65	5227
876.778	5151
876.906	5060
877.034	4991
877.162	5006
877.29	4972
877.418	4965
877.546	5037
877.674	5025
877.802	5022
877.93	4972
878.058	4953
878.185	4873
878.313	4927
878.441	4927
878.568	4790
878.696	4847
878.824	5010
878.951	5060
879.079	5121
879.206	5296
879.333	5014
879.461	4942
879.588	5010
879.715	5098
879.842	5208
879.97	4987
880.097	4729
880.224	4740
880.351	4801
880.478	4816
880.605	4831
880.732	4797
880.859	5060
880.986	4904
881.112	4835
881.239	4755
881.366	4683
881.493	4626
881.619	4569
881.746	4691
881.872	4626
881.999	4622
882.125	4653
882.252	4759
882.378	4809
882.505	4946
882.631	4778
882.757	4637
882.883	4744
883.01	4687
883.136	4672
883.262	4618
883.388	4641
883.514	4797
883.64	4862
883.766	4790
883.892	4656
884.018	4752
884.143	4896
884.269	4957
884.395	4725
884.52	4634
884.646	4607
884.772	4596
884.897	4504
885.023	4664
885.148	4717
885.274	4828
885.399	4801
885.524	4725
885.65	4706
885.775	4748
885.9	4714
886.025	4866
886.15	4816
886.275	4736
886.4	4618
886.525	4649
886.65	4672
886.775	4660
886.9	4839
887.025	5010
887.149	4763
887.274	4618
887.399	4554
887.523	4588
887.648	4531
887.773	4538
887.897	4733
888.021	4771
888.146	4641
888.27	4835
888.395	4881
888.519	4812
888.643	4797
888.767	4858
888.891	4653
889.015	4618
889.139	4660
889.263	4596
889.387	4763
889.511	4858
889.635	4752
889.759	4634
889.883	4630
890.006	4752
890.13	4812
890.254	4622
890.377	4702
890.501	4542
890.624	4561
890.748	4630
890.871	4485
890.995	4455
891.118	4379
891.241	4565
891.364	4519
891.488	4660
891.611	4493
891.734	4512
891.857	4584
891.98	4569
892.103	4634
892.226	4603
892.349	4489
892.471	4455
892.594	4527
892.717	4565
892.839	4546
892.962	4611
893.085	4668
893.207	4622
893.33	4447
893.452	4561
893.575	4668
893.697	4603
893.819	4774
893.941	4809
894.064	4755
894.186	4599
894.308	4527
894.43	4717
894.552	4812
894.674	4717
894.796	4588
894.918	4592
895.04	4561
895.161	4683
895.283	4615
895.405	4573
895.526	4630
895.648	4691
895.769	4763
895.891	4771
896.012	4736
896.134	4694
896.255	4675
896.376	4573
896.498	4561
896.619	4649
896.74	4615
896.861	4641
896.982	4908
897.103	5086
897.224	4809
897.345	4714
897.466	4672
897.587	4763
897.708	4847
897.828	4771
897.949	4672
898.07	4558
898.19	4607
898.311	4816
898.431	4668
898.552	4714
898.672	4778
898.792	4786
898.913	4740
899.033	4641
899.153	4493
899.273	4394
899.393	4447
899.513	4497
899.633	4558
899.753	4565
899.873	4516
899.993	4550
900.113	4554
900.232	4546
900.352	4577
900.472	4481
900.591	4398
900.711	4497
900.83	4405
900.95	4611
901.069	4660
901.189	4531
901.308	4333
901.427	4310
901.546	4363
901.665	4451
901.784	4554
901.904	4352
902.023	4318
902.141	4143
902.26	4131
902.379	4329
902.498	4215
902.617	4227
902.735	4333
902.854	4367
902.973	4348
903.091	4181
903.21	4219
903.328	4253
903.446	4242
903.565	4242
903.683	4348
903.801	4265
903.919	4394
904.038	4462
904.156	4276
904.274	4417
904.392	4402
904.51	4443
904.627	4485
904.745	4561
904.863	4634
904.981	4386
905.098	4287
905.216	4371
905.334	4398
905.451	4432
905.569	4386
905.686	4554
905.803	4538
905.921	4390
906.038	4500
906.155	4474
906.272	4402
906.389	4405
906.506	4341
906.623	4394
906.74	4390
906.857	4272
906.974	4356
907.091	4577
907.208	4687
907.324	4577
907.441	4500
907.557	4310
907.674	4322
907.79	4360
907.907	4375
908.023	4512
908.139	4409
908.256	4405
908.372	4478
908.488	4424
908.604	4299
908.72	4348
908.836	4314
908.952	4386
909.068	4455
909.184	4542
909.3	4497
909.415	4565
909.531	4527
909.647	4371
909.762	4383
909.878	4314
909.993	4432
910.108	4398
910.224	4409
910.339	4478
910.454	4436
910.57	4333
910.685	4348
910.8	4675
910.915	4577
911.03	4493
911.145	4356
911.259	4322
911.374	4314
911.489	4261
911.604	4204
911.718	4181
911.833	4192
911.947	4093
912.062	3987
912.176	4192
912.291	4223
912.405	4234
912.519	4481
912.633	4478
912.748	4352
912.862	4318
912.976	4204
913.09	4101
913.204	4128
913.318	4299
913.431	4318
913.545	4375
913.659	4413
913.772	4390
913.886	4257
914	4215
914.113	4386
914.226	4417
914.34	4398
914.453	4177
914.566	4440
914.68	4329
914.793	4348
914.906	4158
915.019	4128
915.132	4021
915.245	4185
915.358	4227
915.47	4227
915.583	4265
915.696	4280
915.809	4386
915.921	4417
916.034	4246
916.146	4276
916.259	4261
916.371	4322
916.483	4356
916.595	4280
916.708	4333
916.82	4299
916.932	4352
917.044	4299
917.156	4276
917.268	4204
917.38	4257
917.491	4238
917.603	4344
917.715	4383
917.826	4432
917.938	4322
918.049	4272
918.161	4394
918.272	4546
918.384	4569
918.495	4466
918.606	4253
918.717	4238
918.828	4329
918.939	4333
919.05	4219
919.161	4352
919.272	4154
919.383	4227
919.494	4424
919.604	4618
919.715	4462
919.826	4333
919.936	4360
920.047	4588
920.157	4478
920.267	4649
920.378	4527
920.488	4470
920.598	4683
920.708	4866
920.818	4725
920.928	4744
921.038	4946
921.148	4900
921.258	4622
921.368	4512
921.477	4443
921.587	4489
921.697	4363
921.806	4523
921.916	4398
922.025	4249
922.134	4268
922.244	4230
922.353	4341
922.462	4177
922.571	4105
922.68	4044
922.789	3979
922.898	4013
923.007	3956
923.116	4059
923.224	4063
923.333	4097
923.442	3998
923.55	3915
923.659	4010
923.767	4105
923.876	3991
923.984	4074
924.092	3972
924.201	4078
924.309	4040
924.417	4109
924.525	4040
924.633	4112
924.741	4900
924.849	3899
924.956	4143
925.064	3964
925.172	3869
925.279	3994
925.387	4025
925.494	4090
925.602	4215
925.709	4173
925.816	4059
925.924	4105
926.031	4211
926.138	4139
926.245	4177
926.352	4109
926.459	4291
926.566	4299
926.673	4169
926.779	4044
926.886	4093
926.993	4040
927.099	3930
927.206	3899
927.312	3922
927.419	4051
927.525	4067
927.631	4090
927.737	3956
927.843	3953
927.95	3857
928.056	3949
928.162	3979
928.267	4086
928.373	4607
928.479	4063
928.585	3854
928.69	3991
928.796	4013
928.901	3979
929.007	3869
929.112	4006
929.218	3956
929.323	3960
929.428	3915
929.533	4105
929.638	3896
929.743	3975
929.848	4059
929.953	3945
930.058	3907
930.163	3770
930.267	3823
930.372	3968
930.477	3823
930.581	4093
930.685	3956
930.79	3842
930.894	3922
930.998	3842
931.103	4051
931.207	3694
931.311	3682
931.415	3694
931.519	3534
931.623	3526
