Data from test_V78500241_420.txt Node
Date: Fri Mar 25 16:51:55 CST 2022
User: usil
Spectrometer: V785-0024
Trigger mode: 0
Integration Time (sec): 4.000000E-1
Scans to average: 1
Nonlinearity correction enabled: false
Boxcar width: 0
Storing dark spectrum: false
XAxis mode: Wavelengths
Number of Pixels in Spectrum: 1024
>>>>>Begin Spectral Data<<<<<
801.071	8035
801.214	8016
801.356	7887
801.499	7871
801.641	7864
801.783	7871
801.926	8062
802.068	7970
802.211	8012
802.353	8039
802.496	7833
802.638	7875
802.78	7970
802.923	7940
803.065	7913
803.208	7841
803.35	7978
803.492	8008
803.635	8126
803.777	7959
803.919	8043
804.061	8450
804.204	8206
804.346	8031
804.488	7887
804.63	8012
804.773	8008
804.915	8100
805.057	8313
805.199	8180
805.341	8225
805.483	8301
805.626	8142
805.768	8073
805.91	8161
806.052	8221
806.194	8081
806.336	8313
806.478	8153
806.62	8084
806.762	8221
806.904	8282
807.046	8450
807.188	8305
807.33	8271
807.472	8332
807.614	8084
807.756	8161
807.898	8107
808.04	7932
808.182	7906
808.324	7944
808.465	7978
808.607	8008
808.749	8142
808.891	8142
809.033	8286
809.174	8157
809.316	8046
809.458	8043
809.6	8035
809.741	8084
809.883	8073
810.025	8054
810.166	8077
810.308	8035
810.45	8054
810.591	7845
810.733	7780
810.875	7601
811.016	7559
811.158	7502
811.299	7601
811.441	7734
811.582	7689
811.724	7636
811.865	7597
812.007	7636
812.148	7643
812.29	7594
812.431	7784
812.573	7917
812.714	8046
812.855	8202
812.997	8218
813.138	8317
813.279	8214
813.421	8115
813.562	8092
813.703	7936
813.845	7803
813.986	7460
814.127	7320
814.268	7350
814.41	7285
814.551	7213
814.692	7225
814.833	7095
814.974	7133
815.115	7069
815.256	6958
815.397	6951
815.539	6977
815.68	6852
815.821	6818
815.962	6844
816.103	6890
816.244	6741
816.385	6681
816.526	6677
816.666	6540
816.807	6308
816.948	6494
817.089	6506
817.23	6532
817.371	6407
817.512	6452
817.653	6384
817.793	6376
817.934	6426
818.075	6467
818.216	6422
818.356	6483
818.497	6296
818.638	6152
818.778	6152
818.919	6197
819.06	6079
819.2	6300
819.341	6319
819.481	6376
819.622	6547
819.762	6738
819.903	6753
820.043	6612
820.184	6555
820.324	6635
820.465	6684
820.605	6730
820.746	6620
820.886	6521
821.026	6654
821.167	6753
821.307	6787
821.447	6768
821.588	6726
821.728	6620
821.868	6475
822.008	6308
822.149	6315
822.289	6376
822.429	6178
822.569	6136
822.709	6171
822.849	5923
822.99	5950
823.13	5908
823.27	5958
823.41	5817
823.55	5809
823.69	5764
823.83	5798
823.97	5699
824.11	5566
824.25	5486
824.389	5596
824.529	5611
824.669	5566
824.809	5665
824.949	5668
825.089	5619
825.228	5539
825.368	5436
825.508	5315
825.648	5360
825.787	5406
825.927	5345
826.067	5349
826.206	5318
826.346	5417
826.485	5402
826.625	5448
826.765	5543
826.904	5440
827.044	5239
827.183	5204
827.323	5178
827.462	5250
827.601	5189
827.741	5155
827.88	5242
828.02	5159
828.159	5220
828.298	5292
828.437	5387
828.577	5280
828.716	5452
828.855	5330
828.994	5178
829.134	5098
829.273	5223
829.412	5170
829.551	5102
829.69	5117
829.829	5296
829.968	5357
830.107	5296
830.246	5242
830.385	5201
830.524	5178
830.663	5052
830.802	4999
830.941	4949
831.08	4892
831.219	5045
831.357	5041
831.496	5159
831.635	4930
831.774	4839
831.913	4854
832.051	4706
832.19	4744
832.329	4854
832.467	4710
832.606	4653
832.744	4733
832.883	4672
833.022	4698
833.16	4801
833.299	4774
833.437	4847
833.576	4847
833.714	4831
833.852	4908
833.991	4858
834.129	4961
834.267	4904
834.406	4946
834.544	5041
834.682	4980
834.821	4991
834.959	5181
835.097	4980
835.235	5178
835.373	5121
835.511	5102
835.65	5029
835.788	5045
835.926	4877
836.064	4892
836.202	4949
836.34	5239
836.478	5250
836.615	5147
836.753	5159
836.891	5269
837.029	5208
837.167	5235
837.305	5155
837.443	5147
837.58	5083
837.718	5204
837.856	5197
837.993	5181
838.131	5273
838.269	5239
838.406	5212
838.544	5185
838.681	5064
838.819	5090
838.956	4919
839.094	4885
839.231	4980
839.369	5060
839.506	5440
839.643	5299
839.781	5083
839.918	5041
840.055	5124
840.193	5071
840.33	5086
840.467	5155
840.604	5220
840.742	5410
840.879	5075
841.016	5102
841.153	5105
841.29	5326
841.427	5357
841.564	5341
841.701	5311
841.838	5258
841.975	5223
842.112	5246
842.249	5143
842.385	5086
842.522	5288
842.659	5246
842.796	5128
842.933	5227
843.069	5147
843.206	5151
843.343	5395
843.479	5212
843.616	5208
843.752	5052
843.889	5048
844.025	5220
844.162	5014
844.298	5189
844.435	5048
844.571	5048
844.708	5231
844.844	5303
844.98	5303
845.117	5265
845.253	5105
845.389	5124
845.525	5155
845.661	5090
845.798	4995
845.934	5132
846.07	5056
846.206	5220
846.342	5261
846.478	5208
846.614	5094
846.75	4961
846.886	4927
847.022	5128
847.158	5041
847.294	5037
847.429	5128
847.565	5018
847.701	5337
847.837	4824
847.972	4828
848.108	5037
848.244	4946
848.379	4759
848.515	4714
848.65	4721
848.786	4763
848.921	4717
849.057	4881
849.192	4885
849.328	4771
849.463	4767
849.598	4790
849.734	4698
849.869	4660
850.004	4653
850.14	4694
850.275	4626
850.41	4497
850.545	4588
850.68	4618
850.815	4641
850.95	4691
851.085	4908
851.22	4733
851.355	4675
851.49	4607
851.625	4603
851.76	4656
851.895	4561
852.03	4558
852.165	4645
852.299	4710
852.434	4767
852.569	4755
852.703	4767
852.838	4873
852.973	4949
853.107	4919
853.242	4740
853.376	4626
853.511	4558
853.645	4660
853.78	4862
853.914	4710
854.048	4645
854.183	4645
854.317	4675
854.451	4862
854.585	4706
854.72	4618
854.854	4809
854.988	4630
855.122	4679
855.256	4546
855.39	4691
855.524	4755
855.658	4759
855.792	4706
855.926	4744
856.06	4793
856.194	4839
856.327	4618
856.461	4584
856.595	4592
856.729	4615
856.862	4725
856.996	4698
857.13	4702
857.263	4786
857.397	4809
857.53	4702
857.664	4721
857.797	4774
857.931	4809
858.064	4687
858.197	4736
858.331	4634
858.464	4577
858.597	4527
858.731	4664
858.864	4653
858.997	4634
859.13	4649
859.263	4687
859.396	4759
859.529	4584
859.662	4542
859.795	4550
859.928	4641
860.061	4771
860.194	4801
860.327	4637
860.46	4599
860.592	4774
860.725	4740
860.858	4740
860.99	4592
861.123	4535
861.256	4558
861.388	4611
861.521	5417
861.653	4493
861.786	4451
861.918	4462
862.05	4516
862.183	4596
862.315	4596
862.447	4630
862.58	4523
862.712	4424
862.844	4325
862.976	4497
863.108	4478
863.24	4725
863.372	4352
863.504	4386
863.636	4459
863.768	4527
863.9	4478
864.032	4360
864.164	4497
864.296	4447
864.428	4561
864.559	4558
864.691	4519
864.823	4538
864.954	4500
865.086	4485
865.217	4462
865.349	4440
865.48	4478
865.612	4474
865.743	4630
865.875	4481
866.006	4424
866.137	4470
866.269	4474
866.4	4451
866.531	4455
866.662	4394
866.793	4409
866.924	4394
867.055	4500
867.186	4462
867.317	4394
867.448	4337
867.579	4341
867.71	4360
867.841	4379
867.972	4474
868.103	4485
868.233	4500
868.364	4443
868.495	4432
868.625	4660
868.756	4763
868.886	4550
869.017	4622
869.147	4782
869.278	4759
869.408	4668
869.539	4653
869.669	4790
869.799	4714
869.929	4759
870.06	4714
870.19	5033
870.32	4927
870.45	4911
870.58	5037
870.71	5083
870.84	5075
870.97	4930
871.1	4858
871.23	5143
871.36	5166
871.489	5048
871.619	5056
871.749	5124
871.879	5147
872.008	5140
872.138	5105
872.267	4995
872.397	4847
872.526	4843
872.656	4733
872.785	4782
872.915	4999
873.044	5033
873.173	4930
873.303	4927
873.432	4980
873.561	4942
873.69	4892
873.819	4816
873.948	4908
874.077	4843
874.206	4748
874.335	4831
874.464	4976
874.593	5060
874.722	4991
874.851	5102
874.979	5079
875.108	5033
875.237	4949
875.365	4854
875.494	4915
875.623	5003
875.751	4843
875.88	4896
876.008	4949
876.136	5014
876.265	5197
876.393	5341
876.521	5269
876.65	5208
876.778	5155
876.906	5079
877.034	5060
877.162	5022
877.29	4995
877.418	5098
877.546	5079
877.674	5075
877.802	5052
877.93	5033
878.058	4942
878.185	4889
878.313	4968
878.441	4984
878.568	4759
878.696	4854
878.824	4953
878.951	5006
879.079	5151
879.206	5330
879.333	5105
879.461	5022
879.588	4968
879.715	5117
879.842	5204
879.97	5018
880.097	4850
880.224	4774
880.351	4816
880.478	4835
880.605	4793
880.732	4828
880.859	5094
880.986	4850
881.112	4870
881.239	4778
881.366	4721
881.493	4634
881.619	4611
881.746	4603
881.872	4634
881.999	4668
882.125	4679
882.252	4805
882.378	4870
882.505	4987
882.631	4801
882.757	4702
882.883	4759
883.01	4729
883.136	4725
883.262	4611
883.388	4596
883.514	4816
883.64	4927
883.766	4797
883.892	4672
884.018	4740
884.143	4885
884.269	5033
884.395	4675
884.52	4641
884.646	4653
884.772	4634
884.897	4527
885.023	4645
885.148	4748
885.274	4847
885.399	4812
885.524	4702
885.65	4725
885.775	4740
885.9	4683
886.025	4896
886.15	4850
886.275	4714
886.4	4725
886.525	4767
886.65	4679
886.775	4660
886.9	4892
887.025	5033
887.149	4774
887.274	4645
887.399	4599
887.523	4634
887.648	4588
887.773	4580
887.897	4763
888.021	4805
888.146	4649
888.27	4839
888.395	4847
888.519	4847
888.643	4835
888.767	4828
888.891	4664
889.015	4588
889.139	4683
889.263	4630
889.387	4740
889.511	4892
889.635	4805
889.759	4664
889.883	4687
890.006	4740
890.13	4850
890.254	4611
890.377	4714
890.501	4588
890.624	4546
890.748	4675
890.871	4489
890.995	4428
891.118	4386
891.241	4512
891.364	4588
891.488	4622
891.611	4504
891.734	4561
891.857	4634
891.98	4580
892.103	4653
892.226	4577
892.349	4538
892.471	4413
892.594	4580
892.717	4569
892.839	4577
892.962	4664
893.085	4637
893.207	4611
893.33	4432
893.452	4550
893.575	4675
893.697	4603
893.819	4797
893.941	4812
894.064	4752
894.186	4550
894.308	4630
894.43	4729
894.552	4828
894.674	4809
894.796	4550
894.918	4603
895.04	4546
895.161	4706
895.283	4641
895.405	4641
895.526	4637
895.648	4698
895.769	4733
895.891	4755
896.012	4755
896.134	4740
896.255	4672
896.376	4637
896.498	4596
896.619	4687
896.74	4607
896.861	4660
896.982	4889
897.103	5102
897.224	4831
897.345	4793
897.466	4683
897.587	4733
897.708	4892
897.828	4820
897.949	4714
898.07	4603
898.19	4630
898.311	4812
898.431	4668
898.552	4767
898.672	4801
898.792	4816
898.913	4778
899.033	4577
899.153	4485
899.273	4489
899.393	4538
899.513	4512
899.633	4565
899.753	4512
899.873	4516
899.993	4565
900.113	4542
900.232	4634
900.352	4531
900.472	4500
900.591	4424
900.711	4485
900.83	4459
900.95	4634
901.069	4679
901.189	4592
901.308	4421
901.427	4310
901.546	4402
901.665	4519
901.784	4527
901.904	4383
902.023	4356
902.141	4181
902.26	4200
902.379	4280
902.498	4257
902.617	4249
902.735	4409
902.854	4394
902.973	4360
903.091	4238
903.21	4246
903.328	4322
903.446	4287
903.565	4268
903.683	4367
903.801	4299
903.919	4428
904.038	4428
904.156	4341
904.274	4428
904.392	4375
904.51	4394
904.627	4436
904.745	4577
904.863	4656
904.981	4447
905.098	4276
905.216	4394
905.334	4455
905.451	4383
905.569	4424
905.686	4542
905.803	4596
905.921	4409
906.038	4561
906.155	4527
906.272	4383
906.389	4447
906.506	4383
906.623	4436
906.74	4417
906.857	4303
906.974	4363
907.091	4565
907.208	4645
907.324	4603
907.441	4500
907.557	4360
907.674	4352
907.79	4303
907.907	4386
908.023	4519
908.139	4478
908.256	4428
908.372	4443
908.488	4440
908.604	4344
908.72	4325
908.836	4402
908.952	4348
909.068	4417
909.184	4569
909.3	4474
909.415	4573
909.531	4565
909.647	4322
909.762	4375
909.878	4360
909.993	4462
910.108	4413
910.224	4447
910.339	4504
910.454	4394
910.57	4360
910.685	4291
910.8	4698
910.915	4592
911.03	4481
911.145	4306
911.259	4333
911.374	4375
911.489	4295
911.604	4276
911.718	4173
911.833	4211
911.947	4059
912.062	4063
912.176	4196
912.291	4257
912.405	4246
912.519	4504
912.633	4497
912.748	4413
912.862	4318
912.976	4219
913.09	4112
913.204	4215
913.318	4234
913.431	4322
913.545	4341
913.659	4436
913.772	4356
913.886	4261
914	4253
914.113	4390
914.226	4440
914.34	4383
914.453	4272
914.566	4455
914.68	4356
914.793	4291
914.906	4166
915.019	4124
915.132	4051
915.245	4192
915.358	4272
915.47	4230
915.583	4185
915.696	4261
915.809	4390
915.921	4409
916.034	4284
916.146	4280
916.259	4188
916.371	4424
916.483	4325
916.595	4272
916.708	4348
916.82	4329
916.932	4333
917.044	4299
917.156	4375
917.268	4200
917.38	4242
917.491	4280
917.603	4325
917.715	4424
917.826	4390
917.938	4379
918.049	4272
918.161	4390
918.272	4558
918.384	4542
918.495	4447
918.606	4299
918.717	4261
918.828	4344
918.939	4371
919.05	4230
919.161	4318
919.272	4116
919.383	4230
919.494	4504
919.604	4618
919.715	4432
919.826	4363
919.936	4360
920.047	4554
920.157	4546
920.267	4698
920.378	4531
920.488	4470
920.598	4725
920.708	4831
920.818	4733
920.928	4790
921.038	4942
921.148	4831
921.258	4615
921.368	4531
921.477	4497
921.587	4447
921.697	4356
921.806	4569
921.916	4424
922.025	4265
922.134	4291
922.244	4246
922.353	4325
922.462	4196
922.571	4131
922.68	4055
922.789	3983
922.898	4059
923.007	3998
923.116	4143
923.224	4078
923.333	4078
923.442	3964
923.55	4010
923.659	4002
923.767	4055
923.876	3994
923.984	4120
924.092	3987
924.201	4025
924.309	4013
924.417	4120
924.525	4082
924.633	4078
924.741	5014
924.849	3926
924.956	4097
925.064	3991
925.172	3922
925.279	3960
925.387	4032
925.494	4048
925.602	4219
925.709	4166
925.816	4017
925.924	4192
926.031	4265
926.138	4147
926.245	4242
926.352	4109
926.459	4303
926.566	4329
926.673	4150
926.779	4059
926.886	4048
926.993	3941
927.099	4002
927.206	3964
927.312	3937
927.419	4032
927.525	4071
927.631	4082
927.737	3987
927.843	3907
927.95	3842
928.056	3953
928.162	4006
928.267	4086
928.373	4714
928.479	4082
928.585	3861
928.69	3991
928.796	4082
928.901	3972
929.007	3827
929.112	3998
929.218	3987
929.323	3941
929.428	3968
929.533	4105
929.638	3949
929.743	3975
929.848	4029
929.953	4006
930.058	3956
930.163	3812
930.267	3819
930.372	3960
930.477	3781
930.581	4105
930.685	3945
930.79	3842
930.894	3911
930.998	3861
931.103	4029
931.207	3682
931.311	3667
931.415	3644
931.519	3507
931.623	3561
