Data from test_V78500241_1644.txt Node
Date: Fri Mar 25 17:00:26 CST 2022
User: usil
Spectrometer: V785-0024
Trigger mode: 0
Integration Time (sec): 4.000000E-1
Scans to average: 1
Nonlinearity correction enabled: false
Boxcar width: 0
Storing dark spectrum: false
XAxis mode: Wavelengths
Number of Pixels in Spectrum: 1024
>>>>>Begin Spectral Data<<<<<
801.071	8020
801.214	8001
801.356	7940
801.499	7868
801.641	7788
801.783	7860
801.926	7959
802.068	7818
802.211	8008
802.353	7940
802.496	7852
802.638	7902
802.78	7852
802.923	7894
803.065	7837
803.208	7856
803.35	7959
803.492	8092
803.635	8161
803.777	8027
803.919	8138
804.061	8484
804.204	8100
804.346	8103
804.488	7921
804.63	8103
804.773	8001
804.915	8103
805.057	8202
805.199	8172
805.341	8256
805.483	8248
805.626	8229
805.768	8149
805.91	8214
806.052	8225
806.194	8058
806.336	8290
806.478	8111
806.62	8088
806.762	8065
806.904	8229
807.046	8507
807.188	8377
807.33	8343
807.472	8343
807.614	8107
807.756	8130
807.898	7986
808.04	7833
808.182	7849
808.324	7868
808.465	7811
808.607	8077
808.749	8119
808.891	8157
809.033	8294
809.174	8218
809.316	8096
809.458	8012
809.6	8046
809.741	8043
809.883	7970
810.025	8039
810.166	8092
810.308	8062
810.45	7982
810.591	7822
810.733	7693
810.875	7639
811.016	7468
811.158	7495
811.299	7597
811.441	7704
811.582	7704
811.724	7628
811.865	7613
812.007	7605
812.148	7597
812.29	7613
812.431	7715
812.573	7826
812.714	7993
812.855	8069
812.997	8210
813.138	8332
813.279	8164
813.421	8096
813.562	7982
813.703	7826
813.845	7704
813.986	7419
814.127	7225
814.268	7236
814.41	7171
814.551	7133
814.692	7236
814.833	7057
814.974	7072
815.115	7164
815.256	6935
815.397	6932
815.539	6977
815.68	6798
815.821	6787
815.962	6852
816.103	6818
816.244	6696
816.385	6601
816.526	6646
816.666	6536
816.807	6285
816.948	6418
817.089	6506
817.23	6395
817.371	6323
817.512	6380
817.653	6395
817.793	6365
817.934	6388
818.075	6433
818.216	6445
818.356	6395
818.497	6239
818.638	6121
818.778	6133
818.919	6133
819.06	6125
819.2	6315
819.341	6331
819.481	6308
819.622	6490
819.762	6722
819.903	6635
820.043	6612
820.184	6593
820.324	6574
820.465	6726
820.605	6646
820.746	6616
820.886	6479
821.026	6669
821.167	6749
821.307	6802
821.447	6757
821.588	6669
821.728	6498
821.868	6464
822.008	6281
822.149	6391
822.289	6300
822.429	6159
822.569	6117
822.709	6106
822.849	5901
822.99	5863
823.13	5889
823.27	5927
823.41	5794
823.55	5764
823.69	5737
823.83	5718
823.97	5623
824.11	5512
824.25	5532
824.389	5554
824.529	5547
824.669	5539
824.809	5608
824.949	5623
825.089	5596
825.228	5551
825.368	5326
825.508	5315
825.648	5372
825.787	5360
825.927	5360
826.067	5258
826.206	5269
826.346	5353
826.485	5444
826.625	5391
826.765	5528
826.904	5463
827.044	5212
827.183	5166
827.323	5159
827.462	5242
827.601	5113
827.741	5178
827.88	5239
828.02	5105
828.159	5231
828.298	5288
828.437	5296
828.577	5189
828.716	5429
828.855	5288
828.994	5155
829.134	5109
829.273	5140
829.412	5124
829.551	5124
829.69	5124
829.829	5254
829.968	5326
830.107	5258
830.246	5254
830.385	5174
830.524	5117
830.663	5018
830.802	4991
830.941	4908
831.08	4896
831.219	5014
831.357	4938
831.496	5140
831.635	4942
831.774	4862
831.913	4828
832.051	4729
832.19	4755
832.329	4892
832.467	4733
832.606	4626
832.744	4717
832.883	4717
833.022	4721
833.16	4816
833.299	4843
833.437	4805
833.576	4824
833.714	4889
833.852	4835
833.991	4873
834.129	4938
834.267	4949
834.406	4881
834.544	4972
834.682	5010
834.821	4938
834.959	5193
835.097	5010
835.235	5159
835.373	5075
835.511	5102
835.65	5010
835.788	4968
835.926	4900
836.064	4919
836.202	4900
836.34	5094
836.478	5239
836.615	5083
836.753	5189
836.891	5330
837.029	5273
837.167	5189
837.305	5147
837.443	5189
837.58	5094
837.718	5299
837.856	5178
837.993	5098
838.131	5204
838.269	5181
838.406	5170
838.544	5166
838.681	5018
838.819	5014
838.956	4843
839.094	4896
839.231	4976
839.369	5060
839.506	5402
839.643	5334
839.781	5029
839.918	5022
840.055	5083
840.193	5083
840.33	5067
840.467	5128
840.604	5204
840.742	5383
840.879	5090
841.016	5075
841.153	5094
841.29	5391
841.427	5303
841.564	5296
841.701	5334
841.838	5223
841.975	5216
842.112	5235
842.249	5086
842.385	5113
842.522	5341
842.659	5136
842.796	5105
842.933	5132
843.069	5170
843.206	5140
843.343	5296
843.479	5220
843.616	5261
843.752	5033
843.889	4976
844.025	5193
844.162	4999
844.298	5197
844.435	5102
844.571	5079
844.708	5155
844.844	5273
844.98	5349
845.117	5242
845.253	5109
845.389	5041
845.525	5162
845.661	5143
845.798	5025
845.934	5075
846.07	5018
846.206	5193
846.342	5273
846.478	5185
846.614	5018
846.75	4961
846.886	4953
847.022	5102
847.158	5052
847.294	4984
847.429	5029
847.565	5018
847.701	5334
847.837	4870
847.972	4790
848.108	4938
848.244	4961
848.379	4736
848.515	4729
848.65	4740
848.786	4698
848.921	4812
849.057	4835
849.192	4843
849.328	4805
849.463	4843
849.598	4797
849.734	4778
849.869	4710
850.004	4653
850.14	4721
850.275	4626
850.41	4546
850.545	4535
850.68	4577
850.815	4641
850.95	4603
851.085	4786
851.22	4725
851.355	4733
851.49	4611
851.625	4588
851.76	4634
851.895	4558
852.03	4512
852.165	4683
852.299	4729
852.434	4767
852.569	4763
852.703	4797
852.838	4782
852.973	4892
853.107	4911
853.242	4748
853.376	4653
853.511	4542
853.645	4580
853.78	4771
853.914	4683
854.048	4687
854.183	4672
854.317	4691
854.451	4847
854.585	4653
854.72	4607
854.854	4755
854.988	4607
855.122	4618
855.256	4527
855.39	4702
855.524	4733
855.658	4763
855.792	4710
855.926	4767
856.06	4759
856.194	4793
856.327	4660
856.461	4634
856.595	4577
856.729	4542
856.862	4714
856.996	4656
857.13	4767
857.263	4744
857.397	4782
857.53	4634
857.664	4721
857.797	4778
857.931	4782
858.064	4664
858.197	4706
858.331	4630
858.464	4561
858.597	4478
858.731	4630
858.864	4634
858.997	4580
859.13	4656
859.263	4664
859.396	4687
859.529	4599
859.662	4531
859.795	4561
859.928	4622
860.061	4778
860.194	4752
860.327	4664
860.46	4561
860.592	4702
860.725	4691
860.858	4702
860.99	4516
861.123	4516
861.256	4546
861.388	4611
861.521	5220
861.653	4497
861.786	4462
861.918	4462
862.05	4504
862.183	4565
862.315	4542
862.447	4618
862.58	4603
862.712	4352
862.844	4337
862.976	4485
863.108	4447
863.24	4748
863.372	4306
863.504	4405
863.636	4421
863.768	4466
863.9	4447
864.032	4360
864.164	4398
864.296	4466
864.428	4531
864.559	4546
864.691	4527
864.823	4497
864.954	4489
865.086	4474
865.217	4424
865.349	4447
865.48	4421
865.612	4489
865.743	4596
865.875	4459
866.006	4409
866.137	4409
866.269	4432
866.4	4428
866.531	4421
866.662	4390
866.793	4402
866.924	4379
867.055	4535
867.186	4443
867.317	4390
867.448	4348
867.579	4367
867.71	4337
867.841	4363
867.972	4485
868.103	4432
868.233	4424
868.364	4421
868.495	4466
868.625	4653
868.756	4721
868.886	4527
869.017	4611
869.147	4729
869.278	4767
869.408	4637
869.539	4592
869.669	4733
869.799	4664
869.929	4694
870.06	4691
870.19	4953
870.32	4953
870.45	4919
870.58	5029
870.71	5102
870.84	5109
870.97	4927
871.1	4870
871.23	5098
871.36	5159
871.489	4965
871.619	5052
871.749	5045
871.879	5098
872.008	5121
872.138	5067
872.267	4987
872.397	4915
872.526	4858
872.656	4729
872.785	4793
872.915	4892
873.044	5086
873.173	4908
873.303	4953
873.432	4934
873.561	4946
873.69	4908
873.819	4816
873.948	4877
874.077	4771
874.206	4786
874.335	4809
874.464	4927
874.593	5045
874.722	4934
874.851	5109
874.979	5056
875.108	4999
875.237	4885
875.365	4889
875.494	4908
875.623	4915
875.751	4862
875.88	4854
876.008	4968
876.136	5029
876.265	5143
876.393	5239
876.521	5204
876.65	5220
876.778	5162
876.906	5113
877.034	5018
877.162	5067
877.29	5010
877.418	5056
877.546	5064
877.674	5018
877.802	5010
877.93	4980
878.058	4953
878.185	4862
878.313	4892
878.441	4984
878.568	4828
878.696	4858
878.824	4965
878.951	4991
879.079	5067
879.206	5296
879.333	5079
879.461	5003
879.588	4991
879.715	5090
879.842	5170
879.97	5025
880.097	4752
880.224	4733
880.351	4839
880.478	4839
880.605	4801
880.732	4759
880.859	5105
880.986	4949
881.112	4843
881.239	4778
881.366	4679
881.493	4622
881.619	4565
881.746	4607
881.872	4626
881.999	4618
882.125	4721
882.252	4797
882.378	4835
882.505	4965
882.631	4801
882.757	4675
882.883	4710
883.01	4755
883.136	4683
883.262	4580
883.388	4588
883.514	4786
883.64	4885
883.766	4828
883.892	4702
884.018	4714
884.143	4873
884.269	5014
884.395	4683
884.52	4603
884.646	4584
884.772	4607
884.897	4596
885.023	4634
885.148	4782
885.274	4820
885.399	4793
885.524	4752
885.65	4668
885.775	4759
885.9	4672
886.025	4881
886.15	4778
886.275	4725
886.4	4664
886.525	4736
886.65	4694
886.775	4675
886.9	4938
887.025	5052
887.149	4786
887.274	4611
887.399	4611
887.523	4580
887.648	4550
887.773	4561
887.897	4778
888.021	4748
888.146	4675
888.27	4835
888.395	4930
888.519	4790
888.643	4797
888.767	4790
888.891	4694
889.015	4584
889.139	4645
889.263	4603
889.387	4748
889.511	4854
889.635	4748
889.759	4641
889.883	4637
890.006	4702
890.13	4839
890.254	4596
890.377	4683
890.501	4542
890.624	4531
890.748	4584
890.871	4447
890.995	4428
891.118	4386
891.241	4565
891.364	4538
891.488	4649
891.611	4493
891.734	4527
891.857	4592
891.98	4542
892.103	4630
892.226	4558
892.349	4516
892.471	4421
892.594	4550
892.717	4596
892.839	4554
892.962	4531
893.085	4694
893.207	4599
893.33	4451
893.452	4500
893.575	4660
893.697	4538
893.819	4858
893.941	4820
894.064	4801
894.186	4588
894.308	4580
894.43	4698
894.552	4801
894.674	4721
894.796	4508
894.918	4645
895.04	4550
895.161	4714
895.283	4694
895.405	4542
895.526	4584
895.648	4672
895.769	4691
895.891	4717
896.012	4717
896.134	4744
896.255	4675
896.376	4615
896.498	4626
896.619	4656
896.74	4645
896.861	4611
896.982	4881
897.103	5067
897.224	4797
897.345	4710
897.466	4714
897.587	4748
897.708	4892
897.828	4748
897.949	4649
898.07	4554
898.19	4706
898.311	4797
898.431	4687
898.552	4725
898.672	4801
898.792	4812
898.913	4740
899.033	4626
899.153	4527
899.273	4443
899.393	4485
899.513	4512
899.633	4535
899.753	4580
899.873	4569
899.993	4531
900.113	4474
900.232	4603
900.352	4538
900.472	4451
900.591	4402
900.711	4500
900.83	4443
900.95	4584
901.069	4634
901.189	4504
901.308	4386
901.427	4295
901.546	4383
901.665	4455
901.784	4497
901.904	4375
902.023	4310
902.141	4166
902.26	4154
902.379	4318
902.498	4219
902.617	4211
902.735	4337
902.854	4409
902.973	4371
903.091	4219
903.21	4215
903.328	4295
903.446	4268
903.565	4234
903.683	4383
903.801	4287
903.919	4402
904.038	4447
904.156	4299
904.274	4428
904.392	4432
904.51	4428
904.627	4432
904.745	4546
904.863	4588
904.981	4371
905.098	4265
905.216	4371
905.334	4398
905.451	4417
905.569	4424
905.686	4542
905.803	4577
905.921	4405
906.038	4497
906.155	4462
906.272	4386
906.389	4432
906.506	4363
906.623	4375
906.74	4398
906.857	4341
906.974	4363
907.091	4558
907.208	4672
907.324	4516
907.441	4455
907.557	4337
907.674	4367
907.79	4329
907.907	4413
908.023	4440
908.139	4485
908.256	4394
908.372	4405
908.488	4424
908.604	4363
908.72	4344
908.836	4341
908.952	4314
909.068	4440
909.184	4535
909.3	4428
909.415	4599
909.531	4558
909.647	4390
909.762	4371
909.878	4363
909.993	4443
910.108	4398
910.224	4447
910.339	4481
910.454	4417
910.57	4352
910.685	4299
910.8	4653
910.915	4607
911.03	4542
911.145	4325
911.259	4341
911.374	4363
911.489	4314
911.604	4249
911.718	4158
911.833	4139
911.947	4029
912.062	4021
912.176	4238
912.291	4265
912.405	4215
912.519	4451
912.633	4462
912.748	4363
912.862	4276
912.976	4188
913.09	4120
913.204	4131
913.318	4219
913.431	4371
913.545	4356
913.659	4432
913.772	4306
913.886	4215
914	4238
914.113	4367
914.226	4428
914.34	4394
914.453	4223
914.566	4405
914.68	4295
914.793	4284
914.906	4139
915.019	4150
915.132	4101
915.245	4196
915.358	4192
915.47	4207
915.583	4253
915.696	4246
915.809	4352
915.921	4421
916.034	4238
916.146	4268
916.259	4246
916.371	4363
916.483	4348
916.595	4234
916.708	4287
916.82	4333
916.932	4303
917.044	4268
917.156	4287
917.268	4227
917.38	4246
917.491	4284
917.603	4360
917.715	4417
917.826	4447
917.938	4318
918.049	4234
918.161	4375
918.272	4569
918.384	4531
918.495	4405
918.606	4306
918.717	4238
918.828	4287
918.939	4341
919.05	4246
919.161	4322
919.272	4135
919.383	4196
919.494	4447
919.604	4584
919.715	4417
919.826	4314
919.936	4379
920.047	4512
920.157	4462
920.267	4687
920.378	4535
920.488	4470
920.598	4725
920.708	4847
920.818	4729
920.928	4714
921.038	4946
921.148	4911
921.258	4630
921.368	4565
921.477	4512
921.587	4481
921.697	4337
921.806	4531
921.916	4413
922.025	4268
922.134	4249
922.244	4242
922.353	4371
922.462	4162
922.571	4143
922.68	4036
922.789	3934
922.898	4044
923.007	3991
923.116	4090
923.224	4029
923.333	4051
923.442	4032
923.55	3972
923.659	4021
923.767	4109
923.876	4059
923.984	4101
924.092	3968
924.201	4063
924.309	4074
924.417	4105
924.525	4048
924.633	4063
924.741	4889
924.849	3869
924.956	4158
925.064	3915
925.172	3899
925.279	3975
925.387	4032
925.494	4029
925.602	4181
925.709	4227
925.816	4051
925.924	4131
926.031	4219
926.138	4116
926.245	4177
926.352	4082
926.459	4238
926.566	4287
926.673	4147
926.779	4082
926.886	4101
926.993	3937
927.099	3960
927.206	3937
927.312	3926
927.419	4021
927.525	4063
927.631	4051
927.737	3918
927.843	3956
927.95	3835
928.056	3945
928.162	3949
928.267	4063
928.373	4596
928.479	4090
928.585	3842
928.69	4013
928.796	4029
928.901	3937
929.007	3876
929.112	4013
929.218	3953
929.323	3941
929.428	3922
929.533	4120
929.638	3861
929.743	3945
929.848	4048
929.953	3991
930.058	3892
930.163	3804
930.267	3816
930.372	3972
930.477	3797
930.581	4063
930.685	3934
930.79	3835
930.894	3831
930.998	3854
931.103	4006
931.207	3690
931.311	3690
931.415	3637
931.519	3523
931.623	3584
