Data from test_V78500241_2526.txt Node
Date: Fri Mar 25 17:06:34 CST 2022
User: usil
Spectrometer: V785-0024
Trigger mode: 0
Integration Time (sec): 4.000000E-1
Scans to average: 1
Nonlinearity correction enabled: false
Boxcar width: 0
Storing dark spectrum: false
XAxis mode: Wavelengths
Number of Pixels in Spectrum: 1024
>>>>>Begin Spectral Data<<<<<
801.071	8012
801.214	7955
801.356	7841
801.499	7868
801.641	7803
801.783	7792
801.926	7978
802.068	7909
802.211	7959
802.353	7963
802.496	7776
802.638	7928
802.78	7909
802.923	7947
803.065	7852
803.208	7849
803.35	7955
803.492	8039
803.635	8145
803.777	8016
803.919	8157
804.061	8450
804.204	8199
804.346	8016
804.488	7902
804.63	8058
804.773	8016
804.915	8050
805.057	8294
805.199	8123
805.341	8218
805.483	8229
805.626	8221
805.768	8191
805.91	8172
806.052	8202
806.194	8081
806.336	8309
806.478	8073
806.62	8050
806.762	8103
806.904	8259
807.046	8404
807.188	8362
807.33	8237
807.472	8336
807.614	8206
807.756	8111
807.898	8001
808.04	7894
808.182	7864
808.324	7814
808.465	7932
808.607	8081
808.749	8054
808.891	8244
809.033	8313
809.174	8157
809.316	8062
809.458	8073
809.6	8058
809.741	8020
809.883	7997
810.025	8119
810.166	8058
810.308	7982
810.45	7982
810.591	7925
810.733	7746
810.875	7658
811.016	7540
811.158	7487
811.299	7514
811.441	7780
811.582	7704
811.724	7594
811.865	7552
812.007	7586
812.148	7639
812.29	7609
812.431	7731
812.573	7887
812.714	7925
812.855	8107
812.997	8229
813.138	8267
813.279	8092
813.421	8092
813.562	7978
813.703	7803
813.845	7753
813.986	7369
814.127	7255
814.268	7251
814.41	7213
814.551	7168
814.692	7240
814.833	7145
814.974	7110
815.115	7160
815.256	6973
815.397	6924
815.539	6928
815.68	6795
815.821	6760
815.962	6882
816.103	6844
816.244	6745
816.385	6616
816.526	6669
816.666	6460
816.807	6273
816.948	6475
817.089	6475
817.23	6445
817.371	6361
817.512	6372
817.653	6357
817.793	6353
817.934	6353
818.075	6448
818.216	6384
818.356	6376
818.497	6186
818.638	6163
818.778	6155
818.919	6148
819.06	6133
819.2	6323
819.341	6342
819.481	6395
819.622	6498
819.762	6776
819.903	6719
820.043	6616
820.184	6597
820.324	6601
820.465	6677
820.605	6707
820.746	6658
820.886	6479
821.026	6700
821.167	6688
821.307	6787
821.447	6806
821.588	6707
821.728	6616
821.868	6544
822.008	6296
822.149	6384
822.289	6327
822.429	6228
822.569	6110
822.709	6114
822.849	5965
822.99	5901
823.13	5939
823.27	5923
823.41	5813
823.55	5805
823.69	5794
823.83	5748
823.97	5657
824.11	5592
824.25	5474
824.389	5566
824.529	5596
824.669	5516
824.809	5642
824.949	5653
825.089	5642
825.228	5551
825.368	5402
825.508	5337
825.648	5334
825.787	5425
825.927	5360
826.067	5265
826.206	5299
826.346	5387
826.485	5368
826.625	5414
826.765	5539
826.904	5478
827.044	5235
827.183	5242
827.323	5140
827.462	5254
827.601	5170
827.741	5170
827.88	5296
828.02	5075
828.159	5227
828.298	5307
828.437	5326
828.577	5273
828.716	5570
828.855	5337
828.994	5208
829.134	5102
829.273	5181
829.412	5143
829.551	5132
829.69	5155
829.829	5223
829.968	5357
830.107	5265
830.246	5231
830.385	5170
830.524	5132
830.663	5098
830.802	4953
830.941	4885
831.08	4896
831.219	5022
831.357	4949
831.496	5143
831.635	4953
831.774	4824
831.913	4862
832.051	4733
832.19	4748
832.329	4816
832.467	4736
832.606	4630
832.744	4733
832.883	4744
833.022	4710
833.16	4816
833.299	4843
833.437	4835
833.576	4824
833.714	4816
833.852	4866
833.991	4862
834.129	4999
834.267	4976
834.406	4870
834.544	4987
834.682	4946
834.821	4961
834.959	5181
835.097	4972
835.235	5105
835.373	5178
835.511	5041
835.65	4999
835.788	4987
835.926	4889
836.064	4908
836.202	4923
836.34	5090
836.478	5223
836.615	5140
836.753	5189
836.891	5235
837.029	5299
837.167	5246
837.305	5132
837.443	5155
837.58	5113
837.718	5254
837.856	5185
837.993	5151
838.131	5239
838.269	5162
838.406	5185
838.544	5193
838.681	5022
838.819	4987
838.956	4885
839.094	4908
839.231	5014
839.369	5105
839.506	5433
839.643	5261
839.781	5064
839.918	5003
840.055	5124
840.193	5041
840.33	5056
840.467	5193
840.604	5174
840.742	5463
840.879	5056
841.016	5102
841.153	5117
841.29	5395
841.427	5326
841.564	5353
841.701	5330
841.838	5254
841.975	5231
842.112	5277
842.249	5132
842.385	5064
842.522	5318
842.659	5220
842.796	5181
842.933	5197
843.069	5128
843.206	5155
843.343	5269
843.479	5220
843.616	5231
843.752	5029
843.889	4999
844.025	5201
844.162	4984
844.298	5223
844.435	5090
844.571	5056
844.708	5189
844.844	5311
844.98	5322
845.117	5239
845.253	5067
845.389	5090
845.525	5132
845.661	5132
845.798	5022
845.934	5109
846.07	5037
846.206	5254
846.342	5277
846.478	5147
846.614	5003
846.75	4972
846.886	4976
847.022	5147
847.158	5025
847.294	5006
847.429	5136
847.565	4995
847.701	5341
847.837	4900
847.972	4812
848.108	4949
848.244	4953
848.379	4809
848.515	4721
848.65	4702
848.786	4721
848.921	4771
849.057	4866
849.192	4843
849.328	4778
849.463	4812
849.598	4774
849.734	4786
849.869	4679
850.004	4607
850.14	4683
850.275	4580
850.41	4546
850.545	4577
850.68	4584
850.815	4664
850.95	4691
851.085	4843
851.22	4733
851.355	4683
851.49	4637
851.625	4660
851.76	4645
851.895	4535
852.03	4546
852.165	4656
852.299	4736
852.434	4793
852.569	4702
852.703	4763
852.838	4858
852.973	4854
853.107	4938
853.242	4740
853.376	4626
853.511	4554
853.645	4603
853.78	4809
853.914	4668
854.048	4645
854.183	4573
854.317	4729
854.451	4870
854.585	4641
854.72	4672
854.854	4748
854.988	4596
855.122	4656
855.256	4535
855.39	4653
855.524	4774
855.658	4736
855.792	4702
855.926	4721
856.06	4748
856.194	4786
856.327	4702
856.461	4622
856.595	4641
856.729	4618
856.862	4740
856.996	4725
857.13	4740
857.263	4786
857.397	4812
857.53	4634
857.664	4691
857.797	4759
857.931	4774
858.064	4721
858.197	4729
858.331	4679
858.464	4577
858.597	4478
858.731	4660
858.864	4649
858.997	4584
859.13	4694
859.263	4618
859.396	4725
859.529	4554
859.662	4538
859.795	4584
859.928	4626
860.061	4748
860.194	4733
860.327	4607
860.46	4611
860.592	4656
860.725	4736
860.858	4698
860.99	4580
861.123	4512
861.256	4531
861.388	4649
861.521	5185
861.653	4481
861.786	4421
861.918	4508
862.05	4554
862.183	4569
862.315	4637
862.447	4645
862.58	4527
862.712	4398
862.844	4341
862.976	4466
863.108	4443
863.24	4748
863.372	4333
863.504	4421
863.636	4398
863.768	4523
863.9	4485
864.032	4310
864.164	4417
864.296	4462
864.428	4504
864.559	4565
864.691	4516
864.823	4504
864.954	4504
865.086	4497
865.217	4451
865.349	4367
865.48	4470
865.612	4462
865.743	4615
865.875	4485
866.006	4390
866.137	4402
866.269	4443
866.4	4462
866.531	4386
866.662	4413
866.793	4421
866.924	4390
867.055	4489
867.186	4478
867.317	4402
867.448	4299
867.579	4314
867.71	4352
867.841	4360
867.972	4462
868.103	4443
868.233	4489
868.364	4417
868.495	4481
868.625	4618
868.756	4721
868.886	4580
869.017	4637
869.147	4774
869.278	4755
869.408	4626
869.539	4687
869.669	4721
869.799	4653
869.929	4702
870.06	4740
870.19	4957
870.32	4892
870.45	4911
870.58	5025
870.71	5086
870.84	5121
870.97	4927
871.1	4889
871.23	5105
871.36	5086
871.489	5010
871.619	5060
871.749	5094
871.879	5098
872.008	5189
872.138	5079
872.267	4957
872.397	4885
872.526	4847
872.656	4710
872.785	4767
872.915	4995
873.044	5025
873.173	4881
873.303	4923
873.432	4942
873.561	4961
873.69	4850
873.819	4812
873.948	4911
874.077	4812
874.206	4736
874.335	4778
874.464	4927
874.593	5048
874.722	4930
874.851	5079
874.979	5109
875.108	5033
875.237	4911
875.365	4896
875.494	4923
875.623	4965
875.751	4831
875.88	4828
876.008	4923
876.136	5018
876.265	5162
876.393	5353
876.521	5204
876.65	5231
876.778	5094
876.906	5083
877.034	5067
877.162	5003
877.29	5003
877.418	5075
877.546	4984
877.674	5098
877.802	5014
877.93	4984
878.058	4900
878.185	4900
878.313	4949
878.441	4953
878.568	4801
878.696	4892
878.824	4938
878.951	5033
879.079	5109
879.206	5261
879.333	5094
879.461	4957
879.588	4980
879.715	5121
879.842	5242
879.97	4995
880.097	4801
880.224	4717
880.351	4801
880.478	4843
880.605	4797
880.732	4820
880.859	5102
880.986	4862
881.112	4889
881.239	4805
881.366	4702
881.493	4607
881.619	4538
881.746	4626
881.872	4683
881.999	4721
882.125	4717
882.252	4820
882.378	4820
882.505	4927
882.631	4786
882.757	4675
882.883	4733
883.01	4790
883.136	4672
883.262	4592
883.388	4706
883.514	4797
883.64	4915
883.766	4816
883.892	4687
884.018	4729
884.143	4957
884.269	5071
884.395	4706
884.52	4656
884.646	4641
884.772	4622
884.897	4565
885.023	4710
885.148	4843
885.274	4873
885.399	4831
885.524	4755
885.65	4774
885.775	4771
885.9	4672
886.025	4809
886.15	4873
886.275	4767
886.4	4691
886.525	4740
886.65	4782
886.775	4740
886.9	4953
887.025	5098
887.149	4866
887.274	4733
887.399	4611
887.523	4649
887.648	4622
887.773	4653
887.897	4790
888.021	4816
888.146	4748
888.27	4847
888.395	4946
888.519	4835
888.643	4862
888.767	4911
888.891	4691
889.015	4641
889.139	4675
889.263	4660
889.387	4831
889.511	4896
889.635	4828
889.759	4698
889.883	4721
890.006	4759
890.13	4908
890.254	4660
890.377	4702
890.501	4584
890.624	4504
890.748	4687
890.871	4599
890.995	4421
891.118	4436
891.241	4550
891.364	4584
891.488	4683
891.611	4580
891.734	4558
891.857	4687
891.98	4580
892.103	4706
892.226	4596
892.349	4573
892.471	4447
892.594	4580
892.717	4599
892.839	4580
892.962	4664
893.085	4675
893.207	4588
893.33	4489
893.452	4542
893.575	4675
893.697	4611
893.819	4782
893.941	4843
894.064	4847
894.186	4592
894.308	4558
894.43	4748
894.552	4873
894.674	4790
894.796	4584
894.918	4634
895.04	4615
895.161	4714
895.283	4694
895.405	4607
895.526	4634
895.648	4714
895.769	4675
895.891	4744
896.012	4786
896.134	4744
896.255	4710
896.376	4664
896.498	4672
896.619	4725
896.74	4622
896.861	4702
896.982	4942
897.103	5102
897.224	4824
897.345	4733
897.466	4645
897.587	4755
897.708	4862
897.828	4755
897.949	4656
898.07	4592
898.19	4683
898.311	4809
898.431	4675
898.552	4748
898.672	4812
898.792	4889
898.913	4790
899.033	4634
899.153	4512
899.273	4497
899.393	4550
899.513	4569
899.633	4580
899.753	4550
899.873	4538
899.993	4592
900.113	4561
900.232	4626
900.352	4550
900.472	4519
900.591	4413
900.711	4516
900.83	4493
900.95	4615
901.069	4714
901.189	4603
901.308	4386
901.427	4363
901.546	4379
901.665	4516
901.784	4516
901.904	4394
902.023	4367
902.141	4211
902.26	4173
902.379	4383
902.498	4303
902.617	4257
902.735	4421
902.854	4428
902.973	4417
903.091	4291
903.21	4238
903.328	4352
903.446	4295
903.565	4318
903.683	4390
903.801	4287
903.919	4417
904.038	4500
904.156	4367
904.274	4516
904.392	4409
904.51	4466
904.627	4519
904.745	4622
904.863	4660
904.981	4417
905.098	4371
905.216	4417
905.334	4417
905.451	4447
905.569	4466
905.686	4577
905.803	4607
905.921	4443
906.038	4569
906.155	4535
906.272	4421
906.389	4535
906.506	4371
906.623	4413
906.74	4417
906.857	4348
906.974	4432
907.091	4580
907.208	4664
907.324	4588
907.441	4500
907.557	4337
907.674	4405
907.79	4341
907.907	4375
908.023	4493
908.139	4462
908.256	4497
908.372	4508
908.488	4481
908.604	4405
908.72	4348
908.836	4402
908.952	4394
909.068	4516
909.184	4634
909.3	4504
909.415	4615
909.531	4592
909.647	4348
909.762	4356
909.878	4341
909.993	4470
910.108	4443
910.224	4443
910.339	4538
910.454	4436
910.57	4367
910.685	4325
910.8	4687
910.915	4607
911.03	4474
911.145	4360
911.259	4333
911.374	4398
911.489	4295
911.604	4329
911.718	4192
911.833	4204
911.947	4131
912.062	4044
912.176	4242
912.291	4265
912.405	4268
912.519	4470
912.633	4504
912.748	4402
912.862	4356
912.976	4246
913.09	4143
913.204	4188
913.318	4268
913.431	4402
913.545	4432
913.659	4481
913.772	4394
913.886	4242
914	4234
914.113	4466
914.226	4451
914.34	4402
914.453	4238
914.566	4436
914.68	4360
914.793	4356
914.906	4162
915.019	4162
915.132	4124
915.245	4211
915.358	4276
915.47	4291
915.583	4268
915.696	4344
915.809	4421
915.921	4474
916.034	4276
916.146	4280
916.259	4268
916.371	4417
916.483	4421
916.595	4284
916.708	4363
916.82	4348
916.932	4299
917.044	4333
917.156	4341
917.268	4276
917.38	4280
917.491	4310
917.603	4390
917.715	4443
917.826	4455
917.938	4390
918.049	4238
918.161	4394
918.272	4596
918.384	4611
918.495	4489
918.606	4287
918.717	4238
918.828	4337
918.939	4417
919.05	4242
919.161	4402
919.272	4166
919.383	4242
919.494	4489
919.604	4607
919.715	4500
919.826	4386
919.936	4424
920.047	4508
920.157	4508
920.267	4691
920.378	4588
920.488	4565
920.598	4729
920.708	4938
920.818	4771
920.928	4763
921.038	4965
921.148	4911
921.258	4691
921.368	4573
921.477	4527
921.587	4497
921.697	4394
921.806	4504
921.916	4493
922.025	4291
922.134	4287
922.244	4257
922.353	4363
922.462	4181
922.571	4196
922.68	4040
922.789	3979
922.898	4067
923.007	3979
923.116	4120
923.224	4086
923.333	4147
923.442	4036
923.55	4013
923.659	4040
923.767	4120
923.876	4063
923.984	4150
924.092	3968
924.201	4120
924.309	4120
924.417	4143
924.525	4082
924.633	4120
924.741	5090
924.849	3926
924.956	4116
925.064	3941
925.172	3911
925.279	4010
925.387	4090
925.494	4067
925.602	4230
925.709	4227
925.816	4082
925.924	4192
926.031	4234
926.138	4173
926.245	4261
926.352	4124
926.459	4261
926.566	4280
926.673	4196
926.779	4124
926.886	4067
926.993	4013
927.099	3979
927.206	3975
927.312	3987
927.419	4078
927.525	4067
927.631	4093
927.737	4021
927.843	3979
927.95	3838
928.056	3983
928.162	3987
928.267	4078
928.373	4645
928.479	4166
928.585	3861
928.69	4051
928.796	4116
928.901	4010
929.007	3850
929.112	4051
929.218	3998
929.323	4006
929.428	3972
929.533	4158
929.638	3926
929.743	3968
929.848	4059
929.953	4051
930.058	3945
930.163	3785
930.267	3899
930.372	3994
930.477	3816
930.581	4093
930.685	4013
930.79	3857
930.894	3884
930.998	3861
931.103	4048
931.207	3720
931.311	3663
931.415	3686
931.519	3568
931.623	3526
