Data from test_V78500241_1797.txt Node
Date: Fri Mar 25 17:01:29 CST 2022
User: usil
Spectrometer: V785-0024
Trigger mode: 0
Integration Time (sec): 4.000000E-1
Scans to average: 1
Nonlinearity correction enabled: false
Boxcar width: 0
Storing dark spectrum: false
XAxis mode: Wavelengths
Number of Pixels in Spectrum: 1024
>>>>>Begin Spectral Data<<<<<
801.071	8012
801.214	8005
801.356	7856
801.499	7868
801.641	7784
801.783	7837
801.926	8020
802.068	7978
802.211	7959
802.353	7989
802.496	7860
802.638	7871
802.78	7902
802.923	7860
803.065	7947
803.208	7818
803.35	7951
803.492	8126
803.635	8149
803.777	8016
803.919	8119
804.061	8514
804.204	8142
804.346	8149
804.488	7967
804.63	8199
804.773	8012
804.915	8157
805.057	8294
805.199	8195
805.341	8240
805.483	8267
805.626	8199
805.768	8100
805.91	8282
806.052	8214
806.194	8084
806.336	8324
806.478	8077
806.62	8073
806.762	8199
806.904	8233
807.046	8606
807.188	8362
807.33	8256
807.472	8328
807.614	8229
807.756	8123
807.898	7993
808.04	7936
808.182	7997
808.324	7909
808.465	7902
808.607	8126
808.749	8145
808.891	8191
809.033	8259
809.174	8275
809.316	8134
809.458	8126
809.6	8065
809.741	8062
809.883	8043
810.025	8062
810.166	8103
810.308	8001
810.45	8020
810.591	7856
810.733	7715
810.875	7639
811.016	7552
811.158	7506
811.299	7605
811.441	7689
811.582	7658
811.724	7594
811.865	7556
812.007	7590
812.148	7628
812.29	7620
812.431	7814
812.573	7871
812.714	8005
812.855	8134
812.997	8157
813.138	8339
813.279	8195
813.421	8134
813.562	7955
813.703	7833
813.845	7784
813.986	7445
814.127	7232
814.268	7206
814.41	7217
814.551	7206
814.692	7232
814.833	7088
814.974	7084
815.115	7152
815.256	6951
815.397	6901
815.539	6935
815.68	6909
815.821	6757
815.962	6833
816.103	6833
816.244	6791
816.385	6635
816.526	6597
816.666	6540
816.807	6331
816.948	6528
817.089	6513
817.23	6437
817.371	6353
817.512	6410
817.653	6467
817.793	6384
817.934	6483
818.075	6403
818.216	6460
818.356	6437
818.497	6216
818.638	6148
818.778	6117
818.919	6155
819.06	6197
819.2	6342
819.341	6331
819.481	6410
819.622	6593
819.762	6745
819.903	6684
820.043	6559
820.184	6540
820.324	6582
820.465	6700
820.605	6612
820.746	6631
820.886	6502
821.026	6692
821.167	6684
821.307	6764
821.447	6768
821.588	6711
821.728	6582
821.868	6414
822.008	6323
822.149	6376
822.289	6369
822.429	6152
822.569	6057
822.709	6083
822.849	5897
822.99	5973
823.13	5935
823.27	5878
823.41	5798
823.55	5729
823.69	5771
823.83	5722
823.97	5661
824.11	5509
824.25	5509
824.389	5581
824.529	5638
824.669	5535
824.809	5684
824.949	5657
825.089	5585
825.228	5547
825.368	5387
825.508	5353
825.648	5349
825.787	5376
825.927	5391
826.067	5326
826.206	5326
826.346	5410
826.485	5406
826.625	5444
826.765	5551
826.904	5425
827.044	5299
827.183	5220
827.323	5143
827.462	5223
827.601	5201
827.741	5197
827.88	5231
828.02	5159
828.159	5284
828.298	5303
828.437	5364
828.577	5258
828.716	5490
828.855	5337
828.994	5185
829.134	5143
829.273	5235
829.412	5151
829.551	5128
829.69	5189
829.829	5216
829.968	5364
830.107	5299
830.246	5261
830.385	5220
830.524	5140
830.663	5079
830.802	5003
830.941	4896
831.08	4892
831.219	5022
831.357	4984
831.496	5124
831.635	4938
831.774	4915
831.913	4877
832.051	4752
832.19	4725
832.329	4870
832.467	4691
832.606	4683
832.744	4717
832.883	4672
833.022	4721
833.16	4748
833.299	4820
833.437	4843
833.576	4850
833.714	4858
833.852	4896
833.991	4862
834.129	4980
834.267	4968
834.406	4824
834.544	5029
834.682	4999
834.821	4961
834.959	5109
835.097	4995
835.235	5174
835.373	5086
835.511	5067
835.65	5048
835.788	5060
835.926	4953
836.064	4889
836.202	4930
836.34	5136
836.478	5227
836.615	5117
836.753	5147
836.891	5277
837.029	5227
837.167	5174
837.305	5166
837.443	5136
837.58	5048
837.718	5208
837.856	5174
837.993	5166
838.131	5239
838.269	5212
838.406	5212
838.544	5181
838.681	5018
838.819	5022
838.956	4904
839.094	4900
839.231	4995
839.369	5086
839.506	5433
839.643	5296
839.781	5064
839.918	5003
840.055	5060
840.193	5094
840.33	5109
840.467	5174
840.604	5174
840.742	5444
840.879	5117
841.016	5117
841.153	5136
841.29	5334
841.427	5318
841.564	5368
841.701	5326
841.838	5296
841.975	5299
842.112	5296
842.249	5140
842.385	5121
842.522	5299
842.659	5128
842.796	5147
842.933	5155
843.069	5197
843.206	5185
843.343	5330
843.479	5223
843.616	5254
843.752	5052
843.889	5029
844.025	5223
844.162	5041
844.298	5193
844.435	5064
844.571	5033
844.708	5231
844.844	5261
844.98	5288
845.117	5311
845.253	5136
845.389	5117
845.525	5105
845.661	5174
845.798	5041
845.934	5140
846.07	5041
846.206	5162
846.342	5307
846.478	5170
846.614	5056
846.75	4946
846.886	4961
847.022	5155
847.158	4984
847.294	5105
847.429	5060
847.565	5048
847.701	5269
847.837	4828
847.972	4824
848.108	4946
848.244	4915
848.379	4759
848.515	4694
848.65	4736
848.786	4767
848.921	4790
849.057	4854
849.192	4919
849.328	4835
849.463	4904
849.598	4812
849.734	4778
849.869	4691
850.004	4611
850.14	4679
850.275	4618
850.41	4478
850.545	4577
850.68	4561
850.815	4672
850.95	4630
851.085	4843
851.22	4790
851.355	4706
851.49	4649
851.625	4618
851.76	4698
851.895	4603
852.03	4550
852.165	4599
852.299	4744
852.434	4809
852.569	4752
852.703	4805
852.838	4850
852.973	4946
853.107	4976
853.242	4744
853.376	4679
853.511	4535
853.645	4618
853.78	4771
853.914	4679
854.048	4691
854.183	4634
854.317	4729
854.451	4828
854.585	4687
854.72	4664
854.854	4755
854.988	4573
855.122	4569
855.256	4500
855.39	4626
855.524	4767
855.658	4752
855.792	4679
855.926	4710
856.06	4752
856.194	4763
856.327	4714
856.461	4611
856.595	4615
856.729	4607
856.862	4706
856.996	4721
857.13	4736
857.263	4748
857.397	4771
857.53	4603
857.664	4767
857.797	4694
857.931	4771
858.064	4694
858.197	4706
858.331	4714
858.464	4615
858.597	4519
858.731	4630
858.864	4649
858.997	4569
859.13	4706
859.263	4691
859.396	4710
859.529	4607
859.662	4535
859.795	4558
859.928	4641
860.061	4733
860.194	4782
860.327	4584
860.46	4569
860.592	4729
860.725	4702
860.858	4748
860.99	4546
861.123	4508
861.256	4561
861.388	4622
861.521	5288
861.653	4523
861.786	4421
861.918	4493
862.05	4512
862.183	4538
862.315	4611
862.447	4641
862.58	4493
862.712	4424
862.844	4318
862.976	4481
863.108	4489
863.24	4866
863.372	4310
863.504	4443
863.636	4390
863.768	4512
863.9	4455
864.032	4367
864.164	4405
864.296	4459
864.428	4538
864.559	4615
864.691	4569
864.823	4550
864.954	4478
865.086	4516
865.217	4466
865.349	4417
865.48	4481
865.612	4447
865.743	4649
865.875	4519
866.006	4390
866.137	4462
866.269	4459
866.4	4485
866.531	4440
866.662	4409
866.793	4421
866.924	4409
867.055	4500
867.186	4436
867.317	4443
867.448	4318
867.579	4386
867.71	4344
867.841	4352
867.972	4466
868.103	4474
868.233	4455
868.364	4493
868.495	4451
868.625	4668
868.756	4729
868.886	4554
869.017	4607
869.147	4729
869.278	4771
869.408	4675
869.539	4599
869.669	4694
869.799	4653
869.929	4774
870.06	4755
870.19	4949
870.32	4946
870.45	4927
870.58	4961
870.71	5064
870.84	5086
870.97	4915
871.1	4873
871.23	5090
871.36	5159
871.489	5067
871.619	5045
871.749	5124
871.879	5121
872.008	5166
872.138	5071
872.267	4965
872.397	4828
872.526	4820
872.656	4706
872.785	4881
872.915	4911
873.044	5006
873.173	4923
873.303	4942
873.432	4919
873.561	4972
873.69	4930
873.819	4854
873.948	4873
874.077	4809
874.206	4801
874.335	4793
874.464	4919
874.593	5056
874.722	4980
874.851	5102
874.979	5052
875.108	5022
875.237	4919
875.365	4858
875.494	4862
875.623	4965
875.751	4873
875.88	4896
876.008	4972
876.136	5037
876.265	5162
876.393	5330
876.521	5269
876.65	5227
876.778	5181
876.906	4991
877.034	5003
877.162	5075
877.29	5018
877.418	5045
877.546	5029
877.674	5079
877.802	5018
877.93	4984
878.058	4923
878.185	4885
878.313	4961
878.441	4915
878.568	4809
878.696	4885
878.824	4934
878.951	5037
879.079	5083
879.206	5330
879.333	5113
879.461	4949
879.588	4984
879.715	5075
879.842	5235
879.97	4965
880.097	4774
880.224	4717
880.351	4835
880.478	4793
880.605	4809
880.732	4801
880.859	5041
880.986	4949
881.112	4900
881.239	4771
881.366	4645
881.493	4573
881.619	4550
881.746	4615
881.872	4626
881.999	4653
882.125	4675
882.252	4786
882.378	4812
882.505	4961
882.631	4801
882.757	4672
882.883	4736
883.01	4733
883.136	4637
883.262	4584
883.388	4599
883.514	4801
883.64	4873
883.766	4812
883.892	4691
884.018	4687
884.143	4885
884.269	5033
884.395	4706
884.52	4675
884.646	4675
884.772	4554
884.897	4580
885.023	4634
885.148	4748
885.274	4843
885.399	4786
885.524	4721
885.65	4615
885.775	4759
885.9	4706
886.025	4809
886.15	4778
886.275	4733
886.4	4675
886.525	4710
886.65	4710
886.775	4752
886.9	4900
887.025	5052
887.149	4778
887.274	4710
887.399	4565
887.523	4577
887.648	4580
887.773	4561
887.897	4755
888.021	4797
888.146	4660
888.27	4820
888.395	4858
888.519	4809
888.643	4786
888.767	4790
888.891	4702
889.015	4660
889.139	4630
889.263	4603
889.387	4698
889.511	4831
889.635	4812
889.759	4672
889.883	4607
890.006	4725
890.13	4828
890.254	4584
890.377	4660
890.501	4516
890.624	4512
890.748	4645
890.871	4451
890.995	4447
891.118	4371
891.241	4493
891.364	4538
891.488	4649
891.611	4512
891.734	4500
891.857	4577
891.98	4500
892.103	4668
892.226	4565
892.349	4519
892.471	4443
892.594	4519
892.717	4668
892.839	4649
892.962	4550
893.085	4649
893.207	4561
893.33	4443
893.452	4523
893.575	4683
893.697	4531
893.819	4733
893.941	4782
894.064	4752
894.186	4569
894.308	4584
894.43	4717
894.552	4801
894.674	4740
894.796	4519
894.918	4607
895.04	4561
895.161	4660
895.283	4653
895.405	4584
895.526	4672
895.648	4649
895.769	4710
895.891	4683
896.012	4725
896.134	4710
896.255	4672
896.376	4626
896.498	4611
896.619	4691
896.74	4603
896.861	4679
896.982	4919
897.103	5121
897.224	4812
897.345	4767
897.466	4653
897.587	4752
897.708	4862
897.828	4797
897.949	4645
898.07	4519
898.19	4599
898.311	4820
898.431	4683
898.552	4740
898.672	4850
898.792	4782
898.913	4763
899.033	4588
899.153	4500
899.273	4455
899.393	4519
899.513	4527
899.633	4531
899.753	4542
899.873	4504
899.993	4626
900.113	4558
900.232	4554
900.352	4577
900.472	4500
900.591	4360
900.711	4500
900.83	4447
900.95	4626
901.069	4679
901.189	4558
901.308	4325
901.427	4284
901.546	4367
901.665	4485
901.784	4493
901.904	4428
902.023	4318
902.141	4242
902.26	4169
902.379	4276
902.498	4230
902.617	4257
902.735	4371
902.854	4379
902.973	4386
903.091	4196
903.21	4211
903.328	4295
903.446	4223
903.565	4291
903.683	4322
903.801	4287
903.919	4409
904.038	4451
904.156	4348
904.274	4432
904.392	4371
904.51	4409
904.627	4504
904.745	4584
904.863	4607
904.981	4402
905.098	4322
905.216	4352
905.334	4417
905.451	4394
905.569	4409
905.686	4546
905.803	4592
905.921	4375
906.038	4580
906.155	4451
906.272	4375
906.389	4504
906.506	4375
906.623	4371
906.74	4413
906.857	4344
906.974	4394
907.091	4542
907.208	4706
907.324	4649
907.441	4512
907.557	4333
907.674	4344
907.79	4337
907.907	4375
908.023	4466
908.139	4497
908.256	4398
908.372	4443
908.488	4459
908.604	4333
908.72	4299
908.836	4356
908.952	4413
909.068	4451
909.184	4577
909.3	4489
909.415	4588
909.531	4538
909.647	4363
909.762	4352
909.878	4341
909.993	4424
910.108	4390
910.224	4421
910.339	4474
910.454	4398
910.57	4367
910.685	4310
910.8	4603
910.915	4546
911.03	4504
911.145	4367
911.259	4314
911.374	4398
911.489	4310
911.604	4287
911.718	4143
911.833	4181
911.947	4078
912.062	4017
912.176	4261
912.291	4219
912.405	4246
912.519	4455
912.633	4481
912.748	4337
912.862	4287
912.976	4196
913.09	4139
913.204	4223
913.318	4227
913.431	4371
913.545	4402
913.659	4432
913.772	4325
913.886	4253
914	4242
914.113	4379
914.226	4428
914.34	4421
914.453	4227
914.566	4421
914.68	4318
914.793	4265
914.906	4169
915.019	4109
915.132	4063
915.245	4200
915.358	4166
915.47	4211
915.583	4257
915.696	4295
915.809	4402
915.921	4443
916.034	4299
916.146	4253
916.259	4207
916.371	4318
916.483	4379
916.595	4257
916.708	4318
916.82	4306
916.932	4287
917.044	4394
917.156	4344
917.268	4227
917.38	4280
917.491	4280
917.603	4360
917.715	4344
917.826	4436
917.938	4306
918.049	4261
918.161	4363
918.272	4542
918.384	4584
918.495	4478
918.606	4310
918.717	4227
918.828	4291
918.939	4337
919.05	4276
919.161	4322
919.272	4116
919.383	4207
919.494	4436
919.604	4599
919.715	4421
919.826	4360
919.936	4394
920.047	4546
920.157	4478
920.267	4706
920.378	4504
920.488	4512
920.598	4721
920.708	4862
920.818	4778
920.928	4801
921.038	4892
921.148	4919
921.258	4573
921.368	4500
921.477	4470
921.587	4493
921.697	4367
921.806	4550
921.916	4443
922.025	4276
922.134	4249
922.244	4234
922.353	4329
922.462	4177
922.571	4128
922.68	3968
922.789	4013
922.898	4025
923.007	3956
923.116	4139
923.224	4059
923.333	4048
923.442	4013
923.55	3991
923.659	4013
923.767	4078
923.876	3991
923.984	4101
924.092	3998
924.201	4059
924.309	4078
924.417	4128
924.525	4074
924.633	4135
924.741	5029
924.849	3903
924.956	4112
925.064	3979
925.172	3888
925.279	3949
925.387	4093
925.494	4032
925.602	4185
925.709	4166
925.816	4051
925.924	4120
926.031	4230
926.138	4131
926.245	4204
926.352	4116
926.459	4219
926.566	4299
926.673	4154
926.779	4051
926.886	4063
926.993	4010
927.099	3983
927.206	3941
927.312	3934
927.419	4002
927.525	4071
927.631	4074
927.737	3987
927.843	3945
927.95	3854
928.056	3937
928.162	3975
928.267	4101
928.373	4603
928.479	4105
928.585	3926
928.69	4048
928.796	4090
928.901	3956
929.007	3835
929.112	3987
929.218	3960
929.323	3949
929.428	3945
929.533	4116
929.638	3861
929.743	4010
929.848	4063
929.953	3998
930.058	3896
930.163	3774
930.267	3823
930.372	3949
930.477	3812
930.581	4021
930.685	3922
930.79	3876
930.894	3888
930.998	3846
931.103	4036
931.207	3724
931.311	3690
931.415	3663
931.519	3545
931.623	3542
