Data from test_V78500241_887.txt Node
Date: Fri Mar 25 16:55:10 CST 2022
User: usil
Spectrometer: V785-0024
Trigger mode: 0
Integration Time (sec): 4.000000E-1
Scans to average: 1
Nonlinearity correction enabled: false
Boxcar width: 0
Storing dark spectrum: false
XAxis mode: Wavelengths
Number of Pixels in Spectrum: 1024
>>>>>Begin Spectral Data<<<<<
801.071	8016
801.214	7967
801.356	7845
801.499	7947
801.641	7788
801.783	7841
801.926	7993
802.068	7940
802.211	7932
802.353	7947
802.496	7860
802.638	7864
802.78	7875
802.923	7788
803.065	7883
803.208	7898
803.35	7947
803.492	8103
803.635	8153
803.777	8073
803.919	8031
804.061	8438
804.204	8183
804.346	8027
804.488	7940
804.63	8073
804.773	8020
804.915	8084
805.057	8229
805.199	8180
805.341	8183
805.483	8248
805.626	8126
805.768	8081
805.91	8145
806.052	8168
806.194	8027
806.336	8233
806.478	8024
806.62	8081
806.762	8161
806.904	8180
807.046	8533
807.188	8343
807.33	8332
807.472	8298
807.614	8126
807.756	8130
807.898	8035
808.04	7906
808.182	7932
808.324	7860
808.465	7864
808.607	8100
808.749	8100
808.891	8130
809.033	8210
809.174	8229
809.316	8092
809.458	8084
809.6	8088
809.741	8024
809.883	8024
810.025	8134
810.166	8050
810.308	8012
810.45	8058
810.591	7860
810.733	7734
810.875	7658
811.016	7616
811.158	7499
811.299	7597
811.441	7788
811.582	7693
811.724	7605
811.865	7495
812.007	7571
812.148	7578
812.29	7681
812.431	7727
812.573	7818
812.714	7936
812.855	8183
812.997	8233
813.138	8267
813.279	8180
813.421	8081
813.562	8016
813.703	7913
813.845	7757
813.986	7460
814.127	7331
814.268	7247
814.41	7270
814.551	7183
814.692	7175
814.833	7072
814.974	7126
815.115	7164
815.256	6970
815.397	6958
815.539	6928
815.68	6848
815.821	6772
815.962	6882
816.103	6856
816.244	6753
816.385	6692
816.526	6665
816.666	6547
816.807	6384
816.948	6433
817.089	6574
817.23	6479
817.371	6426
817.512	6422
817.653	6395
817.793	6338
817.934	6456
818.075	6498
818.216	6517
818.356	6433
818.497	6239
818.638	6175
818.778	6125
818.919	6163
819.06	6175
819.2	6304
819.341	6319
819.481	6376
819.622	6608
819.762	6776
819.903	6753
820.043	6604
820.184	6563
820.324	6642
820.465	6726
820.605	6677
820.746	6700
820.886	6521
821.026	6650
821.167	6711
821.307	6867
821.447	6776
821.588	6654
821.728	6650
821.868	6494
822.008	6350
822.149	6376
822.289	6372
822.429	6148
822.569	6106
822.709	6053
822.849	5958
822.99	5927
823.13	5939
823.27	5950
823.41	5805
823.55	5817
823.69	5760
823.83	5756
823.97	5642
824.11	5520
824.25	5543
824.389	5577
824.529	5589
824.669	5474
824.809	5649
824.949	5691
825.089	5619
825.228	5581
825.368	5398
825.508	5406
825.648	5360
825.787	5364
825.927	5414
826.067	5318
826.206	5345
826.346	5376
826.485	5406
826.625	5410
826.765	5520
826.904	5558
827.044	5280
827.183	5204
827.323	5147
827.462	5239
827.601	5140
827.741	5166
827.88	5216
828.02	5124
828.159	5227
828.298	5250
828.437	5337
828.577	5292
828.716	5516
828.855	5337
828.994	5166
829.134	5147
829.273	5181
829.412	5140
829.551	5121
829.69	5220
829.829	5254
829.968	5421
830.107	5269
830.246	5299
830.385	5181
830.524	5124
830.663	5117
830.802	4976
830.941	4885
831.08	4889
831.219	5025
831.357	4980
831.496	5102
831.635	4957
831.774	4854
831.913	4812
832.051	4714
832.19	4771
832.329	4892
832.467	4710
832.606	4668
832.744	4767
832.883	4740
833.022	4687
833.16	4782
833.299	4908
833.437	4778
833.576	4858
833.714	4847
833.852	4881
833.991	4870
834.129	4980
834.267	4984
834.406	4900
834.544	5037
834.682	4938
834.821	4980
834.959	5174
835.097	4972
835.235	5132
835.373	5098
835.511	5052
835.65	5045
835.788	5006
835.926	4908
836.064	4831
836.202	4938
836.34	5162
836.478	5265
836.615	5162
836.753	5193
836.891	5288
837.029	5254
837.167	5181
837.305	5170
837.443	5185
837.58	5090
837.718	5223
837.856	5201
837.993	5159
838.131	5273
838.269	5197
838.406	5197
838.544	5201
838.681	5025
838.819	5022
838.956	4877
839.094	4877
839.231	4968
839.369	5098
839.506	5387
839.643	5265
839.781	5102
839.918	5014
840.055	5075
840.193	5128
840.33	5117
840.467	5170
840.604	5201
840.742	5387
840.879	5071
841.016	5056
841.153	5170
841.29	5303
841.427	5357
841.564	5269
841.701	5376
841.838	5303
841.975	5231
842.112	5277
842.249	5143
842.385	5090
842.522	5364
842.659	5201
842.796	5102
842.933	5151
843.069	5170
843.206	5181
843.343	5315
843.479	5223
843.616	5273
843.752	5014
843.889	5048
844.025	5273
844.162	5010
844.298	5231
844.435	5067
844.571	5060
844.708	5193
844.844	5269
844.98	5311
845.117	5269
845.253	5162
845.389	5064
845.525	5079
845.661	5147
845.798	5056
845.934	5178
846.07	5056
846.206	5132
846.342	5280
846.478	5242
846.614	5029
846.75	4980
846.886	4953
847.022	5147
847.158	5037
847.294	5033
847.429	5083
847.565	5056
847.701	5299
847.837	4835
847.972	4835
848.108	4987
848.244	4900
848.379	4816
848.515	4763
848.65	4748
848.786	4755
848.921	4797
849.057	4881
849.192	4850
849.328	4870
849.463	4847
849.598	4793
849.734	4763
849.869	4698
850.004	4603
850.14	4694
850.275	4584
850.41	4531
850.545	4584
850.68	4641
850.815	4683
850.95	4691
851.085	4850
851.22	4733
851.355	4683
851.49	4660
851.625	4622
851.76	4653
851.895	4565
852.03	4542
852.165	4641
852.299	4702
852.434	4793
852.569	4729
852.703	4786
852.838	4858
852.973	4942
853.107	4900
853.242	4752
853.376	4683
853.511	4561
853.645	4599
853.78	4755
853.914	4672
854.048	4664
854.183	4641
854.317	4691
854.451	4873
854.585	4660
854.72	4607
854.854	4763
854.988	4596
855.122	4645
855.256	4554
855.39	4714
855.524	4771
855.658	4710
855.792	4698
855.926	4752
856.06	4736
856.194	4763
856.327	4714
856.461	4607
856.595	4558
856.729	4615
856.862	4752
856.996	4649
857.13	4675
857.263	4725
857.397	4812
857.53	4668
857.664	4710
857.797	4752
857.931	4786
858.064	4710
858.197	4736
858.331	4611
858.464	4584
858.597	4508
858.731	4596
858.864	4637
858.997	4630
859.13	4706
859.263	4656
859.396	4675
859.529	4622
859.662	4599
859.795	4538
859.928	4573
860.061	4778
860.194	4763
860.327	4599
860.46	4554
860.592	4740
860.725	4694
860.858	4740
860.99	4554
861.123	4519
861.256	4489
861.388	4645
861.521	5273
861.653	4481
861.786	4443
861.918	4462
862.05	4462
862.183	4561
862.315	4577
862.447	4622
862.58	4565
862.712	4371
862.844	4318
862.976	4440
863.108	4474
863.24	4755
863.372	4371
863.504	4443
863.636	4424
863.768	4459
863.9	4497
864.032	4337
864.164	4405
864.296	4470
864.428	4561
864.559	4512
864.691	4542
864.823	4554
864.954	4523
865.086	4504
865.217	4478
865.349	4432
865.48	4455
865.612	4489
865.743	4618
865.875	4459
866.006	4478
866.137	4489
866.269	4413
866.4	4432
866.531	4398
866.662	4398
866.793	4386
866.924	4428
867.055	4459
867.186	4466
867.317	4390
867.448	4371
867.579	4375
867.71	4379
867.841	4367
867.972	4470
868.103	4459
868.233	4440
868.364	4432
868.495	4478
868.625	4675
868.756	4797
868.886	4531
869.017	4599
869.147	4778
869.278	4744
869.408	4592
869.539	4656
869.669	4702
869.799	4626
869.929	4755
870.06	4736
870.19	4942
870.32	4889
870.45	4938
870.58	5018
870.71	5067
870.84	5140
870.97	4980
871.1	4949
871.23	5102
871.36	5151
871.489	5014
871.619	5098
871.749	5117
871.879	5121
872.008	5121
872.138	5052
872.267	4927
872.397	4877
872.526	4835
872.656	4702
872.785	4809
872.915	4972
873.044	5064
873.173	4946
873.303	4968
873.432	4942
873.561	4942
873.69	4839
873.819	4850
873.948	4896
874.077	4786
874.206	4786
874.335	4786
874.464	4896
874.593	5079
874.722	4942
874.851	5113
874.979	5014
875.108	5018
875.237	4892
875.365	4881
875.494	4778
875.623	4942
875.751	4843
875.88	4831
876.008	4968
876.136	5041
876.265	5174
876.393	5330
876.521	5239
876.65	5204
876.778	5181
876.906	5117
877.034	5025
877.162	5014
877.29	5010
877.418	5029
877.546	5029
877.674	5018
877.802	5010
877.93	5006
878.058	4934
878.185	4870
878.313	4984
878.441	4911
878.568	4820
878.696	4793
878.824	4972
878.951	5010
879.079	5121
879.206	5239
879.333	5094
879.461	4961
879.588	5022
879.715	5064
879.842	5151
879.97	4999
880.097	4771
880.224	4717
880.351	4820
880.478	4797
880.605	4763
880.732	4839
880.859	5025
880.986	4900
881.112	4919
881.239	4710
881.366	4694
881.493	4626
881.619	4535
881.746	4653
881.872	4672
881.999	4664
882.125	4698
882.252	4740
882.378	4793
882.505	4919
882.631	4790
882.757	4698
882.883	4736
883.01	4740
883.136	4641
883.262	4580
883.388	4645
883.514	4816
883.64	4885
883.766	4782
883.892	4664
884.018	4683
884.143	4896
884.269	5010
884.395	4694
884.52	4599
884.646	4634
884.772	4550
884.897	4554
885.023	4653
885.148	4782
885.274	4843
885.399	4797
885.524	4752
885.65	4626
885.775	4721
885.9	4710
886.025	4824
886.15	4759
886.275	4717
886.4	4618
886.525	4668
886.65	4687
886.775	4683
886.9	4915
887.025	5048
887.149	4782
887.274	4596
887.399	4607
887.523	4561
887.648	4596
887.773	4527
887.897	4736
888.021	4759
888.146	4649
888.27	4782
888.395	4881
888.519	4782
888.643	4793
888.767	4847
888.891	4714
889.015	4577
889.139	4645
889.263	4535
889.387	4744
889.511	4873
889.635	4759
889.759	4615
889.883	4607
890.006	4733
890.13	4831
890.254	4603
890.377	4698
890.501	4489
890.624	4531
890.748	4603
890.871	4489
890.995	4451
891.118	4386
891.241	4500
891.364	4550
891.488	4596
891.611	4466
891.734	4478
891.857	4584
891.98	4580
892.103	4611
892.226	4580
892.349	4527
892.471	4413
892.594	4538
892.717	4535
892.839	4512
892.962	4569
893.085	4626
893.207	4565
893.33	4447
893.452	4569
893.575	4637
893.697	4561
893.819	4790
893.941	4862
894.064	4748
894.186	4569
894.308	4615
894.43	4740
894.552	4862
894.674	4702
894.796	4554
894.918	4584
895.04	4558
895.161	4698
895.283	4641
895.405	4592
895.526	4656
895.648	4664
895.769	4675
895.891	4634
896.012	4698
896.134	4702
896.255	4653
896.376	4607
896.498	4603
896.619	4615
896.74	4630
896.861	4649
896.982	4896
897.103	5025
897.224	4801
897.345	4774
897.466	4649
897.587	4748
897.708	4889
897.828	4797
897.949	4672
898.07	4504
898.19	4596
898.311	4854
898.431	4672
898.552	4706
898.672	4847
898.792	4839
898.913	4744
899.033	4592
899.153	4493
899.273	4398
899.393	4508
899.513	4516
899.633	4493
899.753	4481
899.873	4500
899.993	4554
900.113	4535
900.232	4592
900.352	4554
900.472	4447
900.591	4428
900.711	4485
900.83	4424
900.95	4580
901.069	4660
901.189	4550
901.308	4356
901.427	4314
901.546	4344
901.665	4440
901.784	4519
901.904	4379
902.023	4348
902.141	4200
902.26	4188
902.379	4261
902.498	4211
902.617	4242
902.735	4417
902.854	4375
902.973	4322
903.091	4223
903.21	4223
903.328	4310
903.446	4280
903.565	4253
903.683	4386
903.801	4257
903.919	4413
904.038	4402
904.156	4352
904.274	4478
904.392	4360
904.51	4440
904.627	4474
904.745	4550
904.863	4584
904.981	4371
905.098	4363
905.216	4318
905.334	4462
905.451	4428
905.569	4451
905.686	4538
905.803	4588
905.921	4421
906.038	4565
906.155	4462
906.272	4402
906.389	4428
906.506	4325
906.623	4360
906.74	4375
906.857	4295
906.974	4344
907.091	4523
907.208	4664
907.324	4618
907.441	4489
907.557	4344
907.674	4344
907.79	4303
907.907	4386
908.023	4470
908.139	4470
908.256	4409
908.372	4474
908.488	4417
908.604	4318
908.72	4341
908.836	4360
908.952	4367
909.068	4409
909.184	4588
909.3	4428
909.415	4584
909.531	4542
909.647	4352
909.762	4352
909.878	4322
909.993	4383
910.108	4390
910.224	4371
910.339	4485
910.454	4440
910.57	4322
910.685	4337
910.8	4675
910.915	4637
911.03	4493
911.145	4287
911.259	4344
911.374	4390
911.489	4287
911.604	4287
911.718	4131
911.833	4185
911.947	4063
912.062	4032
912.176	4185
912.291	4188
912.405	4242
912.519	4451
912.633	4527
912.748	4360
912.862	4322
912.976	4200
913.09	4097
913.204	4112
913.318	4196
913.431	4356
913.545	4383
913.659	4409
913.772	4348
913.886	4242
914	4219
914.113	4341
914.226	4436
914.34	4428
914.453	4276
914.566	4440
914.68	4295
914.793	4303
914.906	4131
915.019	4158
915.132	4071
915.245	4169
915.358	4204
915.47	4188
915.583	4276
915.696	4310
915.809	4386
915.921	4417
916.034	4284
916.146	4261
916.259	4230
916.371	4383
916.483	4360
916.595	4223
916.708	4329
916.82	4314
916.932	4341
917.044	4284
917.156	4348
917.268	4215
917.38	4272
917.491	4265
917.603	4344
917.715	4451
917.826	4432
917.938	4295
918.049	4207
918.161	4333
918.272	4485
918.384	4497
918.495	4443
918.606	4333
918.717	4192
918.828	4272
918.939	4325
919.05	4223
919.161	4337
919.272	4082
919.383	4204
919.494	4459
919.604	4660
919.715	4421
919.826	4386
919.936	4386
920.047	4500
920.157	4527
920.267	4694
920.378	4489
920.488	4478
920.598	4733
920.708	4850
920.818	4748
920.928	4786
921.038	4930
921.148	4889
921.258	4660
921.368	4588
921.477	4500
921.587	4447
921.697	4402
921.806	4569
921.916	4394
922.025	4238
922.134	4306
922.244	4188
922.353	4314
922.462	4158
922.571	4101
922.68	3991
922.789	3941
922.898	4082
923.007	4017
923.116	4063
923.224	4048
923.333	4086
923.442	3956
923.55	4032
923.659	4021
923.767	4097
923.876	4006
923.984	4101
924.092	3975
924.201	4071
924.309	4139
924.417	4093
924.525	4017
924.633	4120
924.741	4908
924.849	3857
924.956	4154
925.064	3941
925.172	3861
925.279	3968
925.387	4078
925.494	4002
925.602	4219
925.709	4150
925.816	4040
925.924	4162
926.031	4215
926.138	4185
926.245	4185
926.352	4090
926.459	4230
926.566	4284
926.673	4173
926.779	4105
926.886	4063
926.993	3949
927.099	3926
927.206	3956
927.312	3899
927.419	4055
927.525	4048
927.631	4093
927.737	3983
927.843	3903
927.95	3835
928.056	3949
928.162	3926
928.267	4040
928.373	4615
928.479	4090
928.585	3865
928.69	4029
928.796	4040
928.901	3945
929.007	3831
929.112	4051
929.218	3934
929.323	3975
929.428	3934
929.533	4093
929.638	3922
929.743	3960
929.848	4048
929.953	4010
930.058	3941
930.163	3781
930.267	3770
930.372	3941
930.477	3778
930.581	4082
930.685	3937
930.79	3838
930.894	3899
930.998	3873
931.103	4025
931.207	3713
931.311	3690
931.415	3675
931.519	3530
931.623	3530
