Data from test_V78500241_758.txt Node
Date: Fri Mar 25 16:54:16 CST 2022
User: usil
Spectrometer: V785-0024
Trigger mode: 0
Integration Time (sec): 4.000000E-1
Scans to average: 1
Nonlinearity correction enabled: false
Boxcar width: 0
Storing dark spectrum: false
XAxis mode: Wavelengths
Number of Pixels in Spectrum: 1024
>>>>>Begin Spectral Data<<<<<
801.071	8005
801.214	8092
801.356	7917
801.499	7879
801.641	7818
801.783	7822
801.926	7993
802.068	7947
802.211	7967
802.353	8001
802.496	7856
802.638	7913
802.78	7951
802.923	7932
803.065	7826
803.208	7902
803.35	7978
803.492	8115
803.635	8123
803.777	8069
803.919	8088
804.061	8404
804.204	8103
804.346	8065
804.488	7947
804.63	8142
804.773	8027
804.915	8126
805.057	8275
805.199	8130
805.341	8240
805.483	8259
805.626	8248
805.768	8043
805.91	8183
806.052	8206
806.194	8172
806.336	8202
806.478	8084
806.62	8180
806.762	8119
806.904	8248
807.046	8423
807.188	8381
807.33	8328
807.472	8351
807.614	8191
807.756	8081
807.898	7978
808.04	7879
808.182	7807
808.324	7860
808.465	7921
808.607	8005
808.749	8069
808.891	8138
809.033	8339
809.174	8107
809.316	8084
809.458	8069
809.6	7936
809.741	7967
809.883	8031
810.025	8111
810.166	8092
810.308	8020
810.45	8012
810.591	7913
810.733	7772
810.875	7674
811.016	7521
811.158	7483
811.299	7544
811.441	7693
811.582	7742
811.724	7571
811.865	7510
812.007	7540
812.148	7567
812.29	7605
812.431	7670
812.573	7849
812.714	7913
812.855	8100
812.997	8157
813.138	8195
813.279	8164
813.421	8115
813.562	7989
813.703	7875
813.845	7708
813.986	7453
814.127	7293
814.268	7225
814.41	7164
814.551	7072
814.692	7164
814.833	7053
814.974	7080
815.115	7110
815.256	6947
815.397	6901
815.539	7012
815.68	6760
815.821	6745
815.962	6852
816.103	6829
816.244	6688
816.385	6616
816.526	6578
816.666	6517
816.807	6281
816.948	6418
817.089	6407
817.23	6448
817.371	6353
817.512	6403
817.653	6433
817.793	6353
817.934	6350
818.075	6486
818.216	6391
818.356	6346
818.497	6194
818.638	6079
818.778	6125
818.919	6117
819.06	6175
819.2	6338
819.341	6235
819.481	6338
819.622	6490
819.762	6684
819.903	6772
820.043	6585
820.184	6582
820.324	6597
820.465	6696
820.605	6692
820.746	6639
820.886	6509
821.026	6658
821.167	6734
821.307	6783
821.447	6760
821.588	6631
821.728	6536
821.868	6547
822.008	6296
822.149	6342
822.289	6292
822.429	6178
822.569	6095
822.709	6178
822.849	5950
822.99	5935
823.13	5950
823.27	5999
823.41	5817
823.55	5824
823.69	5798
823.83	5840
823.97	5649
824.11	5486
824.25	5524
824.389	5630
824.529	5577
824.669	5577
824.809	5672
824.949	5672
825.089	5653
825.228	5634
825.368	5440
825.508	5376
825.648	5364
825.787	5364
825.927	5402
826.067	5334
826.206	5387
826.346	5433
826.485	5433
826.625	5433
826.765	5520
826.904	5501
827.044	5284
827.183	5261
827.323	5166
827.462	5303
827.601	5166
827.741	5239
827.88	5265
828.02	5098
828.159	5231
828.298	5322
828.437	5410
828.577	5349
828.716	5440
828.855	5372
828.994	5227
829.134	5155
829.273	5277
829.412	5193
829.551	5151
829.69	5223
829.829	5242
829.968	5395
830.107	5303
830.246	5303
830.385	5231
830.524	5189
830.663	5105
830.802	5056
830.941	4892
831.08	4938
831.219	5029
831.357	5022
831.496	5197
831.635	4927
831.774	4881
831.913	4896
832.051	4790
832.19	4828
832.329	4801
832.467	4755
832.606	4664
832.744	4710
832.883	4736
833.022	4767
833.16	4793
833.299	4873
833.437	4835
833.576	4793
833.714	4904
833.852	4885
833.991	4968
834.129	4968
834.267	4984
834.406	4873
834.544	5006
834.682	5048
834.821	4995
834.959	5181
835.097	5025
835.235	5166
835.373	5132
835.511	5155
835.65	5086
835.788	5052
835.926	4911
836.064	4908
836.202	4980
836.34	5181
836.478	5292
836.615	5166
836.753	5223
836.891	5288
837.029	5311
837.167	5223
837.305	5178
837.443	5132
837.58	5124
837.718	5258
837.856	5204
837.993	5124
838.131	5261
838.269	5269
838.406	5239
838.544	5242
838.681	5037
838.819	5056
838.956	4934
839.094	4999
839.231	5025
839.369	5132
839.506	5406
839.643	5280
839.781	5064
839.918	5090
840.055	5140
840.193	5136
840.33	5102
840.467	5140
840.604	5269
840.742	5482
840.879	5079
841.016	5098
841.153	5155
841.29	5364
841.427	5353
841.564	5296
841.701	5376
841.838	5288
841.975	5246
842.112	5299
842.249	5166
842.385	5132
842.522	5395
842.659	5193
842.796	5193
842.933	5235
843.069	5181
843.206	5143
843.343	5357
843.479	5315
843.616	5269
843.752	5025
843.889	5029
844.025	5216
844.162	5033
844.298	5231
844.435	5094
844.571	5079
844.708	5223
844.844	5311
844.98	5360
845.117	5353
845.253	5155
845.389	5109
845.525	5121
845.661	5181
845.798	5033
845.934	5166
846.07	5083
846.206	5204
846.342	5273
846.478	5170
846.614	5098
846.75	4987
846.886	4919
847.022	5143
847.158	5041
847.294	5094
847.429	5143
847.565	5025
847.701	5318
847.837	4900
847.972	4801
848.108	5006
848.244	4972
848.379	4809
848.515	4790
848.65	4717
848.786	4816
848.921	4774
849.057	4870
849.192	4911
849.328	4831
849.463	4862
849.598	4831
849.734	4782
849.869	4714
850.004	4630
850.14	4675
850.275	4675
850.41	4592
850.545	4622
850.68	4580
850.815	4679
850.95	4664
851.085	4870
851.22	4771
851.355	4714
851.49	4637
851.625	4679
851.76	4653
851.895	4580
852.03	4531
852.165	4668
852.299	4717
852.434	4831
852.569	4752
852.703	4805
852.838	4892
852.973	4957
853.107	4885
853.242	4721
853.376	4710
853.511	4596
853.645	4687
853.78	4778
853.914	4672
854.048	4664
854.183	4694
854.317	4740
854.451	4866
854.585	4714
854.72	4660
854.854	4771
854.988	4607
855.122	4607
855.256	4527
855.39	4687
855.524	4847
855.658	4778
855.792	4721
855.926	4767
856.06	4774
856.194	4816
856.327	4714
856.461	4603
856.595	4641
856.729	4649
856.862	4774
856.996	4687
857.13	4774
857.263	4771
857.397	4755
857.53	4683
857.664	4721
857.797	4767
857.931	4786
858.064	4721
858.197	4733
858.331	4702
858.464	4618
858.597	4584
858.731	4664
858.864	4675
858.997	4630
859.13	4660
859.263	4717
859.396	4717
859.529	4603
859.662	4561
859.795	4592
859.928	4664
860.061	4767
860.194	4759
860.327	4641
860.46	4596
860.592	4733
860.725	4721
860.858	4740
860.99	4565
861.123	4584
861.256	4550
861.388	4611
861.521	5383
861.653	4489
861.786	4443
861.918	4462
862.05	4535
862.183	4584
862.315	4672
862.447	4691
862.58	4500
862.712	4470
862.844	4367
862.976	4462
863.108	4489
863.24	4930
863.372	4363
863.504	4432
863.636	4409
863.768	4485
863.9	4436
864.032	4402
864.164	4386
864.296	4447
864.428	4603
864.559	4519
864.691	4584
864.823	4550
864.954	4519
865.086	4561
865.217	4489
865.349	4451
865.48	4462
865.612	4474
865.743	4615
865.875	4478
866.006	4459
866.137	4470
866.269	4466
866.4	4428
866.531	4428
866.662	4394
866.793	4428
866.924	4466
867.055	4481
867.186	4519
867.317	4432
867.448	4421
867.579	4409
867.71	4383
867.841	4394
867.972	4470
868.103	4535
868.233	4424
868.364	4443
868.495	4508
868.625	4687
868.756	4786
868.886	4596
869.017	4675
869.147	4816
869.278	4767
869.408	4660
869.539	4634
869.669	4752
869.799	4672
869.929	4782
870.06	4740
870.19	4976
870.32	4980
870.45	4930
870.58	5056
870.71	5086
870.84	5109
870.97	4949
871.1	4900
871.23	5147
871.36	5204
871.489	5014
871.619	5048
871.749	5064
871.879	5193
872.008	5185
872.138	5075
872.267	4991
872.397	4862
872.526	4809
872.656	4729
872.785	4843
872.915	4942
873.044	5003
873.173	4961
873.303	4946
873.432	4934
873.561	4904
873.69	4892
873.819	4854
873.948	4919
874.077	4843
874.206	4793
874.335	4854
874.464	4946
874.593	5022
874.722	4987
874.851	5124
874.979	5090
875.108	4999
875.237	4919
875.365	4881
875.494	4904
875.623	5029
875.751	4843
875.88	4904
876.008	4965
876.136	5029
876.265	5254
876.393	5360
876.521	5265
876.65	5269
876.778	5174
876.906	5033
877.034	5018
877.162	5033
877.29	5033
877.418	5090
877.546	5014
877.674	5025
877.802	5018
877.93	5010
878.058	4946
878.185	4889
878.313	4999
878.441	4919
878.568	4820
878.696	4900
878.824	4934
878.951	5022
879.079	5193
879.206	5299
879.333	5064
879.461	4999
879.588	4984
879.715	5151
879.842	5216
879.97	5029
880.097	4831
880.224	4721
880.351	4778
880.478	4900
880.605	4801
880.732	4763
880.859	5041
880.986	4923
881.112	4923
881.239	4774
881.366	4637
881.493	4637
881.619	4580
881.746	4626
881.872	4675
881.999	4660
882.125	4694
882.252	4797
882.378	4778
882.505	4957
882.631	4771
882.757	4698
882.883	4733
883.01	4774
883.136	4675
883.262	4645
883.388	4584
883.514	4809
883.64	4885
883.766	4816
883.892	4687
884.018	4755
884.143	4885
884.269	4980
884.395	4679
884.52	4672
884.646	4618
884.772	4596
884.897	4535
885.023	4641
885.148	4793
885.274	4820
885.399	4809
885.524	4706
885.65	4736
885.775	4786
885.9	4710
886.025	4835
886.15	4755
886.275	4736
886.4	4630
886.525	4759
886.65	4782
886.775	4679
886.9	4930
887.025	5025
887.149	4816
887.274	4710
887.399	4622
887.523	4584
887.648	4634
887.773	4626
887.897	4759
888.021	4771
888.146	4691
888.27	4831
888.395	4885
888.519	4790
888.643	4801
888.767	4824
888.891	4706
889.015	4611
889.139	4668
889.263	4641
889.387	4744
889.511	4847
889.635	4850
889.759	4634
889.883	4649
890.006	4752
890.13	4892
890.254	4668
890.377	4656
890.501	4580
890.624	4512
890.748	4675
890.871	4527
890.995	4398
891.118	4341
891.241	4504
891.364	4554
891.488	4630
891.611	4497
891.734	4550
891.857	4592
891.98	4569
892.103	4687
892.226	4615
892.349	4542
892.471	4413
892.594	4558
892.717	4611
892.839	4558
892.962	4637
893.085	4683
893.207	4592
893.33	4542
893.452	4481
893.575	4679
893.697	4580
893.819	4797
893.941	4828
894.064	4767
894.186	4618
894.308	4584
894.43	4717
894.552	4805
894.674	4774
894.796	4588
894.918	4611
895.04	4592
895.161	4710
895.283	4687
895.405	4573
895.526	4637
895.648	4683
895.769	4649
895.891	4687
896.012	4755
896.134	4790
896.255	4679
896.376	4615
896.498	4634
896.619	4694
896.74	4554
896.861	4664
896.982	4942
897.103	5064
897.224	4828
897.345	4793
897.466	4664
897.587	4710
897.708	4831
897.828	4752
897.949	4668
898.07	4630
898.19	4694
898.311	4835
898.431	4721
898.552	4763
898.672	4812
898.792	4793
898.913	4744
899.033	4603
899.153	4523
899.273	4402
899.393	4470
899.513	4497
899.633	4489
899.753	4542
899.873	4527
899.993	4569
900.113	4550
900.232	4580
900.352	4531
900.472	4512
900.591	4383
900.711	4519
900.83	4451
900.95	4607
901.069	4714
901.189	4558
901.308	4363
901.427	4322
901.546	4344
901.665	4462
901.784	4493
901.904	4371
902.023	4303
902.141	4204
902.26	4185
902.379	4337
902.498	4238
902.617	4253
902.735	4413
902.854	4394
902.973	4329
903.091	4192
903.21	4253
903.328	4265
903.446	4303
903.565	4261
903.683	4344
903.801	4276
903.919	4413
904.038	4413
904.156	4291
904.274	4413
904.392	4360
904.51	4455
904.627	4451
904.745	4580
904.863	4702
904.981	4348
905.098	4261
905.216	4440
905.334	4424
905.451	4470
905.569	4443
905.686	4603
905.803	4531
905.921	4432
906.038	4527
906.155	4512
906.272	4386
906.389	4432
906.506	4360
906.623	4379
906.74	4409
906.857	4306
906.974	4428
907.091	4531
907.208	4729
907.324	4577
907.441	4516
907.557	4363
907.674	4344
907.79	4303
907.907	4363
908.023	4447
908.139	4470
908.256	4443
908.372	4428
908.488	4470
908.604	4329
908.72	4341
908.836	4348
908.952	4379
909.068	4405
909.184	4508
909.3	4462
909.415	4573
909.531	4573
909.647	4390
909.762	4356
909.878	4333
909.993	4440
910.108	4421
910.224	4424
910.339	4443
910.454	4379
910.57	4402
910.685	4310
910.8	4611
910.915	4603
911.03	4489
911.145	4352
911.259	4291
911.374	4341
911.489	4295
911.604	4272
911.718	4185
911.833	4211
911.947	4120
912.062	4013
912.176	4173
912.291	4246
912.405	4276
912.519	4497
912.633	4493
912.748	4367
912.862	4299
912.976	4207
913.09	4124
913.204	4135
913.318	4265
913.431	4356
913.545	4352
913.659	4424
913.772	4363
913.886	4268
914	4238
914.113	4371
914.226	4466
914.34	4405
914.453	4219
914.566	4451
914.68	4318
914.793	4306
914.906	4181
915.019	4093
915.132	4074
915.245	4188
915.358	4242
915.47	4246
915.583	4234
915.696	4306
915.809	4413
915.921	4432
916.034	4284
916.146	4272
916.259	4227
916.371	4375
916.483	4333
916.595	4276
916.708	4337
916.82	4348
916.932	4341
917.044	4318
917.156	4322
917.268	4215
917.38	4310
917.491	4287
917.603	4322
917.715	4451
917.826	4485
917.938	4322
918.049	4238
918.161	4394
918.272	4580
918.384	4535
918.495	4436
918.606	4276
918.717	4204
918.828	4276
918.939	4314
919.05	4272
919.161	4348
919.272	4154
919.383	4261
919.494	4447
919.604	4569
919.715	4462
919.826	4344
919.936	4352
920.047	4542
920.157	4470
920.267	4748
920.378	4531
920.488	4489
920.598	4691
920.708	4919
920.818	4740
920.928	4771
921.038	4965
921.148	4904
921.258	4653
921.368	4508
921.477	4462
921.587	4440
921.697	4405
921.806	4546
921.916	4489
922.025	4257
922.134	4272
922.244	4207
922.353	4352
922.462	4150
922.571	4112
922.68	3994
922.789	3987
922.898	3998
923.007	3983
923.116	4090
923.224	4063
923.333	4086
923.442	3964
923.55	3972
923.659	4021
923.767	4116
923.876	3987
923.984	4090
924.092	3979
924.201	4078
924.309	4105
924.417	4097
924.525	4051
924.633	4105
924.741	4862
924.849	3926
924.956	4143
925.064	3991
925.172	3926
925.279	3998
925.387	4078
925.494	4048
925.602	4207
925.709	4147
925.816	4021
925.924	4116
926.031	4246
926.138	4192
926.245	4196
926.352	4086
926.459	4246
926.566	4310
926.673	4227
926.779	4101
926.886	4124
926.993	3998
927.099	3945
927.206	3956
927.312	3937
927.419	4036
927.525	3983
927.631	4093
927.737	3960
927.843	3918
927.95	3850
928.056	3918
928.162	3960
928.267	4063
928.373	4736
928.479	4124
928.585	3846
928.69	4025
928.796	4082
928.901	3941
929.007	3838
929.112	4032
929.218	3949
929.323	3945
929.428	3972
929.533	4093
929.638	3873
929.743	3949
929.848	4036
929.953	4002
930.058	3915
930.163	3762
930.267	3823
930.372	3975
930.477	3808
930.581	4040
930.685	3968
930.79	3785
930.894	3884
930.998	3838
931.103	4029
931.207	3743
931.311	3686
931.415	3652
931.519	3549
931.623	3530
