Data from test_V78500241_1957.txt Node
Date: Fri Mar 25 17:02:36 CST 2022
User: usil
Spectrometer: V785-0024
Trigger mode: 0
Integration Time (sec): 4.000000E-1
Scans to average: 1
Nonlinearity correction enabled: false
Boxcar width: 0
Storing dark spectrum: false
XAxis mode: Wavelengths
Number of Pixels in Spectrum: 1024
>>>>>Begin Spectral Data<<<<<
801.071	8005
801.214	7974
801.356	7837
801.499	7765
801.641	7792
801.783	7769
801.926	7982
802.068	7974
802.211	7986
802.353	7982
802.496	7750
802.638	7818
802.78	7894
802.923	7906
803.065	7845
803.208	7776
803.35	7967
803.492	8062
803.635	8107
803.777	7997
803.919	8134
804.061	8381
804.204	8229
804.346	8046
804.488	7978
804.63	8084
804.773	7963
804.915	8084
805.057	8256
805.199	8123
805.341	8214
805.483	8210
805.626	8233
805.768	8073
805.91	8202
806.052	8183
806.194	8050
806.336	8290
806.478	8103
806.62	8043
806.762	8088
806.904	8259
807.046	8465
807.188	8408
807.33	8336
807.472	8301
807.614	8206
807.756	8103
807.898	8024
808.04	7906
808.182	7875
808.324	7860
808.465	7909
808.607	8054
808.749	8111
808.891	8195
809.033	8221
809.174	8244
809.316	8103
809.458	8054
809.6	7978
809.741	8077
809.883	8043
810.025	8065
810.166	8008
810.308	8062
810.45	8005
810.591	7856
810.733	7719
810.875	7689
811.016	7563
811.158	7468
811.299	7521
811.441	7715
811.582	7674
811.724	7571
811.865	7533
812.007	7559
812.148	7540
812.29	7594
812.431	7700
812.573	7841
812.714	7982
812.855	8092
812.997	8195
813.138	8317
813.279	8119
813.421	8043
813.562	7944
813.703	7795
813.845	7727
813.986	7392
814.127	7247
814.268	7202
814.41	7228
814.551	7171
814.692	7168
814.833	7057
814.974	7088
815.115	7126
815.256	7015
815.397	6943
815.539	6935
815.68	6814
815.821	6753
815.962	6890
816.103	6810
816.244	6757
816.385	6582
816.526	6612
816.666	6460
816.807	6289
816.948	6437
817.089	6445
817.23	6380
817.371	6331
817.512	6437
817.653	6433
817.793	6376
817.934	6410
818.075	6414
818.216	6388
818.356	6429
818.497	6251
818.638	6106
818.778	6182
818.919	6121
819.06	6117
819.2	6308
819.341	6338
819.481	6357
819.622	6494
819.762	6730
819.903	6623
820.043	6547
820.184	6570
820.324	6616
820.465	6692
820.605	6639
820.746	6673
820.886	6506
821.026	6566
821.167	6703
821.307	6791
821.447	6745
821.588	6681
821.728	6570
821.868	6460
822.008	6281
822.149	6388
822.289	6388
822.429	6136
822.569	6110
822.709	6152
822.849	5946
822.99	5897
823.13	5958
823.27	5969
823.41	5783
823.55	5809
823.69	5741
823.83	5775
823.97	5600
824.11	5543
824.25	5524
824.389	5512
824.529	5547
824.669	5474
824.809	5661
824.949	5649
825.089	5604
825.228	5551
825.368	5337
825.508	5299
825.648	5318
825.787	5395
825.927	5387
826.067	5254
826.206	5265
826.346	5387
826.485	5395
826.625	5486
826.765	5562
826.904	5467
827.044	5242
827.183	5216
827.323	5037
827.462	5250
827.601	5147
827.741	5162
827.88	5216
828.02	5121
828.159	5273
828.298	5242
828.437	5341
828.577	5284
828.716	5524
828.855	5326
828.994	5128
829.134	5151
829.273	5140
829.412	5143
829.551	5064
829.69	5143
829.829	5277
829.968	5414
830.107	5288
830.246	5296
830.385	5136
830.524	5117
830.663	5056
830.802	4957
830.941	4862
831.08	4908
831.219	4942
831.357	4972
831.496	5136
831.635	4927
831.774	4809
831.913	4881
832.051	4721
832.19	4736
832.329	4790
832.467	4645
832.606	4615
832.744	4733
832.883	4702
833.022	4733
833.16	4771
833.299	4889
833.437	4831
833.576	4801
833.714	4839
833.852	4877
833.991	4885
834.129	4915
834.267	4908
834.406	4854
834.544	4976
834.682	4927
834.821	5006
834.959	5121
835.097	5014
835.235	5124
835.373	5067
835.511	5075
835.65	5045
835.788	4987
835.926	4911
836.064	4873
836.202	4873
836.34	5136
836.478	5212
836.615	5075
836.753	5151
836.891	5273
837.029	5227
837.167	5170
837.305	5201
837.443	5121
837.58	5102
837.718	5239
837.856	5151
837.993	5109
838.131	5220
838.269	5220
838.406	5151
838.544	5201
838.681	4999
838.819	5037
838.956	4881
839.094	4816
839.231	4980
839.369	5090
839.506	5383
839.643	5250
839.781	5067
839.918	4984
840.055	5037
840.193	5075
840.33	5060
840.467	5094
840.604	5166
840.742	5436
840.879	5025
841.016	5102
841.153	5143
841.29	5357
841.427	5330
841.564	5261
841.701	5383
841.838	5292
841.975	5193
842.112	5296
842.249	5109
842.385	5045
842.522	5284
842.659	5128
842.796	5143
842.933	5193
843.069	5128
843.206	5124
843.343	5292
843.479	5178
843.616	5208
843.752	4991
843.889	4930
844.025	5212
844.162	5018
844.298	5201
844.435	5014
844.571	5033
844.708	5185
844.844	5296
844.98	5315
845.117	5246
845.253	5132
845.389	5025
845.525	5193
845.661	5181
845.798	5029
845.934	5079
846.07	5022
846.206	5170
846.342	5220
846.478	5166
846.614	4980
846.75	4934
846.886	4915
847.022	5124
847.158	5029
847.294	5052
847.429	5102
847.565	5025
847.701	5376
847.837	4877
847.972	4748
848.108	4927
848.244	4980
848.379	4691
848.515	4721
848.65	4691
848.786	4752
848.921	4782
849.057	4835
849.192	4858
849.328	4820
849.463	4824
849.598	4786
849.734	4763
849.869	4687
850.004	4580
850.14	4653
850.275	4626
850.41	4504
850.545	4527
850.68	4554
850.815	4611
850.95	4618
851.085	4835
851.22	4740
851.355	4653
851.49	4615
851.625	4630
851.76	4618
851.895	4535
852.03	4538
852.165	4691
852.299	4717
852.434	4714
852.569	4725
852.703	4752
852.838	4828
852.973	4824
853.107	4862
853.242	4744
853.376	4706
853.511	4535
853.645	4607
853.78	4816
853.914	4702
854.048	4710
854.183	4607
854.317	4683
854.451	4831
854.585	4664
854.72	4634
854.854	4774
854.988	4626
855.122	4622
855.256	4527
855.39	4626
855.524	4763
855.658	4714
855.792	4710
855.926	4714
856.06	4771
856.194	4839
856.327	4759
856.461	4584
856.595	4622
856.729	4618
856.862	4778
856.996	4702
857.13	4744
857.263	4744
857.397	4831
857.53	4698
857.664	4759
857.797	4786
857.931	4805
858.064	4710
858.197	4733
858.331	4668
858.464	4653
858.597	4558
858.731	4641
858.864	4656
858.997	4694
859.13	4641
859.263	4714
859.396	4698
859.529	4630
859.662	4615
859.795	4558
859.928	4679
860.061	4801
860.194	4801
860.327	4664
860.46	4599
860.592	4736
860.725	4797
860.858	4664
860.99	4550
861.123	4561
861.256	4580
861.388	4596
861.521	5349
861.653	4516
861.786	4489
861.918	4527
862.05	4523
862.183	4584
862.315	4653
862.447	4687
862.58	4577
862.712	4413
862.844	4356
862.976	4512
863.108	4531
863.24	4790
863.372	4413
863.504	4440
863.636	4436
863.768	4550
863.9	4470
864.032	4367
864.164	4436
864.296	4535
864.428	4580
864.559	4615
864.691	4580
864.823	4558
864.954	4535
865.086	4550
865.217	4512
865.349	4485
865.48	4485
865.612	4523
865.743	4637
865.875	4519
866.006	4455
866.137	4508
866.269	4466
866.4	4470
866.531	4451
866.662	4409
866.793	4459
866.924	4451
867.055	4535
867.186	4466
867.317	4447
867.448	4443
867.579	4462
867.71	4402
867.841	4424
867.972	4447
868.103	4493
868.233	4497
868.364	4417
868.495	4535
868.625	4702
868.756	4771
868.886	4592
869.017	4702
869.147	4793
869.278	4866
869.408	4675
869.539	4694
869.669	4752
869.799	4702
869.929	4835
870.06	4736
870.19	4984
870.32	4991
870.45	5014
870.58	5045
870.71	5109
870.84	5124
870.97	4915
871.1	4946
871.23	5166
871.36	5121
871.489	5067
871.619	5121
871.749	5128
871.879	5113
872.008	5204
872.138	5090
872.267	5003
872.397	4858
872.526	4831
872.656	4771
872.785	4839
872.915	5003
873.044	5033
873.173	4968
873.303	4930
873.432	4965
873.561	4987
873.69	4904
873.819	4892
873.948	4908
874.077	4854
874.206	4778
874.335	4820
874.464	4919
874.593	5071
874.722	4972
874.851	5105
874.979	5041
875.108	5113
875.237	4915
875.365	4900
875.494	4908
875.623	5003
875.751	4809
875.88	4919
876.008	4976
876.136	4999
876.265	5223
876.393	5376
876.521	5242
876.65	5235
876.778	5170
876.906	5086
877.034	5090
877.162	5128
877.29	5014
877.418	5094
877.546	5041
877.674	5083
877.802	5037
877.93	5067
878.058	4972
878.185	4915
878.313	4968
878.441	4946
878.568	4828
878.696	4847
878.824	4976
878.951	5037
879.079	5166
879.206	5326
879.333	5136
879.461	5048
879.588	5067
879.715	5121
879.842	5254
879.97	4999
880.097	4778
880.224	4771
880.351	4881
880.478	4847
880.605	4809
880.732	4831
880.859	5105
880.986	4900
881.112	4949
881.239	4828
881.366	4702
881.493	4607
881.619	4630
881.746	4668
881.872	4645
881.999	4683
882.125	4714
882.252	4809
882.378	4873
882.505	4987
882.631	4820
882.757	4694
882.883	4786
883.01	4744
883.136	4668
883.262	4664
883.388	4584
883.514	4858
883.64	4870
883.766	4831
883.892	4702
884.018	4752
884.143	4946
884.269	5003
884.395	4660
884.52	4649
884.646	4634
884.772	4618
884.897	4584
885.023	4706
885.148	4805
885.274	4930
885.399	4889
885.524	4786
885.65	4698
885.775	4774
885.9	4771
886.025	4900
886.15	4862
886.275	4774
886.4	4668
886.525	4763
886.65	4752
886.775	4748
886.9	4972
887.025	5025
887.149	4843
887.274	4675
887.399	4615
887.523	4645
887.648	4554
887.773	4561
887.897	4805
888.021	4835
888.146	4660
888.27	4866
888.395	4911
888.519	4847
888.643	4854
888.767	4824
888.891	4698
889.015	4615
889.139	4706
889.263	4588
889.387	4759
889.511	4839
889.635	4793
889.759	4637
889.883	4679
890.006	4767
890.13	4862
890.254	4664
890.377	4733
890.501	4573
890.624	4584
890.748	4698
890.871	4573
890.995	4440
891.118	4462
891.241	4569
891.364	4561
891.488	4660
891.611	4493
891.734	4580
891.857	4645
891.98	4558
892.103	4660
892.226	4611
892.349	4523
892.471	4409
892.594	4622
892.717	4618
892.839	4569
892.962	4653
893.085	4645
893.207	4584
893.33	4451
893.452	4542
893.575	4679
893.697	4603
893.819	4831
893.941	4843
894.064	4805
894.186	4580
894.308	4573
894.43	4774
894.552	4858
894.674	4755
894.796	4607
894.918	4599
895.04	4596
895.161	4721
895.283	4706
895.405	4618
895.526	4592
895.648	4733
895.769	4672
895.891	4744
896.012	4771
896.134	4714
896.255	4698
896.376	4660
896.498	4675
896.619	4702
896.74	4611
896.861	4683
896.982	4930
897.103	5121
897.224	4824
897.345	4778
897.466	4702
897.587	4763
897.708	4889
897.828	4778
897.949	4668
898.07	4580
898.19	4611
898.311	4820
898.431	4694
898.552	4733
898.672	4839
898.792	4839
898.913	4748
899.033	4656
899.153	4542
899.273	4428
899.393	4500
899.513	4531
899.633	4569
899.753	4592
899.873	4500
899.993	4561
900.113	4550
900.232	4618
900.352	4527
900.472	4523
900.591	4447
900.711	4508
900.83	4474
900.95	4592
901.069	4675
901.189	4546
901.308	4390
901.427	4352
901.546	4379
901.665	4478
901.784	4538
901.904	4386
902.023	4375
902.141	4219
902.26	4150
902.379	4310
902.498	4227
902.617	4238
902.735	4379
902.854	4504
902.973	4360
903.091	4192
903.21	4261
903.328	4284
903.446	4295
903.565	4284
903.683	4356
903.801	4318
903.919	4394
904.038	4440
904.156	4310
904.274	4462
904.392	4462
904.51	4466
904.627	4478
904.745	4592
904.863	4618
904.981	4390
905.098	4333
905.216	4360
905.334	4451
905.451	4451
905.569	4478
905.686	4577
905.803	4599
905.921	4466
906.038	4531
906.155	4447
906.272	4386
906.389	4504
906.506	4356
906.623	4432
906.74	4443
906.857	4318
906.974	4398
907.091	4584
907.208	4653
907.324	4550
907.441	4516
907.557	4367
907.674	4405
907.79	4306
907.907	4424
908.023	4512
908.139	4485
908.256	4424
908.372	4516
908.488	4470
908.604	4348
908.72	4371
908.836	4329
908.952	4402
909.068	4428
909.184	4577
909.3	4474
909.415	4565
909.531	4599
909.647	4371
909.762	4409
909.878	4337
909.993	4451
910.108	4432
910.224	4413
910.339	4470
910.454	4394
910.57	4375
910.685	4360
910.8	4683
910.915	4611
911.03	4546
911.145	4344
911.259	4341
911.374	4375
911.489	4299
911.604	4284
911.718	4215
911.833	4242
911.947	4128
912.062	4021
912.176	4234
912.291	4261
912.405	4246
912.519	4447
912.633	4500
912.748	4405
912.862	4314
912.976	4227
913.09	4105
913.204	4166
913.318	4227
913.431	4405
913.545	4383
913.659	4474
913.772	4398
913.886	4242
914	4215
914.113	4421
914.226	4470
914.34	4341
914.453	4257
914.566	4443
914.68	4318
914.793	4348
914.906	4124
915.019	4109
915.132	4120
915.245	4207
915.358	4295
915.47	4246
915.583	4268
915.696	4310
915.809	4447
915.921	4436
916.034	4227
916.146	4344
916.259	4234
916.371	4451
916.483	4386
916.595	4261
916.708	4329
916.82	4299
916.932	4363
917.044	4360
917.156	4322
917.268	4257
917.38	4310
917.491	4272
917.603	4383
917.715	4375
917.826	4478
917.938	4424
918.049	4253
918.161	4409
918.272	4584
918.384	4519
918.495	4451
918.606	4272
918.717	4219
918.828	4341
918.939	4352
919.05	4265
919.161	4352
919.272	4109
919.383	4249
919.494	4489
919.604	4607
919.715	4440
919.826	4341
919.936	4390
920.047	4504
920.157	4508
920.267	4729
920.378	4558
920.488	4546
920.598	4717
920.708	4889
920.818	4733
920.928	4740
921.038	4965
921.148	4957
921.258	4611
921.368	4588
921.477	4500
921.587	4481
921.697	4409
921.806	4527
921.916	4462
922.025	4272
922.134	4287
922.244	4181
922.353	4360
922.462	4143
922.571	4131
922.68	4036
922.789	3994
922.898	4078
923.007	4006
923.116	4112
923.224	4063
923.333	4139
923.442	4048
923.55	3991
923.659	4040
923.767	4139
923.876	4017
923.984	4166
924.092	3994
924.201	4143
924.309	4063
924.417	4131
924.525	4029
924.633	4116
924.741	5105
924.849	3941
924.956	4192
925.064	4002
925.172	3956
925.279	4013
925.387	4074
925.494	4074
925.602	4230
925.709	4147
925.816	4105
925.924	4143
926.031	4303
926.138	4207
926.245	4268
926.352	4143
926.459	4295
926.566	4360
926.673	4169
926.779	4105
926.886	4097
926.993	4021
927.099	3994
927.206	3953
927.312	4013
927.419	4105
927.525	4116
927.631	4143
927.737	4006
927.843	4017
927.95	3869
928.056	4002
928.162	3994
928.267	4116
928.373	4660
928.479	4139
928.585	3937
928.69	4055
928.796	4101
928.901	4044
929.007	3922
929.112	4048
929.218	3983
929.323	4002
929.428	3983
929.533	4162
929.638	4013
929.743	3979
929.848	4078
929.953	4017
930.058	3926
930.163	3781
930.267	3846
930.372	4032
930.477	3899
930.581	4128
930.685	3979
930.79	3918
930.894	3918
930.998	3903
931.103	4059
931.207	3740
931.311	3778
931.415	3743
931.519	3580
931.623	3618
