Data from test_V78500241_2636.txt Node
Date: Fri Mar 25 17:07:19 CST 2022
User: usil
Spectrometer: V785-0024
Trigger mode: 0
Integration Time (sec): 4.000000E-1
Scans to average: 1
Nonlinearity correction enabled: false
Boxcar width: 0
Storing dark spectrum: false
XAxis mode: Wavelengths
Number of Pixels in Spectrum: 1024
>>>>>Begin Spectral Data<<<<<
801.071	8084
801.214	8016
801.356	7894
801.499	7852
801.641	7719
801.783	7875
801.926	8008
802.068	7902
802.211	7936
802.353	7997
802.496	7894
802.638	7890
802.78	7860
802.923	7917
803.065	7890
803.208	7875
803.35	7959
803.492	8077
803.635	8206
803.777	7986
803.919	8088
804.061	8499
804.204	8130
804.346	8054
804.488	8031
804.63	8111
804.773	8050
804.915	8100
805.057	8320
805.199	8168
805.341	8172
805.483	8305
805.626	8290
805.768	8088
805.91	8199
806.052	8157
806.194	8084
806.336	8263
806.478	8035
806.62	8077
806.762	8134
806.904	8263
807.046	8484
807.188	8332
807.33	8248
807.472	8324
807.614	8103
807.756	8096
807.898	7951
808.04	7906
808.182	7841
808.324	7887
808.465	7845
808.607	8027
808.749	8176
808.891	8267
809.033	8358
809.174	8214
809.316	8084
809.458	8126
809.6	8096
809.741	8039
809.883	7974
810.025	8088
810.166	8088
810.308	8058
810.45	7963
810.591	7871
810.733	7738
810.875	7662
811.016	7510
811.158	7457
811.299	7636
811.441	7776
811.582	7693
811.724	7518
811.865	7590
812.007	7624
812.148	7544
812.29	7624
812.431	7723
812.573	7795
812.714	7955
812.855	8161
812.997	8206
813.138	8301
813.279	8176
813.421	8069
813.562	7978
813.703	7871
813.845	7727
813.986	7415
814.127	7255
814.268	7225
814.41	7244
814.551	7137
814.692	7247
814.833	7072
814.974	7149
815.115	7145
815.256	6932
815.397	7004
815.539	6905
815.68	6787
815.821	6772
815.962	6890
816.103	6840
816.244	6772
816.385	6635
816.526	6639
816.666	6547
816.807	6342
816.948	6437
817.089	6426
817.23	6452
817.371	6395
817.512	6433
817.653	6418
817.793	6403
817.934	6407
818.075	6399
818.216	6395
818.356	6376
818.497	6296
818.638	6148
818.778	6102
818.919	6102
819.06	6125
819.2	6384
819.341	6304
819.481	6353
819.622	6566
819.762	6688
819.903	6738
820.043	6566
820.184	6627
820.324	6692
820.465	6696
820.605	6684
820.746	6681
820.886	6521
821.026	6669
821.167	6730
821.307	6821
821.447	6833
821.588	6715
821.728	6559
821.868	6525
822.008	6365
822.149	6426
822.289	6365
822.429	6110
822.569	6098
822.709	6194
822.849	5984
822.99	5870
823.13	5931
823.27	5916
823.41	5783
823.55	5805
823.69	5786
823.83	5741
823.97	5623
824.11	5501
824.25	5493
824.389	5528
824.529	5600
824.669	5512
824.809	5600
824.949	5627
825.089	5630
825.228	5600
825.368	5452
825.508	5357
825.648	5292
825.787	5387
825.927	5334
826.067	5307
826.206	5288
826.346	5368
826.485	5364
826.625	5421
826.765	5543
826.904	5486
827.044	5254
827.183	5189
827.323	5140
827.462	5193
827.601	5136
827.741	5159
827.88	5178
828.02	5102
828.159	5170
828.298	5311
828.437	5379
828.577	5303
828.716	5482
828.855	5322
828.994	5166
829.134	5170
829.273	5204
829.412	5147
829.551	5124
829.69	5159
829.829	5239
829.968	5334
830.107	5201
830.246	5273
830.385	5174
830.524	5113
830.663	5128
830.802	5010
830.941	4919
831.08	4877
831.219	4972
831.357	5018
831.496	5166
831.635	4919
831.774	4831
831.913	4854
832.051	4710
832.19	4752
832.329	4809
832.467	4733
832.606	4615
832.744	4706
832.883	4687
833.022	4733
833.16	4767
833.299	4831
833.437	4873
833.576	4790
833.714	4820
833.852	4801
833.991	4885
834.129	4927
834.267	4927
834.406	4892
834.544	4934
834.682	4972
834.821	5003
834.959	5204
835.097	5003
835.235	5162
835.373	5018
835.511	5094
835.65	5048
835.788	5025
835.926	4946
836.064	4885
836.202	4904
836.34	5155
836.478	5189
836.615	5147
836.753	5185
836.891	5288
837.029	5261
837.167	5147
837.305	5155
837.443	5124
837.58	5090
837.718	5326
837.856	5220
837.993	5143
838.131	5246
838.269	5246
838.406	5231
838.544	5155
838.681	5029
838.819	5041
838.956	4919
839.094	4908
839.231	4968
839.369	5071
839.506	5406
839.643	5277
839.781	5113
839.918	4995
840.055	5098
840.193	5121
840.33	5109
840.467	5159
840.604	5181
840.742	5410
840.879	5067
841.016	5067
841.153	5159
841.29	5334
841.427	5277
841.564	5299
841.701	5410
841.838	5250
841.975	5220
842.112	5258
842.249	5117
842.385	5109
842.522	5341
842.659	5185
842.796	5162
842.933	5220
843.069	5178
843.206	5159
843.343	5341
843.479	5220
843.616	5258
843.752	5067
843.889	4987
844.025	5223
844.162	5025
844.298	5216
844.435	5109
844.571	5102
844.708	5189
844.844	5280
844.98	5368
845.117	5330
845.253	5136
845.389	5132
845.525	5151
845.661	5147
845.798	5090
845.934	5098
846.07	5045
846.206	5216
846.342	5273
846.478	5128
846.614	4980
846.75	4976
846.886	4889
847.022	5147
847.158	5071
847.294	5052
847.429	5064
847.565	5094
847.701	5322
847.837	4854
847.972	4774
848.108	4915
848.244	4942
848.379	4733
848.515	4717
848.65	4683
848.786	4744
848.921	4755
849.057	4843
849.192	4896
849.328	4847
849.463	4858
849.598	4816
849.734	4740
849.869	4691
850.004	4588
850.14	4683
850.275	4618
850.41	4519
850.545	4550
850.68	4603
850.815	4611
850.95	4607
851.085	4835
851.22	4744
851.355	4630
851.49	4653
851.625	4634
851.76	4649
851.895	4508
852.03	4535
852.165	4668
852.299	4687
852.434	4778
852.569	4721
852.703	4790
852.838	4828
852.973	4915
853.107	4965
853.242	4744
853.376	4668
853.511	4558
853.645	4611
853.78	4820
853.914	4668
854.048	4687
854.183	4641
854.317	4687
854.451	4850
854.585	4660
854.72	4618
854.854	4740
854.988	4630
855.122	4626
855.256	4481
855.39	4679
855.524	4812
855.658	4721
855.792	4691
855.926	4717
856.06	4729
856.194	4793
856.327	4675
856.461	4607
856.595	4660
856.729	4615
856.862	4706
856.996	4694
857.13	4710
857.263	4748
857.397	4774
857.53	4645
857.664	4706
857.797	4767
857.931	4767
858.064	4721
858.197	4752
858.331	4660
858.464	4637
858.597	4470
858.731	4615
858.864	4626
858.997	4622
859.13	4653
859.263	4687
859.396	4744
859.529	4573
859.662	4584
859.795	4527
859.928	4603
860.061	4767
860.194	4759
860.327	4592
860.46	4561
860.592	4771
860.725	4774
860.858	4698
860.99	4561
861.123	4504
861.256	4535
861.388	4599
861.521	5360
861.653	4508
861.786	4459
861.918	4405
862.05	4508
862.183	4489
862.315	4596
862.447	4634
862.58	4500
862.712	4466
862.844	4291
862.976	4497
863.108	4440
863.24	4767
863.372	4337
863.504	4417
863.636	4386
863.768	4478
863.9	4424
864.032	4363
864.164	4470
864.296	4421
864.428	4592
864.559	4542
864.691	4512
864.823	4485
864.954	4500
865.086	4481
865.217	4485
865.349	4383
865.48	4451
865.612	4497
865.743	4603
865.875	4481
866.006	4436
866.137	4489
866.269	4451
866.4	4409
866.531	4443
866.662	4417
866.793	4440
866.924	4405
867.055	4462
867.186	4424
867.317	4470
867.448	4360
867.579	4337
867.71	4405
867.841	4356
867.972	4459
868.103	4405
868.233	4443
868.364	4440
868.495	4489
868.625	4683
868.756	4706
868.886	4592
869.017	4622
869.147	4748
869.278	4759
869.408	4664
869.539	4645
869.669	4683
869.799	4645
869.929	4767
870.06	4767
870.19	4923
870.32	4896
870.45	4911
870.58	4980
870.71	5109
870.84	5159
870.97	4987
871.1	4904
871.23	5117
871.36	5094
871.489	5010
871.619	5102
871.749	5067
871.879	5086
872.008	5143
872.138	5075
872.267	4972
872.397	4843
872.526	4839
872.656	4694
872.785	4835
872.915	4938
873.044	5010
873.173	5003
873.303	4949
873.432	4976
873.561	4953
873.69	4877
873.819	4843
873.948	4900
874.077	4809
874.206	4679
874.335	4816
874.464	4896
874.593	5086
874.722	4987
874.851	5102
874.979	5102
875.108	4999
875.237	4900
875.365	4896
875.494	4881
875.623	4976
875.751	4843
875.88	4881
876.008	4984
876.136	5025
876.265	5185
876.393	5364
876.521	5273
876.65	5227
876.778	5216
876.906	5090
877.034	5018
877.162	5052
877.29	4987
877.418	4987
877.546	5109
877.674	5033
877.802	5022
877.93	4999
878.058	4919
878.185	4870
878.313	4972
878.441	4927
878.568	4759
878.696	4854
878.824	4968
878.951	4953
879.079	5121
879.206	5357
879.333	5064
879.461	4946
879.588	4999
879.715	5067
879.842	5223
879.97	4976
880.097	4809
880.224	4748
880.351	4797
880.478	4816
880.605	4736
880.732	4793
880.859	5083
880.986	4923
881.112	4892
881.239	4801
881.366	4668
881.493	4622
881.619	4580
881.746	4660
881.872	4702
881.999	4649
882.125	4714
882.252	4801
882.378	4812
882.505	4965
882.631	4828
882.757	4679
882.883	4714
883.01	4763
883.136	4675
883.262	4565
883.388	4626
883.514	4835
883.64	4866
883.766	4786
883.892	4641
884.018	4763
884.143	4896
884.269	4995
884.395	4618
884.52	4622
884.646	4660
884.772	4577
884.897	4573
885.023	4679
885.148	4736
885.274	4850
885.399	4797
885.524	4687
885.65	4679
885.775	4706
885.9	4702
886.025	4850
886.15	4801
886.275	4714
886.4	4687
886.525	4733
886.65	4710
886.775	4675
886.9	4873
887.025	5037
887.149	4812
887.274	4630
887.399	4558
887.523	4607
887.648	4615
887.773	4554
887.897	4729
888.021	4793
888.146	4672
888.27	4820
888.395	4889
888.519	4790
888.643	4793
888.767	4812
888.891	4687
889.015	4565
889.139	4664
889.263	4603
889.387	4786
889.511	4850
889.635	4778
889.759	4622
889.883	4618
890.006	4698
890.13	4877
890.254	4649
890.377	4721
890.501	4527
890.624	4569
890.748	4618
890.871	4535
890.995	4409
891.118	4421
891.241	4478
891.364	4546
891.488	4615
891.611	4470
891.734	4550
891.857	4592
891.98	4516
892.103	4622
892.226	4577
892.349	4546
892.471	4402
892.594	4550
892.717	4622
892.839	4538
892.962	4596
893.085	4653
893.207	4679
893.33	4474
893.452	4519
893.575	4664
893.697	4527
893.819	4801
893.941	4820
894.064	4721
894.186	4561
894.308	4542
894.43	4702
894.552	4793
894.674	4763
894.796	4535
894.918	4580
895.04	4561
895.161	4714
895.283	4717
895.405	4565
895.526	4622
895.648	4660
895.769	4694
895.891	4721
896.012	4714
896.134	4691
896.255	4645
896.376	4634
896.498	4599
896.619	4706
896.74	4603
896.861	4664
896.982	4892
897.103	5022
897.224	4835
897.345	4729
897.466	4675
897.587	4793
897.708	4881
897.828	4828
897.949	4672
898.07	4489
898.19	4630
898.311	4881
898.431	4675
898.552	4706
898.672	4828
898.792	4782
898.913	4736
899.033	4615
899.153	4481
899.273	4432
899.393	4489
899.513	4508
899.633	4497
899.753	4504
899.873	4474
899.993	4561
900.113	4542
900.232	4611
900.352	4535
900.472	4478
900.591	4436
900.711	4489
900.83	4470
900.95	4611
901.069	4706
901.189	4512
901.308	4356
901.427	4268
901.546	4341
901.665	4424
901.784	4474
901.904	4375
902.023	4352
902.141	4196
902.26	4181
902.379	4314
902.498	4306
902.617	4234
902.735	4352
902.854	4424
902.973	4409
903.091	4169
903.21	4223
903.328	4303
903.446	4291
903.565	4234
903.683	4344
903.801	4268
903.919	4360
904.038	4432
904.156	4333
904.274	4421
904.392	4386
904.51	4398
904.627	4440
904.745	4596
904.863	4611
904.981	4409
905.098	4287
905.216	4413
905.334	4455
905.451	4440
905.569	4379
905.686	4584
905.803	4554
905.921	4383
906.038	4546
906.155	4485
906.272	4390
906.389	4455
906.506	4390
906.623	4329
906.74	4371
906.857	4291
906.974	4371
907.091	4577
907.208	4649
907.324	4611
907.441	4504
907.557	4322
907.674	4371
907.79	4325
907.907	4394
908.023	4417
908.139	4421
908.256	4493
908.372	4402
908.488	4455
908.604	4356
908.72	4325
908.836	4398
908.952	4405
909.068	4432
909.184	4580
909.3	4478
909.415	4573
909.531	4565
909.647	4398
909.762	4402
909.878	4352
909.993	4424
910.108	4417
910.224	4474
910.339	4558
910.454	4436
910.57	4390
910.685	4322
910.8	4683
910.915	4603
911.03	4485
911.145	4375
911.259	4360
911.374	4375
911.489	4299
911.604	4337
911.718	4238
911.833	4234
911.947	4105
912.062	4101
912.176	4253
912.291	4272
912.405	4268
912.519	4493
912.633	4516
912.748	4447
912.862	4375
912.976	4234
913.09	4128
913.204	4249
913.318	4291
913.431	4386
913.545	4413
913.659	4474
913.772	4383
913.886	4284
914	4276
914.113	4424
914.226	4470
914.34	4409
914.453	4265
914.566	4466
914.68	4284
914.793	4325
914.906	4268
915.019	4204
915.132	4143
915.245	4215
915.358	4280
915.47	4284
915.583	4314
915.696	4337
915.809	4424
915.921	4462
916.034	4318
916.146	4265
916.259	4310
916.371	4447
916.483	4386
916.595	4348
916.708	4363
916.82	4348
916.932	4375
917.044	4371
917.156	4386
917.268	4272
917.38	4344
917.491	4253
917.603	4375
917.715	4459
917.826	4466
917.938	4356
918.049	4322
918.161	4489
918.272	4565
918.384	4561
918.495	4459
918.606	4322
918.717	4295
918.828	4375
918.939	4402
919.05	4272
919.161	4390
919.272	4192
919.383	4276
919.494	4485
919.604	4672
919.715	4519
919.826	4398
919.936	4459
920.047	4558
920.157	4565
920.267	4744
920.378	4618
920.488	4542
920.598	4744
920.708	4934
920.818	4797
920.928	4801
921.038	5006
921.148	4999
921.258	4637
921.368	4607
921.477	4573
921.587	4508
921.697	4398
921.806	4630
921.916	4481
922.025	4322
922.134	4303
922.244	4280
922.353	4383
922.462	4196
922.571	4177
922.68	4040
922.789	4040
922.898	4067
923.007	4025
923.116	4143
923.224	4105
923.333	4109
923.442	4044
923.55	3964
923.659	4055
923.767	4090
923.876	4044
923.984	4128
924.092	4059
924.201	4101
924.309	4124
924.417	4139
924.525	4063
924.633	4177
924.741	5086
924.849	3911
924.956	4139
925.064	3953
925.172	3922
925.279	4017
925.387	4086
925.494	4086
925.602	4257
925.709	4192
925.816	4128
925.924	4173
926.031	4238
926.138	4223
926.245	4223
926.352	4135
926.459	4257
926.566	4295
926.673	4177
926.779	4143
926.886	4116
926.993	4032
927.099	3998
927.206	3926
927.312	3960
927.419	4097
927.525	4078
927.631	4112
927.737	4032
927.843	3945
927.95	3899
928.056	3956
928.162	4010
928.267	4086
928.373	4645
928.479	4177
928.585	3915
928.69	4059
928.796	4097
928.901	4048
929.007	3899
929.112	4025
929.218	4063
929.323	3956
929.428	3975
929.533	4105
929.638	3922
929.743	3983
929.848	4086
929.953	4063
930.058	3945
930.163	3812
930.267	3869
930.372	4010
930.477	3823
930.581	4143
930.685	3972
930.79	3854
930.894	3865
930.998	3896
931.103	4071
931.207	3778
931.311	3751
931.415	3671
931.519	3538
931.623	3561
