Data from test_V78500241_2641.txt Node
Date: Fri Mar 25 17:07:21 CST 2022
User: usil
Spectrometer: V785-0024
Trigger mode: 0
Integration Time (sec): 4.000000E-1
Scans to average: 1
Nonlinearity correction enabled: false
Boxcar width: 0
Storing dark spectrum: false
XAxis mode: Wavelengths
Number of Pixels in Spectrum: 1024
>>>>>Begin Spectral Data<<<<<
801.071	7978
801.214	8081
801.356	7906
801.499	7826
801.641	7837
801.783	7792
801.926	7951
802.068	7970
802.211	8016
802.353	8039
802.496	7944
802.638	7849
802.78	7928
802.923	7951
803.065	7871
803.208	7875
803.35	8020
803.492	8088
803.635	8183
803.777	8043
803.919	8157
804.061	8450
804.204	8157
804.346	8054
804.488	7906
804.63	8115
804.773	8016
804.915	8126
805.057	8320
805.199	8225
805.341	8191
805.483	8290
805.626	8214
805.768	8142
805.91	8191
806.052	8183
806.194	8081
806.336	8313
806.478	8027
806.62	8046
806.762	8081
806.904	8214
807.046	8431
807.188	8358
807.33	8305
807.472	8358
807.614	8172
807.756	8119
807.898	7963
808.04	7936
808.182	7913
808.324	7913
808.465	7959
808.607	8054
808.749	8172
808.891	8183
809.033	8271
809.174	8164
809.316	8050
809.458	7974
809.6	8020
809.741	8031
809.883	8001
810.025	8130
810.166	8069
810.308	7974
810.45	7978
810.591	7887
810.733	7708
810.875	7666
811.016	7537
811.158	7457
811.299	7575
811.441	7765
811.582	7731
811.724	7582
811.865	7491
812.007	7552
812.148	7540
812.29	7655
812.431	7746
812.573	7856
812.714	7913
812.855	8081
812.997	8164
813.138	8332
813.279	8199
813.421	8039
813.562	7974
813.703	7845
813.845	7765
813.986	7434
814.127	7240
814.268	7209
814.41	7255
814.551	7251
814.692	7221
814.833	7103
814.974	7118
815.115	7126
815.256	6989
815.397	6928
815.539	6932
815.68	6837
815.821	6764
815.962	6844
816.103	6844
816.244	6745
816.385	6623
816.526	6532
816.666	6528
816.807	6331
816.948	6422
817.089	6483
817.23	6426
817.371	6445
817.512	6331
817.653	6365
817.793	6403
817.934	6456
818.075	6483
818.216	6407
818.356	6342
818.497	6243
818.638	6125
818.778	6171
818.919	6133
819.06	6167
819.2	6327
819.341	6300
819.481	6414
819.622	6502
819.762	6707
819.903	6669
820.043	6525
820.184	6612
820.324	6642
820.465	6669
820.605	6700
820.746	6700
820.886	6585
821.026	6623
821.167	6749
821.307	6821
821.447	6810
821.588	6669
821.728	6574
821.868	6525
822.008	6273
822.149	6410
822.289	6388
822.429	6239
822.569	6064
822.709	6152
822.849	5958
822.99	5923
823.13	5916
823.27	5939
823.41	5798
823.55	5817
823.69	5752
823.83	5840
823.97	5630
824.11	5535
824.25	5539
824.389	5596
824.529	5589
824.669	5600
824.809	5634
824.949	5718
825.089	5676
825.228	5627
825.368	5406
825.508	5387
825.648	5330
825.787	5379
825.927	5436
826.067	5330
826.206	5330
826.346	5395
826.485	5402
826.625	5444
826.765	5615
826.904	5512
827.044	5288
827.183	5197
827.323	5105
827.462	5284
827.601	5174
827.741	5189
827.88	5288
828.02	5166
828.159	5258
828.298	5353
828.437	5448
828.577	5299
828.716	5501
828.855	5322
828.994	5223
829.134	5159
829.273	5223
829.412	5181
829.551	5166
829.69	5204
829.829	5280
829.968	5364
830.107	5337
830.246	5254
830.385	5235
830.524	5098
830.663	5132
830.802	5022
830.941	4968
831.08	4911
831.219	5018
831.357	5018
831.496	5204
831.635	4961
831.774	4847
831.913	4911
832.051	4793
832.19	4820
832.329	4896
832.467	4691
832.606	4691
832.744	4812
832.883	4763
833.022	4774
833.16	4835
833.299	4870
833.437	4858
833.576	4877
833.714	4904
833.852	4946
833.991	4949
834.129	4949
834.267	4984
834.406	4904
834.544	5071
834.682	5033
834.821	4984
834.959	5216
835.097	5014
835.235	5124
835.373	5105
835.511	5136
835.65	5006
835.788	5075
835.926	4949
836.064	4927
836.202	4980
836.34	5193
836.478	5246
836.615	5151
836.753	5189
836.891	5334
837.029	5292
837.167	5208
837.305	5223
837.443	5212
837.58	5113
837.718	5288
837.856	5185
837.993	5178
838.131	5265
838.269	5246
838.406	5193
838.544	5242
838.681	5067
838.819	5075
838.956	4904
839.094	4949
839.231	4984
839.369	5079
839.506	5425
839.643	5296
839.781	5075
839.918	5071
840.055	5143
840.193	5102
840.33	5102
840.467	5140
840.604	5216
840.742	5448
840.879	5109
841.016	5124
841.153	5216
841.29	5383
841.427	5379
841.564	5379
841.701	5376
841.838	5330
841.975	5273
842.112	5326
842.249	5117
842.385	5143
842.522	5337
842.659	5216
842.796	5201
842.933	5223
843.069	5185
843.206	5189
843.343	5337
843.479	5288
843.616	5345
843.752	5052
843.889	5025
844.025	5273
844.162	5079
844.298	5273
844.435	5113
844.571	5086
844.708	5223
844.844	5326
844.98	5353
845.117	5330
845.253	5155
845.389	5143
845.525	5140
845.661	5143
845.798	5064
845.934	5185
846.07	5128
846.206	5220
846.342	5265
846.478	5273
846.614	5048
846.75	5022
846.886	5041
847.022	5185
847.158	5098
847.294	5159
847.429	5121
847.565	5090
847.701	5349
847.837	4828
847.972	4885
848.108	5006
848.244	4968
848.379	4778
848.515	4767
848.65	4771
848.786	4797
848.921	4847
849.057	4930
849.192	4957
849.328	4839
849.463	4873
849.598	4816
849.734	4752
849.869	4729
850.004	4645
850.14	4672
850.275	4630
850.41	4542
850.545	4565
850.68	4668
850.815	4641
850.95	4691
851.085	4866
851.22	4771
851.355	4675
851.49	4626
851.625	4683
851.76	4675
851.895	4626
852.03	4569
852.165	4672
852.299	4733
852.434	4847
852.569	4805
852.703	4854
852.838	4904
852.973	5003
853.107	4930
853.242	4763
853.376	4733
853.511	4573
853.645	4645
853.78	4839
853.914	4706
854.048	4679
854.183	4702
854.317	4714
854.451	4847
854.585	4736
854.72	4691
854.854	4782
854.988	4626
855.122	4687
855.256	4561
855.39	4675
855.524	4831
855.658	4774
855.792	4721
855.926	4812
856.06	4744
856.194	4820
856.327	4736
856.461	4679
856.595	4618
856.729	4630
856.862	4812
856.996	4733
857.13	4767
857.263	4771
857.397	4862
857.53	4660
857.664	4752
857.797	4801
857.931	4797
858.064	4748
858.197	4778
858.331	4626
858.464	4618
858.597	4558
858.731	4611
858.864	4630
858.997	4641
859.13	4698
859.263	4679
859.396	4736
859.529	4607
859.662	4622
859.795	4546
859.928	4603
860.061	4797
860.194	4748
860.327	4599
860.46	4664
860.592	4698
860.725	4793
860.858	4748
860.99	4622
861.123	4527
861.256	4588
861.388	4630
861.521	5455
861.653	4481
861.786	4500
861.918	4538
862.05	4554
862.183	4538
862.315	4634
862.447	4679
862.58	4580
862.712	4394
862.844	4363
862.976	4508
863.108	4489
863.24	4740
863.372	4379
863.504	4455
863.636	4459
863.768	4489
863.9	4428
864.032	4428
864.164	4424
864.296	4497
864.428	4565
864.559	4577
864.691	4615
864.823	4542
864.954	4512
865.086	4546
865.217	4478
865.349	4417
865.48	4470
865.612	4535
865.743	4653
865.875	4459
866.006	4428
866.137	4523
866.269	4451
866.4	4500
866.531	4436
866.662	4428
866.793	4440
866.924	4447
867.055	4493
867.186	4519
867.317	4470
867.448	4440
867.579	4428
867.71	4436
867.841	4428
867.972	4504
868.103	4474
868.233	4512
868.364	4474
868.495	4462
868.625	4675
868.756	4824
868.886	4656
869.017	4607
869.147	4809
869.278	4805
869.408	4706
869.539	4653
869.669	4790
869.799	4691
869.929	4793
870.06	4752
870.19	4999
870.32	4938
870.45	4889
870.58	5037
870.71	5124
870.84	5105
870.97	5022
871.1	4908
871.23	5174
871.36	5208
871.489	4987
871.619	5124
871.749	5098
871.879	5174
872.008	5201
872.138	5083
872.267	5045
872.397	4919
872.526	4870
872.656	4744
872.785	4850
872.915	4991
873.044	5094
873.173	4930
873.303	5003
873.432	4957
873.561	5018
873.69	4839
873.819	4892
873.948	4911
874.077	4843
874.206	4816
874.335	4850
874.464	4942
874.593	5064
874.722	4965
874.851	5189
874.979	5109
875.108	5067
875.237	4949
875.365	4904
875.494	4892
875.623	5003
875.751	4870
875.88	4946
876.008	4999
876.136	5094
876.265	5223
876.393	5357
876.521	5307
876.65	5265
876.778	5174
876.906	5170
877.034	5048
877.162	5083
877.29	5010
877.418	5117
877.546	5064
877.674	5064
877.802	5037
877.93	5018
878.058	4965
878.185	4919
878.313	4972
878.441	4953
878.568	4809
878.696	4873
878.824	4968
878.951	5052
879.079	5147
879.206	5357
879.333	5086
879.461	5010
879.588	5022
879.715	5143
879.842	5250
879.97	5010
880.097	4831
880.224	4729
880.351	4835
880.478	4850
880.605	4816
880.732	4812
880.859	5121
880.986	4896
881.112	4934
881.239	4831
881.366	4736
881.493	4603
881.619	4611
881.746	4641
881.872	4645
881.999	4706
882.125	4706
882.252	4858
882.378	4873
882.505	4961
882.631	4854
882.757	4714
882.883	4778
883.01	4706
883.136	4714
883.262	4573
883.388	4645
883.514	4790
883.64	4763
883.766	4854
883.892	4672
884.018	4698
884.143	4923
884.269	4987
884.395	4714
884.52	4615
884.646	4679
884.772	4603
884.897	4565
885.023	4660
885.148	4854
885.274	4854
885.399	4820
885.524	4771
885.65	4694
885.775	4782
885.9	4710
886.025	4816
886.15	4820
886.275	4755
886.4	4679
886.525	4759
886.65	4710
886.775	4736
886.9	4942
887.025	4942
887.149	4812
887.274	4672
887.399	4618
887.523	4664
887.648	4577
887.773	4573
887.897	4771
888.021	4835
888.146	4725
888.27	4820
888.395	4873
888.519	4824
888.643	4839
888.767	4820
888.891	4672
889.015	4634
889.139	4664
889.263	4596
889.387	4763
889.511	4915
889.635	4809
889.759	4634
889.883	4683
890.006	4755
890.13	4858
890.254	4649
890.377	4706
890.501	4584
890.624	4580
890.748	4645
890.871	4588
890.995	4478
891.118	4402
891.241	4546
891.364	4584
891.488	4645
891.611	4546
891.734	4573
891.857	4573
891.98	4580
892.103	4660
892.226	4622
892.349	4558
892.471	4455
892.594	4531
892.717	4592
892.839	4580
892.962	4603
893.085	4675
893.207	4672
893.33	4462
893.452	4519
893.575	4694
893.697	4573
893.819	4767
893.941	4866
894.064	4809
894.186	4588
894.308	4554
894.43	4774
894.552	4858
894.674	4736
894.796	4603
894.918	4622
895.04	4561
895.161	4710
895.283	4687
895.405	4603
895.526	4634
895.648	4786
895.769	4683
895.891	4725
896.012	4710
896.134	4694
896.255	4687
896.376	4672
896.498	4664
896.619	4664
896.74	4611
896.861	4607
896.982	4953
897.103	5075
897.224	4839
897.345	4744
897.466	4641
897.587	4782
897.708	4919
897.828	4782
897.949	4687
898.07	4580
898.19	4664
898.311	4824
898.431	4721
898.552	4733
898.672	4858
898.792	4744
898.913	4714
899.033	4691
899.153	4485
899.273	4470
899.393	4497
899.513	4573
899.633	4550
899.753	4588
899.873	4531
899.993	4592
900.113	4535
900.232	4622
900.352	4535
900.472	4500
900.591	4409
900.711	4466
900.83	4436
900.95	4630
901.069	4653
901.189	4573
901.308	4352
901.427	4341
901.546	4413
901.665	4474
901.784	4527
901.904	4386
902.023	4352
902.141	4207
902.26	4196
902.379	4295
902.498	4242
902.617	4207
902.735	4394
902.854	4409
902.973	4356
903.091	4227
903.21	4234
903.328	4329
903.446	4257
903.565	4265
903.683	4325
903.801	4265
903.919	4432
904.038	4440
904.156	4303
904.274	4413
904.392	4405
904.51	4447
904.627	4500
904.745	4603
904.863	4672
904.981	4375
905.098	4314
905.216	4417
905.334	4451
905.451	4443
905.569	4402
905.686	4622
905.803	4611
905.921	4428
906.038	4504
906.155	4497
906.272	4371
906.389	4466
906.506	4344
906.623	4352
906.74	4443
906.857	4360
906.974	4356
907.091	4569
907.208	4675
907.324	4588
907.441	4478
907.557	4352
907.674	4348
907.79	4325
907.907	4386
908.023	4531
908.139	4474
908.256	4447
908.372	4451
908.488	4443
908.604	4348
908.72	4344
908.836	4333
908.952	4405
909.068	4421
909.184	4531
909.3	4512
909.415	4573
909.531	4558
909.647	4360
909.762	4398
909.878	4363
909.993	4417
910.108	4443
910.224	4447
910.339	4508
910.454	4413
910.57	4310
910.685	4306
910.8	4687
910.915	4577
911.03	4478
911.145	4265
911.259	4352
911.374	4398
911.489	4295
911.604	4284
911.718	4192
911.833	4242
911.947	4093
912.062	4029
912.176	4188
912.291	4242
912.405	4265
912.519	4440
912.633	4519
912.748	4383
912.862	4303
912.976	4227
913.09	4116
913.204	4169
913.318	4303
913.431	4337
913.545	4394
913.659	4455
913.772	4379
913.886	4234
914	4211
914.113	4390
914.226	4367
914.34	4363
914.453	4249
914.566	4459
914.68	4314
914.793	4356
914.906	4158
915.019	4147
915.132	4071
915.245	4200
915.358	4219
915.47	4242
915.583	4284
915.696	4341
915.809	4413
915.921	4451
916.034	4261
916.146	4276
916.259	4253
916.371	4398
916.483	4402
916.595	4284
916.708	4295
916.82	4337
916.932	4363
917.044	4337
917.156	4363
917.268	4295
917.38	4242
917.491	4268
917.603	4344
917.715	4390
917.826	4432
917.938	4341
918.049	4314
918.161	4379
918.272	4561
918.384	4542
918.495	4462
918.606	4287
918.717	4200
918.828	4318
918.939	4356
919.05	4230
919.161	4310
919.272	4192
919.383	4223
919.494	4459
919.604	4626
919.715	4481
919.826	4348
919.936	4383
920.047	4523
920.157	4459
920.267	4717
920.378	4542
920.488	4462
920.598	4721
920.708	4881
920.818	4733
920.928	4736
921.038	4953
921.148	4949
921.258	4618
921.368	4569
921.477	4508
921.587	4451
921.697	4367
921.806	4550
921.916	4417
922.025	4287
922.134	4249
922.244	4234
922.353	4329
922.462	4162
922.571	4124
922.68	4017
922.789	3987
922.898	4063
923.007	3979
923.116	4128
923.224	4059
923.333	4086
923.442	4029
923.55	3987
923.659	4029
923.767	4097
923.876	4036
923.984	4162
924.092	3945
924.201	4086
924.309	4112
924.417	4105
924.525	4048
924.633	4078
924.741	5083
924.849	3911
924.956	4139
925.064	3956
925.172	3888
925.279	3983
925.387	4055
925.494	4074
925.602	4200
925.709	4185
925.816	4105
925.924	4116
926.031	4192
926.138	4207
926.245	4223
926.352	4109
926.459	4215
926.566	4276
926.673	4131
926.779	4067
926.886	4086
926.993	3968
927.099	3968
927.206	3956
927.312	3945
927.419	4036
927.525	4059
927.631	4131
927.737	3983
927.843	3956
927.95	3846
928.056	3956
928.162	3987
928.267	4071
928.373	4569
928.479	4143
928.585	3865
928.69	4029
928.796	4093
928.901	3922
929.007	3884
929.112	4002
929.218	3998
929.323	3960
929.428	3953
929.533	4109
929.638	3915
929.743	3975
929.848	4097
929.953	4010
930.058	3907
930.163	3800
930.267	3850
930.372	3979
930.477	3793
930.581	4090
930.685	3922
930.79	3865
930.894	3915
930.998	3831
931.103	4021
931.207	3736
931.311	3667
931.415	3679
931.519	3534
931.623	3572
