Data from test_V78500241_1998.txt Node
Date: Fri Mar 25 17:02:53 CST 2022
User: usil
Spectrometer: V785-0024
Trigger mode: 0
Integration Time (sec): 4.000000E-1
Scans to average: 1
Nonlinearity correction enabled: false
Boxcar width: 0
Storing dark spectrum: false
XAxis mode: Wavelengths
Number of Pixels in Spectrum: 1024
>>>>>Begin Spectral Data<<<<<
801.071	7932
801.214	8027
801.356	7803
801.499	7830
801.641	7769
801.783	7875
801.926	7970
802.068	7932
802.211	7955
802.353	7982
802.496	7807
802.638	7841
802.78	7849
802.923	7917
803.065	7856
803.208	7803
803.35	7913
803.492	8016
803.635	8134
803.777	7951
803.919	8134
804.061	8393
804.204	8157
804.346	8111
804.488	7955
804.63	8058
804.773	7967
804.915	8069
805.057	8294
805.199	8176
805.341	8210
805.483	8172
805.626	8271
805.768	8043
805.91	8191
806.052	8161
806.194	8069
806.336	8320
806.478	8084
806.62	7978
806.762	8062
806.904	8252
807.046	8495
807.188	8347
807.33	8301
807.472	8305
807.614	8126
807.756	8069
807.898	8035
808.04	7849
808.182	7909
808.324	7875
808.465	7833
808.607	8046
808.749	8054
808.891	8180
809.033	8286
809.174	8218
809.316	8084
809.458	8065
809.6	7986
809.741	8035
809.883	8027
810.025	8111
810.166	8001
810.308	7974
810.45	7989
810.591	7856
810.733	7719
810.875	7628
811.016	7499
811.158	7491
811.299	7567
811.441	7601
811.582	7605
811.724	7578
811.865	7567
812.007	7506
812.148	7521
812.29	7651
812.431	7765
812.573	7879
812.714	7978
812.855	8084
812.997	8176
813.138	8271
813.279	8161
813.421	8081
813.562	7970
813.703	7795
813.845	7666
813.986	7472
814.127	7244
814.268	7217
814.41	7152
814.551	7175
814.692	7190
814.833	7171
814.974	7038
815.115	7103
815.256	6996
815.397	6886
815.539	6928
815.68	6795
815.821	6753
815.962	6829
816.103	6840
816.244	6738
816.385	6585
816.526	6525
816.666	6483
816.807	6308
816.948	6433
817.089	6433
817.23	6376
817.371	6357
817.512	6376
817.653	6365
817.793	6357
817.934	6372
818.075	6460
818.216	6361
818.356	6388
818.497	6239
818.638	6095
818.778	6171
818.919	6106
819.06	6155
819.2	6323
819.341	6327
819.481	6361
819.622	6513
819.762	6673
819.903	6669
820.043	6597
820.184	6570
820.324	6563
820.465	6722
820.605	6673
820.746	6623
820.886	6467
821.026	6681
821.167	6783
821.307	6779
821.447	6798
821.588	6658
821.728	6601
821.868	6525
822.008	6331
822.149	6384
822.289	6304
822.429	6125
822.569	6045
822.709	6125
822.849	5923
822.99	5882
823.13	5942
823.27	5847
823.41	5817
823.55	5809
823.69	5745
823.83	5779
823.97	5676
824.11	5520
824.25	5459
824.389	5532
824.529	5558
824.669	5558
824.809	5646
824.949	5634
825.089	5604
825.228	5573
825.368	5414
825.508	5341
825.648	5337
825.787	5337
825.927	5357
826.067	5254
826.206	5258
826.346	5357
826.485	5368
826.625	5436
826.765	5509
826.904	5448
827.044	5239
827.183	5265
827.323	5102
827.462	5181
827.601	5140
827.741	5181
827.88	5231
828.02	5155
828.159	5261
828.298	5273
828.437	5326
828.577	5322
828.716	5444
828.855	5269
828.994	5113
829.134	5170
829.273	5212
829.412	5147
829.551	5102
829.69	5197
829.829	5212
829.968	5322
830.107	5296
830.246	5292
830.385	5185
830.524	5121
830.663	5029
830.802	4980
830.941	4847
831.08	4885
831.219	4968
831.357	4942
831.496	5143
831.635	4904
831.774	4816
831.913	4793
832.051	4694
832.19	4744
832.329	4904
832.467	4672
832.606	4672
832.744	4755
832.883	4736
833.022	4736
833.16	4771
833.299	4812
833.437	4847
833.576	4839
833.714	4858
833.852	4892
833.991	4877
834.129	4938
834.267	4953
834.406	4873
834.544	4991
834.682	4972
834.821	4961
834.959	5140
835.097	5006
835.235	5121
835.373	5037
835.511	5094
835.65	5064
835.788	5037
835.926	4873
836.064	4873
836.202	4892
836.34	5117
836.478	5250
836.615	5105
836.753	5220
836.891	5265
837.029	5254
837.167	5189
837.305	5140
837.443	5132
837.58	5109
837.718	5201
837.856	5121
837.993	5128
838.131	5250
838.269	5204
838.406	5216
838.544	5208
838.681	4999
838.819	5025
838.956	4900
839.094	4870
839.231	4965
839.369	5064
839.506	5398
839.643	5315
839.781	5105
839.918	5025
840.055	5060
840.193	5090
840.33	5124
840.467	5117
840.604	5143
840.742	5406
840.879	5094
841.016	5056
841.153	5143
841.29	5334
841.427	5296
841.564	5280
841.701	5357
841.838	5280
841.975	5227
842.112	5277
842.249	5140
842.385	5098
842.522	5334
842.659	5201
842.796	5109
842.933	5189
843.069	5155
843.206	5189
843.343	5288
843.479	5296
843.616	5315
843.752	5041
843.889	4976
844.025	5220
844.162	5003
844.298	5193
844.435	5025
844.571	5029
844.708	5193
844.844	5299
844.98	5284
845.117	5330
845.253	5159
845.389	5079
845.525	5204
845.661	5151
845.798	5010
845.934	5166
846.07	5075
846.206	5193
846.342	5284
846.478	5151
846.614	5064
846.75	4949
846.886	4923
847.022	5162
847.158	5014
847.294	5006
847.429	5079
847.565	5010
847.701	5296
847.837	4847
847.972	4759
848.108	4900
848.244	4923
848.379	4797
848.515	4721
848.65	4736
848.786	4797
848.921	4778
849.057	4858
849.192	4873
849.328	4816
849.463	4850
849.598	4790
849.734	4733
849.869	4687
850.004	4588
850.14	4622
850.275	4588
850.41	4523
850.545	4573
850.68	4577
850.815	4588
850.95	4588
851.085	4793
851.22	4725
851.355	4679
851.49	4607
851.625	4596
851.76	4668
851.895	4569
852.03	4462
852.165	4649
852.299	4710
852.434	4752
852.569	4710
852.703	4733
852.838	4809
852.973	4938
853.107	4885
853.242	4744
853.376	4645
853.511	4550
853.645	4615
853.78	4748
853.914	4641
854.048	4653
854.183	4596
854.317	4702
854.451	4828
854.585	4641
854.72	4656
854.854	4778
854.988	4615
855.122	4615
855.256	4508
855.39	4664
855.524	4805
855.658	4694
855.792	4706
855.926	4706
856.06	4740
856.194	4793
856.327	4717
856.461	4634
856.595	4603
856.729	4641
856.862	4725
856.996	4660
857.13	4672
857.263	4763
857.397	4786
857.53	4664
857.664	4733
857.797	4748
857.931	4740
858.064	4634
858.197	4698
858.331	4634
858.464	4577
858.597	4478
858.731	4592
858.864	4653
858.997	4596
859.13	4679
859.263	4683
859.396	4702
859.529	4599
859.662	4599
859.795	4546
859.928	4607
860.061	4782
860.194	4828
860.327	4630
860.46	4550
860.592	4748
860.725	4729
860.858	4752
860.99	4603
861.123	4516
861.256	4527
861.388	4645
861.521	5124
861.653	4550
861.786	4470
861.918	4485
862.05	4569
862.183	4558
862.315	4645
862.447	4668
862.58	4596
862.712	4440
862.844	4402
862.976	4519
863.108	4500
863.24	4793
863.372	4344
863.504	4428
863.636	4417
863.768	4554
863.9	4493
864.032	4413
864.164	4409
864.296	4481
864.428	4615
864.559	4603
864.691	4546
864.823	4519
864.954	4516
865.086	4573
865.217	4577
865.349	4443
865.48	4481
865.612	4523
865.743	4691
865.875	4481
866.006	4466
866.137	4493
866.269	4489
866.4	4424
866.531	4497
866.662	4394
866.793	4474
866.924	4485
867.055	4546
867.186	4538
867.317	4485
867.448	4409
867.579	4413
867.71	4421
867.841	4424
867.972	4500
868.103	4474
868.233	4493
868.364	4504
868.495	4500
868.625	4683
868.756	4805
868.886	4577
869.017	4599
869.147	4805
869.278	4797
869.408	4702
869.539	4641
869.669	4736
869.799	4622
869.929	4748
870.06	4771
870.19	4995
870.32	4961
870.45	4976
870.58	5025
870.71	5117
870.84	5132
870.97	4972
871.1	4908
871.23	5216
871.36	5170
871.489	5045
871.619	5083
871.749	5132
871.879	5147
872.008	5197
872.138	5033
872.267	5037
872.397	4908
872.526	4866
872.656	4744
872.785	4870
872.915	4999
873.044	5102
873.173	4991
873.303	5045
873.432	4976
873.561	5025
873.69	4843
873.819	4873
873.948	4965
874.077	4885
874.206	4839
874.335	4793
874.464	4915
874.593	5098
874.722	4987
874.851	5094
874.979	4995
875.108	5102
875.237	4946
875.365	4927
875.494	4915
875.623	5037
875.751	4850
875.88	4904
876.008	4984
876.136	5090
876.265	5204
876.393	5395
876.521	5277
876.65	5284
876.778	5121
876.906	5117
877.034	5067
877.162	5052
877.29	5037
877.418	5098
877.546	4980
877.674	5006
877.802	5045
877.93	5052
878.058	4961
878.185	4908
878.313	4915
878.441	4908
878.568	4790
878.696	4847
878.824	4980
878.951	5003
879.079	5193
879.206	5341
879.333	5098
879.461	5006
879.588	5029
879.715	5109
879.842	5258
879.97	5090
880.097	4809
880.224	4771
880.351	4850
880.478	4881
880.605	4831
880.732	4862
880.859	5117
880.986	4908
881.112	4987
881.239	4805
881.366	4717
881.493	4641
881.619	4618
881.746	4649
881.872	4672
881.999	4675
882.125	4752
882.252	4858
882.378	4839
882.505	5003
882.631	4816
882.757	4721
882.883	4740
883.01	4771
883.136	4736
883.262	4592
883.388	4558
883.514	4790
883.64	4854
883.766	4847
883.892	4683
884.018	4763
884.143	4984
884.269	5033
884.395	4729
884.52	4653
884.646	4675
884.772	4615
884.897	4599
885.023	4710
885.148	4801
885.274	4881
885.399	4896
885.524	4721
885.65	4771
885.775	4809
885.9	4725
886.025	4885
886.15	4847
886.275	4774
886.4	4721
886.525	4778
886.65	4706
886.775	4694
886.9	4930
887.025	5056
887.149	4835
887.274	4675
887.399	4607
887.523	4660
887.648	4607
887.773	4634
887.897	4767
888.021	4812
888.146	4691
888.27	4877
888.395	4892
888.519	4809
888.643	4828
888.767	4854
888.891	4755
889.015	4641
889.139	4603
889.263	4592
889.387	4752
889.511	4858
889.635	4839
889.759	4672
889.883	4626
890.006	4774
890.13	4870
890.254	4660
890.377	4679
890.501	4588
890.624	4592
890.748	4668
890.871	4546
890.995	4424
891.118	4363
891.241	4535
891.364	4573
891.488	4649
891.611	4512
891.734	4561
891.857	4649
891.98	4554
892.103	4645
892.226	4599
892.349	4588
892.471	4493
892.594	4592
892.717	4641
892.839	4584
892.962	4584
893.085	4679
893.207	4634
893.33	4485
893.452	4447
893.575	4702
893.697	4584
893.819	4831
893.941	4881
894.064	4767
894.186	4573
894.308	4573
894.43	4755
894.552	4828
894.674	4752
894.796	4596
894.918	4607
895.04	4626
895.161	4717
895.283	4710
895.405	4611
895.526	4637
895.648	4656
895.769	4698
895.891	4752
896.012	4744
896.134	4740
896.255	4733
896.376	4679
896.498	4630
896.619	4683
896.74	4641
896.861	4714
896.982	4949
897.103	5102
897.224	4923
897.345	4763
897.466	4706
897.587	4790
897.708	4900
897.828	4801
897.949	4721
898.07	4607
898.19	4637
898.311	4820
898.431	4694
898.552	4786
898.672	4835
898.792	4820
898.913	4786
899.033	4649
899.153	4538
899.273	4462
899.393	4554
899.513	4561
899.633	4546
899.753	4558
899.873	4550
899.993	4599
900.113	4550
900.232	4618
900.352	4584
900.472	4500
900.591	4421
900.711	4470
900.83	4451
900.95	4660
901.069	4736
901.189	4538
901.308	4390
901.427	4352
901.546	4386
901.665	4485
901.784	4538
901.904	4459
902.023	4337
902.141	4223
902.26	4188
902.379	4310
902.498	4257
902.617	4272
902.735	4356
902.854	4440
902.973	4405
903.091	4253
903.21	4303
903.328	4344
903.446	4299
903.565	4287
903.683	4398
903.801	4325
903.919	4421
904.038	4432
904.156	4360
904.274	4421
904.392	4432
904.51	4417
904.627	4497
904.745	4630
904.863	4641
904.981	4432
905.098	4398
905.216	4402
905.334	4493
905.451	4447
905.569	4497
905.686	4523
905.803	4565
905.921	4440
906.038	4569
906.155	4489
906.272	4440
906.389	4531
906.506	4413
906.623	4402
906.74	4428
906.857	4341
906.974	4428
907.091	4615
907.208	4729
907.324	4588
907.441	4451
907.557	4333
907.674	4360
907.79	4363
907.907	4409
908.023	4466
908.139	4451
908.256	4436
908.372	4474
908.488	4462
908.604	4402
908.72	4375
908.836	4409
908.952	4371
909.068	4440
909.184	4592
909.3	4508
909.415	4599
909.531	4569
909.647	4375
909.762	4375
909.878	4356
909.993	4436
910.108	4440
910.224	4432
910.339	4512
910.454	4462
910.57	4390
910.685	4322
910.8	4615
910.915	4611
911.03	4531
911.145	4325
911.259	4417
911.374	4379
911.489	4337
911.604	4306
911.718	4204
911.833	4154
911.947	4090
912.062	4090
912.176	4234
912.291	4234
912.405	4268
912.519	4538
912.633	4489
912.748	4360
912.862	4333
912.976	4238
913.09	4154
913.204	4215
913.318	4272
913.431	4344
913.545	4341
913.659	4455
913.772	4428
913.886	4280
914	4242
914.113	4344
914.226	4462
914.34	4371
914.453	4276
914.566	4440
914.68	4322
914.793	4348
914.906	4147
915.019	4147
915.132	4093
915.245	4200
915.358	4227
915.47	4242
915.583	4265
915.696	4314
915.809	4409
915.921	4398
916.034	4287
916.146	4265
916.259	4249
916.371	4375
916.483	4390
916.595	4325
916.708	4333
916.82	4363
916.932	4287
917.044	4386
917.156	4322
917.268	4249
917.38	4257
917.491	4322
917.603	4386
917.715	4398
917.826	4432
917.938	4375
918.049	4299
918.161	4413
918.272	4569
918.384	4634
918.495	4493
918.606	4291
918.717	4257
918.828	4314
918.939	4383
919.05	4284
919.161	4348
919.272	4135
919.383	4276
919.494	4440
919.604	4641
919.715	4451
919.826	4383
919.936	4402
920.047	4542
920.157	4481
920.267	4675
920.378	4527
920.488	4485
920.598	4778
920.708	4927
920.818	4790
920.928	4786
921.038	4949
921.148	4927
921.258	4599
921.368	4565
921.477	4508
921.587	4497
921.697	4394
921.806	4531
921.916	4432
922.025	4291
922.134	4314
922.244	4265
922.353	4303
922.462	4188
922.571	4128
922.68	3975
922.789	3964
922.898	4055
923.007	4002
923.116	4112
923.224	4082
923.333	4086
923.442	3983
923.55	4036
923.659	4051
923.767	4097
923.876	3979
923.984	4131
924.092	3983
924.201	4051
924.309	4124
924.417	4105
924.525	4074
924.633	4120
924.741	5014
924.849	3896
924.956	4143
925.064	3987
925.172	3918
925.279	3991
925.387	4090
925.494	4074
925.602	4200
925.709	4185
925.816	4097
925.924	4135
926.031	4188
926.138	4150
926.245	4204
926.352	4051
926.459	4227
926.566	4337
926.673	4147
926.779	4090
926.886	4093
926.993	4036
927.099	3975
927.206	3937
927.312	3983
927.419	4063
927.525	4082
927.631	4090
927.737	3983
927.843	3949
927.95	3861
928.056	3991
928.162	4048
928.267	4097
928.373	4584
928.479	4135
928.585	3918
928.69	4086
928.796	4101
928.901	4010
929.007	3930
929.112	4048
929.218	4017
929.323	3953
929.428	3972
929.533	4169
929.638	3945
929.743	3987
929.848	4101
929.953	4032
930.058	3991
930.163	3861
930.267	3846
930.372	3998
930.477	3888
930.581	4131
930.685	3972
930.79	3880
930.894	3937
930.998	3941
931.103	4082
931.207	3766
931.311	3720
931.415	3713
931.519	3591
931.623	3599
