Data from test_V78500241_278.txt Node
Date: Fri Mar 25 16:50:56 CST 2022
User: usil
Spectrometer: V785-0024
Trigger mode: 0
Integration Time (sec): 4.000000E-1
Scans to average: 1
Nonlinearity correction enabled: false
Boxcar width: 0
Storing dark spectrum: false
XAxis mode: Wavelengths
Number of Pixels in Spectrum: 1024
>>>>>Begin Spectral Data<<<<<
801.071	8081
801.214	8092
801.356	7913
801.499	7830
801.641	7852
801.783	7913
801.926	8035
802.068	7944
802.211	8046
802.353	8069
802.496	7871
802.638	7913
802.78	7947
802.923	7974
803.065	7833
803.208	7890
803.35	8024
803.492	8031
803.635	8180
803.777	7986
803.919	8145
804.061	8507
804.204	8138
804.346	8035
804.488	8012
804.63	8161
804.773	8016
804.915	8031
805.057	8248
805.199	8142
805.341	8252
805.483	8282
805.626	8199
805.768	8119
805.91	8202
806.052	8214
806.194	8065
806.336	8332
806.478	8138
806.62	8100
806.762	8149
806.904	8237
807.046	8480
807.188	8282
807.33	8282
807.472	8343
807.614	8142
807.756	8126
807.898	8001
808.04	7906
808.182	7925
808.324	7970
808.465	7967
808.607	8103
808.749	8164
808.891	8263
809.033	8221
809.174	8256
809.316	8050
809.458	8043
809.6	8027
809.741	8020
809.883	8039
810.025	8100
810.166	8092
810.308	8088
810.45	7917
810.591	7871
810.733	7780
810.875	7693
811.016	7480
811.158	7506
811.299	7639
811.441	7712
811.582	7753
811.724	7639
811.865	7480
812.007	7655
812.148	7563
812.29	7666
812.431	7723
812.573	7947
812.714	7982
812.855	8103
812.997	8221
813.138	8328
813.279	8149
813.421	8107
813.562	8039
813.703	7883
813.845	7738
813.986	7430
814.127	7346
814.268	7240
814.41	7217
814.551	7126
814.692	7141
814.833	7057
814.974	7080
815.115	7095
815.256	6939
815.397	6905
815.539	6939
815.68	6844
815.821	6757
815.962	6829
816.103	6783
816.244	6722
816.385	6608
816.526	6627
816.666	6525
816.807	6331
816.948	6498
817.089	6483
817.23	6448
817.371	6380
817.512	6391
817.653	6407
817.793	6327
817.934	6483
818.075	6525
818.216	6464
818.356	6403
818.497	6254
818.638	6178
818.778	6148
818.919	6076
819.06	6155
819.2	6270
819.341	6331
819.481	6388
819.622	6498
819.762	6692
819.903	6673
820.043	6536
820.184	6608
820.324	6555
820.465	6627
820.605	6612
820.746	6597
820.886	6498
821.026	6650
821.167	6677
821.307	6783
821.447	6719
821.588	6654
821.728	6585
821.868	6494
822.008	6331
822.149	6388
822.289	6422
822.429	6129
822.569	6102
822.709	6083
822.849	5954
822.99	5939
823.13	5935
823.27	5935
823.41	5764
823.55	5863
823.69	5798
823.83	5779
823.97	5657
824.11	5600
824.25	5501
824.389	5581
824.529	5573
824.669	5535
824.809	5653
824.949	5699
825.089	5630
825.228	5539
825.368	5402
825.508	5417
825.648	5349
825.787	5372
825.927	5372
826.067	5303
826.206	5292
826.346	5383
826.485	5387
826.625	5436
826.765	5551
826.904	5421
827.044	5239
827.183	5140
827.323	5178
827.462	5197
827.601	5178
827.741	5170
827.88	5216
828.02	5052
828.159	5235
828.298	5318
828.437	5284
828.577	5280
828.716	5505
828.855	5341
828.994	5162
829.134	5208
829.273	5193
829.412	5166
829.551	5102
829.69	5178
829.829	5250
829.968	5299
830.107	5269
830.246	5223
830.385	5201
830.524	5094
830.663	5098
830.802	4946
830.941	4831
831.08	4824
831.219	4961
831.357	4976
831.496	5170
831.635	4919
831.774	4896
831.913	4854
832.051	4702
832.19	4744
832.329	4877
832.467	4637
832.606	4691
832.744	4752
832.883	4691
833.022	4721
833.16	4759
833.299	4790
833.437	4862
833.576	4831
833.714	4847
833.852	4881
833.991	4900
834.129	4968
834.267	4911
834.406	4930
834.544	4980
834.682	5014
834.821	4976
834.959	5143
835.097	4972
835.235	5178
835.373	5052
835.511	5060
835.65	5037
835.788	5037
835.926	4930
836.064	4858
836.202	4946
836.34	5170
836.478	5250
836.615	5075
836.753	5212
836.891	5303
837.029	5284
837.167	5166
837.305	5178
837.443	5113
837.58	5079
837.718	5322
837.856	5147
837.993	5124
838.131	5273
838.269	5231
838.406	5204
838.544	5151
838.681	5037
838.819	4938
838.956	4881
839.094	4953
839.231	4965
839.369	5105
839.506	5398
839.643	5231
839.781	5086
839.918	5029
840.055	5064
840.193	5105
840.33	5117
840.467	5151
840.604	5162
840.742	5459
840.879	5121
841.016	5090
841.153	5128
841.29	5398
841.427	5364
841.564	5326
841.701	5444
841.838	5258
841.975	5239
842.112	5311
842.249	5159
842.385	5079
842.522	5345
842.659	5181
842.796	5105
842.933	5178
843.069	5143
843.206	5212
843.343	5326
843.479	5235
843.616	5273
843.752	5052
843.889	5018
844.025	5185
844.162	5033
844.298	5170
844.435	5067
844.571	5010
844.708	5254
844.844	5303
844.98	5326
845.117	5258
845.253	5136
845.389	5083
845.525	5113
845.661	5128
845.798	4987
845.934	5121
846.07	5033
846.206	5147
846.342	5330
846.478	5166
846.614	5010
846.75	4953
846.886	4934
847.022	5136
847.158	5003
847.294	5098
847.429	5143
847.565	5079
847.701	5345
847.837	4812
847.972	4797
848.108	4980
848.244	4889
848.379	4771
848.515	4717
848.65	4759
848.786	4771
848.921	4744
849.057	4870
849.192	4957
849.328	4793
849.463	4866
849.598	4812
849.734	4740
849.869	4736
850.004	4599
850.14	4618
850.275	4584
850.41	4554
850.545	4573
850.68	4630
850.815	4599
850.95	4634
851.085	4839
851.22	4694
851.355	4672
851.49	4618
851.625	4618
851.76	4592
851.895	4565
852.03	4569
852.165	4664
852.299	4687
852.434	4801
852.569	4717
852.703	4801
852.838	4866
852.973	4923
853.107	4972
853.242	4771
853.376	4679
853.511	4565
853.645	4584
853.78	4816
853.914	4675
854.048	4645
854.183	4637
854.317	4691
854.451	4870
854.585	4675
854.72	4637
854.854	4717
854.988	4618
855.122	4683
855.256	4512
855.39	4683
855.524	4767
855.658	4717
855.792	4706
855.926	4721
856.06	4778
856.194	4771
856.327	4710
856.461	4611
856.595	4634
856.729	4615
856.862	4771
856.996	4748
857.13	4733
857.263	4774
857.397	4809
857.53	4687
857.664	4763
857.797	4774
857.931	4729
858.064	4740
858.197	4752
858.331	4683
858.464	4584
858.597	4535
858.731	4637
858.864	4618
858.997	4535
859.13	4653
859.263	4721
859.396	4721
859.529	4569
859.662	4561
859.795	4569
859.928	4656
860.061	4782
860.194	4763
860.327	4626
860.46	4550
860.592	4687
860.725	4698
860.858	4778
860.99	4516
861.123	4504
861.256	4542
861.388	4622
861.521	5311
861.653	4478
861.786	4485
861.918	4413
862.05	4512
862.183	4554
862.315	4592
862.447	4653
862.58	4561
862.712	4398
862.844	4379
862.976	4504
863.108	4409
863.24	4889
863.372	4318
863.504	4413
863.636	4379
863.768	4470
863.9	4447
864.032	4348
864.164	4424
864.296	4500
864.428	4565
864.559	4573
864.691	4523
864.823	4538
864.954	4504
865.086	4546
865.217	4478
865.349	4428
865.48	4462
865.612	4474
865.743	4611
865.875	4470
866.006	4478
866.137	4459
866.269	4436
866.4	4417
866.531	4451
866.662	4428
866.793	4405
866.924	4462
867.055	4516
867.186	4485
867.317	4417
867.448	4367
867.579	4375
867.71	4421
867.841	4413
867.972	4451
868.103	4470
868.233	4470
868.364	4512
868.495	4455
868.625	4698
868.756	4786
868.886	4550
869.017	4611
869.147	4778
869.278	4778
869.408	4641
869.539	4649
869.669	4744
869.799	4687
869.929	4759
870.06	4729
870.19	4995
870.32	4953
870.45	4930
870.58	5014
870.71	5159
870.84	5105
870.97	4949
871.1	4854
871.23	5105
871.36	5079
871.489	5025
871.619	5094
871.749	5071
871.879	5113
872.008	5132
872.138	5022
872.267	4927
872.397	4847
872.526	4820
872.656	4748
872.785	4812
872.915	4972
873.044	5045
873.173	4961
873.303	4927
873.432	4915
873.561	4961
873.69	4896
873.819	4839
873.948	4908
874.077	4839
874.206	4752
874.335	4828
874.464	4885
874.593	5086
874.722	4923
874.851	5075
874.979	5079
875.108	4999
875.237	4949
875.365	4889
875.494	4900
875.623	4987
875.751	4847
875.88	4896
876.008	4976
876.136	5006
876.265	5140
876.393	5364
876.521	5265
876.65	5170
876.778	5159
876.906	5094
877.034	5003
877.162	5056
877.29	4999
877.418	5014
877.546	5067
877.674	5079
877.802	4999
877.93	5025
878.058	4961
878.185	4812
878.313	4961
878.441	4991
878.568	4797
878.696	4889
878.824	4976
878.951	5025
879.079	5102
879.206	5269
879.333	5117
879.461	4919
879.588	4976
879.715	5102
879.842	5181
879.97	4995
880.097	4797
880.224	4755
880.351	4782
880.478	4820
880.605	4774
880.732	4752
880.859	5105
880.986	4896
881.112	4915
881.239	4805
881.366	4649
881.493	4645
881.619	4607
881.746	4577
881.872	4649
881.999	4653
882.125	4664
882.252	4771
882.378	4828
882.505	4972
882.631	4835
882.757	4634
882.883	4706
883.01	4755
883.136	4626
883.262	4618
883.388	4599
883.514	4812
883.64	4843
883.766	4790
883.892	4668
884.018	4675
884.143	4873
884.269	4984
884.395	4656
884.52	4630
884.646	4634
884.772	4584
884.897	4599
885.023	4691
885.148	4801
885.274	4824
885.399	4801
885.524	4721
885.65	4710
885.775	4786
885.9	4679
886.025	4873
886.15	4771
886.275	4691
886.4	4622
886.525	4736
886.65	4694
886.775	4675
886.9	4889
887.025	5048
887.149	4816
887.274	4656
887.399	4546
887.523	4519
887.648	4577
887.773	4599
887.897	4767
888.021	4843
888.146	4664
888.27	4843
888.395	4904
888.519	4790
888.643	4870
888.767	4877
888.891	4691
889.015	4611
889.139	4626
889.263	4599
889.387	4820
889.511	4877
889.635	4740
889.759	4668
889.883	4641
890.006	4710
890.13	4839
890.254	4615
890.377	4683
890.501	4558
890.624	4561
890.748	4660
890.871	4531
890.995	4462
891.118	4371
891.241	4535
891.364	4512
891.488	4717
891.611	4550
891.734	4592
891.857	4626
891.98	4554
892.103	4694
892.226	4637
892.349	4531
892.471	4440
892.594	4622
892.717	4683
892.839	4615
892.962	4687
893.085	4694
893.207	4683
893.33	4516
893.452	4561
893.575	4668
893.697	4580
893.819	4843
893.941	4873
894.064	4866
894.186	4596
894.308	4622
894.43	4778
894.552	4870
894.674	4805
894.796	4603
894.918	4664
895.04	4573
895.161	4714
895.283	4755
895.405	4630
895.526	4660
895.648	4717
895.769	4736
895.891	4771
896.012	4793
896.134	4774
896.255	4748
896.376	4637
896.498	4679
896.619	4706
896.74	4615
896.861	4706
896.982	4961
897.103	5090
897.224	4904
897.345	4812
897.466	4717
897.587	4767
897.708	4889
897.828	4835
897.949	4725
898.07	4592
898.19	4714
898.311	4934
898.431	4752
898.552	4809
898.672	4877
898.792	4824
898.913	4782
899.033	4664
899.153	4535
899.273	4421
899.393	4611
899.513	4542
899.633	4626
899.753	4565
899.873	4542
899.993	4615
900.113	4535
900.232	4641
900.352	4592
900.472	4542
900.591	4466
900.711	4508
900.83	4497
900.95	4660
901.069	4733
901.189	4577
901.308	4409
901.427	4337
901.546	4451
901.665	4554
901.784	4561
901.904	4462
902.023	4394
902.141	4253
902.26	4204
902.379	4344
902.498	4265
902.617	4295
902.735	4417
902.854	4424
902.973	4402
903.091	4265
903.21	4287
903.328	4348
903.446	4318
903.565	4272
903.683	4428
903.801	4325
903.919	4455
904.038	4424
904.156	4333
904.274	4459
904.392	4436
904.51	4493
904.627	4481
904.745	4558
904.863	4672
904.981	4432
905.098	4344
905.216	4386
905.334	4478
905.451	4478
905.569	4474
905.686	4550
905.803	4622
905.921	4451
906.038	4561
906.155	4527
906.272	4424
906.389	4489
906.506	4325
906.623	4424
906.74	4459
906.857	4386
906.974	4432
907.091	4615
907.208	4691
907.324	4607
907.441	4531
907.557	4421
907.674	4375
907.79	4367
907.907	4417
908.023	4478
908.139	4481
908.256	4466
908.372	4512
908.488	4432
908.604	4398
908.72	4341
908.836	4409
908.952	4413
909.068	4481
909.184	4561
909.3	4531
909.415	4656
909.531	4611
909.647	4402
909.762	4405
909.878	4443
909.993	4523
910.108	4432
910.224	4421
910.339	4516
910.454	4421
910.57	4386
910.685	4333
910.8	4683
910.915	4649
911.03	4470
911.145	4341
911.259	4409
911.374	4405
911.489	4325
911.604	4295
911.718	4219
911.833	4249
911.947	4131
912.062	4051
912.176	4230
912.291	4295
912.405	4287
912.519	4455
912.633	4508
912.748	4394
912.862	4379
912.976	4227
913.09	4128
913.204	4230
913.318	4295
913.431	4413
913.545	4447
913.659	4455
913.772	4424
913.886	4272
914	4287
914.113	4390
914.226	4451
914.34	4379
914.453	4303
914.566	4493
914.68	4375
914.793	4367
914.906	4211
915.019	4181
915.132	4120
915.245	4242
915.358	4268
915.47	4306
915.583	4238
915.696	4363
915.809	4424
915.921	4432
916.034	4306
916.146	4310
916.259	4257
916.371	4436
916.483	4356
916.595	4306
916.708	4386
916.82	4348
916.932	4375
917.044	4367
917.156	4379
917.268	4284
917.38	4314
917.491	4284
917.603	4398
917.715	4489
917.826	4504
917.938	4390
918.049	4276
918.161	4428
918.272	4573
918.384	4607
918.495	4500
918.606	4367
918.717	4299
918.828	4360
918.939	4413
919.05	4268
919.161	4413
919.272	4154
919.383	4246
919.494	4500
919.604	4641
919.715	4417
919.826	4367
919.936	4470
920.047	4580
920.157	4558
920.267	4736
920.378	4588
920.488	4561
920.598	4736
920.708	4949
920.818	4767
920.928	4812
921.038	4949
921.148	4957
921.258	4679
921.368	4580
921.477	4550
921.587	4470
921.697	4428
921.806	4527
921.916	4500
922.025	4314
922.134	4272
922.244	4280
922.353	4405
922.462	4177
922.571	4173
922.68	4059
922.789	4029
922.898	4097
923.007	4017
923.116	4154
923.224	4055
923.333	4120
923.442	4055
923.55	4040
923.659	4101
923.767	4150
923.876	4010
923.984	4120
924.092	4017
924.201	4109
924.309	4158
924.417	4158
924.525	4082
924.633	4173
924.741	5075
924.849	3937
924.956	4185
925.064	3975
925.172	3968
925.279	3987
925.387	4044
925.494	4082
925.602	4223
925.709	4249
925.816	4036
925.924	4188
926.031	4272
926.138	4215
926.245	4230
926.352	4131
926.459	4291
926.566	4333
926.673	4188
926.779	4120
926.886	4112
926.993	3994
927.099	4017
927.206	3956
927.312	3998
927.419	4082
927.525	4071
927.631	4128
927.737	4010
927.843	3949
927.95	3865
928.056	4013
928.162	4002
928.267	4078
928.373	4702
928.479	4139
928.585	3876
928.69	4017
928.796	4120
928.901	3953
929.007	3854
929.112	4036
929.218	4021
929.323	3994
929.428	3979
929.533	4120
929.638	3949
929.743	4040
929.848	4074
929.953	4040
930.058	3930
930.163	3778
930.267	3854
930.372	4006
930.477	3808
930.581	4154
930.685	3983
930.79	3861
930.894	3918
930.998	3888
931.103	4067
931.207	3755
931.311	3747
931.415	3709
931.519	3530
931.623	3576
