Data from test_V78500241_172.txt Node
Date: Fri Mar 25 16:50:11 CST 2022
User: usil
Spectrometer: V785-0024
Trigger mode: 0
Integration Time (sec): 4.000000E-1
Scans to average: 1
Nonlinearity correction enabled: false
Boxcar width: 0
Storing dark spectrum: false
XAxis mode: Wavelengths
Number of Pixels in Spectrum: 1024
>>>>>Begin Spectral Data<<<<<
801.071	8073
801.214	8058
801.356	7856
801.499	7902
801.641	7852
801.783	7864
801.926	7925
802.068	7967
802.211	7974
802.353	8012
802.496	7826
802.638	7917
802.78	7925
802.923	7947
803.065	7894
803.208	7818
803.35	8050
803.492	8084
803.635	8176
803.777	7951
803.919	8123
804.061	8492
804.204	8103
804.346	8084
804.488	7959
804.63	8107
804.773	8001
804.915	8062
805.057	8233
805.199	8130
805.341	8153
805.483	8237
805.626	8218
805.768	8176
805.91	8138
806.052	8237
806.194	8145
806.336	8381
806.478	8100
806.62	8119
806.762	8126
806.904	8294
807.046	8450
807.188	8370
807.33	8358
807.472	8290
807.614	8096
807.756	8161
807.898	7963
808.04	7883
808.182	7932
808.324	7974
808.465	7909
808.607	8031
808.749	8039
808.891	8187
809.033	8298
809.174	8244
809.316	8123
809.458	8084
809.6	7993
809.741	8035
809.883	7967
810.025	8081
810.166	8142
810.308	7986
810.45	7986
810.591	7898
810.733	7746
810.875	7693
811.016	7487
811.158	7563
811.299	7613
811.441	7742
811.582	7693
811.724	7575
811.865	7567
812.007	7609
812.148	7616
812.29	7685
812.431	7757
812.573	7967
812.714	8073
812.855	8218
812.997	8271
813.138	8347
813.279	8221
813.421	8134
813.562	8005
813.703	7921
813.845	7761
813.986	7438
814.127	7266
814.268	7270
814.41	7259
814.551	7225
814.692	7263
814.833	7152
814.974	7156
815.115	7171
815.256	7069
815.397	7004
815.539	6962
815.68	6859
815.821	6863
815.962	6840
816.103	6852
816.244	6730
816.385	6684
816.526	6658
816.666	6597
816.807	6350
816.948	6475
817.089	6486
817.23	6475
817.371	6361
817.512	6334
817.653	6471
817.793	6426
817.934	6445
818.075	6460
818.216	6437
818.356	6399
818.497	6266
818.638	6106
818.778	6197
818.919	6194
819.06	6121
819.2	6315
819.341	6277
819.481	6369
819.622	6544
819.762	6734
819.903	6703
820.043	6650
820.184	6635
820.324	6601
820.465	6730
820.605	6677
820.746	6646
820.886	6532
821.026	6688
821.167	6772
821.307	6764
821.447	6798
821.588	6658
821.728	6681
821.868	6525
822.008	6410
822.149	6357
822.289	6422
822.429	6152
822.569	6148
822.709	6144
822.849	5897
822.99	5923
823.13	5893
823.27	5969
823.41	5851
823.55	5832
823.69	5775
823.83	5832
823.97	5703
824.11	5558
824.25	5512
824.389	5547
824.529	5585
824.669	5524
824.809	5646
824.949	5680
825.089	5619
825.228	5596
825.368	5406
825.508	5334
825.648	5341
825.787	5387
825.927	5406
826.067	5326
826.206	5299
826.346	5379
826.485	5467
826.625	5402
826.765	5581
826.904	5478
827.044	5277
827.183	5216
827.323	5140
827.462	5292
827.601	5181
827.741	5261
827.88	5204
828.02	5136
828.159	5246
828.298	5334
828.437	5383
828.577	5277
828.716	5478
828.855	5372
828.994	5208
829.134	5132
829.273	5250
829.412	5227
829.551	5174
829.69	5178
829.829	5288
829.968	5372
830.107	5273
830.246	5315
830.385	5155
830.524	5090
830.663	5086
830.802	5010
830.941	4915
831.08	4866
831.219	5003
831.357	5029
831.496	5155
831.635	4980
831.774	4839
831.913	4850
832.051	4706
832.19	4771
832.329	4854
832.467	4714
832.606	4618
832.744	4721
832.883	4778
833.022	4752
833.16	4820
833.299	4805
833.437	4828
833.576	4824
833.714	4850
833.852	4908
833.991	4919
834.129	4965
834.267	4946
834.406	4961
834.544	4987
834.682	4961
834.821	5025
834.959	5208
835.097	5033
835.235	5159
835.373	5102
835.511	5136
835.65	5067
835.788	5014
835.926	4953
836.064	4843
836.202	4949
836.34	5223
836.478	5242
836.615	5181
836.753	5280
836.891	5326
837.029	5292
837.167	5239
837.305	5201
837.443	5147
837.58	5117
837.718	5254
837.856	5265
837.993	5181
838.131	5311
838.269	5220
838.406	5216
838.544	5204
838.681	5083
838.819	5033
838.956	4908
839.094	4881
839.231	5006
839.369	5075
839.506	5486
839.643	5280
839.781	5098
839.918	5029
840.055	5071
840.193	5056
840.33	5155
840.467	5071
840.604	5197
840.742	5471
840.879	5075
841.016	5075
841.153	5128
841.29	5372
841.427	5284
841.564	5330
841.701	5349
841.838	5261
841.975	5246
842.112	5311
842.249	5174
842.385	5102
842.522	5303
842.659	5201
842.796	5143
842.933	5223
843.069	5143
843.206	5128
843.343	5353
843.479	5269
843.616	5296
843.752	5029
843.889	5010
844.025	5227
844.162	5048
844.298	5185
844.435	5086
844.571	5102
844.708	5208
844.844	5326
844.98	5391
845.117	5235
845.253	5166
845.389	5037
845.525	5201
845.661	5174
845.798	5056
845.934	5140
846.07	5086
846.206	5178
846.342	5307
846.478	5201
846.614	5079
846.75	4949
846.886	4949
847.022	5132
847.158	5006
847.294	5113
847.429	5083
847.565	5086
847.701	5360
847.837	4889
847.972	4854
848.108	4900
848.244	4957
848.379	4820
848.515	4752
848.65	4759
848.786	4759
848.921	4835
849.057	4873
849.192	4938
849.328	4828
849.463	4858
849.598	4797
849.734	4782
849.869	4683
850.004	4611
850.14	4706
850.275	4653
850.41	4588
850.545	4622
850.68	4573
850.815	4649
850.95	4599
851.085	4820
851.22	4778
851.355	4698
851.49	4637
851.625	4630
851.76	4668
851.895	4558
852.03	4565
852.165	4637
852.299	4702
852.434	4786
852.569	4790
852.703	4790
852.838	4858
852.973	4908
853.107	4930
853.242	4755
853.376	4679
853.511	4565
853.645	4592
853.78	4828
853.914	4664
854.048	4656
854.183	4721
854.317	4721
854.451	4866
854.585	4744
854.72	4679
854.854	4725
854.988	4626
855.122	4656
855.256	4508
855.39	4687
855.524	4790
855.658	4763
855.792	4687
855.926	4733
856.06	4763
856.194	4793
856.327	4752
856.461	4630
856.595	4615
856.729	4615
856.862	4793
856.996	4694
857.13	4725
857.263	4771
857.397	4820
857.53	4645
857.664	4733
857.797	4786
857.931	4816
858.064	4725
858.197	4778
858.331	4653
858.464	4649
858.597	4519
858.731	4634
858.864	4611
858.997	4634
859.13	4668
859.263	4675
859.396	4725
859.529	4641
859.662	4641
859.795	4519
859.928	4653
860.061	4767
860.194	4752
860.327	4592
860.46	4596
860.592	4733
860.725	4744
860.858	4725
860.99	4577
861.123	4535
861.256	4558
861.388	4615
861.521	5395
861.653	4508
861.786	4504
861.918	4500
862.05	4542
862.183	4538
862.315	4630
862.447	4694
862.58	4580
862.712	4333
862.844	4322
862.976	4493
863.108	4504
863.24	4904
863.372	4348
863.504	4417
863.636	4394
863.768	4523
863.9	4451
864.032	4386
864.164	4432
864.296	4481
864.428	4519
864.559	4554
864.691	4550
864.823	4516
864.954	4504
865.086	4478
865.217	4493
865.349	4436
865.48	4500
865.612	4470
865.743	4641
865.875	4497
866.006	4500
866.137	4474
866.269	4443
866.4	4451
866.531	4447
866.662	4356
866.793	4409
866.924	4432
867.055	4478
867.186	4459
867.317	4421
867.448	4405
867.579	4390
867.71	4417
867.841	4413
867.972	4466
868.103	4500
868.233	4455
868.364	4405
868.495	4481
868.625	4653
868.756	4786
868.886	4561
869.017	4618
869.147	4816
869.278	4797
869.408	4668
869.539	4630
869.669	4729
869.799	4683
869.929	4752
870.06	4778
870.19	4980
870.32	4938
870.45	4915
870.58	5018
870.71	5090
870.84	5105
870.97	4961
871.1	4934
871.23	5162
871.36	5178
871.489	5064
871.619	5090
871.749	5098
871.879	5098
872.008	5220
872.138	5075
872.267	5037
872.397	4862
872.526	4801
872.656	4729
872.785	4850
872.915	4999
873.044	5033
873.173	5018
873.303	4972
873.432	4968
873.561	5029
873.69	4911
873.819	4896
873.948	4915
874.077	4873
874.206	4778
874.335	4850
874.464	4908
874.593	5094
874.722	4995
874.851	5105
874.979	5086
875.108	5098
875.237	4919
875.365	4904
875.494	4889
875.623	4995
875.751	4843
875.88	4877
876.008	5025
876.136	4976
876.265	5269
876.393	5337
876.521	5280
876.65	5261
876.778	5136
876.906	5029
877.034	5033
877.162	5018
877.29	5029
877.418	5090
877.546	5079
877.674	5022
877.802	5128
877.93	5048
878.058	4953
878.185	4843
878.313	4949
878.441	4927
878.568	4771
878.696	4850
878.824	4987
878.951	5037
879.079	5117
879.206	5318
879.333	5105
879.461	4995
879.588	5079
879.715	5113
879.842	5277
879.97	4984
880.097	4812
880.224	4752
880.351	4812
880.478	4858
880.605	4835
880.732	4793
880.859	5060
880.986	4831
881.112	4949
881.239	4786
881.366	4691
881.493	4611
881.619	4599
881.746	4660
881.872	4721
881.999	4656
882.125	4656
882.252	4774
882.378	4847
882.505	4972
882.631	4831
882.757	4698
882.883	4740
883.01	4752
883.136	4656
883.262	4615
883.388	4584
883.514	4801
883.64	4828
883.766	4801
883.892	4683
884.018	4729
884.143	4850
884.269	5045
884.395	4656
884.52	4603
884.646	4668
884.772	4580
884.897	4516
885.023	4649
885.148	4809
885.274	4919
885.399	4782
885.524	4729
885.65	4740
885.775	4748
885.9	4721
886.025	4870
886.15	4824
886.275	4717
886.4	4672
886.525	4755
886.65	4694
886.775	4714
886.9	4900
887.025	5117
887.149	4866
887.274	4660
887.399	4622
887.523	4622
887.648	4603
887.773	4611
887.897	4793
888.021	4858
888.146	4687
888.27	4793
888.395	4911
888.519	4824
888.643	4809
888.767	4812
888.891	4679
889.015	4672
889.139	4653
889.263	4607
889.387	4778
889.511	4877
889.635	4820
889.759	4679
889.883	4668
890.006	4714
890.13	4870
890.254	4607
890.377	4691
890.501	4546
890.624	4519
890.748	4626
890.871	4523
890.995	4398
891.118	4352
891.241	4550
891.364	4523
891.488	4630
891.611	4508
891.734	4519
891.857	4611
891.98	4565
892.103	4656
892.226	4611
892.349	4538
892.471	4459
892.594	4626
892.717	4615
892.839	4573
892.962	4584
893.085	4668
893.207	4611
893.33	4481
893.452	4516
893.575	4691
893.697	4588
893.819	4850
893.941	4858
894.064	4793
894.186	4523
894.308	4577
894.43	4733
894.552	4831
894.674	4740
894.796	4531
894.918	4660
895.04	4603
895.161	4702
895.283	4664
895.405	4573
895.526	4607
895.648	4710
895.769	4714
895.891	4736
896.012	4698
896.134	4740
896.255	4717
896.376	4664
896.498	4675
896.619	4683
896.74	4596
896.861	4603
896.982	4923
897.103	5128
897.224	4831
897.345	4790
897.466	4702
897.587	4729
897.708	4854
897.828	4816
897.949	4683
898.07	4554
898.19	4656
898.311	4816
898.431	4744
898.552	4736
898.672	4824
898.792	4774
898.913	4778
899.033	4668
899.153	4512
899.273	4405
899.393	4527
899.513	4573
899.633	4462
899.753	4561
899.873	4527
899.993	4584
900.113	4550
900.232	4603
900.352	4569
900.472	4538
900.591	4402
900.711	4478
900.83	4447
900.95	4599
901.069	4706
901.189	4592
901.308	4383
901.427	4318
901.546	4348
901.665	4470
901.784	4538
901.904	4447
902.023	4348
902.141	4188
902.26	4188
902.379	4383
902.498	4257
902.617	4211
902.735	4379
902.854	4432
902.973	4360
903.091	4196
903.21	4257
903.328	4329
903.446	4333
903.565	4253
903.683	4352
903.801	4272
903.919	4402
904.038	4440
904.156	4348
904.274	4428
904.392	4417
904.51	4432
904.627	4432
904.745	4542
904.863	4630
904.981	4432
905.098	4291
905.216	4329
905.334	4455
905.451	4451
905.569	4432
905.686	4634
905.803	4569
905.921	4451
906.038	4535
906.155	4489
906.272	4386
906.389	4485
906.506	4371
906.623	4379
906.74	4413
906.857	4299
906.974	4398
907.091	4546
907.208	4675
907.324	4626
907.441	4478
907.557	4371
907.674	4367
907.79	4333
907.907	4394
908.023	4516
908.139	4478
908.256	4394
908.372	4504
908.488	4447
908.604	4352
908.72	4333
908.836	4383
908.952	4363
909.068	4451
909.184	4626
909.3	4527
909.415	4615
909.531	4569
909.647	4432
909.762	4402
909.878	4383
909.993	4459
910.108	4421
910.224	4462
910.339	4527
910.454	4428
910.57	4344
910.685	4284
910.8	4672
910.915	4618
911.03	4508
911.145	4360
911.259	4276
911.374	4344
911.489	4333
911.604	4291
911.718	4227
911.833	4280
911.947	4082
912.062	4032
912.176	4246
912.291	4219
912.405	4284
912.519	4462
912.633	4493
912.748	4390
912.862	4303
912.976	4257
913.09	4143
913.204	4192
913.318	4287
913.431	4352
913.545	4363
913.659	4440
913.772	4367
913.886	4299
914	4219
914.113	4402
914.226	4474
914.34	4402
914.453	4257
914.566	4402
914.68	4291
914.793	4333
914.906	4219
915.019	4112
915.132	4128
915.245	4227
915.358	4200
915.47	4253
915.583	4257
915.696	4333
915.809	4413
915.921	4455
916.034	4207
916.146	4276
916.259	4223
916.371	4405
916.483	4363
916.595	4333
916.708	4314
916.82	4352
916.932	4356
917.044	4337
917.156	4333
917.268	4242
917.38	4291
917.491	4303
917.603	4314
917.715	4459
917.826	4421
917.938	4409
918.049	4276
918.161	4352
918.272	4546
918.384	4523
918.495	4500
918.606	4333
918.717	4253
918.828	4348
918.939	4405
919.05	4287
919.161	4337
919.272	4109
919.383	4261
919.494	4489
919.604	4645
919.715	4440
919.826	4337
919.936	4417
920.047	4558
920.157	4470
920.267	4717
920.378	4535
920.488	4565
920.598	4729
920.708	4873
920.818	4782
920.928	4759
921.038	4980
921.148	4877
921.258	4634
921.368	4596
921.477	4519
921.587	4489
921.697	4371
921.806	4607
921.916	4512
922.025	4284
922.134	4318
922.244	4242
922.353	4379
922.462	4181
922.571	4131
922.68	4010
922.789	4032
922.898	4071
923.007	4021
923.116	4128
923.224	4105
923.333	4101
923.442	4010
923.55	3983
923.659	3987
923.767	4124
923.876	4032
923.984	4135
924.092	4051
924.201	4131
924.309	4097
924.417	4116
924.525	4059
924.633	4101
924.741	4885
924.849	3926
924.956	4131
925.064	3956
925.172	3884
925.279	3964
925.387	4063
925.494	4036
925.602	4215
925.709	4192
925.816	4093
925.924	4181
926.031	4230
926.138	4181
926.245	4181
926.352	4082
926.459	4249
926.566	4284
926.673	4181
926.779	4135
926.886	4105
926.993	3987
927.099	3983
927.206	3983
927.312	3922
927.419	4029
927.525	4063
927.631	4101
927.737	3994
927.843	3953
927.95	3831
928.056	3972
928.162	4021
928.267	4040
928.373	4710
928.479	4101
928.585	3846
928.69	4059
928.796	4074
928.901	4044
929.007	3922
929.112	4036
929.218	3994
929.323	3880
929.428	3964
929.533	4116
929.638	3922
929.743	3979
929.848	4093
929.953	4032
930.058	3972
930.163	3762
930.267	3857
930.372	4013
930.477	3785
930.581	4105
930.685	3941
930.79	3831
930.894	3911
930.998	3865
931.103	4063
931.207	3736
931.311	3732
931.415	3705
931.519	3519
931.623	3568
