Data from test_V78500241_876.txt Node
Date: Fri Mar 25 16:55:05 CST 2022
User: usil
Spectrometer: V785-0024
Trigger mode: 0
Integration Time (sec): 4.000000E-1
Scans to average: 1
Nonlinearity correction enabled: false
Boxcar width: 0
Storing dark spectrum: false
XAxis mode: Wavelengths
Number of Pixels in Spectrum: 1024
>>>>>Begin Spectral Data<<<<<
801.071	7989
801.214	7997
801.356	7871
801.499	7826
801.641	7784
801.783	7765
801.926	7951
802.068	7902
802.211	7909
802.353	7982
802.496	7803
802.638	7822
802.78	7890
802.923	7921
803.065	7925
803.208	7913
803.35	7970
803.492	8103
803.635	8142
803.777	8046
803.919	8130
804.061	8412
804.204	8138
804.346	8024
804.488	7959
804.63	8065
804.773	8039
804.915	8077
805.057	8225
805.199	8153
805.341	8180
805.483	8221
805.626	8221
805.768	8142
805.91	8263
806.052	8191
806.194	8058
806.336	8275
806.478	8062
806.62	8050
806.762	8134
806.904	8263
807.046	8438
807.188	8275
807.33	8298
807.472	8290
807.614	8100
807.756	8088
807.898	7902
808.04	7822
808.182	7826
808.324	7822
808.465	7868
808.607	8077
808.749	8043
808.891	8176
809.033	8233
809.174	8191
809.316	8058
809.458	8092
809.6	7993
809.741	8039
809.883	8012
810.025	8077
810.166	8069
810.308	8008
810.45	8016
810.591	7902
810.733	7731
810.875	7666
811.016	7495
811.158	7556
811.299	7544
811.441	7731
811.582	7613
811.724	7521
811.865	7464
812.007	7533
812.148	7567
812.29	7613
812.431	7772
812.573	7837
812.714	7921
812.855	8081
812.997	8240
813.138	8271
813.279	8130
813.421	8115
813.562	7959
813.703	7769
813.845	7776
813.986	7472
814.127	7247
814.268	7225
814.41	7263
814.551	7114
814.692	7160
814.833	7034
814.974	7023
815.115	7050
815.256	7000
815.397	6890
815.539	6909
815.68	6840
815.821	6783
815.962	6878
816.103	6791
816.244	6681
816.385	6639
816.526	6574
816.666	6475
816.807	6304
816.948	6475
817.089	6486
817.23	6338
817.371	6361
817.512	6418
817.653	6380
817.793	6353
817.934	6437
818.075	6418
818.216	6399
818.356	6300
818.497	6232
818.638	6083
818.778	6091
818.919	6102
819.06	6175
819.2	6300
819.341	6308
819.481	6357
819.622	6513
819.762	6677
819.903	6719
820.043	6578
820.184	6566
820.324	6502
820.465	6604
820.605	6669
820.746	6547
820.886	6395
821.026	6642
821.167	6677
821.307	6772
821.447	6787
821.588	6612
821.728	6578
821.868	6452
822.008	6338
822.149	6346
822.289	6315
822.429	6136
822.569	6102
822.709	6121
822.849	5904
822.99	5893
823.13	5923
823.27	5901
823.41	5802
823.55	5718
823.69	5824
823.83	5783
823.97	5615
824.11	5509
824.25	5490
824.389	5478
824.529	5543
824.669	5486
824.809	5585
824.949	5638
825.089	5589
825.228	5524
825.368	5357
825.508	5322
825.648	5326
825.787	5406
825.927	5341
826.067	5269
826.206	5284
826.346	5368
826.485	5440
826.625	5364
826.765	5520
826.904	5421
827.044	5292
827.183	5143
827.323	5132
827.462	5208
827.601	5113
827.741	5181
827.88	5208
828.02	5079
828.159	5208
828.298	5235
828.437	5383
828.577	5307
828.716	5448
828.855	5303
828.994	5174
829.134	5136
829.273	5189
829.412	5094
829.551	5083
829.69	5143
829.829	5220
829.968	5391
830.107	5246
830.246	5311
830.385	5147
830.524	5136
830.663	5018
830.802	4968
830.941	4892
831.08	4873
831.219	4984
831.357	4976
831.496	5128
831.635	4896
831.774	4812
831.913	4793
832.051	4698
832.19	4717
832.329	4862
832.467	4740
832.606	4626
832.744	4710
832.883	4717
833.022	4683
833.16	4790
833.299	4824
833.437	4843
833.576	4816
833.714	4824
833.852	4911
833.991	4900
834.129	4873
834.267	4930
834.406	4927
834.544	4949
834.682	4930
834.821	4980
834.959	5181
835.097	4942
835.235	5105
835.373	5083
835.511	5132
835.65	5075
835.788	5048
835.926	4892
836.064	4896
836.202	4923
836.34	5155
836.478	5220
836.615	5083
836.753	5216
836.891	5258
837.029	5216
837.167	5166
837.305	5147
837.443	5181
837.58	5006
837.718	5212
837.856	5231
837.993	5136
838.131	5242
838.269	5185
838.406	5159
838.544	5174
838.681	5018
838.819	5014
838.956	4847
839.094	4911
839.231	5014
839.369	5079
839.506	5410
839.643	5239
839.781	5064
839.918	4968
840.055	5086
840.193	5086
840.33	5094
840.467	5147
840.604	5189
840.742	5467
840.879	5022
841.016	5056
841.153	5159
841.29	5341
841.427	5299
841.564	5315
841.701	5364
841.838	5258
841.975	5197
842.112	5254
842.249	5174
842.385	5067
842.522	5322
842.659	5174
842.796	5117
842.933	5197
843.069	5155
843.206	5083
843.343	5246
843.479	5231
843.616	5235
843.752	5037
843.889	5018
844.025	5189
844.162	4968
844.298	5212
844.435	5071
844.571	5041
844.708	5197
844.844	5318
844.98	5330
845.117	5292
845.253	5098
845.389	5025
845.525	5102
845.661	5170
845.798	5064
845.934	5105
846.07	5064
846.206	5159
846.342	5246
846.478	5197
846.614	5041
846.75	4980
846.886	4923
847.022	5136
847.158	4972
847.294	4999
847.429	5083
847.565	5014
847.701	5288
847.837	4839
847.972	4771
848.108	4889
848.244	4938
848.379	4755
848.515	4748
848.65	4748
848.786	4725
848.921	4774
849.057	4862
849.192	4896
849.328	4831
849.463	4854
849.598	4801
849.734	4721
849.869	4717
850.004	4592
850.14	4668
850.275	4599
850.41	4527
850.545	4523
850.68	4558
850.815	4592
850.95	4622
851.085	4809
851.22	4744
851.355	4668
851.49	4656
851.625	4611
851.76	4626
851.895	4527
852.03	4478
852.165	4660
852.299	4664
852.434	4790
852.569	4694
852.703	4790
852.838	4820
852.973	4930
853.107	4908
853.242	4733
853.376	4668
853.511	4558
853.645	4649
853.78	4774
853.914	4675
854.048	4603
854.183	4634
854.317	4683
854.451	4824
854.585	4656
854.72	4580
854.854	4733
854.988	4599
855.122	4577
855.256	4569
855.39	4603
855.524	4790
855.658	4721
855.792	4683
855.926	4725
856.06	4759
856.194	4774
856.327	4630
856.461	4580
856.595	4618
856.729	4615
856.862	4710
856.996	4687
857.13	4717
857.263	4759
857.397	4824
857.53	4626
857.664	4733
857.797	4778
857.931	4774
858.064	4694
858.197	4733
858.331	4649
858.464	4596
858.597	4485
858.731	4660
858.864	4626
858.997	4588
859.13	4634
859.263	4630
859.396	4683
859.529	4626
859.662	4531
859.795	4523
859.928	4607
860.061	4736
860.194	4759
860.327	4592
860.46	4618
860.592	4702
860.725	4702
860.858	4717
860.99	4550
861.123	4554
861.256	4459
861.388	4592
861.521	5273
861.653	4470
861.786	4405
861.918	4455
862.05	4542
862.183	4500
862.315	4626
862.447	4634
862.58	4512
862.712	4402
862.844	4322
862.976	4451
863.108	4459
863.24	4767
863.372	4329
863.504	4398
863.636	4417
863.768	4493
863.9	4424
864.032	4306
864.164	4367
864.296	4447
864.428	4588
864.559	4558
864.691	4523
864.823	4519
864.954	4512
865.086	4447
865.217	4424
865.349	4375
865.48	4421
865.612	4470
865.743	4630
865.875	4485
866.006	4455
866.137	4451
866.269	4459
866.4	4443
866.531	4383
866.662	4348
866.793	4413
866.924	4367
867.055	4462
867.186	4493
867.317	4386
867.448	4356
867.579	4375
867.71	4348
867.841	4360
867.972	4432
868.103	4428
868.233	4440
868.364	4481
868.495	4447
868.625	4637
868.756	4714
868.886	4565
869.017	4626
869.147	4790
869.278	4744
869.408	4660
869.539	4573
869.669	4675
869.799	4622
869.929	4763
870.06	4717
870.19	4919
870.32	4911
870.45	4927
870.58	4991
870.71	5117
870.84	5060
870.97	4934
871.1	4862
871.23	5083
871.36	5121
871.489	5033
871.619	5075
871.749	5048
871.879	5102
872.008	5174
872.138	5037
872.267	4961
872.397	4805
872.526	4736
872.656	4687
872.785	4771
872.915	4915
873.044	5029
873.173	4911
873.303	4934
873.432	4870
873.561	4930
873.69	4934
873.819	4854
873.948	4885
874.077	4790
874.206	4729
874.335	4725
874.464	4839
874.593	5064
874.722	4938
874.851	5056
874.979	5029
875.108	4980
875.237	4942
875.365	4870
875.494	4862
875.623	5010
875.751	4843
875.88	4911
876.008	4976
876.136	5037
876.265	5216
876.393	5299
876.521	5239
876.65	5162
876.778	5159
876.906	5045
877.034	4965
877.162	5029
877.29	5022
877.418	5060
877.546	5010
877.674	5045
877.802	4999
877.93	4995
878.058	4892
878.185	4911
878.313	4949
878.441	4911
878.568	4805
878.696	4843
878.824	4923
878.951	4984
879.079	5109
879.206	5280
879.333	5128
879.461	4976
879.588	4953
879.715	5090
879.842	5227
879.97	4984
880.097	4755
880.224	4725
880.351	4790
880.478	4820
880.605	4790
880.732	4778
880.859	5102
880.986	4881
881.112	4904
881.239	4755
881.366	4694
881.493	4611
881.619	4603
881.746	4656
881.872	4622
881.999	4615
882.125	4672
882.252	4778
882.378	4854
882.505	4927
882.631	4778
882.757	4599
882.883	4725
883.01	4736
883.136	4641
883.262	4599
883.388	4607
883.514	4782
883.64	4828
883.766	4778
883.892	4698
884.018	4729
884.143	4919
884.269	5025
884.395	4645
884.52	4611
884.646	4634
884.772	4603
884.897	4516
885.023	4634
885.148	4778
885.274	4858
885.399	4782
885.524	4675
885.65	4694
885.775	4702
885.9	4721
886.025	4801
886.15	4797
886.275	4710
886.4	4687
886.525	4717
886.65	4691
886.775	4649
886.9	4911
887.025	5029
887.149	4790
887.274	4626
887.399	4592
887.523	4558
887.648	4523
887.773	4561
887.897	4759
888.021	4778
888.146	4679
888.27	4786
888.395	4900
888.519	4774
888.643	4774
888.767	4801
888.891	4664
889.015	4588
889.139	4645
889.263	4615
889.387	4790
889.511	4854
889.635	4866
889.759	4675
889.883	4634
890.006	4774
890.13	4809
890.254	4626
890.377	4672
890.501	4519
890.624	4512
890.748	4588
890.871	4481
890.995	4405
891.118	4337
891.241	4504
891.364	4500
891.488	4603
891.611	4455
891.734	4538
891.857	4584
891.98	4516
892.103	4653
892.226	4637
892.349	4512
892.471	4447
892.594	4531
892.717	4538
892.839	4561
892.962	4596
893.085	4714
893.207	4577
893.33	4470
893.452	4565
893.575	4630
893.697	4573
893.819	4778
893.941	4843
894.064	4717
894.186	4577
894.308	4554
894.43	4755
894.552	4816
894.674	4759
894.796	4508
894.918	4569
895.04	4554
895.161	4687
895.283	4656
895.405	4588
895.526	4615
895.648	4675
895.769	4733
895.891	4687
896.012	4733
896.134	4767
896.255	4683
896.376	4611
896.498	4596
896.619	4649
896.74	4569
896.861	4637
896.982	4927
897.103	5052
897.224	4797
897.345	4774
897.466	4622
897.587	4767
897.708	4858
897.828	4805
897.949	4675
898.07	4478
898.19	4668
898.311	4809
898.431	4675
898.552	4710
898.672	4812
898.792	4797
898.913	4733
899.033	4618
899.153	4500
899.273	4390
899.393	4485
899.513	4519
899.633	4481
899.753	4531
899.873	4493
899.993	4630
900.113	4519
900.232	4573
900.352	4474
900.472	4516
900.591	4390
900.711	4508
900.83	4462
900.95	4611
901.069	4664
901.189	4546
901.308	4413
901.427	4306
901.546	4337
901.665	4470
901.784	4512
901.904	4356
902.023	4329
902.141	4158
902.26	4147
902.379	4287
902.498	4276
902.617	4223
902.735	4383
902.854	4379
902.973	4333
903.091	4188
903.21	4219
903.328	4314
903.446	4280
903.565	4291
903.683	4413
903.801	4287
903.919	4386
904.038	4409
904.156	4265
904.274	4405
904.392	4421
904.51	4390
904.627	4459
904.745	4615
904.863	4634
904.981	4398
905.098	4310
905.216	4333
905.334	4447
905.451	4440
905.569	4436
905.686	4550
905.803	4577
905.921	4367
906.038	4561
906.155	4489
906.272	4398
906.389	4440
906.506	4337
906.623	4325
906.74	4360
906.857	4280
906.974	4306
907.091	4538
907.208	4698
907.324	4592
907.441	4478
907.557	4348
907.674	4337
907.79	4325
907.907	4405
908.023	4497
908.139	4447
908.256	4421
908.372	4451
908.488	4421
908.604	4352
908.72	4325
908.836	4363
908.952	4398
909.068	4402
909.184	4573
909.3	4462
909.415	4561
909.531	4546
909.647	4341
909.762	4367
909.878	4344
909.993	4436
910.108	4443
910.224	4386
910.339	4440
910.454	4413
910.57	4386
910.685	4341
910.8	4622
910.915	4527
911.03	4428
911.145	4306
911.259	4341
911.374	4337
911.489	4318
911.604	4261
911.718	4154
911.833	4253
911.947	4032
912.062	3998
912.176	4204
912.291	4246
912.405	4223
912.519	4462
912.633	4466
912.748	4379
912.862	4242
912.976	4181
913.09	4074
913.204	4169
913.318	4257
913.431	4356
913.545	4329
913.659	4466
913.772	4299
913.886	4284
914	4230
914.113	4344
914.226	4394
914.34	4386
914.453	4230
914.566	4367
914.68	4287
914.793	4333
914.906	4192
915.019	4139
915.132	4071
915.245	4223
915.358	4204
915.47	4234
915.583	4246
915.696	4280
915.809	4390
915.921	4417
916.034	4276
916.146	4219
916.259	4192
916.371	4333
916.483	4360
916.595	4230
916.708	4341
916.82	4291
916.932	4306
917.044	4333
917.156	4299
917.268	4280
917.38	4261
917.491	4272
917.603	4344
917.715	4383
917.826	4424
917.938	4371
918.049	4211
918.161	4360
918.272	4508
918.384	4512
918.495	4413
918.606	4272
918.717	4230
918.828	4371
918.939	4337
919.05	4265
919.161	4310
919.272	4105
919.383	4215
919.494	4424
919.604	4607
919.715	4440
919.826	4333
919.936	4386
920.047	4554
920.157	4478
920.267	4645
920.378	4523
920.488	4485
920.598	4664
920.708	4942
920.818	4725
920.928	4782
921.038	4965
921.148	4930
921.258	4603
921.368	4527
921.477	4485
921.587	4481
921.697	4379
921.806	4538
921.916	4432
922.025	4246
922.134	4303
922.244	4196
922.353	4303
922.462	4188
922.571	4101
922.68	3987
922.789	3968
922.898	4067
923.007	3968
923.116	4055
923.224	4051
923.333	4074
923.442	4010
923.55	3987
923.659	4002
923.767	4116
923.876	4002
923.984	4135
924.092	3983
924.201	4071
924.309	4135
924.417	4150
924.525	4051
924.633	4101
924.741	4873
924.849	3873
924.956	4109
925.064	3953
925.172	3949
925.279	3945
925.387	4078
925.494	4082
925.602	4200
925.709	4116
925.816	4029
925.924	4131
926.031	4227
926.138	4181
926.245	4147
926.352	4116
926.459	4227
926.566	4265
926.673	4147
926.779	4086
926.886	4055
926.993	3975
927.099	3922
927.206	3975
927.312	3896
927.419	4006
927.525	3968
927.631	4090
927.737	3960
927.843	3918
927.95	3827
928.056	3934
928.162	3945
928.267	4036
928.373	4588
928.479	4120
928.585	3896
928.69	3960
928.796	4063
928.901	3949
929.007	3861
929.112	4021
929.218	3975
929.323	3945
929.428	4006
929.533	4116
929.638	3926
929.743	3953
929.848	4021
929.953	3964
930.058	3918
930.163	3800
930.267	3838
930.372	4010
930.477	3793
930.581	4082
930.685	3937
930.79	3770
930.894	3869
930.998	3869
931.103	4059
931.207	3690
931.311	3660
931.415	3717
931.519	3515
931.623	3538
