Data from test_V78500241_842.txt Node
Date: Fri Mar 25 16:54:51 CST 2022
User: usil
Spectrometer: V785-0024
Trigger mode: 0
Integration Time (sec): 4.000000E-1
Scans to average: 1
Nonlinearity correction enabled: false
Boxcar width: 0
Storing dark spectrum: false
XAxis mode: Wavelengths
Number of Pixels in Spectrum: 1024
>>>>>Begin Spectral Data<<<<<
801.071	8024
801.214	7940
801.356	7917
801.499	7887
801.641	7780
801.783	7932
801.926	7986
802.068	7913
802.211	7959
802.353	7925
802.496	7822
802.638	7879
802.78	7921
802.923	7909
803.065	7837
803.208	7822
803.35	7993
803.492	8088
803.635	8145
803.777	7978
803.919	8084
804.061	8347
804.204	8107
804.346	8027
804.488	7898
804.63	8096
804.773	8039
804.915	8138
805.057	8282
805.199	8153
805.341	8237
805.483	8233
805.626	8134
805.768	8077
805.91	8218
806.052	8157
806.194	8096
806.336	8328
806.478	8081
806.62	8138
806.762	8157
806.904	8248
807.046	8434
807.188	8336
807.33	8290
807.472	8267
807.614	8069
807.756	8054
807.898	7993
808.04	7799
808.182	7814
808.324	7807
808.465	7875
808.607	8050
808.749	8054
808.891	8180
809.033	8358
809.174	8123
809.316	8145
809.458	8027
809.6	7868
809.741	8073
809.883	8005
810.025	8069
810.166	8027
810.308	7989
810.45	7997
810.591	7909
810.733	7658
810.875	7681
811.016	7559
811.158	7449
811.299	7609
811.441	7696
811.582	7696
811.724	7521
811.865	7453
812.007	7556
812.148	7571
812.29	7609
812.431	7674
812.573	7837
812.714	7928
812.855	8157
812.997	8180
813.138	8240
813.279	8161
813.421	8084
813.562	7967
813.703	7833
813.845	7757
813.986	7453
814.127	7202
814.268	7225
814.41	7099
814.551	7110
814.692	7156
814.833	7050
814.974	7088
815.115	7046
815.256	6935
815.397	6924
815.539	6943
815.68	6833
815.821	6814
815.962	6844
816.103	6852
816.244	6715
816.385	6662
816.526	6627
816.666	6460
816.807	6304
816.948	6467
817.089	6448
817.23	6391
817.371	6399
817.512	6414
817.653	6418
817.793	6353
817.934	6422
818.075	6441
818.216	6369
818.356	6407
818.497	6224
818.638	6068
818.778	6220
818.919	6152
819.06	6140
819.2	6323
819.341	6296
819.481	6289
819.622	6456
819.762	6703
819.903	6658
820.043	6582
820.184	6528
820.324	6559
820.465	6673
820.605	6669
820.746	6646
820.886	6460
821.026	6601
821.167	6658
821.307	6776
821.447	6696
821.588	6642
821.728	6555
821.868	6513
822.008	6300
822.149	6334
822.289	6334
822.429	6136
822.569	6129
822.709	6068
822.849	5908
822.99	5904
823.13	5946
823.27	5878
823.41	5798
823.55	5760
823.69	5672
823.83	5783
823.97	5691
824.11	5520
824.25	5497
824.389	5501
824.529	5566
824.669	5497
824.809	5642
824.949	5668
825.089	5547
825.228	5520
825.368	5376
825.508	5277
825.648	5292
825.787	5421
825.927	5379
826.067	5315
826.206	5284
826.346	5307
826.485	5368
826.625	5383
826.765	5535
826.904	5425
827.044	5273
827.183	5193
827.323	5086
827.462	5227
827.601	5178
827.741	5159
827.88	5174
828.02	5117
828.159	5189
828.298	5303
828.437	5353
828.577	5258
828.716	5459
828.855	5296
828.994	5132
829.134	5155
829.273	5147
829.412	5174
829.551	5071
829.69	5128
829.829	5208
829.968	5357
830.107	5280
830.246	5273
830.385	5174
830.524	5105
830.663	5022
830.802	4942
830.941	4881
831.08	4870
831.219	4991
831.357	4984
831.496	5166
831.635	4919
831.774	4809
831.913	4866
832.051	4729
832.19	4778
832.329	4850
832.467	4702
832.606	4630
832.744	4706
832.883	4733
833.022	4717
833.16	4812
833.299	4778
833.437	4797
833.576	4873
833.714	4881
833.852	4908
833.991	4881
834.129	5014
834.267	4961
834.406	4953
834.544	5010
834.682	4953
834.821	4980
834.959	5185
835.097	5033
835.235	5162
835.373	5098
835.511	5086
835.65	5071
835.788	5052
835.926	4911
836.064	4927
836.202	4938
836.34	5239
836.478	5250
836.615	5189
836.753	5265
836.891	5318
837.029	5246
837.167	5235
837.305	5159
837.443	5216
837.58	5090
837.718	5307
837.856	5220
837.993	5155
838.131	5216
838.269	5258
838.406	5239
838.544	5227
838.681	5079
838.819	5037
838.956	4904
839.094	4911
839.231	5041
839.369	5132
839.506	5493
839.643	5273
839.781	5083
839.918	5064
840.055	5102
840.193	5128
840.33	5159
840.467	5216
840.604	5269
840.742	5425
840.879	5132
841.016	5121
841.153	5170
841.29	5398
841.427	5341
841.564	5349
841.701	5372
841.838	5318
841.975	5250
842.112	5280
842.249	5174
842.385	5109
842.522	5345
842.659	5220
842.796	5155
842.933	5254
843.069	5132
843.206	5208
843.343	5364
843.479	5254
843.616	5307
843.752	5060
843.889	5041
844.025	5204
844.162	5041
844.298	5239
844.435	5094
844.571	5064
844.708	5242
844.844	5303
844.98	5337
845.117	5318
845.253	5197
845.389	5136
845.525	5231
845.661	5193
845.798	5052
845.934	5162
846.07	5071
846.206	5208
846.342	5311
846.478	5162
846.614	5102
846.75	4961
846.886	4972
847.022	5136
847.158	5029
847.294	5124
847.429	5140
847.565	5056
847.701	5330
847.837	4850
847.972	4843
848.108	4987
848.244	4949
848.379	4786
848.515	4702
848.65	4668
848.786	4797
848.921	4763
849.057	4904
849.192	4870
849.328	4870
849.463	4900
849.598	4812
849.734	4771
849.869	4748
850.004	4603
850.14	4691
850.275	4664
850.41	4516
850.545	4599
850.68	4592
850.815	4618
850.95	4698
851.085	4862
851.22	4778
851.355	4733
851.49	4588
851.625	4634
851.76	4672
851.895	4565
852.03	4531
852.165	4618
852.299	4714
852.434	4771
852.569	4744
852.703	4790
852.838	4866
852.973	4904
853.107	4930
853.242	4778
853.376	4653
853.511	4584
853.645	4634
853.78	4828
853.914	4710
854.048	4698
854.183	4656
854.317	4698
854.451	4900
854.585	4668
854.72	4687
854.854	4809
854.988	4603
855.122	4641
855.256	4569
855.39	4702
855.524	4831
855.658	4740
855.792	4679
855.926	4782
856.06	4778
856.194	4835
856.327	4694
856.461	4649
856.595	4618
856.729	4668
856.862	4812
856.996	4687
857.13	4736
857.263	4733
857.397	4835
857.53	4668
857.664	4710
857.797	4790
857.931	4835
858.064	4679
858.197	4831
858.331	4656
858.464	4622
858.597	4542
858.731	4630
858.864	4664
858.997	4653
859.13	4622
859.263	4702
859.396	4736
859.529	4577
859.662	4630
859.795	4584
859.928	4691
860.061	4824
860.194	4748
860.327	4626
860.46	4618
860.592	4752
860.725	4740
860.858	4755
860.99	4622
861.123	4550
861.256	4561
861.388	4630
861.521	5326
861.653	4481
861.786	4504
861.918	4485
862.05	4538
862.183	4588
862.315	4577
862.447	4729
862.58	4580
862.712	4424
862.844	4367
862.976	4504
863.108	4527
863.24	4820
863.372	4352
863.504	4462
863.636	4428
863.768	4466
863.9	4459
864.032	4402
864.164	4402
864.296	4466
864.428	4573
864.559	4554
864.691	4546
864.823	4538
864.954	4523
865.086	4485
865.217	4497
865.349	4405
865.48	4451
865.612	4470
865.743	4645
865.875	4527
866.006	4443
866.137	4516
866.269	4455
866.4	4497
866.531	4447
866.662	4424
866.793	4409
866.924	4447
867.055	4508
867.186	4466
867.317	4421
867.448	4379
867.579	4390
867.71	4440
867.841	4371
867.972	4493
868.103	4481
868.233	4500
868.364	4481
868.495	4470
868.625	4687
868.756	4748
868.886	4569
869.017	4645
869.147	4786
869.278	4839
869.408	4672
869.539	4660
869.669	4714
869.799	4664
869.929	4778
870.06	4774
870.19	4984
870.32	4946
870.45	4957
870.58	5014
870.71	5136
870.84	5132
870.97	4934
871.1	4968
871.23	5098
871.36	5151
871.489	5041
871.619	5067
871.749	5109
871.879	5113
872.008	5170
872.138	5071
872.267	4961
872.397	4911
872.526	4839
872.656	4740
872.785	4824
872.915	4949
873.044	5029
873.173	4949
873.303	4987
873.432	4976
873.561	4968
873.69	4949
873.819	4885
873.948	4900
874.077	4854
874.206	4755
874.335	4831
874.464	4972
874.593	5109
874.722	4999
874.851	5124
874.979	5094
875.108	5094
875.237	4896
875.365	4930
875.494	4866
875.623	5025
875.751	4873
875.88	4858
876.008	5025
876.136	5056
876.265	5242
876.393	5364
876.521	5212
876.65	5261
876.778	5166
876.906	5105
877.034	5033
877.162	5094
877.29	5052
877.418	5124
877.546	5014
877.674	5045
877.802	5056
877.93	5071
878.058	4995
878.185	4858
878.313	4942
878.441	4949
878.568	4816
878.696	4877
878.824	4968
878.951	4968
879.079	5162
879.206	5227
879.333	5113
879.461	5048
879.588	4980
879.715	5128
879.842	5242
879.97	5010
880.097	4793
880.224	4790
880.351	4801
880.478	4843
880.605	4778
880.732	4797
880.859	5128
880.986	4900
881.112	4953
881.239	4748
881.366	4698
881.493	4592
881.619	4577
881.746	4611
881.872	4683
881.999	4679
882.125	4664
882.252	4824
882.378	4801
882.505	4968
882.631	4793
882.757	4710
882.883	4744
883.01	4748
883.136	4641
883.262	4599
883.388	4592
883.514	4881
883.64	4866
883.766	4809
883.892	4710
884.018	4748
884.143	4873
884.269	5025
884.395	4607
884.52	4580
884.646	4710
884.772	4618
884.897	4588
885.023	4645
885.148	4812
885.274	4831
885.399	4866
885.524	4729
885.65	4763
885.775	4748
885.9	4717
886.025	4839
886.15	4812
886.275	4740
886.4	4679
886.525	4714
886.65	4714
886.775	4740
886.9	4946
887.025	5041
887.149	4835
887.274	4679
887.399	4592
887.523	4603
887.648	4588
887.773	4558
887.897	4748
888.021	4759
888.146	4683
888.27	4790
888.395	4911
888.519	4809
888.643	4835
888.767	4831
888.891	4691
889.015	4596
889.139	4698
889.263	4573
889.387	4778
889.511	4911
889.635	4801
889.759	4664
889.883	4622
890.006	4710
890.13	4866
890.254	4622
890.377	4717
890.501	4580
890.624	4504
890.748	4622
890.871	4489
890.995	4470
891.118	4398
891.241	4546
891.364	4561
891.488	4653
891.611	4504
891.734	4516
891.857	4615
891.98	4546
892.103	4672
892.226	4577
892.349	4550
892.471	4504
892.594	4519
892.717	4565
892.839	4573
892.962	4561
893.085	4656
893.207	4630
893.33	4558
893.452	4485
893.575	4672
893.697	4558
893.819	4793
893.941	4831
894.064	4740
894.186	4554
894.308	4592
894.43	4748
894.552	4820
894.674	4786
894.796	4546
894.918	4596
895.04	4596
895.161	4683
895.283	4664
895.405	4607
895.526	4622
895.648	4698
895.769	4706
895.891	4729
896.012	4767
896.134	4767
896.255	4641
896.376	4660
896.498	4618
896.619	4641
896.74	4649
896.861	4618
896.982	4961
897.103	5094
897.224	4904
897.345	4767
897.466	4691
897.587	4752
897.708	4873
897.828	4748
897.949	4691
898.07	4584
898.19	4596
898.311	4816
898.431	4615
898.552	4733
898.672	4881
898.792	4774
898.913	4752
899.033	4634
899.153	4504
899.273	4447
899.393	4497
899.513	4565
899.633	4512
899.753	4588
899.873	4573
899.993	4592
900.113	4523
900.232	4603
900.352	4584
900.472	4497
900.591	4424
900.711	4493
900.83	4455
900.95	4611
901.069	4687
901.189	4500
901.308	4360
901.427	4280
901.546	4402
901.665	4478
901.784	4554
901.904	4371
902.023	4303
902.141	4215
902.26	4169
902.379	4295
902.498	4265
902.617	4219
902.735	4394
902.854	4424
902.973	4314
903.091	4192
903.21	4200
903.328	4318
903.446	4299
903.565	4257
903.683	4363
903.801	4230
903.919	4409
904.038	4440
904.156	4371
904.274	4432
904.392	4413
904.51	4481
904.627	4470
904.745	4599
904.863	4668
904.981	4409
905.098	4318
905.216	4375
905.334	4455
905.451	4413
905.569	4474
905.686	4516
905.803	4561
905.921	4462
906.038	4535
906.155	4481
906.272	4413
906.389	4478
906.506	4375
906.623	4383
906.74	4375
906.857	4303
906.974	4398
907.091	4611
907.208	4683
907.324	4615
907.441	4478
907.557	4383
907.674	4333
907.79	4306
907.907	4379
908.023	4538
908.139	4474
908.256	4470
908.372	4535
908.488	4455
908.604	4402
908.72	4333
908.836	4375
908.952	4344
909.068	4443
909.184	4592
909.3	4508
909.415	4592
909.531	4558
909.647	4386
909.762	4390
909.878	4413
909.993	4489
910.108	4459
910.224	4470
910.339	4508
910.454	4451
910.57	4386
910.685	4386
910.8	4687
910.915	4645
911.03	4497
911.145	4386
911.259	4386
911.374	4398
911.489	4352
911.604	4318
911.718	4204
911.833	4284
911.947	4128
912.062	4078
912.176	4253
912.291	4284
912.405	4287
912.519	4497
912.633	4561
912.748	4424
912.862	4371
912.976	4257
913.09	4154
913.204	4238
913.318	4291
913.431	4440
913.545	4379
913.659	4478
913.772	4417
913.886	4276
914	4276
914.113	4432
914.226	4485
914.34	4470
914.453	4318
914.566	4485
914.68	4344
914.793	4402
914.906	4177
915.019	4185
915.132	4143
915.245	4253
915.358	4265
915.47	4261
915.583	4299
915.696	4303
915.809	4462
915.921	4440
916.034	4287
916.146	4249
916.259	4276
916.371	4402
916.483	4360
916.595	4314
916.708	4329
916.82	4352
916.932	4367
917.044	4390
917.156	4371
917.268	4204
917.38	4337
917.491	4268
917.603	4375
917.715	4409
917.826	4481
917.938	4402
918.049	4276
918.161	4451
918.272	4542
918.384	4603
918.495	4466
918.606	4318
918.717	4230
918.828	4405
918.939	4409
919.05	4268
919.161	4390
919.272	4166
919.383	4280
919.494	4516
919.604	4645
919.715	4459
919.826	4409
919.936	4379
920.047	4596
920.157	4538
920.267	4721
920.378	4554
920.488	4569
920.598	4710
920.708	4999
920.818	4774
920.928	4774
921.038	5003
921.148	4915
921.258	4656
921.368	4599
921.477	4527
921.587	4504
921.697	4421
921.806	4588
921.916	4459
922.025	4272
922.134	4280
922.244	4284
922.353	4383
922.462	4253
922.571	4177
922.68	4067
922.789	3998
922.898	4090
923.007	4017
923.116	4120
923.224	4067
923.333	4109
923.442	4002
923.55	4017
923.659	4063
923.767	4158
923.876	4055
923.984	4158
924.092	4055
924.201	4112
924.309	4112
924.417	4090
924.525	4090
924.633	4131
924.741	4953
924.849	3930
924.956	4166
925.064	4040
925.172	3945
925.279	3953
925.387	4109
925.494	4112
925.602	4223
925.709	4215
925.816	4059
925.924	4181
926.031	4276
926.138	4173
926.245	4261
926.352	4135
926.459	4238
926.566	4276
926.673	4166
926.779	4139
926.886	4124
926.993	4040
927.099	3983
927.206	4013
927.312	3994
927.419	4067
927.525	4082
927.631	4093
927.737	3968
927.843	3949
927.95	3896
928.056	3975
928.162	4029
928.267	4090
928.373	4752
928.479	4147
928.585	3930
928.69	4101
928.796	4124
928.901	3987
929.007	3915
929.112	4063
929.218	3991
929.323	3964
929.428	4002
929.533	4147
929.638	3987
929.743	3994
929.848	4055
929.953	3998
930.058	3968
930.163	3781
930.267	3857
930.372	3983
930.477	3854
930.581	4105
930.685	3968
930.79	3835
930.894	3915
930.998	3835
931.103	4063
931.207	3740
931.311	3713
931.415	3705
931.519	3538
931.623	3561
