Data from test_V78500241_1793.txt Node
Date: Fri Mar 25 17:01:28 CST 2022
User: usil
Spectrometer: V785-0024
Trigger mode: 0
Integration Time (sec): 4.000000E-1
Scans to average: 1
Nonlinearity correction enabled: false
Boxcar width: 0
Storing dark spectrum: false
XAxis mode: Wavelengths
Number of Pixels in Spectrum: 1024
>>>>>Begin Spectral Data<<<<<
801.071	7986
801.214	8081
801.356	7986
801.499	7887
801.641	7784
801.783	7822
801.926	7982
802.068	7921
802.211	8054
802.353	8001
802.496	7849
802.638	7879
802.78	7871
802.923	7978
803.065	7963
803.208	7871
803.35	7978
803.492	8119
803.635	8145
803.777	8016
803.919	8081
804.061	8511
804.204	8195
804.346	8005
804.488	7951
804.63	8153
804.773	8031
804.915	8096
805.057	8263
805.199	8153
805.341	8218
805.483	8286
805.626	8263
805.768	8123
805.91	8164
806.052	8210
806.194	8183
806.336	8332
806.478	8119
806.62	8035
806.762	8210
806.904	8324
807.046	8488
807.188	8377
807.33	8332
807.472	8328
807.614	8248
807.756	8225
807.898	8069
808.04	7833
808.182	7909
808.324	7902
808.465	7963
808.607	8123
808.749	8123
808.891	8191
809.033	8389
809.174	8130
809.316	8065
809.458	8103
809.6	8077
809.741	8016
809.883	8046
810.025	8157
810.166	8115
810.308	8039
810.45	8008
810.591	7860
810.733	7807
810.875	7696
811.016	7533
811.158	7483
811.299	7613
811.441	7750
811.582	7700
811.724	7559
811.865	7620
812.007	7594
812.148	7632
812.29	7662
812.431	7712
812.573	7902
812.714	8024
812.855	8138
812.997	8221
813.138	8355
813.279	8161
813.421	8088
813.562	7982
813.703	7818
813.845	7742
813.986	7441
814.127	7236
814.268	7209
814.41	7194
814.551	7228
814.692	7251
814.833	7091
814.974	7114
815.115	7187
815.256	6973
815.397	6947
815.539	6890
815.68	6852
815.821	6806
815.962	6901
816.103	6818
816.244	6696
816.385	6642
816.526	6585
816.666	6506
816.807	6372
816.948	6464
817.089	6475
817.23	6426
817.371	6350
817.512	6388
817.653	6380
817.793	6357
817.934	6433
818.075	6445
818.216	6418
818.356	6429
818.497	6327
818.638	6098
818.778	6148
818.919	6144
819.06	6171
819.2	6319
819.341	6334
819.481	6350
819.622	6536
819.762	6722
819.903	6688
820.043	6620
820.184	6601
820.324	6608
820.465	6738
820.605	6635
820.746	6646
820.886	6525
821.026	6681
821.167	6783
821.307	6829
821.447	6829
821.588	6669
821.728	6540
821.868	6460
822.008	6311
822.149	6361
822.289	6380
822.429	6155
822.569	6110
822.709	6079
822.849	5935
822.99	5901
823.13	5942
823.27	5927
823.41	5802
823.55	5809
823.69	5775
823.83	5733
823.97	5714
824.11	5505
824.25	5524
824.389	5543
824.529	5520
824.669	5554
824.809	5680
824.949	5672
825.089	5604
825.228	5558
825.368	5444
825.508	5345
825.648	5345
825.787	5402
825.927	5410
826.067	5337
826.206	5360
826.346	5402
826.485	5433
826.625	5421
826.765	5562
826.904	5463
827.044	5265
827.183	5239
827.323	5178
827.462	5258
827.601	5201
827.741	5178
827.88	5239
828.02	5170
828.159	5227
828.298	5330
828.437	5402
828.577	5273
828.716	5505
828.855	5315
828.994	5166
829.134	5136
829.273	5227
829.412	5105
829.551	5109
829.69	5166
829.829	5261
829.968	5372
830.107	5284
830.246	5296
830.385	5155
830.524	5155
830.663	5075
830.802	4949
830.941	4938
831.08	4911
831.219	4968
831.357	4987
831.496	5147
831.635	4961
831.774	4870
831.913	4847
832.051	4763
832.19	4767
832.329	4828
832.467	4725
832.606	4622
832.744	4740
832.883	4717
833.022	4748
833.16	4793
833.299	4812
833.437	4839
833.576	4850
833.714	4835
833.852	4870
833.991	4866
834.129	4930
834.267	4919
834.406	4927
834.544	4961
834.682	5014
834.821	4999
834.959	5128
835.097	4949
835.235	5143
835.373	5094
835.511	5147
835.65	5052
835.788	5029
835.926	4900
836.064	4885
836.202	4889
836.34	5204
836.478	5216
836.615	5113
836.753	5159
836.891	5299
837.029	5193
837.167	5246
837.305	5189
837.443	5170
837.58	5098
837.718	5254
837.856	5193
837.993	5113
838.131	5159
838.269	5288
838.406	5212
838.544	5231
838.681	5071
838.819	5029
838.956	4881
839.094	4904
839.231	4953
839.369	5083
839.506	5459
839.643	5265
839.781	5064
839.918	5010
840.055	5109
840.193	5128
840.33	5105
840.467	5162
840.604	5143
840.742	5436
840.879	5079
841.016	5185
841.153	5162
841.29	5383
841.427	5311
841.564	5307
841.701	5315
841.838	5311
841.975	5231
842.112	5258
842.249	5159
842.385	5109
842.522	5353
842.659	5151
842.796	5105
842.933	5189
843.069	5220
843.206	5117
843.343	5334
843.479	5201
843.616	5280
843.752	5071
843.889	5003
844.025	5178
844.162	5033
844.298	5220
844.435	5140
844.571	5102
844.708	5159
844.844	5311
844.98	5307
845.117	5299
845.253	5162
845.389	5033
845.525	5197
845.661	5151
845.798	5029
845.934	5128
846.07	5003
846.206	5189
846.342	5292
846.478	5204
846.614	5048
846.75	4927
846.886	4980
847.022	5162
847.158	5003
847.294	5117
847.429	5090
847.565	5037
847.701	5292
847.837	4873
847.972	4831
848.108	4995
848.244	4934
848.379	4828
848.515	4759
848.65	4698
848.786	4755
848.921	4824
849.057	4885
849.192	4873
849.328	4782
849.463	4828
849.598	4809
849.734	4793
849.869	4702
850.004	4622
850.14	4630
850.275	4653
850.41	4546
850.545	4565
850.68	4637
850.815	4607
850.95	4622
851.085	4873
851.22	4717
851.355	4653
851.49	4641
851.625	4660
851.76	4641
851.895	4542
852.03	4497
852.165	4626
852.299	4748
852.434	4778
852.569	4782
852.703	4733
852.838	4812
852.973	4961
853.107	4915
853.242	4752
853.376	4702
853.511	4531
853.645	4588
853.78	4778
853.914	4679
854.048	4653
854.183	4641
854.317	4649
854.451	4892
854.585	4698
854.72	4649
854.854	4752
854.988	4630
855.122	4668
855.256	4527
855.39	4714
855.524	4850
855.658	4725
855.792	4710
855.926	4740
856.06	4782
856.194	4812
856.327	4698
856.461	4580
856.595	4630
856.729	4672
856.862	4812
856.996	4672
857.13	4771
857.263	4778
857.397	4752
857.53	4683
857.664	4721
857.797	4767
857.931	4755
858.064	4660
858.197	4752
858.331	4660
858.464	4622
858.597	4554
858.731	4656
858.864	4637
858.997	4622
859.13	4611
859.263	4679
859.396	4687
859.529	4573
859.662	4577
859.795	4580
859.928	4664
860.061	4748
860.194	4767
860.327	4603
860.46	4611
860.592	4698
860.725	4691
860.858	4702
860.99	4542
861.123	4569
861.256	4497
861.388	4611
861.521	5299
861.653	4500
861.786	4478
861.918	4455
862.05	4535
862.183	4561
862.315	4630
862.447	4626
862.58	4508
862.712	4440
862.844	4356
862.976	4462
863.108	4428
863.24	4862
863.372	4394
863.504	4405
863.636	4447
863.768	4481
863.9	4398
864.032	4390
864.164	4424
864.296	4478
864.428	4538
864.559	4542
864.691	4542
864.823	4542
864.954	4535
865.086	4489
865.217	4459
865.349	4421
865.48	4466
865.612	4470
865.743	4649
865.875	4504
866.006	4462
866.137	4485
866.269	4462
866.4	4447
866.531	4421
866.662	4413
866.793	4421
866.924	4409
867.055	4500
867.186	4413
867.317	4398
867.448	4424
867.579	4405
867.71	4352
867.841	4367
867.972	4451
868.103	4440
868.233	4436
868.364	4432
868.495	4470
868.625	4649
868.756	4771
868.886	4584
869.017	4656
869.147	4759
869.278	4809
869.408	4641
869.539	4634
869.669	4721
869.799	4679
869.929	4782
870.06	4797
870.19	4923
870.32	4915
870.45	4923
870.58	4987
870.71	5086
870.84	5079
870.97	4866
871.1	4889
871.23	5162
871.36	5117
871.489	5029
871.619	5064
871.749	5098
871.879	5132
872.008	5166
872.138	4999
872.267	4980
872.397	4858
872.526	4797
872.656	4668
872.785	4816
872.915	4965
873.044	5037
873.173	4946
873.303	4953
873.432	4965
873.561	5006
873.69	4854
873.819	4847
873.948	4889
874.077	4797
874.206	4793
874.335	4755
874.464	4953
874.593	5124
874.722	4968
874.851	5090
874.979	5075
875.108	5037
875.237	4900
875.365	4873
875.494	4900
875.623	4965
875.751	4828
875.88	4889
876.008	5010
876.136	5094
876.265	5147
876.393	5341
876.521	5254
876.65	5197
876.778	5162
876.906	5105
877.034	5003
877.162	5067
877.29	4968
877.418	4965
877.546	5041
877.674	5094
877.802	5056
877.93	4991
878.058	4980
878.185	4858
878.313	4949
878.441	4919
878.568	4801
878.696	4908
878.824	4930
878.951	4999
879.079	5166
879.206	5303
879.333	5109
879.461	4938
879.588	5029
879.715	5105
879.842	5223
879.97	4949
880.097	4793
880.224	4752
880.351	4816
880.478	4816
880.605	4778
880.732	4805
880.859	5025
880.986	4889
881.112	4885
881.239	4763
881.366	4679
881.493	4584
881.619	4554
881.746	4611
881.872	4622
881.999	4653
882.125	4672
882.252	4771
882.378	4870
882.505	4934
882.631	4782
882.757	4664
882.883	4771
883.01	4683
883.136	4710
883.262	4596
883.388	4596
883.514	4809
883.64	4847
883.766	4812
883.892	4656
884.018	4656
884.143	4858
884.269	4999
884.395	4668
884.52	4656
884.646	4656
884.772	4607
884.897	4550
885.023	4660
885.148	4759
885.274	4866
885.399	4854
885.524	4706
885.65	4736
885.775	4687
885.9	4698
886.025	4858
886.15	4809
886.275	4717
886.4	4653
886.525	4744
886.65	4626
886.775	4679
886.9	4866
887.025	5052
887.149	4797
887.274	4641
887.399	4546
887.523	4611
887.648	4569
887.773	4538
887.897	4759
888.021	4733
888.146	4698
888.27	4828
888.395	4938
888.519	4831
888.643	4801
888.767	4854
888.891	4675
889.015	4558
889.139	4668
889.263	4599
889.387	4710
889.511	4896
889.635	4809
889.759	4637
889.883	4634
890.006	4691
890.13	4828
890.254	4649
890.377	4660
890.501	4531
890.624	4565
890.748	4649
890.871	4527
890.995	4466
891.118	4379
891.241	4493
891.364	4573
891.488	4630
891.611	4478
891.734	4546
891.857	4573
891.98	4542
892.103	4622
892.226	4611
892.349	4596
892.471	4459
892.594	4577
892.717	4588
892.839	4542
892.962	4618
893.085	4599
893.207	4607
893.33	4462
893.452	4500
893.575	4634
893.697	4615
893.819	4809
893.941	4809
894.064	4759
894.186	4569
894.308	4542
894.43	4710
894.552	4854
894.674	4748
894.796	4596
894.918	4569
895.04	4558
895.161	4706
895.283	4660
895.405	4584
895.526	4637
895.648	4740
895.769	4675
895.891	4672
896.012	4698
896.134	4721
896.255	4653
896.376	4637
896.498	4603
896.619	4660
896.74	4622
896.861	4668
896.982	4900
897.103	5102
897.224	4824
897.345	4733
897.466	4683
897.587	4698
897.708	4843
897.828	4774
897.949	4683
898.07	4580
898.19	4706
898.311	4778
898.431	4664
898.552	4698
898.672	4816
898.792	4797
898.913	4733
899.033	4592
899.153	4542
899.273	4417
899.393	4527
899.513	4519
899.633	4535
899.753	4588
899.873	4485
899.993	4531
900.113	4531
900.232	4599
900.352	4485
900.472	4489
900.591	4428
900.711	4493
900.83	4405
900.95	4603
901.069	4702
901.189	4504
901.308	4356
901.427	4276
901.546	4375
901.665	4470
901.784	4497
901.904	4375
902.023	4284
902.141	4169
902.26	4181
902.379	4303
902.498	4261
902.617	4207
902.735	4367
902.854	4386
902.973	4341
903.091	4207
903.21	4253
903.328	4284
903.446	4291
903.565	4234
903.683	4344
903.801	4284
903.919	4417
904.038	4432
904.156	4276
904.274	4443
904.392	4447
904.51	4436
904.627	4451
904.745	4538
904.863	4607
904.981	4386
905.098	4310
905.216	4322
905.334	4398
905.451	4440
905.569	4428
905.686	4542
905.803	4569
905.921	4459
906.038	4611
906.155	4485
906.272	4413
906.389	4417
906.506	4333
906.623	4329
906.74	4383
906.857	4322
906.974	4375
907.091	4531
907.208	4656
907.324	4554
907.441	4462
907.557	4325
907.674	4367
907.79	4280
907.907	4341
908.023	4508
908.139	4424
908.256	4417
908.372	4493
908.488	4413
908.604	4352
908.72	4344
908.836	4363
908.952	4363
909.068	4413
909.184	4531
909.3	4474
909.415	4573
909.531	4550
909.647	4329
909.762	4348
909.878	4333
909.993	4413
910.108	4405
910.224	4390
910.339	4436
910.454	4398
910.57	4352
910.685	4318
910.8	4649
910.915	4561
911.03	4516
911.145	4333
911.259	4325
911.374	4360
911.489	4280
911.604	4284
911.718	4162
911.833	4181
911.947	4071
912.062	4063
912.176	4211
912.291	4268
912.405	4223
912.519	4474
912.633	4489
912.748	4367
912.862	4295
912.976	4215
913.09	4116
913.204	4166
913.318	4272
913.431	4390
913.545	4360
913.659	4440
913.772	4329
913.886	4257
914	4204
914.113	4390
914.226	4455
914.34	4390
914.453	4169
914.566	4440
914.68	4272
914.793	4322
914.906	4173
915.019	4124
915.132	4112
915.245	4162
915.358	4200
915.47	4204
915.583	4291
915.696	4272
915.809	4394
915.921	4432
916.034	4192
916.146	4249
916.259	4223
916.371	4402
916.483	4295
916.595	4234
916.708	4280
916.82	4310
916.932	4265
917.044	4314
917.156	4322
917.268	4261
917.38	4253
917.491	4238
917.603	4337
917.715	4436
917.826	4413
917.938	4284
918.049	4276
918.161	4356
918.272	4489
918.384	4481
918.495	4447
918.606	4287
918.717	4249
918.828	4318
918.939	4318
919.05	4322
919.161	4310
919.272	4150
919.383	4211
919.494	4462
919.604	4611
919.715	4428
919.826	4310
919.936	4402
920.047	4497
920.157	4500
920.267	4679
920.378	4577
920.488	4519
920.598	4717
920.708	4889
920.818	4767
920.928	4706
921.038	4961
921.148	4946
921.258	4607
921.368	4550
921.477	4474
921.587	4447
921.697	4333
921.806	4569
921.916	4413
922.025	4325
922.134	4306
922.244	4223
922.353	4295
922.462	4173
922.571	4135
922.68	3998
922.789	3941
922.898	4013
923.007	3964
923.116	4082
923.224	4048
923.333	4067
923.442	3991
923.55	4006
923.659	4025
923.767	4128
923.876	3979
923.984	4078
924.092	3975
924.201	4097
924.309	4063
924.417	4120
924.525	4010
924.633	4112
924.741	5006
924.849	3907
924.956	4112
925.064	3930
925.172	3968
925.279	3964
925.387	4067
925.494	4086
925.602	4173
925.709	4215
925.816	4032
925.924	4090
926.031	4230
926.138	4116
926.245	4211
926.352	4074
926.459	4223
926.566	4291
926.673	4158
926.779	4116
926.886	4105
926.993	3987
927.099	3964
927.206	3930
927.312	3922
927.419	4105
927.525	4029
927.631	4097
927.737	3979
927.843	3964
927.95	3827
928.056	3911
928.162	3972
928.267	4032
928.373	4523
928.479	4131
928.585	3857
928.69	3968
928.796	4116
928.901	3998
929.007	3865
929.112	3979
929.218	3994
929.323	3949
929.428	3945
929.533	4093
929.638	3896
929.743	3968
929.848	4082
929.953	3953
930.058	3937
930.163	3778
930.267	3835
930.372	3937
930.477	3819
930.581	4078
930.685	3975
930.79	3865
930.894	3854
930.998	3827
931.103	4010
931.207	3713
931.311	3694
931.415	3671
931.519	3526
931.623	3557
