Data from test_V78500241_2784.txt Node
Date: Fri Mar 25 17:08:21 CST 2022
User: usil
Spectrometer: V785-0024
Trigger mode: 0
Integration Time (sec): 4.000000E-1
Scans to average: 1
Nonlinearity correction enabled: false
Boxcar width: 0
Storing dark spectrum: false
XAxis mode: Wavelengths
Number of Pixels in Spectrum: 1024
>>>>>Begin Spectral Data<<<<<
801.071	8024
801.214	8058
801.356	7887
801.499	7868
801.641	7799
801.783	7814
801.926	8008
802.068	7909
802.211	8012
802.353	8001
802.496	7841
802.638	7887
802.78	7875
802.923	8005
803.065	7898
803.208	7906
803.35	7928
803.492	8069
803.635	8199
803.777	7986
803.919	8062
804.061	8457
804.204	8168
804.346	8134
804.488	7902
804.63	8084
804.773	7944
804.915	8149
805.057	8279
805.199	8187
805.341	8214
805.483	8298
805.626	8187
805.768	8180
805.91	8202
806.052	8214
806.194	8134
806.336	8290
806.478	8096
806.62	8081
806.762	8172
806.904	8263
807.046	8332
807.188	8400
807.33	8339
807.472	8286
807.614	8111
807.756	8221
807.898	8046
808.04	7890
808.182	7845
808.324	7955
808.465	7936
808.607	8084
808.749	8191
808.891	8279
809.033	8370
809.174	8240
809.316	8008
809.458	8050
809.6	7974
809.741	8084
809.883	8024
810.025	8096
810.166	8096
810.308	8103
810.45	8001
810.591	7868
810.733	7666
810.875	7719
811.016	7559
811.158	7578
811.299	7597
811.441	7734
811.582	7761
811.724	7601
811.865	7552
812.007	7613
812.148	7586
812.29	7704
812.431	7776
812.573	7883
812.714	8016
812.855	8130
812.997	8176
813.138	8271
813.279	8191
813.421	8145
813.562	8058
813.703	7902
813.845	7792
813.986	7483
814.127	7270
814.268	7179
814.41	7213
814.551	7126
814.692	7187
814.833	7046
814.974	7168
815.115	7076
815.256	6875
815.397	6916
815.539	6966
815.68	6875
815.821	6772
815.962	6814
816.103	6791
816.244	6730
816.385	6642
816.526	6635
816.666	6490
816.807	6384
816.948	6498
817.089	6517
817.23	6456
817.371	6357
817.512	6369
817.653	6395
817.793	6315
817.934	6445
818.075	6490
818.216	6418
818.356	6407
818.497	6224
818.638	6171
818.778	6136
818.919	6121
819.06	6171
819.2	6353
819.341	6327
819.481	6315
819.622	6547
819.762	6749
819.903	6719
820.043	6639
820.184	6623
820.324	6627
820.465	6707
820.605	6665
820.746	6688
820.886	6532
821.026	6601
821.167	6722
821.307	6844
821.447	6791
821.588	6681
821.728	6574
821.868	6525
822.008	6304
822.149	6388
822.289	6391
822.429	6186
822.569	6159
822.709	6121
822.849	5969
822.99	5882
823.13	5954
823.27	5866
823.41	5805
823.55	5802
823.69	5767
823.83	5794
823.97	5649
824.11	5512
824.25	5528
824.389	5554
824.529	5581
824.669	5497
824.809	5634
824.949	5649
825.089	5684
825.228	5524
825.368	5414
825.508	5368
825.648	5368
825.787	5364
825.927	5387
826.067	5265
826.206	5280
826.346	5311
826.485	5436
826.625	5360
826.765	5528
826.904	5467
827.044	5242
827.183	5193
827.323	5113
827.462	5258
827.601	5147
827.741	5178
827.88	5204
828.02	5086
828.159	5216
828.298	5280
828.437	5376
828.577	5311
828.716	5474
828.855	5345
828.994	5162
829.134	5151
829.273	5140
829.412	5159
829.551	5132
829.69	5178
829.829	5303
829.968	5383
830.107	5299
830.246	5254
830.385	5136
830.524	5113
830.663	5056
830.802	4995
830.941	4927
831.08	4889
831.219	4908
831.357	4911
831.496	5121
831.635	4946
831.774	4835
831.913	4820
832.051	4778
832.19	4736
832.329	4839
832.467	4702
832.606	4660
832.744	4786
832.883	4691
833.022	4717
833.16	4786
833.299	4847
833.437	4839
833.576	4854
833.714	4839
833.852	4889
833.991	4908
834.129	4957
834.267	4915
834.406	4885
834.544	4965
834.682	4995
834.821	4976
834.959	5117
835.097	4957
835.235	5162
835.373	5083
835.511	5067
835.65	5048
835.788	5010
835.926	4862
836.064	4889
836.202	4949
836.34	5136
836.478	5261
836.615	5136
836.753	5174
836.891	5322
837.029	5239
837.167	5239
837.305	5178
837.443	5109
837.58	5067
837.718	5231
837.856	5143
837.993	5121
838.131	5246
838.269	5201
838.406	5132
838.544	5193
838.681	5041
838.819	4976
838.956	4892
839.094	4892
839.231	4972
839.369	5033
839.506	5391
839.643	5258
839.781	5086
839.918	5045
840.055	5132
840.193	5109
840.33	5140
840.467	5128
840.604	5159
840.742	5406
840.879	5045
841.016	5102
841.153	5075
841.29	5349
841.427	5318
841.564	5299
841.701	5364
841.838	5315
841.975	5181
842.112	5246
842.249	5162
842.385	5159
842.522	5269
842.659	5136
842.796	5178
842.933	5193
843.069	5083
843.206	5159
843.343	5315
843.479	5258
843.616	5216
843.752	5014
843.889	4991
844.025	5201
844.162	4980
844.298	5193
844.435	5090
844.571	5029
844.708	5201
844.844	5277
844.98	5322
845.117	5296
845.253	5094
845.389	5075
845.525	5170
845.661	5147
845.798	5033
845.934	5136
846.07	5025
846.206	5235
846.342	5273
846.478	5185
846.614	5064
846.75	4927
846.886	4885
847.022	5136
847.158	5006
847.294	5048
847.429	5086
847.565	5033
847.701	5292
847.837	4843
847.972	4767
848.108	4957
848.244	4953
848.379	4763
848.515	4733
848.65	4710
848.786	4736
848.921	4786
849.057	4854
849.192	4896
849.328	4809
849.463	4847
849.598	4782
849.734	4721
849.869	4698
850.004	4618
850.14	4641
850.275	4580
850.41	4497
850.545	4573
850.68	4622
850.815	4641
850.95	4618
851.085	4816
851.22	4767
851.355	4687
851.49	4618
851.625	4675
851.76	4622
851.895	4588
852.03	4550
852.165	4641
852.299	4694
852.434	4759
852.569	4748
852.703	4763
852.838	4831
852.973	4972
853.107	4896
853.242	4717
853.376	4717
853.511	4538
853.645	4599
853.78	4755
853.914	4706
854.048	4637
854.183	4626
854.317	4694
854.451	4843
854.585	4626
854.72	4641
854.854	4752
854.988	4607
855.122	4626
855.256	4519
855.39	4687
855.524	4782
855.658	4729
855.792	4653
855.926	4717
856.06	4725
856.194	4824
856.327	4698
856.461	4596
856.595	4618
856.729	4653
856.862	4778
856.996	4675
857.13	4763
857.263	4793
857.397	4820
857.53	4592
857.664	4752
857.797	4828
857.931	4793
858.064	4721
858.197	4698
858.331	4691
858.464	4580
858.597	4516
858.731	4630
858.864	4611
858.997	4592
859.13	4611
859.263	4691
859.396	4679
859.529	4577
859.662	4565
859.795	4542
859.928	4649
860.061	4736
860.194	4748
860.327	4649
860.46	4626
860.592	4752
860.725	4691
860.858	4721
860.99	4622
861.123	4531
861.256	4531
861.388	4580
861.521	5315
861.653	4500
861.786	4447
861.918	4497
862.05	4519
862.183	4554
862.315	4588
862.447	4592
862.58	4550
862.712	4386
862.844	4344
862.976	4516
863.108	4455
863.24	4748
863.372	4348
863.504	4447
863.636	4394
863.768	4512
863.9	4455
864.032	4348
864.164	4421
864.296	4443
864.428	4523
864.559	4592
864.691	4527
864.823	4481
864.954	4500
865.086	4542
865.217	4474
865.349	4386
865.48	4451
865.612	4481
865.743	4683
865.875	4424
866.006	4470
866.137	4436
866.269	4432
866.4	4421
866.531	4455
866.662	4417
866.793	4405
866.924	4405
867.055	4531
867.186	4500
867.317	4436
867.448	4352
867.579	4398
867.71	4398
867.841	4360
867.972	4459
868.103	4485
868.233	4432
868.364	4421
868.495	4470
868.625	4641
868.756	4736
868.886	4561
869.017	4580
869.147	4759
869.278	4748
869.408	4634
869.539	4615
869.669	4687
869.799	4679
869.929	4755
870.06	4721
870.19	4953
870.32	4904
870.45	4919
870.58	5025
870.71	5090
870.84	5121
870.97	4949
871.1	4877
871.23	5128
871.36	5098
871.489	4999
871.619	5071
871.749	5098
871.879	5128
872.008	5143
872.138	5052
872.267	4968
872.397	4843
872.526	4763
872.656	4733
872.785	4767
872.915	4972
873.044	5006
873.173	4923
873.303	4980
873.432	4961
873.561	4965
873.69	4900
873.819	4858
873.948	4889
874.077	4801
874.206	4778
874.335	4801
874.464	4904
874.593	5086
874.722	4965
874.851	5086
874.979	5083
875.108	5079
875.237	4927
875.365	4896
875.494	4896
875.623	4942
875.751	4797
875.88	4870
876.008	5041
876.136	5041
876.265	5220
876.393	5410
876.521	5220
876.65	5166
876.778	5136
876.906	5136
877.034	5029
877.162	5071
877.29	5018
877.418	4999
877.546	5003
877.674	5037
877.802	5056
877.93	5064
878.058	4923
878.185	4862
878.313	4938
878.441	4892
878.568	4771
878.696	4885
878.824	4965
878.951	4987
879.079	5109
879.206	5277
879.333	5075
879.461	4968
879.588	4961
879.715	5136
879.842	5201
879.97	4999
880.097	4786
880.224	4748
880.351	4778
880.478	4866
880.605	4801
880.732	4790
880.859	5052
880.986	4889
881.112	4915
881.239	4774
881.366	4710
881.493	4607
881.619	4565
881.746	4641
881.872	4634
881.999	4660
882.125	4702
882.252	4774
882.378	4809
882.505	4984
882.631	4763
882.757	4641
882.883	4740
883.01	4774
883.136	4675
883.262	4622
883.388	4588
883.514	4771
883.64	4911
883.766	4816
883.892	4679
884.018	4687
884.143	4862
884.269	4934
884.395	4649
884.52	4653
884.646	4622
884.772	4618
884.897	4550
885.023	4634
885.148	4790
885.274	4812
885.399	4805
885.524	4698
885.65	4717
885.775	4717
885.9	4710
886.025	4850
886.15	4809
886.275	4668
886.4	4660
886.525	4744
886.65	4702
886.775	4664
886.9	4919
887.025	5052
887.149	4748
887.274	4626
887.399	4580
887.523	4611
887.648	4573
887.773	4558
887.897	4763
888.021	4805
888.146	4679
888.27	4771
888.395	4904
888.519	4793
888.643	4839
888.767	4816
888.891	4698
889.015	4603
889.139	4630
889.263	4607
889.387	4763
889.511	4862
889.635	4824
889.759	4611
889.883	4607
890.006	4759
890.13	4877
890.254	4599
890.377	4698
890.501	4558
890.624	4516
890.748	4588
890.871	4489
890.995	4409
891.118	4409
891.241	4538
891.364	4497
891.488	4668
891.611	4512
891.734	4558
891.857	4596
891.98	4561
892.103	4618
892.226	4622
892.349	4489
892.471	4447
892.594	4550
892.717	4626
892.839	4565
892.962	4599
893.085	4656
893.207	4588
893.33	4497
893.452	4523
893.575	4675
893.697	4592
893.819	4805
893.941	4786
894.064	4752
894.186	4565
894.308	4554
894.43	4736
894.552	4797
894.674	4683
894.796	4550
894.918	4607
895.04	4542
895.161	4714
895.283	4641
895.405	4596
895.526	4630
895.648	4698
895.769	4717
895.891	4736
896.012	4725
896.134	4729
896.255	4656
896.376	4626
896.498	4592
896.619	4668
896.74	4573
896.861	4584
896.982	4892
897.103	5117
897.224	4812
897.345	4744
897.466	4660
897.587	4698
897.708	4911
897.828	4755
897.949	4698
898.07	4584
898.19	4584
898.311	4824
898.431	4683
898.552	4714
898.672	4809
898.792	4797
898.913	4774
899.033	4687
899.153	4466
899.273	4432
899.393	4523
899.513	4554
899.633	4455
899.753	4596
899.873	4493
899.993	4558
900.113	4561
900.232	4603
900.352	4485
900.472	4500
900.591	4402
900.711	4466
900.83	4443
900.95	4622
901.069	4675
901.189	4550
901.308	4383
901.427	4367
901.546	4390
901.665	4481
901.784	4516
901.904	4348
902.023	4333
902.141	4181
902.26	4173
902.379	4280
902.498	4291
902.617	4257
902.735	4394
902.854	4337
902.973	4367
903.091	4181
903.21	4223
903.328	4272
903.446	4291
903.565	4253
903.683	4360
903.801	4291
903.919	4394
904.038	4379
904.156	4287
904.274	4386
904.392	4421
904.51	4424
904.627	4466
904.745	4599
904.863	4664
904.981	4394
905.098	4287
905.216	4299
905.334	4462
905.451	4409
905.569	4386
905.686	4573
905.803	4565
905.921	4421
906.038	4546
906.155	4462
906.272	4375
906.389	4436
906.506	4367
906.623	4352
906.74	4371
906.857	4287
906.974	4333
907.091	4558
907.208	4653
907.324	4588
907.441	4535
907.557	4341
907.674	4363
907.79	4318
907.907	4352
908.023	4466
908.139	4443
908.256	4459
908.372	4481
908.488	4447
908.604	4363
908.72	4325
908.836	4409
908.952	4348
909.068	4432
909.184	4618
909.3	4432
909.415	4584
909.531	4554
909.647	4356
909.762	4329
909.878	4287
909.993	4462
910.108	4409
910.224	4386
910.339	4459
910.454	4402
910.57	4413
910.685	4276
910.8	4679
910.915	4542
911.03	4500
911.145	4348
911.259	4314
911.374	4371
911.489	4299
911.604	4276
911.718	4124
911.833	4196
911.947	4029
912.062	4025
912.176	4207
912.291	4211
912.405	4257
912.519	4493
912.633	4478
912.748	4371
912.862	4291
912.976	4181
913.09	4093
913.204	4166
913.318	4234
913.431	4417
913.545	4341
913.659	4394
913.772	4318
913.886	4249
914	4207
914.113	4348
914.226	4440
914.34	4394
914.453	4169
914.566	4455
914.68	4329
914.793	4356
914.906	4150
915.019	4074
915.132	4086
915.245	4181
915.358	4227
915.47	4261
915.583	4299
915.696	4249
915.809	4363
915.921	4428
916.034	4291
916.146	4246
916.259	4227
916.371	4379
916.483	4383
916.595	4246
916.708	4314
916.82	4253
916.932	4310
917.044	4402
917.156	4322
917.268	4261
917.38	4238
917.491	4306
917.603	4352
917.715	4409
917.826	4436
917.938	4348
918.049	4230
918.161	4417
918.272	4603
918.384	4516
918.495	4478
918.606	4299
918.717	4223
918.828	4322
918.939	4367
919.05	4242
919.161	4379
919.272	4135
919.383	4238
919.494	4424
919.604	4596
919.715	4447
919.826	4356
919.936	4405
920.047	4546
920.157	4485
920.267	4714
920.378	4588
920.488	4523
920.598	4702
920.708	4870
920.818	4733
920.928	4744
921.038	4923
921.148	4961
921.258	4649
921.368	4546
921.477	4497
921.587	4432
921.697	4383
921.806	4546
921.916	4470
922.025	4265
922.134	4276
922.244	4230
922.353	4325
922.462	4162
922.571	4120
922.68	4036
922.789	3972
922.898	4071
923.007	4013
923.116	4097
923.224	4040
923.333	4078
923.442	3953
923.55	4010
923.659	3987
923.767	4116
923.876	3979
923.984	4131
924.092	4002
924.201	4006
924.309	4086
924.417	4131
924.525	4082
924.633	4120
924.741	4915
924.849	3911
924.956	4086
925.064	3956
925.172	3945
925.279	3960
925.387	4051
925.494	4059
925.602	4242
925.709	4185
925.816	4044
925.924	4143
926.031	4200
926.138	4204
926.245	4166
926.352	4048
926.459	4265
926.566	4276
926.673	4150
926.779	4067
926.886	4124
926.993	3953
927.099	3945
927.206	3930
927.312	3953
927.419	4086
927.525	4040
927.631	4090
927.737	3979
927.843	3941
927.95	3831
928.056	4002
928.162	4013
928.267	4021
928.373	4729
928.479	4116
928.585	3903
928.69	4021
928.796	4063
928.901	3983
929.007	3816
929.112	4036
929.218	3934
929.323	3953
929.428	3964
929.533	4086
929.638	3899
929.743	3949
929.848	4013
929.953	3960
930.058	3884
930.163	3797
930.267	3781
930.372	3991
930.477	3778
930.581	4112
930.685	3937
930.79	3842
930.894	3880
930.998	3873
931.103	4017
931.207	3717
931.311	3705
931.415	3705
931.519	3500
931.623	3545
