Data from test_V78500241_2440.txt Node
Date: Fri Mar 25 17:05:58 CST 2022
User: usil
Spectrometer: V785-0024
Trigger mode: 0
Integration Time (sec): 4.000000E-1
Scans to average: 1
Nonlinearity correction enabled: false
Boxcar width: 0
Storing dark spectrum: false
XAxis mode: Wavelengths
Number of Pixels in Spectrum: 1024
>>>>>Begin Spectral Data<<<<<
801.071	8027
801.214	7989
801.356	7856
801.499	7887
801.641	7776
801.783	7803
801.926	7963
802.068	7932
802.211	7913
802.353	7959
802.496	7837
802.638	7871
802.78	7951
802.923	7944
803.065	7860
803.208	7830
803.35	8001
803.492	8058
803.635	8069
803.777	8001
803.919	8111
804.061	8415
804.204	8168
804.346	8081
804.488	7967
804.63	8081
804.773	8020
804.915	8046
805.057	8259
805.199	8111
805.341	8210
805.483	8309
805.626	8259
805.768	8142
805.91	8286
806.052	8119
806.194	8103
806.336	8282
806.478	8119
806.62	8027
806.762	8134
806.904	8229
807.046	8339
807.188	8385
807.33	8301
807.472	8374
807.614	8077
807.756	8008
807.898	8077
808.04	7818
808.182	7830
808.324	7887
808.465	7944
808.607	8031
808.749	8119
808.891	8157
809.033	8351
809.174	8195
809.316	8058
809.458	8027
809.6	7974
809.741	8012
809.883	8024
810.025	8100
810.166	8031
810.308	8008
810.45	8043
810.591	7845
810.733	7746
810.875	7647
811.016	7605
811.158	7403
811.299	7571
811.441	7715
811.582	7609
811.724	7609
811.865	7559
812.007	7559
812.148	7575
812.29	7655
812.431	7776
812.573	7902
812.714	7947
812.855	8138
812.997	8176
813.138	8339
813.279	8149
813.421	8008
813.562	7989
813.703	7833
813.845	7784
813.986	7335
814.127	7244
814.268	7293
814.41	7198
814.551	7171
814.692	7240
814.833	7129
814.974	7091
815.115	7091
815.256	6962
815.397	6958
815.539	6916
815.68	6791
815.821	6730
815.962	6890
816.103	6848
816.244	6749
816.385	6696
816.526	6635
816.666	6498
816.807	6289
816.948	6460
817.089	6426
817.23	6452
817.371	6429
817.512	6380
817.653	6403
817.793	6445
817.934	6418
818.075	6483
818.216	6384
818.356	6395
818.497	6228
818.638	6110
818.778	6178
818.919	6148
819.06	6171
819.2	6338
819.341	6353
819.481	6361
819.622	6536
819.762	6749
819.903	6719
820.043	6642
820.184	6601
820.324	6582
820.465	6692
820.605	6711
820.746	6665
820.886	6486
821.026	6726
821.167	6719
821.307	6806
821.447	6749
821.588	6696
821.728	6570
821.868	6509
822.008	6300
822.149	6418
822.289	6361
822.429	6190
822.569	6136
822.709	6102
822.849	5908
822.99	5920
823.13	5954
823.27	5931
823.41	5764
823.55	5802
823.69	5764
823.83	5775
823.97	5665
824.11	5524
824.25	5543
824.389	5539
824.529	5619
824.669	5573
824.809	5596
824.949	5585
825.089	5573
825.228	5528
825.368	5414
825.508	5372
825.648	5345
825.787	5395
825.927	5368
826.067	5315
826.206	5296
826.346	5376
826.485	5391
826.625	5448
826.765	5554
826.904	5501
827.044	5235
827.183	5216
827.323	5124
827.462	5261
827.601	5143
827.741	5162
827.88	5197
828.02	5102
828.159	5269
828.298	5307
828.437	5357
828.577	5250
828.716	5493
828.855	5277
828.994	5220
829.134	5151
829.273	5174
829.412	5117
829.551	5185
829.69	5136
829.829	5197
829.968	5334
830.107	5296
830.246	5288
830.385	5181
830.524	5159
830.663	5029
830.802	4915
830.941	4873
831.08	4866
831.219	4968
831.357	4900
831.496	5162
831.635	4908
831.774	4881
831.913	4847
832.051	4778
832.19	4717
832.329	4820
832.467	4675
832.606	4630
832.744	4687
832.883	4679
833.022	4733
833.16	4694
833.299	4839
833.437	4873
833.576	4877
833.714	4850
833.852	4858
833.991	4881
834.129	4965
834.267	4957
834.406	4881
834.544	4980
834.682	4987
834.821	4991
834.959	5136
835.097	5010
835.235	5159
835.373	5086
835.511	5086
835.65	5025
835.788	5056
835.926	4904
836.064	4908
836.202	4900
836.34	5189
836.478	5242
836.615	5102
836.753	5239
836.891	5246
837.029	5246
837.167	5189
837.305	5090
837.443	5117
837.58	5094
837.718	5254
837.856	5185
837.993	5128
838.131	5208
838.269	5166
838.406	5212
838.544	5178
838.681	4984
838.819	4987
838.956	4927
839.094	4889
839.231	4972
839.369	5071
839.506	5440
839.643	5288
839.781	5056
839.918	5033
840.055	5113
840.193	5121
840.33	5086
840.467	5109
840.604	5189
840.742	5433
840.879	5113
841.016	5075
841.153	5159
841.29	5372
841.427	5337
841.564	5315
841.701	5326
841.838	5284
841.975	5216
842.112	5303
842.249	5174
842.385	5052
842.522	5292
842.659	5193
842.796	5090
842.933	5166
843.069	5121
843.206	5162
843.343	5296
843.479	5239
843.616	5299
843.752	5003
843.889	4976
844.025	5239
844.162	4976
844.298	5250
844.435	5086
844.571	5083
844.708	5208
844.844	5296
844.98	5303
845.117	5341
845.253	5155
845.389	5025
845.525	5143
845.661	5140
845.798	5029
845.934	5170
846.07	4980
846.206	5204
846.342	5242
846.478	5178
846.614	5037
846.75	4949
846.886	4980
847.022	5113
847.158	4968
847.294	5052
847.429	5124
847.565	5067
847.701	5303
847.837	4854
847.972	4786
848.108	4915
848.244	4927
848.379	4797
848.515	4759
848.65	4706
848.786	4767
848.921	4752
849.057	4839
849.192	4862
849.328	4812
849.463	4862
849.598	4801
849.734	4778
849.869	4683
850.004	4596
850.14	4691
850.275	4565
850.41	4523
850.545	4577
850.68	4588
850.815	4615
850.95	4672
851.085	4786
851.22	4805
851.355	4675
851.49	4569
851.625	4630
851.76	4622
851.895	4561
852.03	4508
852.165	4641
852.299	4710
852.434	4744
852.569	4725
852.703	4755
852.838	4866
852.973	4946
853.107	4873
853.242	4767
853.376	4664
853.511	4512
853.645	4599
853.78	4820
853.914	4698
854.048	4733
854.183	4653
854.317	4725
854.451	4858
854.585	4694
854.72	4630
854.854	4774
854.988	4584
855.122	4649
855.256	4504
855.39	4615
855.524	4752
855.658	4725
855.792	4725
855.926	4748
856.06	4752
856.194	4816
856.327	4683
856.461	4527
856.595	4653
856.729	4664
856.862	4736
856.996	4683
857.13	4721
857.263	4748
857.397	4786
857.53	4622
857.664	4702
857.797	4740
857.931	4717
858.064	4687
858.197	4691
858.331	4611
858.464	4596
858.597	4500
858.731	4618
858.864	4615
858.997	4565
859.13	4641
859.263	4664
859.396	4698
859.529	4569
859.662	4577
859.795	4550
859.928	4637
860.061	4740
860.194	4790
860.327	4588
860.46	4577
860.592	4793
860.725	4687
860.858	4759
860.99	4596
861.123	4500
861.256	4538
861.388	4569
861.521	5277
861.653	4440
861.786	4504
861.918	4413
862.05	4523
862.183	4531
862.315	4656
862.447	4660
862.58	4558
862.712	4402
862.844	4310
862.976	4489
863.108	4432
863.24	4721
863.372	4318
863.504	4409
863.636	4356
863.768	4462
863.9	4390
864.032	4390
864.164	4417
864.296	4542
864.428	4561
864.559	4573
864.691	4538
864.823	4508
864.954	4508
865.086	4443
865.217	4440
865.349	4409
865.48	4417
865.612	4493
865.743	4611
865.875	4497
866.006	4421
866.137	4413
866.269	4459
866.4	4421
866.531	4432
866.662	4375
866.793	4413
866.924	4379
867.055	4504
867.186	4417
867.317	4363
867.448	4356
867.579	4363
867.71	4383
867.841	4337
867.972	4421
868.103	4405
868.233	4436
868.364	4436
868.495	4474
868.625	4641
868.756	4767
868.886	4546
869.017	4588
869.147	4714
869.278	4778
869.408	4611
869.539	4615
869.669	4717
869.799	4675
869.929	4706
870.06	4801
870.19	4949
870.32	4930
870.45	4942
870.58	4972
870.71	5121
870.84	5109
870.97	4942
871.1	4904
871.23	5185
871.36	5083
871.489	4965
871.619	5071
871.749	5102
871.879	5140
872.008	5193
872.138	5041
872.267	4965
872.397	4885
872.526	4763
872.656	4729
872.785	4847
872.915	4968
873.044	4999
873.173	4965
873.303	4930
873.432	4900
873.561	4961
873.69	4915
873.819	4908
873.948	4946
874.077	4812
874.206	4809
874.335	4774
874.464	4934
874.593	5045
874.722	4908
874.851	5075
874.979	5033
875.108	5041
875.237	4915
875.365	4873
875.494	4930
875.623	4999
875.751	4862
875.88	4896
876.008	4949
876.136	5098
876.265	5170
876.393	5307
876.521	5208
876.65	5216
876.778	5098
876.906	5102
877.034	5113
877.162	4987
877.29	4946
877.418	5075
877.546	5037
877.674	5022
877.802	5010
877.93	5022
878.058	4949
878.185	4828
878.313	4995
878.441	4942
878.568	4786
878.696	4835
878.824	4911
878.951	4987
879.079	5128
879.206	5258
879.333	5056
879.461	4938
879.588	5006
879.715	5117
879.842	5204
879.97	5006
880.097	4824
880.224	4736
880.351	4793
880.478	4786
880.605	4816
880.732	4778
880.859	5090
880.986	4927
881.112	4889
881.239	4793
881.366	4645
881.493	4599
881.619	4569
881.746	4630
881.872	4630
881.999	4656
882.125	4622
882.252	4748
882.378	4828
882.505	4946
882.631	4824
882.757	4668
882.883	4725
883.01	4744
883.136	4679
883.262	4538
883.388	4588
883.514	4782
883.64	4900
883.766	4793
883.892	4683
884.018	4729
884.143	4911
884.269	4984
884.395	4679
884.52	4626
884.646	4634
884.772	4558
884.897	4558
885.023	4679
885.148	4786
885.274	4843
885.399	4809
885.524	4748
885.65	4698
885.775	4702
885.9	4725
886.025	4831
886.15	4778
886.275	4706
886.4	4637
886.525	4755
886.65	4691
886.775	4710
886.9	4889
887.025	5014
887.149	4778
887.274	4607
887.399	4596
887.523	4580
887.648	4592
887.773	4565
887.897	4759
888.021	4782
888.146	4698
888.27	4843
888.395	4885
888.519	4809
888.643	4793
888.767	4847
888.891	4733
889.015	4615
889.139	4679
889.263	4584
889.387	4812
889.511	4923
889.635	4831
889.759	4668
889.883	4702
890.006	4782
890.13	4812
890.254	4694
890.377	4729
890.501	4577
890.624	4569
890.748	4626
890.871	4546
890.995	4474
891.118	4462
891.241	4584
891.364	4588
891.488	4672
891.611	4531
891.734	4565
891.857	4660
891.98	4542
892.103	4725
892.226	4634
892.349	4561
892.471	4447
892.594	4634
892.717	4649
892.839	4573
892.962	4649
893.085	4675
893.207	4672
893.33	4493
893.452	4599
893.575	4710
893.697	4630
893.819	4850
893.941	4911
894.064	4820
894.186	4637
894.308	4577
894.43	4744
894.552	4850
894.674	4733
894.796	4630
894.918	4634
895.04	4611
895.161	4740
895.283	4717
895.405	4630
895.526	4645
895.648	4774
895.769	4733
895.891	4763
896.012	4797
896.134	4755
896.255	4721
896.376	4683
896.498	4603
896.619	4656
896.74	4660
896.861	4664
896.982	5003
897.103	5052
897.224	4866
897.345	4782
897.466	4675
897.587	4767
897.708	4949
897.828	4831
897.949	4710
898.07	4622
898.19	4653
898.311	4854
898.431	4641
898.552	4782
898.672	4866
898.792	4839
898.913	4752
899.033	4641
899.153	4565
899.273	4500
899.393	4497
899.513	4554
899.633	4596
899.753	4550
899.873	4561
899.993	4653
900.113	4542
900.232	4573
900.352	4565
900.472	4542
900.591	4440
900.711	4535
900.83	4481
900.95	4641
901.069	4706
901.189	4565
901.308	4405
901.427	4367
901.546	4428
901.665	4512
901.784	4546
901.904	4402
902.023	4356
902.141	4238
902.26	4166
902.379	4363
902.498	4287
902.617	4230
902.735	4371
902.854	4455
902.973	4421
903.091	4234
903.21	4253
903.328	4314
903.446	4303
903.565	4265
903.683	4363
903.801	4386
903.919	4413
904.038	4485
904.156	4337
904.274	4413
904.392	4470
904.51	4481
904.627	4466
904.745	4577
904.863	4683
904.981	4447
905.098	4352
905.216	4371
905.334	4436
905.451	4447
905.569	4436
905.686	4558
905.803	4573
905.921	4440
906.038	4516
906.155	4527
906.272	4360
906.389	4493
906.506	4375
906.623	4436
906.74	4474
906.857	4386
906.974	4390
907.091	4637
907.208	4725
907.324	4626
907.441	4565
907.557	4306
907.674	4421
907.79	4329
907.907	4409
908.023	4504
908.139	4531
908.256	4428
908.372	4470
908.488	4436
908.604	4375
908.72	4413
908.836	4398
908.952	4451
909.068	4443
909.184	4653
909.3	4527
909.415	4630
909.531	4599
909.647	4447
909.762	4398
909.878	4424
909.993	4424
910.108	4459
910.224	4432
910.339	4489
910.454	4443
910.57	4379
910.685	4360
910.8	4630
910.915	4653
911.03	4538
911.145	4276
911.259	4341
911.374	4417
911.489	4329
911.604	4356
911.718	4215
911.833	4238
911.947	4131
912.062	4086
912.176	4265
912.291	4303
912.405	4234
912.519	4531
912.633	4535
912.748	4421
912.862	4318
912.976	4207
913.09	4135
913.204	4185
913.318	4246
913.431	4417
913.545	4440
913.659	4504
913.772	4405
913.886	4310
914	4249
914.113	4443
914.226	4478
914.34	4402
914.453	4314
914.566	4451
914.68	4318
914.793	4360
914.906	4173
915.019	4150
915.132	4143
915.245	4215
915.358	4219
915.47	4246
915.583	4303
915.696	4314
915.809	4451
915.921	4432
916.034	4295
916.146	4276
916.259	4219
916.371	4462
916.483	4367
916.595	4280
916.708	4295
916.82	4344
916.932	4314
917.044	4322
917.156	4375
917.268	4268
917.38	4261
917.491	4268
917.603	4352
917.715	4470
917.826	4474
917.938	4333
918.049	4272
918.161	4367
918.272	4554
918.384	4580
918.495	4470
918.606	4325
918.717	4280
918.828	4394
918.939	4421
919.05	4310
919.161	4344
919.272	4162
919.383	4280
919.494	4489
919.604	4664
919.715	4428
919.826	4405
919.936	4379
920.047	4558
920.157	4542
920.267	4748
920.378	4565
920.488	4523
920.598	4702
920.708	4911
920.818	4782
920.928	4744
921.038	4957
921.148	4923
921.258	4592
921.368	4569
921.477	4561
921.587	4523
921.697	4409
921.806	4569
921.916	4497
922.025	4253
922.134	4299
922.244	4249
922.353	4356
922.462	4192
922.571	4154
922.68	4067
922.789	3998
922.898	4025
923.007	4025
923.116	4097
923.224	4082
923.333	4101
923.442	4013
923.55	3994
923.659	4044
923.767	4204
923.876	4032
923.984	4128
924.092	4029
924.201	4131
924.309	4101
924.417	4181
924.525	4059
924.633	4162
924.741	5067
924.849	3880
924.956	4143
925.064	4010
925.172	3937
925.279	3983
925.387	4078
925.494	4078
925.602	4234
925.709	4207
925.816	4029
925.924	4154
926.031	4215
926.138	4181
926.245	4238
926.352	4074
926.459	4265
926.566	4295
926.673	4162
926.779	4090
926.886	4059
926.993	3960
927.099	4021
927.206	3975
927.312	3983
927.419	4063
927.525	4021
927.631	4112
927.737	3994
927.843	3937
927.95	3873
928.056	3975
928.162	4025
928.267	4063
928.373	4706
928.479	4101
928.585	3926
928.69	4048
928.796	4131
928.901	3987
929.007	3873
929.112	3998
929.218	3960
929.323	3979
929.428	3941
929.533	4074
929.638	3934
929.743	3953
929.848	4082
929.953	4013
930.058	3960
930.163	3804
930.267	3819
930.372	4067
930.477	3778
930.581	4086
930.685	3975
930.79	3835
930.894	3899
930.998	3850
931.103	4032
931.207	3751
931.311	3724
931.415	3705
931.519	3545
931.623	3599
