Data from test_V78500241_1947.txt Node
Date: Fri Mar 25 17:02:32 CST 2022
User: usil
Spectrometer: V785-0024
Trigger mode: 0
Integration Time (sec): 4.000000E-1
Scans to average: 1
Nonlinearity correction enabled: false
Boxcar width: 0
Storing dark spectrum: false
XAxis mode: Wavelengths
Number of Pixels in Spectrum: 1024
>>>>>Begin Spectral Data<<<<<
801.071	8020
801.214	7925
801.356	7856
801.499	7841
801.641	7845
801.783	7837
801.926	7928
802.068	7959
802.211	8062
802.353	7928
802.496	7898
802.638	7845
802.78	7830
802.923	7879
803.065	7845
803.208	7772
803.35	7936
803.492	8081
803.635	8176
803.777	8024
803.919	8077
804.061	8423
804.204	8195
804.346	8016
804.488	7936
804.63	8043
804.773	8050
804.915	8035
805.057	8370
805.199	8138
805.341	8142
805.483	8214
805.626	8202
805.768	8096
805.91	8183
806.052	8115
806.194	8107
806.336	8271
806.478	8115
806.62	8043
806.762	8161
806.904	8275
807.046	8465
807.188	8351
807.33	8309
807.472	8332
807.614	8142
807.756	8191
807.898	8001
808.04	7856
808.182	7883
808.324	7860
808.465	7894
808.607	8073
808.749	8062
808.891	8202
809.033	8267
809.174	8214
809.316	8164
809.458	8065
809.6	8031
809.741	8035
809.883	7997
810.025	8126
810.166	8008
810.308	7986
810.45	7978
810.591	7852
810.733	7715
810.875	7719
811.016	7499
811.158	7480
811.299	7575
811.441	7643
811.582	7643
811.724	7552
811.865	7556
812.007	7651
812.148	7597
812.29	7613
812.431	7765
812.573	7860
812.714	7963
812.855	8065
812.997	8187
813.138	8256
813.279	8134
813.421	8084
813.562	7871
813.703	7833
813.845	7719
813.986	7411
814.127	7145
814.268	7190
814.41	7206
814.551	7141
814.692	7175
814.833	7103
814.974	7149
815.115	7126
815.256	6947
815.397	6916
815.539	6859
815.68	6791
815.821	6787
815.962	6772
816.103	6814
816.244	6654
816.385	6627
816.526	6589
816.666	6540
816.807	6285
816.948	6467
817.089	6517
817.23	6422
817.371	6327
817.512	6372
817.653	6407
817.793	6399
817.934	6433
818.075	6437
818.216	6418
818.356	6452
818.497	6228
818.638	6060
818.778	6125
818.919	6159
819.06	6125
819.2	6327
819.341	6376
819.481	6315
819.622	6544
819.762	6684
819.903	6688
820.043	6650
820.184	6544
820.324	6536
820.465	6734
820.605	6635
820.746	6662
820.886	6486
821.026	6593
821.167	6707
821.307	6738
821.447	6730
821.588	6639
821.728	6623
821.868	6521
822.008	6292
822.149	6399
822.289	6331
822.429	6140
822.569	6125
822.709	6159
822.849	5980
822.99	5927
823.13	5912
823.27	5885
823.41	5824
823.55	5794
823.69	5798
823.83	5748
823.97	5699
824.11	5547
824.25	5535
824.389	5611
824.529	5581
824.669	5535
824.809	5714
824.949	5661
825.089	5630
825.228	5539
825.368	5425
825.508	5368
825.648	5376
825.787	5417
825.927	5414
826.067	5349
826.206	5307
826.346	5410
826.485	5429
826.625	5463
826.765	5570
826.904	5520
827.044	5311
827.183	5242
827.323	5174
827.462	5284
827.601	5201
827.741	5231
827.88	5250
828.02	5155
828.159	5280
828.298	5372
828.437	5353
828.577	5299
828.716	5509
828.855	5357
828.994	5174
829.134	5159
829.273	5223
829.412	5185
829.551	5261
829.69	5204
829.829	5299
829.968	5440
830.107	5235
830.246	5273
830.385	5212
830.524	5181
830.663	5140
830.802	5003
830.941	4904
831.08	4908
831.219	5052
831.357	5056
831.496	5185
831.635	4927
831.774	4900
831.913	4885
832.051	4763
832.19	4790
832.329	4892
832.467	4729
832.606	4656
832.744	4782
832.883	4752
833.022	4771
833.16	4828
833.299	4892
833.437	4843
833.576	4839
833.714	4904
833.852	4908
833.991	4923
834.129	4968
834.267	4972
834.406	4938
834.544	5018
834.682	4999
834.821	4995
834.959	5212
835.097	5052
835.235	5140
835.373	5105
835.511	5181
835.65	5064
835.788	5025
835.926	4946
836.064	4892
836.202	4980
836.34	5166
836.478	5261
836.615	5140
836.753	5235
836.891	5296
837.029	5296
837.167	5212
837.305	5155
837.443	5170
837.58	5113
837.718	5322
837.856	5181
837.993	5170
838.131	5254
838.269	5242
838.406	5246
838.544	5185
838.681	5067
838.819	4976
838.956	4911
839.094	4938
839.231	5006
839.369	5117
839.506	5425
839.643	5280
839.781	5098
839.918	5056
840.055	5109
840.193	5124
840.33	5178
840.467	5174
840.604	5159
840.742	5433
840.879	5140
841.016	5071
841.153	5174
841.29	5417
841.427	5364
841.564	5425
841.701	5421
841.838	5334
841.975	5216
842.112	5269
842.249	5155
842.385	5174
842.522	5364
842.659	5185
842.796	5174
842.933	5212
843.069	5204
843.206	5174
843.343	5322
843.479	5231
843.616	5296
843.752	5102
843.889	5018
844.025	5250
844.162	5060
844.298	5208
844.435	5143
844.571	5094
844.708	5265
844.844	5322
844.98	5330
845.117	5330
845.253	5132
845.389	5102
845.525	5204
845.661	5170
845.798	5056
845.934	5155
846.07	5075
846.206	5220
846.342	5311
846.478	5197
846.614	5052
846.75	4938
846.886	4938
847.022	5155
847.158	5060
847.294	5109
847.429	5105
847.565	5067
847.701	5372
847.837	4858
847.972	4854
848.108	4957
848.244	4934
848.379	4839
848.515	4748
848.65	4778
848.786	4812
848.921	4816
849.057	4870
849.192	4904
849.328	4847
849.463	4915
849.598	4835
849.734	4797
849.869	4668
850.004	4694
850.14	4683
850.275	4687
850.41	4550
850.545	4569
850.68	4645
850.815	4664
850.95	4641
851.085	4843
851.22	4782
851.355	4717
851.49	4656
851.625	4668
851.76	4660
851.895	4580
852.03	4592
852.165	4653
852.299	4710
852.434	4778
852.569	4710
852.703	4809
852.838	4877
852.973	4965
853.107	4942
853.242	4763
853.376	4694
853.511	4550
853.645	4615
853.78	4820
853.914	4721
854.048	4710
854.183	4664
854.317	4733
854.451	4847
854.585	4668
854.72	4656
854.854	4725
854.988	4596
855.122	4653
855.256	4538
855.39	4694
855.524	4771
855.658	4767
855.792	4748
855.926	4759
856.06	4725
856.194	4835
856.327	4687
856.461	4618
856.595	4641
856.729	4653
856.862	4771
856.996	4744
857.13	4782
857.263	4774
857.397	4820
857.53	4710
857.664	4744
857.797	4733
857.931	4801
858.064	4687
858.197	4771
858.331	4687
858.464	4637
858.597	4512
858.731	4675
858.864	4694
858.997	4596
859.13	4717
859.263	4679
859.396	4694
859.529	4558
859.662	4580
859.795	4500
859.928	4599
860.061	4771
860.194	4782
860.327	4637
860.46	4622
860.592	4782
860.725	4759
860.858	4721
860.99	4634
861.123	4588
861.256	4527
861.388	4611
861.521	5288
861.653	4504
861.786	4493
861.918	4447
862.05	4561
862.183	4588
862.315	4615
862.447	4717
862.58	4546
862.712	4459
862.844	4333
862.976	4478
863.108	4451
863.24	4790
863.372	4329
863.504	4447
863.636	4436
863.768	4508
863.9	4466
864.032	4390
864.164	4447
864.296	4523
864.428	4558
864.559	4558
864.691	4550
864.823	4577
864.954	4500
865.086	4485
865.217	4474
865.349	4443
865.48	4451
865.612	4523
865.743	4603
865.875	4466
866.006	4466
866.137	4519
866.269	4440
866.4	4443
866.531	4455
866.662	4432
866.793	4436
866.924	4428
867.055	4512
867.186	4451
867.317	4451
867.448	4447
867.579	4432
867.71	4440
867.841	4356
867.972	4485
868.103	4500
868.233	4481
868.364	4440
868.495	4531
868.625	4698
868.756	4809
868.886	4577
869.017	4645
869.147	4820
869.278	4744
869.408	4656
869.539	4660
869.669	4755
869.799	4710
869.929	4774
870.06	4714
870.19	4965
870.32	4934
870.45	4968
870.58	5025
870.71	5136
870.84	5151
870.97	4961
871.1	4892
871.23	5147
871.36	5170
871.489	5033
871.619	5090
871.749	5109
871.879	5124
872.008	5220
872.138	5056
872.267	5037
872.397	4839
872.526	4824
872.656	4729
872.785	4870
872.915	4965
873.044	5033
873.173	5010
873.303	4987
873.432	4999
873.561	4980
873.69	4881
873.819	4847
873.948	4908
874.077	4839
874.206	4782
874.335	4809
874.464	4919
874.593	5098
874.722	4991
874.851	5151
874.979	5048
875.108	5056
875.237	4919
875.365	4870
875.494	4930
875.623	4995
875.751	4850
875.88	4892
876.008	4961
876.136	5037
876.265	5231
876.393	5345
876.521	5250
876.65	5250
876.778	5159
876.906	5132
877.034	5048
877.162	5060
877.29	5029
877.418	5052
877.546	5075
877.674	5022
877.802	5071
877.93	5048
878.058	4972
878.185	4908
878.313	5025
878.441	4949
878.568	4790
878.696	4831
878.824	4991
878.951	5018
879.079	5151
879.206	5334
879.333	5121
879.461	4987
879.588	5045
879.715	5090
879.842	5322
879.97	5018
880.097	4809
880.224	4778
880.351	4850
880.478	4854
880.605	4755
880.732	4824
880.859	5143
880.986	4889
881.112	4896
881.239	4866
881.366	4656
881.493	4607
881.619	4618
881.746	4653
881.872	4656
881.999	4649
882.125	4702
882.252	4790
882.378	4820
882.505	4930
882.631	4790
882.757	4637
882.883	4725
883.01	4752
883.136	4702
883.262	4630
883.388	4565
883.514	4847
883.64	4850
883.766	4797
883.892	4698
884.018	4767
884.143	4858
884.269	4999
884.395	4687
884.52	4622
884.646	4675
884.772	4603
884.897	4546
885.023	4702
885.148	4812
885.274	4889
885.399	4835
885.524	4706
885.65	4721
885.775	4717
885.9	4721
886.025	4892
886.15	4828
886.275	4694
886.4	4710
886.525	4767
886.65	4694
886.775	4744
886.9	4930
887.025	5037
887.149	4778
887.274	4611
887.399	4569
887.523	4634
887.648	4565
887.773	4592
887.897	4774
888.021	4793
888.146	4706
888.27	4797
888.395	4858
888.519	4771
888.643	4820
888.767	4801
888.891	4653
889.015	4630
889.139	4637
889.263	4596
889.387	4809
889.511	4866
889.635	4805
889.759	4691
889.883	4626
890.006	4786
890.13	4881
890.254	4577
890.377	4675
890.501	4531
890.624	4523
890.748	4645
890.871	4535
890.995	4383
891.118	4329
891.241	4508
891.364	4558
891.488	4698
891.611	4546
891.734	4569
891.857	4634
891.98	4573
892.103	4630
892.226	4584
892.349	4577
892.471	4428
892.594	4542
892.717	4580
892.839	4588
892.962	4607
893.085	4679
893.207	4603
893.33	4474
893.452	4565
893.575	4664
893.697	4580
893.819	4812
893.941	4839
894.064	4809
894.186	4569
894.308	4592
894.43	4725
894.552	4885
894.674	4805
894.796	4599
894.918	4630
895.04	4535
895.161	4729
895.283	4668
895.405	4615
895.526	4656
895.648	4664
895.769	4706
895.891	4668
896.012	4771
896.134	4702
896.255	4694
896.376	4634
896.498	4603
896.619	4660
896.74	4607
896.861	4687
896.982	4953
897.103	5086
897.224	4790
897.345	4763
897.466	4698
897.587	4767
897.708	4873
897.828	4782
897.949	4687
898.07	4558
898.19	4634
898.311	4801
898.431	4626
898.552	4744
898.672	4782
898.792	4835
898.913	4744
899.033	4626
899.153	4531
899.273	4443
899.393	4508
899.513	4478
899.633	4500
899.753	4500
899.873	4531
899.993	4561
900.113	4558
900.232	4607
900.352	4577
900.472	4500
900.591	4394
900.711	4497
900.83	4451
900.95	4611
901.069	4675
901.189	4512
901.308	4390
901.427	4325
901.546	4356
901.665	4462
901.784	4504
901.904	4428
902.023	4306
902.141	4139
902.26	4150
902.379	4265
902.498	4253
902.617	4219
902.735	4383
902.854	4371
902.973	4337
903.091	4211
903.21	4227
903.328	4310
903.446	4268
903.565	4227
903.683	4325
903.801	4253
903.919	4383
904.038	4440
904.156	4314
904.274	4447
904.392	4405
904.51	4371
904.627	4497
904.745	4584
904.863	4603
904.981	4409
905.098	4303
905.216	4341
905.334	4447
905.451	4443
905.569	4424
905.686	4596
905.803	4565
905.921	4424
906.038	4615
906.155	4500
906.272	4398
906.389	4538
906.506	4333
906.623	4360
906.74	4421
906.857	4303
906.974	4383
907.091	4561
907.208	4702
907.324	4561
907.441	4481
907.557	4322
907.674	4337
907.79	4291
907.907	4371
908.023	4481
908.139	4474
908.256	4470
908.372	4489
908.488	4485
908.604	4390
908.72	4341
908.836	4325
908.952	4402
909.068	4428
909.184	4550
909.3	4443
909.415	4607
909.531	4535
909.647	4325
909.762	4375
909.878	4348
909.993	4421
910.108	4417
910.224	4413
910.339	4436
910.454	4413
910.57	4379
910.685	4306
910.8	4622
910.915	4603
911.03	4500
911.145	4356
911.259	4329
911.374	4333
911.489	4344
911.604	4314
911.718	4196
911.833	4207
911.947	4051
912.062	4067
912.176	4268
912.291	4169
912.405	4272
912.519	4497
912.633	4527
912.748	4348
912.862	4303
912.976	4177
913.09	4109
913.204	4120
913.318	4276
913.431	4333
913.545	4341
913.659	4424
913.772	4356
913.886	4265
914	4261
914.113	4394
914.226	4413
914.34	4352
914.453	4272
914.566	4432
914.68	4333
914.793	4322
914.906	4188
915.019	4112
915.132	4074
915.245	4158
915.358	4223
915.47	4249
915.583	4287
915.696	4291
915.809	4432
915.921	4413
916.034	4268
916.146	4276
916.259	4223
916.371	4337
916.483	4310
916.595	4230
916.708	4352
916.82	4303
916.932	4318
917.044	4337
917.156	4329
917.268	4223
917.38	4287
917.491	4268
917.603	4295
917.715	4367
917.826	4390
917.938	4375
918.049	4227
918.161	4360
918.272	4523
918.384	4565
918.495	4432
918.606	4261
918.717	4227
918.828	4314
918.939	4333
919.05	4253
919.161	4341
919.272	4154
919.383	4196
919.494	4466
919.604	4664
919.715	4413
919.826	4329
919.936	4440
920.047	4508
920.157	4504
920.267	4691
920.378	4546
920.488	4512
920.598	4668
920.708	4938
920.818	4763
920.928	4717
921.038	4934
921.148	4953
921.258	4622
921.368	4565
921.477	4451
921.587	4440
921.697	4398
921.806	4531
921.916	4413
922.025	4204
922.134	4306
922.244	4246
922.353	4272
922.462	4162
922.571	4154
922.68	4025
922.789	3998
922.898	4013
923.007	3972
923.116	4071
923.224	4082
923.333	4105
923.442	4002
923.55	3968
923.659	3983
923.767	4097
923.876	4002
923.984	4139
924.092	4002
924.201	4120
924.309	4051
924.417	4128
924.525	4078
924.633	4143
924.741	5006
924.849	3922
924.956	4131
925.064	3991
925.172	3861
925.279	3975
925.387	4059
925.494	4101
925.602	4219
925.709	4150
925.816	4013
925.924	4116
926.031	4227
926.138	4166
926.245	4177
926.352	4074
926.459	4295
926.566	4299
926.673	4192
926.779	4071
926.886	4090
926.993	3979
927.099	3968
927.206	3930
927.312	3941
927.419	4048
927.525	4002
927.631	4112
927.737	3956
927.843	3918
927.95	3838
928.056	3991
928.162	3979
928.267	4059
928.373	4550
928.479	4124
928.585	3869
928.69	3998
928.796	4040
928.901	3991
929.007	3819
929.112	4017
929.218	3968
929.323	3960
929.428	3926
929.533	4112
929.638	3896
929.743	3945
929.848	4044
929.953	4002
930.058	3896
930.163	3766
930.267	3842
930.372	3953
930.477	3835
930.581	4051
930.685	3937
930.79	3835
930.894	3876
930.998	3880
931.103	4013
931.207	3720
931.311	3720
931.415	3686
931.519	3504
931.623	3580
