Data from test_V78500241_2478.txt Node
Date: Fri Mar 25 17:06:13 CST 2022
User: usil
Spectrometer: V785-0024
Trigger mode: 0
Integration Time (sec): 4.000000E-1
Scans to average: 1
Nonlinearity correction enabled: false
Boxcar width: 0
Storing dark spectrum: false
XAxis mode: Wavelengths
Number of Pixels in Spectrum: 1024
>>>>>Begin Spectral Data<<<<<
801.071	8020
801.214	7974
801.356	7883
801.499	7788
801.641	7723
801.783	7875
801.926	7909
802.068	7894
802.211	7936
802.353	7982
802.496	7841
802.638	7902
802.78	7852
802.923	7883
803.065	7871
803.208	7879
803.35	7894
803.492	8088
803.635	8164
803.777	8054
803.919	8115
804.061	8374
804.204	8138
804.346	8012
804.488	7963
804.63	8073
804.773	7967
804.915	8115
805.057	8240
805.199	8142
805.341	8183
805.483	8240
805.626	8233
805.768	8138
805.91	8164
806.052	8172
806.194	8126
806.336	8199
806.478	8058
806.62	8024
806.762	8100
806.904	8263
807.046	8484
807.188	8324
807.33	8309
807.472	8271
807.614	8126
807.756	8138
807.898	7989
808.04	7898
808.182	7902
808.324	7860
808.465	7894
808.607	7989
808.749	8081
808.891	8183
809.033	8309
809.174	8279
809.316	8084
809.458	8096
809.6	7947
809.741	8043
809.883	7989
810.025	8043
810.166	8054
810.308	7967
810.45	7928
810.591	7890
810.733	7677
810.875	7658
811.016	7514
811.158	7502
811.299	7548
811.441	7753
811.582	7708
811.724	7601
811.865	7571
812.007	7567
812.148	7518
812.29	7651
812.431	7704
812.573	7887
812.714	7959
812.855	8111
812.997	8225
813.138	8305
813.279	8168
813.421	8073
813.562	7955
813.703	7864
813.845	7731
813.986	7480
814.127	7209
814.268	7190
814.41	7247
814.551	7221
814.692	7209
814.833	7164
814.974	7110
815.115	7145
815.256	7004
815.397	6894
815.539	6951
815.68	6791
815.821	6760
815.962	6878
816.103	6783
816.244	6726
816.385	6639
816.526	6681
816.666	6509
816.807	6315
816.948	6452
817.089	6456
817.23	6452
817.371	6395
817.512	6391
817.653	6369
817.793	6418
817.934	6414
818.075	6437
818.216	6395
818.356	6376
818.497	6304
818.638	6163
818.778	6140
818.919	6133
819.06	6155
819.2	6300
819.341	6311
819.481	6395
819.622	6486
819.762	6798
819.903	6745
820.043	6563
820.184	6525
820.324	6646
820.465	6707
820.605	6707
820.746	6677
820.886	6570
821.026	6677
821.167	6677
821.307	6798
821.447	6848
821.588	6692
821.728	6631
821.868	6498
822.008	6323
822.149	6403
822.289	6353
822.429	6175
822.569	6182
822.709	6129
822.849	5950
822.99	5916
823.13	5923
823.27	5935
823.41	5794
823.55	5775
823.69	5737
823.83	5760
823.97	5710
824.11	5512
824.25	5524
824.389	5566
824.529	5638
824.669	5505
824.809	5672
824.949	5615
825.089	5589
825.228	5524
825.368	5474
825.508	5337
825.648	5387
825.787	5357
825.927	5326
826.067	5292
826.206	5349
826.346	5410
826.485	5398
826.625	5429
826.765	5532
826.904	5478
827.044	5250
827.183	5204
827.323	5124
827.462	5239
827.601	5178
827.741	5181
827.88	5185
828.02	5140
828.159	5239
828.298	5349
828.437	5436
828.577	5326
828.716	5493
828.855	5349
828.994	5140
829.134	5117
829.273	5181
829.412	5201
829.551	5159
829.69	5178
829.829	5239
829.968	5417
830.107	5223
830.246	5208
830.385	5143
830.524	5136
830.663	5025
830.802	4972
830.941	4900
831.08	4900
831.219	4953
831.357	4987
831.496	5136
831.635	4949
831.774	4847
831.913	4835
832.051	4752
832.19	4748
832.329	4843
832.467	4637
832.606	4668
832.744	4706
832.883	4736
833.022	4698
833.16	4782
833.299	4797
833.437	4824
833.576	4797
833.714	4854
833.852	4866
833.991	4873
834.129	4968
834.267	4942
834.406	4892
834.544	4968
834.682	4991
834.821	5014
834.959	5140
835.097	4999
835.235	5155
835.373	5083
835.511	5079
835.65	5003
835.788	5048
835.926	4911
836.064	4904
836.202	4908
836.34	5162
836.478	5250
836.615	5143
836.753	5204
836.891	5330
837.029	5246
837.167	5185
837.305	5102
837.443	5159
837.58	5181
837.718	5250
837.856	5143
837.993	5143
838.131	5239
838.269	5246
838.406	5185
838.544	5159
838.681	5056
838.819	5006
838.956	4873
839.094	4896
839.231	4991
839.369	5105
839.506	5425
839.643	5284
839.781	5052
839.918	5037
840.055	5090
840.193	5132
840.33	5124
840.467	5140
840.604	5178
840.742	5376
840.879	5037
841.016	5124
841.153	5151
841.29	5360
841.427	5311
841.564	5330
841.701	5353
841.838	5299
841.975	5201
842.112	5227
842.249	5147
842.385	5113
842.522	5269
842.659	5193
842.796	5174
842.933	5159
843.069	5140
843.206	5147
843.343	5299
843.479	5201
843.616	5250
843.752	5033
843.889	5048
844.025	5201
844.162	4999
844.298	5239
844.435	5109
844.571	5033
844.708	5136
844.844	5315
844.98	5341
845.117	5246
845.253	5086
845.389	5086
845.525	5143
845.661	5128
845.798	5033
845.934	5086
846.07	5041
846.206	5178
846.342	5250
846.478	5121
846.614	5025
846.75	4938
846.886	4927
847.022	5136
847.158	5086
847.294	5025
847.429	5128
847.565	5064
847.701	5277
847.837	4797
847.972	4805
848.108	4915
848.244	4957
848.379	4778
848.515	4767
848.65	4675
848.786	4721
848.921	4782
849.057	4858
849.192	4896
849.328	4828
849.463	4824
849.598	4759
849.734	4733
849.869	4733
850.004	4660
850.14	4687
850.275	4664
850.41	4474
850.545	4546
850.68	4630
850.815	4645
850.95	4645
851.085	4824
851.22	4683
851.355	4694
851.49	4596
851.625	4687
851.76	4656
851.895	4523
852.03	4592
852.165	4649
852.299	4729
852.434	4850
852.569	4733
852.703	4797
852.838	4812
852.973	4976
853.107	4934
853.242	4694
853.376	4660
853.511	4569
853.645	4626
853.78	4786
853.914	4664
854.048	4672
854.183	4615
854.317	4748
854.451	4828
854.585	4694
854.72	4618
854.854	4771
854.988	4634
855.122	4603
855.256	4542
855.39	4637
855.524	4820
855.658	4733
855.792	4675
855.926	4698
856.06	4774
856.194	4759
856.327	4702
856.461	4611
856.595	4641
856.729	4611
856.862	4675
856.996	4683
857.13	4721
857.263	4801
857.397	4759
857.53	4687
857.664	4687
857.797	4744
857.931	4763
858.064	4645
858.197	4763
858.331	4630
858.464	4558
858.597	4531
858.731	4634
858.864	4592
858.997	4588
859.13	4656
859.263	4710
859.396	4714
859.529	4584
859.662	4561
859.795	4565
859.928	4634
860.061	4767
860.194	4786
860.327	4592
860.46	4516
860.592	4736
860.725	4691
860.858	4767
860.99	4592
861.123	4519
861.256	4573
861.388	4599
861.521	5216
861.653	4440
861.786	4481
861.918	4470
862.05	4500
862.183	4603
862.315	4637
862.447	4656
862.58	4565
862.712	4390
862.844	4306
862.976	4447
863.108	4489
863.24	4854
863.372	4341
863.504	4394
863.636	4428
863.768	4500
863.9	4383
864.032	4367
864.164	4390
864.296	4447
864.428	4588
864.559	4561
864.691	4535
864.823	4535
864.954	4485
865.086	4493
865.217	4432
865.349	4447
865.48	4466
865.612	4481
865.743	4611
865.875	4485
866.006	4402
866.137	4470
866.269	4428
866.4	4402
866.531	4409
866.662	4405
866.793	4402
866.924	4413
867.055	4493
867.186	4485
867.317	4413
867.448	4360
867.579	4352
867.71	4409
867.841	4337
867.972	4432
868.103	4455
868.233	4455
868.364	4421
868.495	4466
868.625	4675
868.756	4721
868.886	4523
869.017	4588
869.147	4767
869.278	4736
869.408	4702
869.539	4596
869.669	4725
869.799	4645
869.929	4759
870.06	4774
870.19	4904
870.32	4904
870.45	4923
870.58	5025
870.71	5094
870.84	5048
870.97	4934
871.1	4923
871.23	5117
871.36	5086
871.489	5045
871.619	5071
871.749	5079
871.879	5090
872.008	5151
872.138	5041
872.267	5014
872.397	4839
872.526	4740
872.656	4672
872.785	4763
872.915	4957
873.044	5022
873.173	4953
873.303	4942
873.432	4957
873.561	4900
873.69	4835
873.819	4915
873.948	4900
874.077	4805
874.206	4774
874.335	4763
874.464	4961
874.593	5086
874.722	5003
874.851	5105
874.979	5041
875.108	5022
875.237	4889
875.365	4923
875.494	4896
875.623	4965
875.751	4816
875.88	4927
876.008	4949
876.136	5033
876.265	5242
876.393	5368
876.521	5193
876.65	5201
876.778	5166
876.906	5075
877.034	5025
877.162	5071
877.29	4980
877.418	5033
877.546	5052
877.674	5022
877.802	5037
877.93	4999
878.058	4896
878.185	4919
878.313	4972
878.441	4957
878.568	4790
878.696	4889
878.824	4991
878.951	4995
879.079	5136
879.206	5261
879.333	5090
879.461	4987
879.588	5037
879.715	5140
879.842	5284
879.97	4976
880.097	4771
880.224	4752
880.351	4786
880.478	4843
880.605	4805
880.732	4790
880.859	5045
880.986	4881
881.112	4942
881.239	4771
881.366	4698
881.493	4649
881.619	4546
881.746	4634
881.872	4683
881.999	4653
882.125	4672
882.252	4778
882.378	4828
882.505	4972
882.631	4820
882.757	4687
882.883	4725
883.01	4694
883.136	4641
883.262	4584
883.388	4573
883.514	4801
883.64	4877
883.766	4725
883.892	4660
884.018	4668
884.143	4900
884.269	4987
884.395	4687
884.52	4656
884.646	4626
884.772	4649
884.897	4561
885.023	4645
885.148	4816
885.274	4885
885.399	4793
885.524	4706
885.65	4630
885.775	4782
885.9	4710
886.025	4881
886.15	4812
886.275	4755
886.4	4683
886.525	4702
886.65	4755
886.775	4710
886.9	4892
887.025	5052
887.149	4847
887.274	4611
887.399	4584
887.523	4611
887.648	4531
887.773	4607
887.897	4786
888.021	4763
888.146	4634
888.27	4771
888.395	4934
888.519	4797
888.643	4835
888.767	4870
888.891	4679
889.015	4618
889.139	4653
889.263	4607
889.387	4790
889.511	4801
889.635	4790
889.759	4660
889.883	4649
890.006	4717
890.13	4812
890.254	4599
890.377	4637
890.501	4535
890.624	4535
890.748	4634
890.871	4519
890.995	4447
891.118	4371
891.241	4497
891.364	4542
891.488	4634
891.611	4485
891.734	4519
891.857	4634
891.98	4516
892.103	4675
892.226	4611
892.349	4538
892.471	4459
892.594	4512
892.717	4542
892.839	4542
892.962	4569
893.085	4672
893.207	4577
893.33	4478
893.452	4573
893.575	4668
893.697	4573
893.819	4767
893.941	4812
894.064	4752
894.186	4588
894.308	4603
894.43	4748
894.552	4824
894.674	4752
894.796	4573
894.918	4599
895.04	4546
895.161	4687
895.283	4694
895.405	4565
895.526	4641
895.648	4664
895.769	4668
895.891	4694
896.012	4694
896.134	4691
896.255	4721
896.376	4664
896.498	4611
896.619	4672
896.74	4599
896.861	4596
896.982	4900
897.103	5090
897.224	4820
897.345	4790
897.466	4664
897.587	4683
897.708	4831
897.828	4748
897.949	4729
898.07	4577
898.19	4607
898.311	4843
898.431	4637
898.552	4740
898.672	4797
898.792	4816
898.913	4755
899.033	4645
899.153	4500
899.273	4455
899.393	4504
899.513	4500
899.633	4542
899.753	4565
899.873	4489
899.993	4592
900.113	4500
900.232	4558
900.352	4558
900.472	4474
900.591	4398
900.711	4531
900.83	4432
900.95	4588
901.069	4717
901.189	4527
901.308	4352
901.427	4291
901.546	4352
901.665	4459
901.784	4535
901.904	4386
902.023	4306
902.141	4158
902.26	4139
902.379	4306
902.498	4261
902.617	4257
902.735	4405
902.854	4371
902.973	4352
903.091	4238
903.21	4211
903.328	4333
903.446	4299
903.565	4280
903.683	4318
903.801	4272
903.919	4390
904.038	4436
904.156	4310
904.274	4447
904.392	4413
904.51	4356
904.627	4497
904.745	4538
904.863	4645
904.981	4402
905.098	4291
905.216	4363
905.334	4402
905.451	4428
905.569	4474
905.686	4550
905.803	4523
905.921	4413
906.038	4569
906.155	4481
906.272	4432
906.389	4466
906.506	4314
906.623	4363
906.74	4360
906.857	4333
906.974	4371
907.091	4592
907.208	4656
907.324	4573
907.441	4508
907.557	4310
907.674	4344
907.79	4295
907.907	4402
908.023	4497
908.139	4485
908.256	4402
908.372	4531
908.488	4466
908.604	4394
908.72	4386
908.836	4383
908.952	4379
909.068	4436
909.184	4527
909.3	4504
909.415	4561
909.531	4592
909.647	4333
909.762	4329
909.878	4348
909.993	4421
910.108	4402
910.224	4413
910.339	4432
910.454	4409
910.57	4348
910.685	4303
910.8	4706
910.915	4580
911.03	4500
911.145	4287
911.259	4329
911.374	4394
911.489	4299
911.604	4325
911.718	4124
911.833	4154
911.947	4101
912.062	4036
912.176	4257
912.291	4253
912.405	4223
912.519	4436
912.633	4462
912.748	4409
912.862	4284
912.976	4188
913.09	4150
913.204	4177
913.318	4249
913.431	4405
913.545	4367
913.659	4440
913.772	4341
913.886	4200
914	4219
914.113	4360
914.226	4436
914.34	4371
914.453	4261
914.566	4459
914.68	4303
914.793	4287
914.906	4185
915.019	4116
915.132	4097
915.245	4207
915.358	4234
915.47	4207
915.583	4265
915.696	4272
915.809	4447
915.921	4413
916.034	4238
916.146	4257
916.259	4219
916.371	4390
916.483	4314
916.595	4272
916.708	4314
916.82	4318
916.932	4303
917.044	4276
917.156	4363
917.268	4234
917.38	4272
917.491	4287
917.603	4337
917.715	4428
917.826	4421
917.938	4333
918.049	4207
918.161	4409
918.272	4500
918.384	4516
918.495	4451
918.606	4295
918.717	4253
918.828	4348
918.939	4314
919.05	4242
919.161	4348
919.272	4166
919.383	4219
919.494	4421
919.604	4573
919.715	4462
919.826	4367
919.936	4402
920.047	4554
920.157	4443
920.267	4717
920.378	4508
920.488	4538
920.598	4660
920.708	4866
920.818	4767
920.928	4767
921.038	4953
921.148	4900
921.258	4656
921.368	4527
921.477	4474
921.587	4436
921.697	4421
921.806	4542
921.916	4379
922.025	4333
922.134	4322
922.244	4219
922.353	4341
922.462	4192
922.571	4154
922.68	3964
922.789	4025
922.898	4013
923.007	3983
923.116	4131
923.224	4086
923.333	4086
923.442	3983
923.55	3964
923.659	3994
923.767	4101
923.876	4017
923.984	4097
924.092	4013
924.201	4086
924.309	4082
924.417	4116
924.525	4036
924.633	4116
924.741	5018
924.849	3880
924.956	4109
925.064	4006
925.172	3922
925.279	3934
925.387	4048
925.494	4093
925.602	4227
925.709	4211
925.816	4071
925.924	4166
926.031	4272
926.138	4139
926.245	4230
926.352	4162
926.459	4253
926.566	4337
926.673	4188
926.779	4048
926.886	4067
926.993	3975
927.099	3979
927.206	3926
927.312	3941
927.419	4078
927.525	4021
927.631	4135
927.737	3926
927.843	3953
927.95	3819
928.056	3911
928.162	4006
928.267	4025
928.373	4668
928.479	4112
928.585	3884
928.69	4036
928.796	4074
928.901	3922
929.007	3842
929.112	3972
929.218	3994
929.323	3964
929.428	3953
929.533	4128
929.638	3922
929.743	3994
929.848	4082
929.953	3979
930.058	3880
930.163	3740
930.267	3816
930.372	3972
930.477	3835
930.581	4090
930.685	3945
930.79	3793
930.894	3873
930.998	3838
931.103	4029
931.207	3705
931.311	3690
931.415	3709
931.519	3526
931.623	3584
