Data from test_V78500241_4.txt Node
Date: Fri Mar 25 16:49:01 CST 2022
User: usil
Spectrometer: V785-0024
Trigger mode: 0
Integration Time (sec): 4.000000E-1
Scans to average: 1
Nonlinearity correction enabled: false
Boxcar width: 0
Storing dark spectrum: false
XAxis mode: Wavelengths
Number of Pixels in Spectrum: 1024
>>>>>Begin Spectral Data<<<<<
801.071	8054
801.214	8134
801.356	8012
801.499	7967
801.641	7826
801.783	7917
801.926	8012
802.068	7997
802.211	7982
802.353	8092
802.496	7986
802.638	8005
802.78	7940
802.923	7974
803.065	7978
803.208	7913
803.35	8077
803.492	8123
803.635	8195
803.777	8073
803.919	8168
804.061	8469
804.204	8259
804.346	8088
804.488	8001
804.63	8123
804.773	8024
804.915	8081
805.057	8248
805.199	8210
805.341	8183
805.483	8351
805.626	8240
805.768	8142
805.91	8324
806.052	8244
806.194	8073
806.336	8332
806.478	8069
806.62	8069
806.762	8183
806.904	8336
807.046	8511
807.188	8377
807.33	8343
807.472	8355
807.614	8172
807.756	8111
807.898	8062
808.04	7890
808.182	7974
808.324	7963
808.465	7906
808.607	8084
808.749	8081
808.891	8221
809.033	8271
809.174	8218
809.316	8069
809.458	8012
809.6	7997
809.741	8077
809.883	8073
810.025	8088
810.166	8126
810.308	8077
810.45	8054
810.591	7959
810.733	7734
810.875	7780
811.016	7620
811.158	7506
811.299	7704
811.441	7807
811.582	7677
811.724	7609
811.865	7537
812.007	7708
812.148	7624
812.29	7666
812.431	7799
812.573	7944
812.714	7909
812.855	8123
812.997	8290
813.138	8343
813.279	8214
813.421	8145
813.562	8073
813.703	8001
813.845	7833
813.986	7487
814.127	7308
814.268	7247
814.41	7244
814.551	7232
814.692	7217
814.833	7065
814.974	7118
815.115	7129
815.256	6977
815.397	6932
815.539	6939
815.68	6837
815.821	6859
815.962	6920
816.103	6901
816.244	6791
816.385	6681
816.526	6658
816.666	6574
816.807	6407
816.948	6551
817.089	6467
817.23	6437
817.371	6384
817.512	6388
817.653	6426
817.793	6407
817.934	6414
818.075	6471
818.216	6452
818.356	6460
818.497	6308
818.638	6220
818.778	6175
818.919	6216
819.06	6209
819.2	6384
819.341	6365
819.481	6475
819.622	6551
819.762	6814
819.903	6715
820.043	6730
820.184	6707
820.324	6604
820.465	6726
820.605	6684
820.746	6734
820.886	6608
821.026	6719
821.167	6696
821.307	6920
821.447	6821
821.588	6669
821.728	6604
821.868	6528
822.008	6361
822.149	6388
822.289	6380
822.429	6190
822.569	6053
822.709	6163
822.849	5942
822.99	5999
823.13	5961
823.27	5946
823.41	5805
823.55	5847
823.69	5882
823.83	5828
823.97	5703
824.11	5596
824.25	5573
824.389	5573
824.529	5608
824.669	5589
824.809	5661
824.949	5745
825.089	5695
825.228	5653
825.368	5425
825.508	5429
825.648	5417
825.787	5383
825.927	5455
826.067	5391
826.206	5353
826.346	5402
826.485	5402
826.625	5429
826.765	5619
826.904	5512
827.044	5337
827.183	5261
827.323	5227
827.462	5280
827.601	5242
827.741	5258
827.88	5280
828.02	5208
828.159	5303
828.298	5303
828.437	5398
828.577	5349
828.716	5524
828.855	5452
828.994	5227
829.134	5235
829.273	5254
829.412	5204
829.551	5273
829.69	5201
829.829	5357
829.968	5421
830.107	5364
830.246	5387
830.385	5254
830.524	5201
830.663	5166
830.802	5048
830.941	4980
831.08	4968
831.219	5067
831.357	5056
831.496	5220
831.635	5018
831.774	4911
831.913	4877
832.051	4801
832.19	4900
832.329	4889
832.467	4721
832.606	4675
832.744	4797
832.883	4824
833.022	4809
833.16	4900
833.299	4862
833.437	4919
833.576	4915
833.714	4965
833.852	4972
833.991	5010
834.129	4999
834.267	5029
834.406	5022
834.544	5071
834.682	5143
834.821	5121
834.959	5269
835.097	5083
835.235	5189
835.373	5208
835.511	5208
835.65	5174
835.788	5178
835.926	4984
836.064	4961
836.202	5022
836.34	5258
836.478	5364
836.615	5235
836.753	5292
836.891	5395
837.029	5334
837.167	5258
837.305	5231
837.443	5261
837.58	5223
837.718	5311
837.856	5246
837.993	5242
838.131	5284
838.269	5296
838.406	5273
838.544	5284
838.681	5113
838.819	5113
838.956	5022
839.094	5025
839.231	5079
839.369	5143
839.506	5463
839.643	5391
839.781	5132
839.918	5079
840.055	5193
840.193	5178
840.33	5193
840.467	5181
840.604	5311
840.742	5474
840.879	5143
841.016	5067
841.153	5258
841.29	5459
841.427	5402
841.564	5444
841.701	5425
841.838	5372
841.975	5311
842.112	5387
842.249	5235
842.385	5155
842.522	5433
842.659	5265
842.796	5197
842.933	5280
843.069	5239
843.206	5269
843.343	5372
843.479	5360
843.616	5326
843.752	5147
843.889	5121
844.025	5303
844.162	5083
844.298	5284
844.435	5132
844.571	5181
844.708	5296
844.844	5395
844.98	5448
845.117	5360
845.253	5216
845.389	5174
845.525	5239
845.661	5250
845.798	5117
845.934	5227
846.07	5155
846.206	5242
846.342	5357
846.478	5231
846.614	5060
846.75	5083
846.886	5003
847.022	5212
847.158	5052
847.294	5170
847.429	5193
847.565	5117
847.701	5372
847.837	4980
847.972	4866
848.108	5037
848.244	5037
848.379	4927
848.515	4820
848.65	4828
848.786	4858
848.921	4801
849.057	4991
849.192	4987
849.328	4889
849.463	4919
849.598	4900
849.734	4862
849.869	4748
850.004	4687
850.14	4729
850.275	4702
850.41	4618
850.545	4683
850.68	4653
850.815	4679
850.95	4744
851.085	4858
851.22	4839
851.355	4725
851.49	4755
851.625	4740
851.76	4721
851.895	4637
852.03	4584
852.165	4714
852.299	4805
852.434	4850
852.569	4778
852.703	4843
852.838	4946
852.973	5037
853.107	5006
853.242	4835
853.376	4698
853.511	4668
853.645	4714
853.78	4828
853.914	4790
854.048	4744
854.183	4755
854.317	4793
854.451	4927
854.585	4790
854.72	4679
854.854	4839
854.988	4641
855.122	4664
855.256	4565
855.39	4725
855.524	4877
855.658	4801
855.792	4790
855.926	4767
856.06	4786
856.194	4896
856.327	4774
856.461	4702
856.595	4717
856.729	4702
856.862	4801
856.996	4755
857.13	4786
857.263	4847
857.397	4866
857.53	4752
857.664	4748
857.797	4828
857.931	4839
858.064	4763
858.197	4835
858.331	4752
858.464	4664
858.597	4599
858.731	4729
858.864	4668
858.997	4694
859.13	4748
859.263	4748
859.396	4786
859.529	4687
859.662	4675
859.795	4634
859.928	4694
860.061	4797
860.194	4839
860.327	4668
860.46	4641
860.592	4748
860.725	4771
860.858	4797
860.99	4649
861.123	4565
861.256	4611
861.388	4653
861.521	5463
861.653	4565
861.786	4516
861.918	4512
862.05	4611
862.183	4622
862.315	4702
862.447	4687
862.58	4637
862.712	4462
862.844	4386
862.976	4561
863.108	4516
863.24	4953
863.372	4405
863.504	4550
863.636	4512
863.768	4573
863.9	4558
864.032	4421
864.164	4497
864.296	4577
864.428	4588
864.559	4565
864.691	4630
864.823	4615
864.954	4596
865.086	4599
865.217	4550
865.349	4466
865.48	4508
865.612	4561
865.743	4679
865.875	4588
866.006	4531
866.137	4607
866.269	4538
866.4	4527
866.531	4554
866.662	4440
866.793	4546
866.924	4493
867.055	4599
867.186	4489
867.317	4508
867.448	4485
867.579	4432
867.71	4447
867.841	4512
867.972	4561
868.103	4561
868.233	4500
868.364	4508
868.495	4558
868.625	4721
868.756	4847
868.886	4679
869.017	4702
869.147	4900
869.278	4885
869.408	4759
869.539	4725
869.669	4786
869.799	4721
869.929	4870
870.06	4774
870.19	5003
870.32	4972
870.45	4995
870.58	5098
870.71	5212
870.84	5212
870.97	5003
871.1	4999
871.23	5216
871.36	5155
871.489	5094
871.619	5178
871.749	5235
871.879	5212
872.008	5261
872.138	5128
872.267	5083
872.397	4942
872.526	4831
872.656	4778
872.785	4847
872.915	4968
873.044	5102
873.173	5003
873.303	5052
873.432	5045
873.561	5033
873.69	4976
873.819	4999
873.948	4980
874.077	4873
874.206	4812
874.335	4908
874.464	4980
874.593	5162
874.722	5010
874.851	5128
874.979	5185
875.108	5117
875.237	4991
875.365	4980
875.494	4949
875.623	5086
875.751	4915
875.88	4972
876.008	5045
876.136	5117
876.265	5220
876.393	5433
876.521	5353
876.65	5254
876.778	5250
876.906	5204
877.034	5121
877.162	5090
877.29	5064
877.418	5121
877.546	5090
877.674	5124
877.802	5147
877.93	5056
878.058	5014
878.185	4957
878.313	5041
878.441	5022
878.568	4919
878.696	4968
878.824	5033
878.951	5105
879.079	5193
879.206	5349
879.333	5174
879.461	5109
879.588	5124
879.715	5212
879.842	5296
879.97	5083
880.097	4892
880.224	4828
880.351	4850
880.478	4850
880.605	4850
880.732	4881
880.859	5136
880.986	4934
881.112	4980
881.239	4854
881.366	4721
881.493	4649
881.619	4634
881.746	4740
881.872	4691
881.999	4729
882.125	4809
882.252	4881
882.378	4915
882.505	5037
882.631	4854
882.757	4767
882.883	4816
883.01	4809
883.136	4740
883.262	4649
883.388	4691
883.514	4908
883.64	4961
883.766	4889
883.892	4729
884.018	4778
884.143	4995
884.269	5109
884.395	4752
884.52	4740
884.646	4717
884.772	4706
884.897	4672
885.023	4717
885.148	4828
885.274	4896
885.399	4877
885.524	4839
885.65	4793
885.775	4778
885.9	4786
886.025	4911
886.15	4881
886.275	4790
886.4	4725
886.525	4820
886.65	4797
886.775	4778
886.9	4942
887.025	5109
887.149	4908
887.274	4771
887.399	4683
887.523	4675
887.648	4660
887.773	4683
887.897	4824
888.021	4870
888.146	4744
888.27	4908
888.395	4938
888.519	4919
888.643	4839
888.767	4858
888.891	4786
889.015	4649
889.139	4755
889.263	4672
889.387	4809
889.511	4942
889.635	4843
889.759	4694
889.883	4778
890.006	4790
890.13	4881
890.254	4675
890.377	4786
890.501	4592
890.624	4599
890.748	4698
890.871	4558
890.995	4519
891.118	4493
891.241	4588
891.364	4641
891.488	4691
891.611	4577
891.734	4626
891.857	4736
891.98	4653
892.103	4714
892.226	4717
892.349	4656
892.471	4527
892.594	4618
892.717	4702
892.839	4607
892.962	4675
893.085	4725
893.207	4717
893.33	4516
893.452	4584
893.575	4702
893.697	4649
893.819	4889
893.941	4900
894.064	4805
894.186	4679
894.308	4641
894.43	4774
894.552	4915
894.674	4828
894.796	4611
894.918	4698
895.04	4630
895.161	4763
895.283	4698
895.405	4660
895.526	4691
895.648	4774
895.769	4763
895.891	4805
896.012	4824
896.134	4759
896.255	4729
896.376	4721
896.498	4683
896.619	4759
896.74	4691
896.861	4740
896.982	4984
897.103	5162
897.224	4858
897.345	4801
897.466	4702
897.587	4839
897.708	4919
897.828	4843
897.949	4729
898.07	4653
898.19	4698
898.311	4900
898.431	4748
898.552	4805
898.672	4892
898.792	4862
898.913	4816
899.033	4672
899.153	4531
899.273	4500
899.393	4573
899.513	4603
899.633	4577
899.753	4588
899.873	4542
899.993	4653
900.113	4596
900.232	4656
900.352	4569
900.472	4527
900.591	4455
900.711	4561
900.83	4500
900.95	4668
901.069	4801
901.189	4615
901.308	4440
901.427	4318
901.546	4478
901.665	4554
901.784	4577
901.904	4417
902.023	4375
902.141	4227
902.26	4280
902.379	4371
902.498	4314
902.617	4310
902.735	4455
902.854	4386
902.973	4428
903.091	4287
903.21	4276
903.328	4383
903.446	4303
903.565	4318
903.683	4447
903.801	4322
903.919	4500
904.038	4485
904.156	4371
904.274	4485
904.392	4459
904.51	4478
904.627	4569
904.745	4675
904.863	4721
904.981	4500
905.098	4386
905.216	4417
905.334	4489
905.451	4527
905.569	4478
905.686	4607
905.803	4645
905.921	4459
906.038	4615
906.155	4516
906.272	4459
906.389	4508
906.506	4386
906.623	4474
906.74	4474
906.857	4363
906.974	4493
907.091	4675
907.208	4702
907.324	4714
907.441	4500
907.557	4409
907.674	4447
907.79	4360
907.907	4481
908.023	4550
908.139	4558
908.256	4542
908.372	4546
908.488	4493
908.604	4455
908.72	4344
908.836	4470
908.952	4455
909.068	4542
909.184	4694
909.3	4531
909.415	4645
909.531	4611
909.647	4417
909.762	4428
909.878	4413
909.993	4508
910.108	4440
910.224	4451
910.339	4550
910.454	4489
910.57	4394
910.685	4390
910.8	4721
910.915	4698
911.03	4599
911.145	4360
911.259	4371
911.374	4447
911.489	4371
911.604	4318
911.718	4276
911.833	4306
911.947	4128
912.062	4097
912.176	4272
912.291	4268
912.405	4310
912.519	4542
912.633	4584
912.748	4413
912.862	4329
912.976	4261
913.09	4154
913.204	4230
913.318	4314
913.431	4447
913.545	4443
913.659	4421
913.772	4432
913.886	4295
914	4246
914.113	4428
914.226	4489
914.34	4428
914.453	4318
914.566	4504
914.68	4371
914.793	4432
914.906	4211
915.019	4207
915.132	4166
915.245	4249
915.358	4314
915.47	4318
915.583	4341
915.696	4375
915.809	4432
915.921	4489
916.034	4261
916.146	4333
916.259	4299
916.371	4462
916.483	4409
916.595	4325
916.708	4405
916.82	4394
916.932	4348
917.044	4375
917.156	4405
917.268	4322
917.38	4341
917.491	4360
917.603	4447
917.715	4519
917.826	4443
917.938	4409
918.049	4314
918.161	4466
918.272	4634
918.384	4611
918.495	4550
918.606	4398
918.717	4325
918.828	4405
918.939	4443
919.05	4348
919.161	4428
919.272	4143
919.383	4310
919.494	4519
919.604	4687
919.715	4478
919.826	4398
919.936	4500
920.047	4618
920.157	4558
920.267	4774
920.378	4599
920.488	4546
920.598	4797
920.708	4946
920.818	4790
920.928	4812
921.038	5041
921.148	4965
921.258	4679
921.368	4637
921.477	4531
921.587	4489
921.697	4451
921.806	4653
921.916	4497
922.025	4325
922.134	4303
922.244	4310
922.353	4421
922.462	4207
922.571	4185
922.68	4097
922.789	4071
922.898	4112
923.007	4055
923.116	4162
923.224	4158
923.333	4177
923.442	4051
923.55	4048
923.659	4112
923.767	4143
923.876	4074
923.984	4173
924.092	4021
924.201	4162
924.309	4154
924.417	4154
924.525	4124
924.633	4173
924.741	5113
924.849	3964
924.956	4150
925.064	4010
925.172	3941
925.279	4017
925.387	4101
925.494	4105
925.602	4276
925.709	4211
925.816	4105
925.924	4188
926.031	4314
926.138	4207
926.245	4257
926.352	4177
926.459	4287
926.566	4379
926.673	4188
926.779	4109
926.886	4135
926.993	3998
927.099	4010
927.206	3987
927.312	3987
927.419	4105
927.525	4093
927.631	4185
927.737	4025
927.843	4032
927.95	3918
928.056	4006
928.162	4044
928.267	4116
928.373	4755
928.479	4158
928.585	3861
928.69	4105
928.796	4116
928.901	3975
929.007	3888
929.112	4109
929.218	4017
929.323	4048
929.428	3991
929.533	4166
929.638	3968
929.743	4002
929.848	4074
929.953	4048
930.058	3956
930.163	3861
930.267	3854
930.372	4029
930.477	3838
930.581	4139
930.685	3972
930.79	3857
930.894	3926
930.998	3915
931.103	4063
931.207	3785
931.311	3717
931.415	3686
931.519	3591
931.623	3606
