Data from test_V78500241_1684.txt Node
Date: Fri Mar 25 17:00:42 CST 2022
User: usil
Spectrometer: V785-0024
Trigger mode: 0
Integration Time (sec): 4.000000E-1
Scans to average: 1
Nonlinearity correction enabled: false
Boxcar width: 0
Storing dark spectrum: false
XAxis mode: Wavelengths
Number of Pixels in Spectrum: 1024
>>>>>Begin Spectral Data<<<<<
801.071	8024
801.214	8008
801.356	7913
801.499	7936
801.641	7780
801.783	7852
801.926	7970
802.068	7925
802.211	8005
802.353	8073
802.496	7871
802.638	7845
802.78	7925
802.923	8016
803.065	7947
803.208	7894
803.35	7963
803.492	8157
803.635	8123
803.777	7986
803.919	8187
804.061	8461
804.204	8107
804.346	8069
804.488	8005
804.63	8111
804.773	8058
804.915	8107
805.057	8298
805.199	8183
805.341	8214
805.483	8313
805.626	8187
805.768	8142
805.91	8214
806.052	8317
806.194	8115
806.336	8294
806.478	8119
806.62	8176
806.762	8176
806.904	8355
807.046	8640
807.188	8370
807.33	8320
807.472	8385
807.614	8172
807.756	8202
807.898	8031
808.04	7890
808.182	7871
808.324	7864
808.465	7993
808.607	8077
808.749	8115
808.891	8199
809.033	8317
809.174	8168
809.316	8088
809.458	8084
809.6	8001
809.741	8016
809.883	8088
810.025	8138
810.166	8046
810.308	7932
810.45	7921
810.591	7864
810.733	7792
810.875	7715
811.016	7605
811.158	7518
811.299	7693
811.441	7734
811.582	7674
811.724	7647
811.865	7521
812.007	7594
812.148	7628
812.29	7651
812.431	7807
812.573	7951
812.714	7993
812.855	8138
812.997	8221
813.138	8313
813.279	8248
813.421	8115
813.562	7993
813.703	7841
813.845	7788
813.986	7514
814.127	7289
814.268	7228
814.41	7236
814.551	7255
814.692	7255
814.833	7129
814.974	7118
815.115	7179
815.256	6996
815.397	6947
815.539	6897
815.68	6810
815.821	6802
815.962	6871
816.103	6829
816.244	6753
816.385	6642
816.526	6601
816.666	6566
816.807	6346
816.948	6490
817.089	6521
817.23	6418
817.371	6410
817.512	6403
817.653	6403
817.793	6380
817.934	6422
818.075	6521
818.216	6452
818.356	6418
818.497	6243
818.638	6140
818.778	6194
818.919	6152
819.06	6201
819.2	6376
819.341	6327
819.481	6391
819.622	6570
819.762	6703
819.903	6703
820.043	6616
820.184	6608
820.324	6604
820.465	6760
820.605	6684
820.746	6658
820.886	6551
821.026	6688
821.167	6738
821.307	6829
821.447	6798
821.588	6707
821.728	6585
821.868	6521
822.008	6353
822.149	6407
822.289	6353
822.429	6216
822.569	6091
822.709	6095
822.849	5973
822.99	5923
823.13	5961
823.27	5958
823.41	5821
823.55	5824
823.69	5844
823.83	5783
823.97	5726
824.11	5551
824.25	5551
824.389	5573
824.529	5596
824.669	5551
824.809	5627
824.949	5684
825.089	5657
825.228	5585
825.368	5429
825.508	5303
825.648	5402
825.787	5357
825.927	5360
826.067	5322
826.206	5284
826.346	5357
826.485	5334
826.625	5455
826.765	5573
826.904	5551
827.044	5284
827.183	5189
827.323	5174
827.462	5265
827.601	5159
827.741	5201
827.88	5227
828.02	5098
828.159	5277
828.298	5318
828.437	5364
828.577	5284
828.716	5493
828.855	5368
828.994	5193
829.134	5208
829.273	5185
829.412	5159
829.551	5170
829.69	5261
829.829	5250
829.968	5452
830.107	5277
830.246	5269
830.385	5220
830.524	5159
830.663	5090
830.802	4987
830.941	4904
831.08	4927
831.219	5029
831.357	5033
831.496	5174
831.635	4965
831.774	4858
831.913	4911
832.051	4702
832.19	4816
832.329	4854
832.467	4752
832.606	4687
832.744	4774
832.883	4767
833.022	4706
833.16	4782
833.299	4881
833.437	4839
833.576	4873
833.714	4847
833.852	4881
833.991	4892
834.129	4995
834.267	5003
834.406	4873
834.544	5025
834.682	4980
834.821	4946
834.959	5185
835.097	4968
835.235	5121
835.373	5136
835.511	5143
835.65	5037
835.788	5056
835.926	4930
836.064	4889
836.202	4873
836.34	5201
836.478	5261
836.615	5117
836.753	5227
836.891	5318
837.029	5269
837.167	5143
837.305	5189
837.443	5162
837.58	5064
837.718	5235
837.856	5269
837.993	5155
838.131	5239
838.269	5212
838.406	5216
838.544	5227
838.681	4984
838.819	5010
838.956	4908
839.094	4957
839.231	5029
839.369	5102
839.506	5436
839.643	5258
839.781	5083
839.918	4991
840.055	5128
840.193	5056
840.33	5071
840.467	5121
840.604	5197
840.742	5402
840.879	5033
841.016	5037
841.153	5136
841.29	5402
841.427	5376
841.564	5318
841.701	5341
841.838	5277
841.975	5235
842.112	5277
842.249	5155
842.385	5109
842.522	5345
842.659	5201
842.796	5143
842.933	5178
843.069	5235
843.206	5201
843.343	5349
843.479	5280
843.616	5269
843.752	5003
843.889	5064
844.025	5246
844.162	5025
844.298	5201
844.435	5060
844.571	5056
844.708	5242
844.844	5273
844.98	5326
845.117	5315
845.253	5124
845.389	5124
845.525	5174
845.661	5136
845.798	5064
845.934	5143
846.07	5067
846.206	5208
846.342	5326
846.478	5201
846.614	5071
846.75	5014
846.886	4961
847.022	5155
847.158	5029
847.294	5014
847.429	5113
847.565	5067
847.701	5322
847.837	4904
847.972	4793
848.108	4972
848.244	4953
848.379	4812
848.515	4744
848.65	4729
848.786	4786
848.921	4805
849.057	4892
849.192	4877
849.328	4816
849.463	4885
849.598	4752
849.734	4763
849.869	4660
850.004	4641
850.14	4714
850.275	4603
850.41	4565
850.545	4565
850.68	4634
850.815	4668
850.95	4679
851.085	4828
851.22	4759
851.355	4698
851.49	4622
851.625	4672
851.76	4622
851.895	4580
852.03	4489
852.165	4641
852.299	4752
852.434	4816
852.569	4748
852.703	4801
852.838	4889
852.973	4976
853.107	4896
853.242	4778
853.376	4672
853.511	4546
853.645	4618
853.78	4828
853.914	4668
854.048	4717
854.183	4622
854.317	4740
854.451	4942
854.585	4664
854.72	4649
854.854	4721
854.988	4634
855.122	4615
855.256	4577
855.39	4702
855.524	4782
855.658	4710
855.792	4679
855.926	4748
856.06	4767
856.194	4778
856.327	4679
856.461	4622
856.595	4649
856.729	4626
856.862	4771
856.996	4736
857.13	4721
857.263	4748
857.397	4793
857.53	4702
857.664	4767
857.797	4790
857.931	4801
858.064	4714
858.197	4774
858.331	4611
858.464	4577
858.597	4554
858.731	4622
858.864	4694
858.997	4599
859.13	4694
859.263	4717
859.396	4729
859.529	4603
859.662	4573
859.795	4550
859.928	4596
860.061	4733
860.194	4752
860.327	4672
860.46	4573
860.592	4717
860.725	4733
860.858	4744
860.99	4603
861.123	4512
861.256	4523
861.388	4580
861.521	5425
861.653	4493
861.786	4455
861.918	4527
862.05	4538
862.183	4542
862.315	4626
862.447	4687
862.58	4538
862.712	4413
862.844	4367
862.976	4447
863.108	4428
863.24	4850
863.372	4379
863.504	4436
863.636	4394
863.768	4474
863.9	4459
864.032	4386
864.164	4413
864.296	4459
864.428	4531
864.559	4618
864.691	4527
864.823	4535
864.954	4508
865.086	4489
865.217	4481
865.349	4436
865.48	4447
865.612	4481
865.743	4679
865.875	4478
866.006	4447
866.137	4474
866.269	4451
866.4	4417
866.531	4390
866.662	4417
866.793	4421
866.924	4394
867.055	4538
867.186	4428
867.317	4417
867.448	4413
867.579	4394
867.71	4398
867.841	4398
867.972	4440
868.103	4462
868.233	4474
868.364	4436
868.495	4497
868.625	4706
868.756	4759
868.886	4569
869.017	4637
869.147	4786
869.278	4752
869.408	4687
869.539	4660
869.669	4691
869.799	4664
869.929	4793
870.06	4744
870.19	4987
870.32	4911
870.45	4946
870.58	5010
870.71	5083
870.84	5128
870.97	4900
871.1	4843
871.23	5170
871.36	5181
871.489	5041
871.619	5037
871.749	5079
871.879	5136
872.008	5174
872.138	5037
872.267	4995
872.397	4915
872.526	4801
872.656	4725
872.785	4835
872.915	4942
873.044	5014
873.173	4980
873.303	4965
873.432	4987
873.561	4976
873.69	4881
873.819	4873
873.948	4915
874.077	4816
874.206	4805
874.335	4744
874.464	4885
874.593	5102
874.722	4919
874.851	5090
874.979	5075
875.108	5029
875.237	4961
875.365	4877
875.494	4904
875.623	4953
875.751	4809
875.88	4858
876.008	4999
876.136	5098
876.265	5208
876.393	5349
876.521	5239
876.65	5208
876.778	5105
876.906	5071
877.034	4995
877.162	5090
877.29	4984
877.418	5056
877.546	5075
877.674	5045
877.802	5037
877.93	4999
878.058	4934
878.185	4854
878.313	4984
878.441	4900
878.568	4759
878.696	4885
878.824	4942
878.951	4968
879.079	5124
879.206	5284
879.333	5071
879.461	4987
879.588	5006
879.715	5075
879.842	5250
879.97	5010
880.097	4778
880.224	4740
880.351	4831
880.478	4850
880.605	4820
880.732	4790
880.859	5048
880.986	4892
881.112	4911
881.239	4790
881.366	4694
881.493	4584
881.619	4596
881.746	4653
881.872	4626
881.999	4679
882.125	4710
882.252	4812
882.378	4805
882.505	4972
882.631	4805
882.757	4656
882.883	4698
883.01	4714
883.136	4649
883.262	4615
883.388	4618
883.514	4786
883.64	4877
883.766	4790
883.892	4679
884.018	4702
884.143	4927
884.269	5010
884.395	4691
884.52	4645
884.646	4599
884.772	4550
884.897	4516
885.023	4637
885.148	4755
885.274	4854
885.399	4816
885.524	4679
885.65	4687
885.775	4744
885.9	4740
886.025	4835
886.15	4752
886.275	4702
886.4	4672
886.525	4755
886.65	4721
886.775	4649
886.9	4885
887.025	5067
887.149	4793
887.274	4653
887.399	4588
887.523	4577
887.648	4592
887.773	4645
887.897	4767
888.021	4744
888.146	4706
888.27	4862
888.395	4930
888.519	4835
888.643	4828
888.767	4824
888.891	4698
889.015	4596
889.139	4618
889.263	4603
889.387	4790
889.511	4816
889.635	4786
889.759	4706
889.883	4641
890.006	4702
890.13	4847
890.254	4603
890.377	4679
890.501	4542
890.624	4542
890.748	4607
890.871	4474
890.995	4405
891.118	4402
891.241	4508
891.364	4546
891.488	4653
891.611	4489
891.734	4550
891.857	4607
891.98	4561
892.103	4622
892.226	4596
892.349	4561
892.471	4451
892.594	4554
892.717	4565
892.839	4596
892.962	4558
893.085	4645
893.207	4653
893.33	4462
893.452	4542
893.575	4656
893.697	4546
893.819	4790
893.941	4843
894.064	4812
894.186	4615
894.308	4592
894.43	4679
894.552	4797
894.674	4736
894.796	4550
894.918	4660
895.04	4569
895.161	4683
895.283	4672
895.405	4626
895.526	4592
895.648	4668
895.769	4649
895.891	4733
896.012	4740
896.134	4679
896.255	4675
896.376	4599
896.498	4607
896.619	4679
896.74	4588
896.861	4675
896.982	4904
897.103	5071
897.224	4793
897.345	4763
897.466	4618
897.587	4717
897.708	4850
897.828	4793
897.949	4653
898.07	4569
898.19	4603
898.311	4839
898.431	4694
898.552	4733
898.672	4778
898.792	4778
898.913	4752
899.033	4596
899.153	4535
899.273	4443
899.393	4478
899.513	4550
899.633	4493
899.753	4561
899.873	4508
899.993	4592
900.113	4561
900.232	4603
900.352	4504
900.472	4489
900.591	4432
900.711	4508
900.83	4417
900.95	4630
901.069	4679
901.189	4527
901.308	4341
901.427	4295
901.546	4386
901.665	4478
901.784	4546
901.904	4356
902.023	4329
902.141	4181
902.26	4204
902.379	4291
902.498	4242
902.617	4238
902.735	4322
902.854	4348
902.973	4341
903.091	4192
903.21	4234
903.328	4261
903.446	4287
903.565	4257
903.683	4344
903.801	4253
903.919	4363
904.038	4409
904.156	4295
904.274	4390
904.392	4432
904.51	4451
904.627	4481
904.745	4531
904.863	4645
904.981	4398
905.098	4310
905.216	4344
905.334	4455
905.451	4417
905.569	4379
905.686	4535
905.803	4546
905.921	4417
906.038	4512
906.155	4512
906.272	4367
906.389	4428
906.506	4333
906.623	4348
906.74	4375
906.857	4310
906.974	4390
907.091	4558
907.208	4656
907.324	4546
907.441	4523
907.557	4341
907.674	4295
907.79	4287
907.907	4329
908.023	4500
908.139	4455
908.256	4421
908.372	4455
908.488	4451
908.604	4360
908.72	4314
908.836	4352
908.952	4390
909.068	4394
909.184	4546
909.3	4462
909.415	4611
909.531	4554
909.647	4348
909.762	4409
909.878	4337
909.993	4455
910.108	4421
910.224	4417
910.339	4481
910.454	4394
910.57	4375
910.685	4333
910.8	4698
910.915	4592
911.03	4478
911.145	4333
911.259	4287
911.374	4409
911.489	4272
911.604	4314
911.718	4166
911.833	4204
911.947	4067
912.062	4040
912.176	4200
912.291	4253
912.405	4284
912.519	4440
912.633	4527
912.748	4386
912.862	4276
912.976	4223
913.09	4067
913.204	4131
913.318	4265
913.431	4386
913.545	4337
913.659	4443
913.772	4360
913.886	4268
914	4200
914.113	4405
914.226	4432
914.34	4375
914.453	4261
914.566	4421
914.68	4265
914.793	4352
914.906	4135
915.019	4128
915.132	4078
915.245	4162
915.358	4166
915.47	4188
915.583	4272
915.696	4344
915.809	4413
915.921	4402
916.034	4246
916.146	4238
916.259	4204
916.371	4421
916.483	4360
916.595	4261
916.708	4249
916.82	4295
916.932	4299
917.044	4310
917.156	4287
917.268	4211
917.38	4253
917.491	4265
917.603	4295
917.715	4436
917.826	4424
917.938	4356
918.049	4249
918.161	4371
918.272	4523
918.384	4523
918.495	4462
918.606	4276
918.717	4188
918.828	4325
918.939	4344
919.05	4219
919.161	4341
919.272	4131
919.383	4215
919.494	4470
919.604	4588
919.715	4447
919.826	4314
919.936	4356
920.047	4546
920.157	4516
920.267	4675
920.378	4554
920.488	4500
920.598	4736
920.708	4850
920.818	4729
920.928	4763
921.038	4972
921.148	4892
921.258	4596
921.368	4523
921.477	4474
921.587	4432
921.697	4398
921.806	4569
921.916	4421
922.025	4227
922.134	4238
922.244	4268
922.353	4306
922.462	4120
922.571	4055
922.68	3991
922.789	3994
922.898	4036
923.007	3983
923.116	4109
923.224	4086
923.333	4086
923.442	3975
923.55	3953
923.659	4021
923.767	4074
923.876	3979
923.984	4105
924.092	3911
924.201	4032
924.309	4040
924.417	4093
924.525	4036
924.633	4078
924.741	4862
924.849	3945
924.956	4124
925.064	3922
925.172	3884
925.279	3949
925.387	4032
925.494	4032
925.602	4215
925.709	4188
925.816	4086
925.924	4082
926.031	4230
926.138	4150
926.245	4192
926.352	4078
926.459	4249
926.566	4310
926.673	4124
926.779	4059
926.886	4032
926.993	3956
927.099	3941
927.206	3934
927.312	3930
927.419	4048
927.525	4040
927.631	4071
927.737	3903
927.843	3941
927.95	3819
928.056	3953
928.162	3987
928.267	4010
928.373	4694
928.479	4093
928.585	3884
928.69	4010
928.796	4116
928.901	3998
929.007	3838
929.112	3983
929.218	3945
929.323	3941
929.428	3972
929.533	4051
929.638	3918
929.743	3964
929.848	4044
929.953	4013
930.058	3922
930.163	3766
930.267	3800
930.372	3991
930.477	3762
930.581	4067
930.685	3922
930.79	3808
930.894	3854
930.998	3827
931.103	4082
931.207	3728
931.311	3694
931.415	3671
931.519	3488
931.623	3500
