Data from test_V78500241_510.txt Node
Date: Fri Mar 25 16:52:32 CST 2022
User: usil
Spectrometer: V785-0024
Trigger mode: 0
Integration Time (sec): 4.000000E-1
Scans to average: 1
Nonlinearity correction enabled: false
Boxcar width: 0
Storing dark spectrum: false
XAxis mode: Wavelengths
Number of Pixels in Spectrum: 1024
>>>>>Begin Spectral Data<<<<<
801.071	8027
801.214	8065
801.356	7894
801.499	7879
801.641	7883
801.783	7940
801.926	7989
802.068	8031
802.211	8092
802.353	8035
802.496	7894
802.638	7906
802.78	7951
802.923	7997
803.065	7955
803.208	7871
803.35	7978
803.492	8012
803.635	8142
803.777	8005
803.919	8107
804.061	8480
804.204	8199
804.346	8043
804.488	7959
804.63	8142
804.773	8001
804.915	8130
805.057	8301
805.199	8187
805.341	8244
805.483	8301
805.626	8172
805.768	8065
805.91	8145
806.052	8252
806.194	8050
806.336	8343
806.478	8107
806.62	8031
806.762	8164
806.904	8229
807.046	8454
807.188	8332
807.33	8225
807.472	8317
807.614	8191
807.756	8123
807.898	7963
808.04	7928
808.182	7947
808.324	7852
808.465	7955
808.607	8024
808.749	8123
808.891	8244
809.033	8244
809.174	8168
809.316	8058
809.458	8046
809.6	8058
809.741	8043
809.883	8050
810.025	8134
810.166	8035
810.308	8027
810.45	8035
810.591	7890
810.733	7719
810.875	7632
811.016	7582
811.158	7601
811.299	7586
811.441	7727
811.582	7734
811.724	7571
811.865	7590
812.007	7616
812.148	7605
812.29	7647
812.431	7772
812.573	7913
812.714	8050
812.855	8202
812.997	8275
813.138	8381
813.279	8279
813.421	8244
813.562	8065
813.703	7925
813.845	7811
813.986	7514
814.127	7453
814.268	7297
814.41	7244
814.551	7183
814.692	7217
814.833	7099
814.974	7099
815.115	7114
815.256	7004
815.397	6989
815.539	6981
815.68	6894
815.821	6837
815.962	6913
816.103	6928
816.244	6760
816.385	6578
816.526	6642
816.666	6517
816.807	6361
816.948	6486
817.089	6483
817.23	6422
817.371	6399
817.512	6422
817.653	6365
817.793	6433
817.934	6433
818.075	6483
818.216	6452
818.356	6407
818.497	6319
818.638	6125
818.778	6140
818.919	6110
819.06	6178
819.2	6353
819.341	6365
819.481	6391
819.622	6475
819.762	6768
819.903	6703
820.043	6608
820.184	6551
820.324	6570
820.465	6688
820.605	6703
820.746	6654
820.886	6544
821.026	6715
821.167	6677
821.307	6787
821.447	6768
821.588	6646
821.728	6574
821.868	6498
822.008	6350
822.149	6445
822.289	6384
822.429	6178
822.569	6083
822.709	6133
822.849	5916
822.99	5946
823.13	5954
823.27	5901
823.41	5824
823.55	5828
823.69	5798
823.83	5783
823.97	5722
824.11	5524
824.25	5493
824.389	5535
824.529	5634
824.669	5577
824.809	5623
824.949	5691
825.089	5695
825.228	5539
825.368	5398
825.508	5360
825.648	5395
825.787	5379
825.927	5406
826.067	5372
826.206	5360
826.346	5349
826.485	5455
826.625	5474
826.765	5547
826.904	5509
827.044	5235
827.183	5250
827.323	5147
827.462	5258
827.601	5223
827.741	5204
827.88	5254
828.02	5113
828.159	5208
828.298	5307
828.437	5376
828.577	5330
828.716	5455
828.855	5360
828.994	5166
829.134	5151
829.273	5201
829.412	5151
829.551	5178
829.69	5204
829.829	5239
829.968	5360
830.107	5322
830.246	5311
830.385	5170
830.524	5113
830.663	5109
830.802	4984
830.941	4850
831.08	4927
831.219	4976
831.357	4980
831.496	5193
831.635	4923
831.774	4828
831.913	4873
832.051	4710
832.19	4755
832.329	4885
832.467	4736
832.606	4596
832.744	4744
832.883	4721
833.022	4748
833.16	4809
833.299	4885
833.437	4809
833.576	4850
833.714	4862
833.852	4900
833.991	4908
834.129	5029
834.267	4927
834.406	4919
834.544	4968
834.682	4961
834.821	4984
834.959	5181
835.097	4995
835.235	5178
835.373	5090
835.511	5105
835.65	5060
835.788	5048
835.926	4923
836.064	4904
836.202	4953
836.34	5197
836.478	5258
836.615	5128
836.753	5239
836.891	5345
837.029	5223
837.167	5178
837.305	5140
837.443	5178
837.58	5079
837.718	5231
837.856	5250
837.993	5162
838.131	5292
838.269	5227
838.406	5227
838.544	5239
838.681	5048
838.819	5029
838.956	4919
839.094	4873
839.231	4957
839.369	5048
839.506	5387
839.643	5296
839.781	5048
839.918	5048
840.055	5090
840.193	5102
840.33	5098
840.467	5124
840.604	5189
840.742	5417
840.879	5105
841.016	5117
841.153	5193
841.29	5360
841.427	5353
841.564	5299
841.701	5341
841.838	5292
841.975	5303
842.112	5269
842.249	5140
842.385	5124
842.522	5383
842.659	5128
842.796	5121
842.933	5189
843.069	5220
843.206	5174
843.343	5307
843.479	5239
843.616	5284
843.752	5033
843.889	5029
844.025	5204
844.162	5056
844.298	5212
844.435	5162
844.571	5086
844.708	5231
844.844	5311
844.98	5322
845.117	5284
845.253	5181
845.389	5033
845.525	5208
845.661	5151
845.798	5067
845.934	5159
846.07	5090
846.206	5242
846.342	5315
846.478	5159
846.614	5060
846.75	5029
846.886	4995
847.022	5151
847.158	5033
847.294	5128
847.429	5140
847.565	5052
847.701	5357
847.837	4908
847.972	4824
848.108	4976
848.244	4942
848.379	4824
848.515	4740
848.65	4744
848.786	4733
848.921	4767
849.057	4904
849.192	4896
849.328	4843
849.463	4824
849.598	4820
849.734	4771
849.869	4664
850.004	4637
850.14	4664
850.275	4649
850.41	4546
850.545	4611
850.68	4618
850.815	4637
850.95	4660
851.085	4900
851.22	4740
851.355	4656
851.49	4668
851.625	4634
851.76	4698
851.895	4558
852.03	4546
852.165	4656
852.299	4733
852.434	4835
852.569	4736
852.703	4793
852.838	4866
852.973	4923
853.107	4904
853.242	4805
853.376	4649
853.511	4569
853.645	4588
853.78	4793
853.914	4702
854.048	4656
854.183	4660
854.317	4736
854.451	4873
854.585	4649
854.72	4664
854.854	4767
854.988	4622
855.122	4645
855.256	4497
855.39	4649
855.524	4790
855.658	4729
855.792	4717
855.926	4805
856.06	4797
856.194	4793
856.327	4710
856.461	4630
856.595	4622
856.729	4649
856.862	4771
856.996	4714
857.13	4733
857.263	4763
857.397	4831
857.53	4645
857.664	4706
857.797	4725
857.931	4763
858.064	4660
858.197	4797
858.331	4683
858.464	4618
858.597	4504
858.731	4653
858.864	4679
858.997	4645
859.13	4702
859.263	4702
859.396	4721
859.529	4615
859.662	4569
859.795	4531
859.928	4622
860.061	4748
860.194	4755
860.327	4618
860.46	4561
860.592	4717
860.725	4702
860.858	4733
860.99	4634
861.123	4538
861.256	4569
861.388	4660
861.521	5353
861.653	4459
861.786	4478
861.918	4485
862.05	4538
862.183	4596
862.315	4622
862.447	4656
862.58	4565
862.712	4360
862.844	4344
862.976	4474
863.108	4500
863.24	4835
863.372	4383
863.504	4443
863.636	4440
863.768	4527
863.9	4455
864.032	4409
864.164	4451
864.296	4489
864.428	4626
864.559	4573
864.691	4569
864.823	4542
864.954	4554
865.086	4447
865.217	4497
865.349	4459
865.48	4466
865.612	4527
865.743	4653
865.875	4497
866.006	4436
866.137	4485
866.269	4424
866.4	4508
866.531	4440
866.662	4417
866.793	4428
866.924	4409
867.055	4493
867.186	4462
867.317	4424
867.448	4386
867.579	4405
867.71	4409
867.841	4379
867.972	4455
868.103	4478
868.233	4527
868.364	4424
868.495	4443
868.625	4706
868.756	4763
868.886	4626
869.017	4649
869.147	4801
869.278	4736
869.408	4687
869.539	4668
869.669	4706
869.799	4637
869.929	4763
870.06	4786
870.19	4923
870.32	4938
870.45	4949
870.58	5003
870.71	5102
870.84	5094
870.97	4946
871.1	4987
871.23	5128
871.36	5151
871.489	5048
871.619	5128
871.749	5052
871.879	5136
872.008	5235
872.138	5064
872.267	5014
872.397	4870
872.526	4816
872.656	4759
872.785	4839
872.915	4984
873.044	5067
873.173	4961
873.303	4976
873.432	4968
873.561	4949
873.69	4919
873.819	4862
873.948	4946
874.077	4858
874.206	4790
874.335	4812
874.464	4980
874.593	5060
874.722	4987
874.851	5162
874.979	5067
875.108	5086
875.237	4915
875.365	4870
875.494	4930
875.623	4999
875.751	4835
875.88	4862
876.008	5003
876.136	5086
876.265	5193
876.393	5376
876.521	5265
876.65	5280
876.778	5136
876.906	5109
877.034	5048
877.162	5025
877.29	5014
877.418	5060
877.546	5060
877.674	5037
877.802	5064
877.93	5003
878.058	4934
878.185	4877
878.313	4991
878.441	4946
878.568	4816
878.696	4873
878.824	5010
878.951	5006
879.079	5132
879.206	5280
879.333	5113
879.461	4957
879.588	5022
879.715	5155
879.842	5227
879.97	4987
880.097	4805
880.224	4774
880.351	4843
880.478	4828
880.605	4843
880.732	4790
880.859	5113
880.986	4919
881.112	4915
881.239	4774
881.366	4691
881.493	4611
881.619	4637
881.746	4637
881.872	4664
881.999	4664
882.125	4702
882.252	4771
882.378	4850
882.505	4961
882.631	4812
882.757	4694
882.883	4748
883.01	4714
883.136	4660
883.262	4592
883.388	4615
883.514	4824
883.64	4820
883.766	4763
883.892	4649
884.018	4702
884.143	4870
884.269	5037
884.395	4691
884.52	4615
884.646	4706
884.772	4615
884.897	4588
885.023	4634
885.148	4793
885.274	4911
885.399	4858
885.524	4706
885.65	4706
885.775	4767
885.9	4752
886.025	4801
886.15	4767
886.275	4694
886.4	4656
886.525	4729
886.65	4714
886.775	4702
886.9	4953
887.025	5029
887.149	4812
887.274	4694
887.399	4584
887.523	4630
887.648	4565
887.773	4558
887.897	4752
888.021	4778
888.146	4721
888.27	4870
888.395	4877
888.519	4824
888.643	4782
888.767	4843
888.891	4656
889.015	4580
889.139	4645
889.263	4626
889.387	4759
889.511	4889
889.635	4843
889.759	4672
889.883	4611
890.006	4698
890.13	4790
890.254	4569
890.377	4675
890.501	4577
890.624	4519
890.748	4615
890.871	4500
890.995	4440
891.118	4394
891.241	4508
891.364	4573
891.488	4626
891.611	4508
891.734	4519
891.857	4584
891.98	4569
892.103	4668
892.226	4599
892.349	4512
892.471	4428
892.594	4599
892.717	4618
892.839	4577
892.962	4599
893.085	4694
893.207	4603
893.33	4485
893.452	4550
893.575	4615
893.697	4596
893.819	4782
893.941	4854
894.064	4805
894.186	4596
894.308	4603
894.43	4725
894.552	4820
894.674	4721
894.796	4538
894.918	4683
895.04	4577
895.161	4691
895.283	4679
895.405	4584
895.526	4675
895.648	4679
895.769	4694
895.891	4679
896.012	4691
896.134	4752
896.255	4664
896.376	4649
896.498	4599
896.619	4691
896.74	4596
896.861	4672
896.982	4915
897.103	5109
897.224	4820
897.345	4752
897.466	4664
897.587	4755
897.708	4816
897.828	4790
897.949	4744
898.07	4615
898.19	4630
898.311	4809
898.431	4706
898.552	4744
898.672	4831
898.792	4790
898.913	4717
899.033	4649
899.153	4497
899.273	4371
899.393	4508
899.513	4519
899.633	4573
899.753	4542
899.873	4500
899.993	4580
900.113	4561
900.232	4580
900.352	4561
900.472	4481
900.591	4421
900.711	4489
900.83	4474
900.95	4611
901.069	4683
901.189	4607
901.308	4367
901.427	4322
901.546	4405
901.665	4447
901.784	4546
901.904	4386
902.023	4299
902.141	4192
902.26	4147
902.379	4314
902.498	4246
902.617	4177
902.735	4371
902.854	4440
902.973	4398
903.091	4234
903.21	4227
903.328	4295
903.446	4287
903.565	4299
903.683	4375
903.801	4276
903.919	4398
904.038	4440
904.156	4314
904.274	4421
904.392	4371
904.51	4405
904.627	4493
904.745	4615
904.863	4622
904.981	4383
905.098	4280
905.216	4360
905.334	4402
905.451	4428
905.569	4497
905.686	4550
905.803	4584
905.921	4394
906.038	4554
906.155	4459
906.272	4398
906.389	4474
906.506	4329
906.623	4360
906.74	4383
906.857	4310
906.974	4379
907.091	4569
907.208	4710
907.324	4607
907.441	4481
907.557	4371
907.674	4363
907.79	4314
907.907	4379
908.023	4462
908.139	4470
908.256	4440
908.372	4455
908.488	4470
908.604	4356
908.72	4329
908.836	4348
908.952	4409
909.068	4447
909.184	4607
909.3	4493
909.415	4588
909.531	4504
909.647	4386
909.762	4375
909.878	4333
909.993	4440
910.108	4428
910.224	4432
910.339	4470
910.454	4409
910.57	4329
910.685	4310
910.8	4622
910.915	4622
911.03	4478
911.145	4360
911.259	4322
911.374	4386
911.489	4303
911.604	4276
911.718	4154
911.833	4227
911.947	4097
912.062	4048
912.176	4219
912.291	4215
912.405	4223
912.519	4470
912.633	4554
912.748	4344
912.862	4325
912.976	4238
913.09	4147
913.204	4192
913.318	4268
913.431	4367
913.545	4394
913.659	4455
913.772	4325
913.886	4238
914	4265
914.113	4344
914.226	4421
914.34	4356
914.453	4265
914.566	4405
914.68	4295
914.793	4333
914.906	4185
915.019	4120
915.132	4090
915.245	4192
915.358	4204
915.47	4253
915.583	4280
915.696	4280
915.809	4424
915.921	4421
916.034	4280
916.146	4265
916.259	4219
916.371	4363
916.483	4333
916.595	4249
916.708	4325
916.82	4291
916.932	4303
917.044	4352
917.156	4367
917.268	4219
917.38	4257
917.491	4272
917.603	4337
917.715	4447
917.826	4394
917.938	4394
918.049	4280
918.161	4383
918.272	4558
918.384	4550
918.495	4466
918.606	4291
918.717	4257
918.828	4314
918.939	4371
919.05	4280
919.161	4344
919.272	4150
919.383	4261
919.494	4436
919.604	4618
919.715	4447
919.826	4325
919.936	4447
920.047	4550
920.157	4443
920.267	4672
920.378	4535
920.488	4508
920.598	4660
920.708	4889
920.818	4729
920.928	4717
921.038	4927
921.148	4900
921.258	4599
921.368	4523
921.477	4489
921.587	4421
921.697	4390
921.806	4493
921.916	4398
922.025	4265
922.134	4238
922.244	4227
922.353	4284
922.462	4147
922.571	4154
922.68	4032
922.789	3934
922.898	4036
923.007	3987
923.116	4116
923.224	4063
923.333	4021
923.442	4010
923.55	3972
923.659	4029
923.767	4093
923.876	3987
923.984	4074
924.092	4017
924.201	4074
924.309	4128
924.417	4135
924.525	4071
924.633	4124
924.741	5025
924.849	3918
924.956	4150
925.064	3983
925.172	3880
925.279	3975
925.387	4078
925.494	4048
925.602	4227
925.709	4200
925.816	4006
925.924	4124
926.031	4249
926.138	4192
926.245	4196
926.352	4090
926.459	4196
926.566	4314
926.673	4143
926.779	4105
926.886	4082
926.993	3964
927.099	3922
927.206	3968
927.312	3918
927.419	4074
927.525	4051
927.631	4093
927.737	3949
927.843	3899
927.95	3831
928.056	3968
928.162	3998
928.267	4044
928.373	4691
928.479	4116
928.585	3846
928.69	3987
928.796	4055
928.901	3953
929.007	3823
929.112	3998
929.218	3960
929.323	3915
929.428	3975
929.533	4078
929.638	3892
929.743	3972
929.848	4048
929.953	4025
930.058	3892
930.163	3774
930.267	3846
930.372	3937
930.477	3781
930.581	4078
930.685	3930
930.79	3785
930.894	3880
930.998	3819
931.103	3998
931.207	3686
931.311	3694
931.415	3660
931.519	3488
931.623	3534
