Data from test_V78500241_2661.txt Node
Date: Fri Mar 25 17:07:30 CST 2022
User: usil
Spectrometer: V785-0024
Trigger mode: 0
Integration Time (sec): 4.000000E-1
Scans to average: 1
Nonlinearity correction enabled: false
Boxcar width: 0
Storing dark spectrum: false
XAxis mode: Wavelengths
Number of Pixels in Spectrum: 1024
>>>>>Begin Spectral Data<<<<<
801.071	7997
801.214	8001
801.356	7932
801.499	7871
801.641	7833
801.783	7811
801.926	7974
802.068	7917
802.211	8046
802.353	7974
802.496	7849
802.638	7959
802.78	7951
802.923	7963
803.065	7909
803.208	7833
803.35	7982
803.492	8039
803.635	8100
803.777	7993
803.919	8187
804.061	8446
804.204	8111
804.346	8081
804.488	7989
804.63	8100
804.773	7989
804.915	8077
805.057	8309
805.199	8221
805.341	8202
805.483	8202
805.626	8161
805.768	8119
805.91	8240
806.052	8309
806.194	8111
806.336	8298
806.478	8111
806.62	8058
806.762	8130
806.904	8240
807.046	8457
807.188	8358
807.33	8301
807.472	8377
807.614	8214
807.756	8183
807.898	7947
808.04	7909
808.182	7936
808.324	7871
808.465	7921
808.607	8069
808.749	8214
808.891	8259
809.033	8362
809.174	8195
809.316	8126
809.458	8126
809.6	8043
809.741	8084
809.883	8081
810.025	8195
810.166	8161
810.308	8084
810.45	7974
810.591	7917
810.733	7772
810.875	7636
811.016	7616
811.158	7514
811.299	7590
811.441	7795
811.582	7738
811.724	7632
811.865	7613
812.007	7616
812.148	7632
812.29	7632
812.431	7833
812.573	7890
812.714	8065
812.855	8221
812.997	8271
813.138	8358
813.279	8199
813.421	8130
813.562	8005
813.703	7925
813.845	7719
813.986	7487
814.127	7266
814.268	7259
814.41	7266
814.551	7244
814.692	7270
814.833	7156
814.974	7213
815.115	7110
815.256	7046
815.397	6985
815.539	6977
815.68	6863
815.821	6856
815.962	6924
816.103	6833
816.244	6829
816.385	6665
816.526	6665
816.666	6540
816.807	6357
816.948	6528
817.089	6517
817.23	6513
817.371	6388
817.512	6391
817.653	6433
817.793	6395
817.934	6471
818.075	6498
818.216	6498
818.356	6437
818.497	6258
818.638	6155
818.778	6175
818.919	6182
819.06	6190
819.2	6403
819.341	6361
819.481	6422
819.622	6528
819.762	6738
819.903	6776
820.043	6662
820.184	6627
820.324	6623
820.465	6711
820.605	6734
820.746	6684
820.886	6528
821.026	6703
821.167	6772
821.307	6833
821.447	6760
821.588	6779
821.728	6601
821.868	6563
822.008	6395
822.149	6433
822.289	6433
822.429	6167
822.569	6095
822.709	6110
822.849	5984
822.99	5965
823.13	6007
823.27	5958
823.41	5817
823.55	5851
823.69	5805
823.83	5824
823.97	5745
824.11	5562
824.25	5528
824.389	5611
824.529	5570
824.669	5520
824.809	5707
824.949	5695
825.089	5611
825.228	5646
825.368	5467
825.508	5414
825.648	5353
825.787	5402
825.927	5421
826.067	5296
826.206	5376
826.346	5425
826.485	5379
826.625	5444
826.765	5581
826.904	5524
827.044	5280
827.183	5239
827.323	5155
827.462	5220
827.601	5246
827.741	5197
827.88	5239
828.02	5113
828.159	5292
828.298	5383
828.437	5368
828.577	5311
828.716	5543
828.855	5360
828.994	5166
829.134	5166
829.273	5235
829.412	5143
829.551	5185
829.69	5189
829.829	5273
829.968	5395
830.107	5330
830.246	5357
830.385	5216
830.524	5155
830.663	5113
830.802	5014
830.941	4923
831.08	4904
831.219	5025
831.357	4987
831.496	5208
831.635	4953
831.774	4862
831.913	4881
832.051	4778
832.19	4793
832.329	4870
832.467	4748
832.606	4656
832.744	4740
832.883	4763
833.022	4752
833.16	4820
833.299	4873
833.437	4843
833.576	4854
833.714	4824
833.852	4904
833.991	4911
834.129	5029
834.267	4987
834.406	4938
834.544	4991
834.682	5060
834.821	5025
834.959	5208
835.097	4965
835.235	5170
835.373	5121
835.511	5174
835.65	5094
835.788	5037
835.926	4923
836.064	4885
836.202	4946
836.34	5208
836.478	5292
836.615	5174
836.753	5208
836.891	5318
837.029	5303
837.167	5216
837.305	5216
837.443	5212
837.58	5098
837.718	5280
837.856	5231
837.993	5170
838.131	5216
838.269	5223
838.406	5178
838.544	5231
838.681	5090
838.819	5022
838.956	4991
839.094	4923
839.231	4976
839.369	5113
839.506	5379
839.643	5292
839.781	5041
839.918	5018
840.055	5105
840.193	5121
840.33	5136
840.467	5212
840.604	5178
840.742	5452
840.879	5071
841.016	5136
841.153	5239
841.29	5372
841.427	5360
841.564	5307
841.701	5425
841.838	5284
841.975	5280
842.112	5246
842.249	5151
842.385	5136
842.522	5383
842.659	5235
842.796	5155
842.933	5208
843.069	5166
843.206	5193
843.343	5341
843.479	5273
843.616	5322
843.752	5071
843.889	5045
844.025	5223
844.162	5098
844.298	5280
844.435	5086
844.571	5109
844.708	5231
844.844	5315
844.98	5376
845.117	5349
845.253	5166
845.389	5124
845.525	5227
845.661	5185
845.798	5083
845.934	5159
846.07	5048
846.206	5307
846.342	5269
846.478	5201
846.614	5094
846.75	5022
846.886	4949
847.022	5159
847.158	5025
847.294	5064
847.429	5098
847.565	5094
847.701	5368
847.837	4870
847.972	4843
848.108	4987
848.244	4938
848.379	4774
848.515	4721
848.65	4717
848.786	4778
848.921	4805
849.057	4923
849.192	4896
849.328	4839
849.463	4850
849.598	4805
849.734	4797
849.869	4702
850.004	4675
850.14	4687
850.275	4622
850.41	4523
850.545	4599
850.68	4615
850.815	4622
850.95	4630
851.085	4854
851.22	4755
851.355	4729
851.49	4622
851.625	4649
851.76	4675
851.895	4554
852.03	4573
852.165	4694
852.299	4752
852.434	4862
852.569	4793
852.703	4866
852.838	4854
852.973	4987
853.107	4946
853.242	4740
853.376	4702
853.511	4592
853.645	4611
853.78	4820
853.914	4702
854.048	4668
854.183	4649
854.317	4736
854.451	4892
854.585	4668
854.72	4622
854.854	4782
854.988	4596
855.122	4706
855.256	4554
855.39	4702
855.524	4767
855.658	4733
855.792	4725
855.926	4721
856.06	4755
856.194	4843
856.327	4748
856.461	4649
856.595	4618
856.729	4649
856.862	4801
856.996	4668
857.13	4706
857.263	4740
857.397	4778
857.53	4698
857.664	4729
857.797	4763
857.931	4797
858.064	4702
858.197	4733
858.331	4645
858.464	4668
858.597	4508
858.731	4645
858.864	4637
858.997	4596
859.13	4683
859.263	4660
859.396	4736
859.529	4611
859.662	4634
859.795	4577
859.928	4660
860.061	4786
860.194	4793
860.327	4660
860.46	4558
860.592	4729
860.725	4729
860.858	4694
860.99	4592
861.123	4508
861.256	4546
861.388	4679
861.521	5535
861.653	4474
861.786	4481
861.918	4546
862.05	4504
862.183	4603
862.315	4626
862.447	4687
862.58	4565
862.712	4402
862.844	4303
862.976	4500
863.108	4462
863.24	4790
863.372	4322
863.504	4459
863.636	4428
863.768	4451
863.9	4424
864.032	4402
864.164	4428
864.296	4516
864.428	4546
864.559	4596
864.691	4550
864.823	4535
864.954	4519
865.086	4519
865.217	4466
865.349	4371
865.48	4504
865.612	4531
865.743	4660
865.875	4481
866.006	4436
866.137	4500
866.269	4538
866.4	4485
866.531	4459
866.662	4394
866.793	4436
866.924	4493
867.055	4508
867.186	4485
867.317	4478
867.448	4428
867.579	4383
867.71	4367
867.841	4329
867.972	4489
868.103	4451
868.233	4485
868.364	4470
868.495	4485
868.625	4729
868.756	4725
868.886	4573
869.017	4637
869.147	4812
869.278	4755
869.408	4691
869.539	4645
869.669	4763
869.799	4641
869.929	4778
870.06	4729
870.19	4965
870.32	4968
870.45	4923
870.58	5029
870.71	5155
870.84	5094
870.97	4930
871.1	4900
871.23	5143
871.36	5128
871.489	5041
871.619	5064
871.749	5037
871.879	5090
872.008	5178
872.138	5048
872.267	5033
872.397	4847
872.526	4835
872.656	4771
872.785	4809
872.915	4953
873.044	5060
873.173	4968
873.303	5014
873.432	4976
873.561	4949
873.69	4900
873.819	4820
873.948	4896
874.077	4793
874.206	4763
874.335	4862
874.464	4972
874.593	5117
874.722	4957
874.851	5090
874.979	5121
875.108	5071
875.237	4946
875.365	4870
875.494	4892
875.623	4995
875.751	4835
875.88	4858
876.008	4995
876.136	5018
876.265	5227
876.393	5406
876.521	5277
876.65	5227
876.778	5197
876.906	5071
877.034	5037
877.162	5079
877.29	5037
877.418	5056
877.546	5045
877.674	5041
877.802	5037
877.93	5029
878.058	4995
878.185	4870
878.313	5003
878.441	4957
878.568	4824
878.696	4881
878.824	4942
878.951	4976
879.079	5102
879.206	5273
879.333	5117
879.461	4999
879.588	5006
879.715	5090
879.842	5239
879.97	4999
880.097	4763
880.224	4752
880.351	4831
880.478	4812
880.605	4816
880.732	4820
880.859	5064
880.986	4976
881.112	4949
881.239	4847
881.366	4683
881.493	4584
881.619	4637
881.746	4641
881.872	4702
881.999	4649
882.125	4717
882.252	4828
882.378	4850
882.505	4938
882.631	4812
882.757	4683
882.883	4752
883.01	4710
883.136	4645
883.262	4599
883.388	4630
883.514	4809
883.64	4858
883.766	4782
883.892	4706
884.018	4702
884.143	4942
884.269	5052
884.395	4714
884.52	4668
884.646	4618
884.772	4645
884.897	4565
885.023	4664
885.148	4812
885.274	4847
885.399	4805
885.524	4736
885.65	4694
885.775	4755
885.9	4736
886.025	4892
886.15	4816
886.275	4752
886.4	4717
886.525	4744
886.65	4679
886.775	4767
886.9	4900
887.025	4995
887.149	4793
887.274	4672
887.399	4592
887.523	4687
887.648	4592
887.773	4626
887.897	4763
888.021	4786
888.146	4717
888.27	4850
888.395	4889
888.519	4816
888.643	4774
888.767	4805
888.891	4691
889.015	4641
889.139	4618
889.263	4683
889.387	4797
889.511	4862
889.635	4752
889.759	4641
889.883	4679
890.006	4771
890.13	4805
890.254	4584
890.377	4687
890.501	4569
890.624	4588
890.748	4714
890.871	4565
890.995	4447
891.118	4390
891.241	4538
891.364	4542
891.488	4611
891.611	4470
891.734	4580
891.857	4577
891.98	4550
892.103	4664
892.226	4577
892.349	4493
892.471	4383
892.594	4599
892.717	4607
892.839	4569
892.962	4634
893.085	4645
893.207	4664
893.33	4478
893.452	4531
893.575	4675
893.697	4618
893.819	4820
893.941	4843
894.064	4771
894.186	4573
894.308	4561
894.43	4736
894.552	4778
894.674	4767
894.796	4558
894.918	4596
895.04	4592
895.161	4721
895.283	4645
895.405	4577
895.526	4626
895.648	4714
895.769	4687
895.891	4694
896.012	4748
896.134	4710
896.255	4645
896.376	4641
896.498	4618
896.619	4694
896.74	4634
896.861	4656
896.982	4919
897.103	5113
897.224	4843
897.345	4774
897.466	4679
897.587	4733
897.708	4885
897.828	4843
897.949	4740
898.07	4577
898.19	4618
898.311	4797
898.431	4702
898.552	4748
898.672	4790
898.792	4831
898.913	4744
899.033	4611
899.153	4519
899.273	4405
899.393	4478
899.513	4538
899.633	4531
899.753	4527
899.873	4489
899.993	4554
900.113	4546
900.232	4535
900.352	4554
900.472	4512
900.591	4417
900.711	4500
900.83	4421
900.95	4607
901.069	4710
901.189	4535
901.308	4402
901.427	4363
901.546	4413
901.665	4474
901.784	4500
901.904	4398
902.023	4333
902.141	4181
902.26	4230
902.379	4310
902.498	4246
902.617	4230
902.735	4344
902.854	4405
902.973	4371
903.091	4200
903.21	4188
903.328	4325
903.446	4268
903.565	4276
903.683	4303
903.801	4299
903.919	4409
904.038	4394
904.156	4352
904.274	4447
904.392	4398
904.51	4386
904.627	4451
904.745	4603
904.863	4630
904.981	4417
905.098	4287
905.216	4367
905.334	4436
905.451	4421
905.569	4436
905.686	4531
905.803	4550
905.921	4371
906.038	4569
906.155	4478
906.272	4436
906.389	4451
906.506	4367
906.623	4386
906.74	4367
906.857	4303
906.974	4363
907.091	4519
907.208	4687
907.324	4622
907.441	4512
907.557	4352
907.674	4386
907.79	4295
907.907	4383
908.023	4531
908.139	4516
908.256	4447
908.372	4443
908.488	4417
908.604	4314
908.72	4379
908.836	4383
908.952	4390
909.068	4424
909.184	4618
909.3	4523
909.415	4622
909.531	4535
909.647	4367
909.762	4371
909.878	4325
909.993	4459
910.108	4398
910.224	4402
910.339	4500
910.454	4386
910.57	4325
910.685	4352
910.8	4675
910.915	4588
911.03	4470
911.145	4318
911.259	4329
911.374	4348
911.489	4295
911.604	4291
911.718	4227
911.833	4219
911.947	4067
912.062	4010
912.176	4238
912.291	4257
912.405	4303
912.519	4462
912.633	4497
912.748	4371
912.862	4295
912.976	4204
913.09	4074
913.204	4219
913.318	4284
913.431	4394
913.545	4325
913.659	4451
913.772	4314
913.886	4276
914	4227
914.113	4356
914.226	4413
914.34	4375
914.453	4272
914.566	4466
914.68	4314
914.793	4341
914.906	4143
915.019	4124
915.132	4101
915.245	4261
915.358	4204
915.47	4215
915.583	4280
915.696	4310
915.809	4451
915.921	4470
916.034	4238
916.146	4253
916.259	4249
916.371	4386
916.483	4360
916.595	4257
916.708	4337
916.82	4329
916.932	4299
917.044	4333
917.156	4318
917.268	4238
917.38	4280
917.491	4314
917.603	4310
917.715	4402
917.826	4413
917.938	4329
918.049	4272
918.161	4360
918.272	4535
918.384	4550
918.495	4402
918.606	4314
918.717	4272
918.828	4375
918.939	4352
919.05	4238
919.161	4352
919.272	4143
919.383	4272
919.494	4413
919.604	4607
919.715	4394
919.826	4394
919.936	4417
920.047	4478
920.157	4489
920.267	4694
920.378	4550
920.488	4500
920.598	4702
920.708	4892
920.818	4755
920.928	4752
921.038	4968
921.148	4942
921.258	4660
921.368	4558
921.477	4523
921.587	4485
921.697	4383
921.806	4603
921.916	4424
922.025	4242
922.134	4268
922.244	4219
922.353	4352
922.462	4154
922.571	4112
922.68	4021
922.789	4021
922.898	4074
923.007	4040
923.116	4112
923.224	4010
923.333	4097
923.442	3998
923.55	3956
923.659	3994
923.767	4158
923.876	3994
923.984	4109
924.092	3975
924.201	4063
924.309	4105
924.417	4139
924.525	4082
924.633	4139
924.741	5041
924.849	3945
924.956	4158
925.064	3956
925.172	3869
925.279	3991
925.387	4010
925.494	4090
925.602	4166
925.709	4181
925.816	3998
925.924	4173
926.031	4223
926.138	4173
926.245	4196
926.352	4135
926.459	4242
926.566	4325
926.673	4116
926.779	4101
926.886	4074
926.993	4036
927.099	3972
927.206	3941
927.312	3918
927.419	4105
927.525	4086
927.631	4097
927.737	3918
927.843	3956
927.95	3831
928.056	3972
928.162	4002
928.267	4067
928.373	4573
928.479	4082
928.585	3907
928.69	4029
928.796	4109
928.901	3945
929.007	3816
929.112	4029
929.218	4010
929.323	3937
929.428	3968
929.533	4093
929.638	3937
929.743	3949
929.848	4021
929.953	3987
930.058	3873
930.163	3770
930.267	3800
930.372	3991
930.477	3831
930.581	4116
930.685	3991
930.79	3819
930.894	3915
930.998	3835
931.103	4021
931.207	3724
931.311	3667
931.415	3633
931.519	3530
931.623	3545
