Data from test_V78500241_1746.txt Node
Date: Fri Mar 25 17:01:08 CST 2022
User: usil
Spectrometer: V785-0024
Trigger mode: 0
Integration Time (sec): 4.000000E-1
Scans to average: 1
Nonlinearity correction enabled: false
Boxcar width: 0
Storing dark spectrum: false
XAxis mode: Wavelengths
Number of Pixels in Spectrum: 1024
>>>>>Begin Spectral Data<<<<<
801.071	7989
801.214	8069
801.356	7871
801.499	7811
801.641	7742
801.783	7811
801.926	7970
802.068	7925
802.211	7974
802.353	8012
802.496	7795
802.638	7845
802.78	7833
802.923	7959
803.065	7871
803.208	7871
803.35	7932
803.492	8024
803.635	8119
803.777	7967
803.919	8084
804.061	8366
804.204	8103
804.346	8050
804.488	7963
804.63	8092
804.773	7974
804.915	8084
805.057	8320
805.199	8138
805.341	8172
805.483	8191
805.626	8218
805.768	8081
805.91	8164
806.052	8214
806.194	8138
806.336	8233
806.478	8081
806.62	8054
806.762	8145
806.904	8294
807.046	8518
807.188	8328
807.33	8298
807.472	8339
807.614	8206
807.756	8142
807.898	7959
808.04	7871
808.182	7894
808.324	7879
808.465	7890
808.607	8020
808.749	8103
808.891	8187
809.033	8275
809.174	8191
809.316	8058
809.458	8008
809.6	7959
809.741	8008
809.883	8046
810.025	8065
810.166	8046
810.308	7963
810.45	7940
810.591	7837
810.733	7696
810.875	7662
811.016	7499
811.158	7464
811.299	7544
811.441	7674
811.582	7681
811.724	7521
811.865	7506
812.007	7586
812.148	7567
812.29	7620
812.431	7788
812.573	7883
812.714	7913
812.855	8077
812.997	8233
813.138	8282
813.279	8180
813.421	8077
813.562	7974
813.703	7833
813.845	7750
813.986	7400
814.127	7206
814.268	7145
814.41	7160
814.551	7126
814.692	7202
814.833	7080
814.974	7072
815.115	7091
815.256	6890
815.397	6871
815.539	6897
815.68	6726
815.821	6795
815.962	6867
816.103	6753
816.244	6658
816.385	6582
816.526	6662
816.666	6441
816.807	6304
816.948	6346
817.089	6445
817.23	6403
817.371	6357
817.512	6380
817.653	6327
817.793	6304
817.934	6414
818.075	6376
818.216	6384
818.356	6384
818.497	6270
818.638	6079
818.778	6129
818.919	6095
819.06	6129
819.2	6319
819.341	6342
819.481	6353
819.622	6509
819.762	6650
819.903	6719
820.043	6574
820.184	6532
820.324	6582
820.465	6684
820.605	6730
820.746	6620
820.886	6490
821.026	6673
821.167	6669
821.307	6818
821.447	6703
821.588	6719
821.728	6570
821.868	6448
822.008	6277
822.149	6308
822.289	6342
822.429	6178
822.569	6068
822.709	6072
822.849	5923
822.99	5855
823.13	5882
823.27	5893
823.41	5786
823.55	5752
823.69	5733
823.83	5752
823.97	5661
824.11	5490
824.25	5471
824.389	5532
824.529	5619
824.669	5482
824.809	5532
824.949	5634
825.089	5600
825.228	5532
825.368	5311
825.508	5337
825.648	5345
825.787	5334
825.927	5376
826.067	5269
826.206	5284
826.346	5353
826.485	5372
826.625	5421
826.765	5554
826.904	5410
827.044	5242
827.183	5220
827.323	5067
827.462	5201
827.601	5174
827.741	5181
827.88	5227
828.02	5079
828.159	5258
828.298	5288
828.437	5334
828.577	5277
828.716	5478
828.855	5311
828.994	5136
829.134	5155
829.273	5189
829.412	5094
829.551	5174
829.69	5162
829.829	5227
829.968	5433
830.107	5265
830.246	5280
830.385	5174
830.524	5162
830.663	5071
830.802	4980
830.941	4911
831.08	4900
831.219	4991
831.357	4984
831.496	5174
831.635	4938
831.774	4816
831.913	4858
832.051	4702
832.19	4782
832.329	4870
832.467	4668
832.606	4645
832.744	4748
832.883	4755
833.022	4752
833.16	4839
833.299	4866
833.437	4843
833.576	4843
833.714	4889
833.852	4904
833.991	4927
834.129	4946
834.267	4972
834.406	4968
834.544	4987
834.682	5022
834.821	5022
834.959	5166
835.097	4984
835.235	5147
835.373	5075
835.511	5121
835.65	5079
835.788	5060
835.926	4915
836.064	4923
836.202	4980
836.34	5239
836.478	5280
836.615	5136
836.753	5299
836.891	5265
837.029	5269
837.167	5162
837.305	5193
837.443	5227
837.58	5113
837.718	5307
837.856	5231
837.993	5189
838.131	5288
838.269	5265
838.406	5178
838.544	5216
838.681	5064
838.819	5060
838.956	4972
839.094	4919
839.231	5041
839.369	5128
839.506	5440
839.643	5311
839.781	5124
839.918	5041
840.055	5094
840.193	5098
840.33	5113
840.467	5121
840.604	5223
840.742	5452
840.879	5083
841.016	5109
841.153	5181
841.29	5376
841.427	5349
841.564	5364
841.701	5360
841.838	5307
841.975	5208
842.112	5269
842.249	5162
842.385	5124
842.522	5379
842.659	5181
842.796	5174
842.933	5239
843.069	5220
843.206	5204
843.343	5337
843.479	5258
843.616	5330
843.752	5037
843.889	5052
844.025	5261
844.162	5033
844.298	5254
844.435	5079
844.571	5064
844.708	5254
844.844	5334
844.98	5387
845.117	5341
845.253	5212
845.389	5086
845.525	5147
845.661	5155
845.798	5083
845.934	5178
846.07	5064
846.206	5258
846.342	5292
846.478	5231
846.614	5014
846.75	5003
846.886	4995
847.022	5185
847.158	5056
847.294	5098
847.429	5105
847.565	5132
847.701	5357
847.837	4927
847.972	4812
848.108	5014
848.244	4972
848.379	4755
848.515	4763
848.65	4725
848.786	4767
848.921	4816
849.057	4870
849.192	4889
849.328	4809
849.463	4896
849.598	4793
849.734	4824
849.869	4714
850.004	4637
850.14	4702
850.275	4634
850.41	4558
850.545	4626
850.68	4607
850.815	4691
850.95	4683
851.085	4873
851.22	4774
851.355	4729
851.49	4641
851.625	4653
851.76	4679
851.895	4592
852.03	4527
852.165	4687
852.299	4763
852.434	4809
852.569	4782
852.703	4801
852.838	4881
852.973	4980
853.107	4968
853.242	4786
853.376	4702
853.511	4569
853.645	4653
853.78	4820
853.914	4729
854.048	4672
854.183	4656
854.317	4744
854.451	4873
854.585	4698
854.72	4691
854.854	4767
854.988	4649
855.122	4675
855.256	4569
855.39	4725
855.524	4797
855.658	4782
855.792	4736
855.926	4717
856.06	4824
856.194	4782
856.327	4656
856.461	4611
856.595	4626
856.729	4649
856.862	4763
856.996	4675
857.13	4763
857.263	4839
857.397	4831
857.53	4729
857.664	4721
857.797	4809
857.931	4831
858.064	4710
858.197	4812
858.331	4641
858.464	4630
858.597	4516
858.731	4626
858.864	4698
858.997	4603
859.13	4656
859.263	4683
859.396	4748
859.529	4649
859.662	4603
859.795	4565
859.928	4675
860.061	4812
860.194	4744
860.327	4626
860.46	4561
860.592	4782
860.725	4752
860.858	4752
860.99	4577
861.123	4565
861.256	4599
861.388	4611
861.521	5376
861.653	4531
861.786	4493
861.918	4459
862.05	4535
862.183	4573
862.315	4622
862.447	4706
862.58	4538
862.712	4402
862.844	4363
862.976	4558
863.108	4447
863.24	4896
863.372	4344
863.504	4470
863.636	4447
863.768	4485
863.9	4459
864.032	4409
864.164	4455
864.296	4497
864.428	4573
864.559	4558
864.691	4523
864.823	4493
864.954	4523
865.086	4519
865.217	4455
865.349	4443
865.48	4481
865.612	4493
865.743	4660
865.875	4508
866.006	4519
866.137	4474
866.269	4489
866.4	4485
866.531	4466
866.662	4379
866.793	4356
866.924	4421
867.055	4512
867.186	4466
867.317	4436
867.448	4402
867.579	4474
867.71	4344
867.841	4379
867.972	4459
868.103	4459
868.233	4466
868.364	4497
868.495	4527
868.625	4687
868.756	4774
868.886	4592
869.017	4668
869.147	4763
869.278	4774
869.408	4706
869.539	4675
869.669	4790
869.799	4710
869.929	4782
870.06	4736
870.19	4927
870.32	4930
870.45	4934
870.58	5022
870.71	5075
870.84	5090
870.97	4949
871.1	4949
871.23	5185
871.36	5113
871.489	5067
871.619	5109
871.749	5117
871.879	5155
872.008	5159
872.138	5045
872.267	5018
872.397	4877
872.526	4831
872.656	4820
872.785	4858
872.915	4942
873.044	5022
873.173	4957
873.303	4938
873.432	4934
873.561	5006
873.69	4919
873.819	4870
873.948	4934
874.077	4831
874.206	4748
874.335	4801
874.464	4923
874.593	5094
874.722	4972
874.851	5121
874.979	5048
875.108	5083
875.237	4896
875.365	4896
875.494	4892
875.623	5010
875.751	4835
875.88	4911
876.008	4987
876.136	5067
876.265	5181
876.393	5383
876.521	5299
876.65	5292
876.778	5162
876.906	5090
877.034	5117
877.162	5029
877.29	5041
877.418	5102
877.546	5041
877.674	5025
877.802	5094
877.93	5022
878.058	4995
878.185	4858
878.313	4995
878.441	4976
878.568	4782
878.696	4953
878.824	4976
878.951	5090
879.079	5147
879.206	5299
879.333	5155
879.461	4965
879.588	5029
879.715	5143
879.842	5265
879.97	5056
880.097	4828
880.224	4725
880.351	4835
880.478	4870
880.605	4801
880.732	4759
880.859	5064
880.986	4927
881.112	4984
881.239	4771
881.366	4653
881.493	4630
881.619	4630
881.746	4672
881.872	4721
881.999	4675
882.125	4710
882.252	4839
882.378	4801
882.505	5003
882.631	4801
882.757	4729
882.883	4736
883.01	4763
883.136	4691
883.262	4596
883.388	4637
883.514	4801
883.64	4885
883.766	4816
883.892	4649
884.018	4733
884.143	4930
884.269	5003
884.395	4717
884.52	4664
884.646	4618
884.772	4584
884.897	4584
885.023	4630
885.148	4809
885.274	4839
885.399	4824
885.524	4710
885.65	4729
885.775	4771
885.9	4725
886.025	4873
886.15	4809
886.275	4725
886.4	4729
886.525	4683
886.65	4653
886.775	4733
886.9	4892
887.025	5045
887.149	4877
887.274	4637
887.399	4565
887.523	4618
887.648	4599
887.773	4634
887.897	4748
888.021	4774
888.146	4679
888.27	4816
888.395	4908
888.519	4790
888.643	4866
888.767	4847
888.891	4694
889.015	4649
889.139	4660
889.263	4561
889.387	4744
889.511	4873
889.635	4809
889.759	4679
889.883	4687
890.006	4767
890.13	4820
890.254	4649
890.377	4706
890.501	4554
890.624	4527
890.748	4611
890.871	4527
890.995	4466
891.118	4371
891.241	4508
891.364	4542
891.488	4634
891.611	4542
891.734	4527
891.857	4535
891.98	4622
892.103	4672
892.226	4641
892.349	4527
892.471	4428
892.594	4558
892.717	4615
892.839	4622
892.962	4653
893.085	4714
893.207	4615
893.33	4478
893.452	4519
893.575	4668
893.697	4607
893.819	4774
893.941	4809
894.064	4820
894.186	4561
894.308	4569
894.43	4725
894.552	4847
894.674	4721
894.796	4554
894.918	4588
895.04	4577
895.161	4679
895.283	4649
895.405	4519
895.526	4645
895.648	4706
895.769	4672
895.891	4733
896.012	4752
896.134	4744
896.255	4668
896.376	4653
896.498	4687
896.619	4656
896.74	4615
896.861	4668
896.982	4949
897.103	5136
897.224	4877
897.345	4752
897.466	4691
897.587	4755
897.708	4873
897.828	4782
897.949	4683
898.07	4603
898.19	4634
898.311	4862
898.431	4691
898.552	4759
898.672	4835
898.792	4786
898.913	4790
899.033	4656
899.153	4504
899.273	4451
899.393	4516
899.513	4523
899.633	4584
899.753	4592
899.873	4493
899.993	4565
900.113	4527
900.232	4599
900.352	4516
900.472	4489
900.591	4417
900.711	4481
900.83	4447
900.95	4664
901.069	4702
901.189	4538
901.308	4363
901.427	4344
901.546	4436
901.665	4455
901.784	4519
901.904	4421
902.023	4322
902.141	4181
902.26	4166
902.379	4306
902.498	4230
902.617	4257
902.735	4352
902.854	4417
902.973	4398
903.091	4192
903.21	4207
903.328	4276
903.446	4246
903.565	4284
903.683	4417
903.801	4253
903.919	4360
904.038	4413
904.156	4344
904.274	4443
904.392	4432
904.51	4424
904.627	4470
904.745	4588
904.863	4630
904.981	4413
905.098	4333
905.216	4383
905.334	4398
905.451	4383
905.569	4402
905.686	4580
905.803	4565
905.921	4379
906.038	4565
906.155	4485
906.272	4432
906.389	4470
906.506	4383
906.623	4341
906.74	4398
906.857	4337
906.974	4428
907.091	4626
907.208	4702
907.324	4592
907.441	4478
907.557	4367
907.674	4337
907.79	4310
907.907	4371
908.023	4470
908.139	4462
908.256	4451
908.372	4455
908.488	4428
908.604	4386
908.72	4367
908.836	4379
908.952	4360
909.068	4440
909.184	4607
909.3	4466
909.415	4584
909.531	4554
909.647	4375
909.762	4379
909.878	4325
909.993	4436
910.108	4417
910.224	4390
910.339	4504
910.454	4383
910.57	4398
910.685	4318
910.8	4706
910.915	4615
911.03	4531
911.145	4291
911.259	4314
911.374	4371
911.489	4284
911.604	4295
911.718	4215
911.833	4169
911.947	4059
912.062	4017
912.176	4204
912.291	4242
912.405	4246
912.519	4466
912.633	4489
912.748	4348
912.862	4280
912.976	4242
913.09	4109
913.204	4181
913.318	4219
913.431	4383
913.545	4310
913.659	4455
913.772	4341
913.886	4280
914	4249
914.113	4386
914.226	4436
914.34	4383
914.453	4207
914.566	4424
914.68	4287
914.793	4272
914.906	4131
915.019	4112
915.132	4090
915.245	4166
915.358	4242
915.47	4249
915.583	4299
915.696	4268
915.809	4383
915.921	4440
916.034	4268
916.146	4306
916.259	4238
916.371	4363
916.483	4329
916.595	4287
916.708	4363
916.82	4333
916.932	4306
917.044	4325
917.156	4383
917.268	4246
917.38	4238
917.491	4284
917.603	4337
917.715	4459
917.826	4455
917.938	4322
918.049	4272
918.161	4424
918.272	4554
918.384	4535
918.495	4455
918.606	4314
918.717	4249
918.828	4352
918.939	4409
919.05	4246
919.161	4379
919.272	4131
919.383	4265
919.494	4440
919.604	4622
919.715	4440
919.826	4398
919.936	4421
920.047	4580
920.157	4489
920.267	4752
920.378	4558
920.488	4523
920.598	4687
920.708	4881
920.818	4744
920.928	4706
921.038	4961
921.148	4972
921.258	4630
921.368	4542
921.477	4493
921.587	4440
921.697	4356
921.806	4523
921.916	4402
922.025	4284
922.134	4272
922.244	4276
922.353	4318
922.462	4166
922.571	4112
922.68	3994
922.789	4025
922.898	4048
923.007	3983
923.116	4044
923.224	4078
923.333	4086
923.442	3960
923.55	3987
923.659	4021
923.767	4112
923.876	3975
923.984	4150
924.092	4021
924.201	4051
924.309	4063
924.417	4105
924.525	4059
924.633	4093
924.741	4892
924.849	3934
924.956	4139
925.064	3915
925.172	3880
925.279	3972
925.387	4013
925.494	4086
925.602	4242
925.709	4185
925.816	4040
925.924	4154
926.031	4215
926.138	4192
926.245	4150
926.352	4105
926.459	4261
926.566	4306
926.673	4124
926.779	4086
926.886	4112
926.993	3896
927.099	3934
927.206	3907
927.312	3941
927.419	4013
927.525	4010
927.631	4059
927.737	3972
927.843	3953
927.95	3823
928.056	3953
928.162	4006
928.267	4067
928.373	4748
928.479	4093
928.585	3861
928.69	4006
928.796	4067
928.901	3972
929.007	3827
929.112	3972
929.218	3998
929.323	3880
929.428	3945
929.533	4128
929.638	3888
929.743	3949
929.848	4051
929.953	4017
930.058	3911
930.163	3774
930.267	3816
930.372	4002
930.477	3819
930.581	4116
930.685	3972
930.79	3816
930.894	3846
930.998	3846
931.103	4032
931.207	3709
931.311	3675
931.415	3667
931.519	3481
931.623	3534
