Data from test_V78500241_1420.txt Node
Date: Fri Mar 25 16:58:52 CST 2022
User: usil
Spectrometer: V785-0024
Trigger mode: 0
Integration Time (sec): 4.000000E-1
Scans to average: 1
Nonlinearity correction enabled: false
Boxcar width: 0
Storing dark spectrum: false
XAxis mode: Wavelengths
Number of Pixels in Spectrum: 1024
>>>>>Begin Spectral Data<<<<<
801.071	8012
801.214	8031
801.356	7944
801.499	7879
801.641	7765
801.783	7845
801.926	7959
802.068	7932
802.211	7967
802.353	7959
802.496	7788
802.638	7902
802.78	7913
802.923	7959
803.065	7879
803.208	7841
803.35	7993
803.492	8100
803.635	8096
803.777	8005
803.919	8138
804.061	8446
804.204	8103
804.346	8065
804.488	7951
804.63	8103
804.773	7974
804.915	8103
805.057	8244
805.199	8149
805.341	8149
805.483	8301
805.626	8191
805.768	8187
805.91	8191
806.052	8202
806.194	8115
806.336	8343
806.478	8138
806.62	8058
806.762	8149
806.904	8195
807.046	8469
807.188	8339
807.33	8248
807.472	8332
807.614	8199
807.756	8180
807.898	8035
808.04	7871
808.182	7902
808.324	7894
808.465	7871
808.607	8153
808.749	8145
808.891	8176
809.033	8214
809.174	8210
809.316	8035
809.458	8073
809.6	8065
809.741	8100
809.883	8024
810.025	8088
810.166	7997
810.308	8115
810.45	7989
810.591	7875
810.733	7696
810.875	7666
811.016	7552
811.158	7472
811.299	7605
811.441	7651
811.582	7677
811.724	7624
811.865	7540
812.007	7548
812.148	7601
812.29	7613
812.431	7727
812.573	7917
812.714	7963
812.855	8164
812.997	8161
813.138	8339
813.279	8240
813.421	8115
813.562	7967
813.703	7879
813.845	7719
813.986	7415
814.127	7232
814.268	7209
814.41	7141
814.551	7164
814.692	7221
814.833	7061
814.974	7069
815.115	7088
815.256	6985
815.397	6916
815.539	6966
815.68	6814
815.821	6726
815.962	6859
816.103	6875
816.244	6726
816.385	6635
816.526	6563
816.666	6486
816.807	6281
816.948	6410
817.089	6426
817.23	6456
817.371	6391
817.512	6365
817.653	6300
817.793	6365
817.934	6441
818.075	6441
818.216	6403
818.356	6357
818.497	6220
818.638	6076
818.778	6163
818.919	6163
819.06	6125
819.2	6289
819.341	6346
819.481	6331
819.622	6525
819.762	6768
819.903	6688
820.043	6604
820.184	6563
820.324	6574
820.465	6715
820.605	6616
820.746	6639
820.886	6521
821.026	6681
821.167	6722
821.307	6734
821.447	6677
821.588	6601
821.728	6601
821.868	6494
822.008	6319
822.149	6414
822.289	6308
822.429	6121
822.569	6117
822.709	6121
822.849	5931
822.99	5969
823.13	5931
823.27	5935
823.41	5779
823.55	5775
823.69	5783
823.83	5756
823.97	5668
824.11	5547
824.25	5566
824.389	5554
824.529	5615
824.669	5589
824.809	5630
824.949	5623
825.089	5615
825.228	5528
825.368	5357
825.508	5337
825.648	5326
825.787	5357
825.927	5372
826.067	5265
826.206	5318
826.346	5345
826.485	5318
826.625	5410
826.765	5539
826.904	5490
827.044	5208
827.183	5185
827.323	5102
827.462	5235
827.601	5170
827.741	5166
827.88	5170
828.02	5143
828.159	5185
828.298	5277
828.437	5337
828.577	5273
828.716	5448
828.855	5307
828.994	5136
829.134	5113
829.273	5140
829.412	5174
829.551	5109
829.69	5162
829.829	5235
829.968	5349
830.107	5227
830.246	5296
830.385	5140
830.524	5102
830.663	4995
830.802	4968
830.941	4915
831.08	4892
831.219	4976
831.357	4919
831.496	5140
831.635	4930
831.774	4904
831.913	4858
832.051	4729
832.19	4763
832.329	4900
832.467	4729
832.606	4626
832.744	4733
832.883	4748
833.022	4706
833.16	4763
833.299	4805
833.437	4843
833.576	4805
833.714	4835
833.852	4919
833.991	4885
834.129	4938
834.267	4915
834.406	4930
834.544	4946
834.682	4999
834.821	4995
834.959	5090
835.097	5025
835.235	5155
835.373	5048
835.511	5083
835.65	5010
835.788	4999
835.926	4866
836.064	4854
836.202	4854
836.34	5166
836.478	5201
836.615	5136
836.753	5235
836.891	5265
837.029	5223
837.167	5128
837.305	5102
837.443	5109
837.58	5079
837.718	5269
837.856	5216
837.993	5113
838.131	5265
838.269	5155
838.406	5201
838.544	5166
838.681	4995
838.819	4984
838.956	4923
839.094	4854
839.231	4991
839.369	5045
839.506	5482
839.643	5193
839.781	5029
839.918	4999
840.055	5079
840.193	5033
840.33	5121
840.467	5117
840.604	5181
840.742	5444
840.879	5067
841.016	5067
841.153	5109
841.29	5334
841.427	5318
841.564	5292
841.701	5341
841.838	5318
841.975	5223
842.112	5280
842.249	5128
842.385	5143
842.522	5299
842.659	5166
842.796	5170
842.933	5174
843.069	5204
843.206	5155
843.343	5296
843.479	5197
843.616	5273
843.752	5045
843.889	4995
844.025	5231
844.162	4976
844.298	5181
844.435	5083
844.571	5045
844.708	5208
844.844	5273
844.98	5322
845.117	5307
845.253	5098
845.389	5064
845.525	5193
845.661	5159
845.798	5014
845.934	5094
846.07	5105
846.206	5193
846.342	5261
846.478	5132
846.614	4991
846.75	4949
846.886	4892
847.022	5128
847.158	5056
847.294	5041
847.429	5102
847.565	5056
847.701	5235
847.837	4908
847.972	4774
848.108	4999
848.244	4957
848.379	4771
848.515	4736
848.65	4675
848.786	4752
848.921	4755
849.057	4862
849.192	4866
849.328	4816
849.463	4850
849.598	4736
849.734	4736
849.869	4740
850.004	4637
850.14	4691
850.275	4607
850.41	4542
850.545	4569
850.68	4584
850.815	4630
850.95	4607
851.085	4797
851.22	4767
851.355	4622
851.49	4592
851.625	4672
851.76	4653
851.895	4580
852.03	4523
852.165	4668
852.299	4702
852.434	4752
852.569	4736
852.703	4793
852.838	4831
852.973	4862
853.107	4900
853.242	4694
853.376	4649
853.511	4569
853.645	4653
853.78	4763
853.914	4675
854.048	4618
854.183	4660
854.317	4679
854.451	4839
854.585	4645
854.72	4592
854.854	4721
854.988	4542
855.122	4672
855.256	4527
855.39	4615
855.524	4763
855.658	4710
855.792	4687
855.926	4729
856.06	4763
856.194	4820
856.327	4622
856.461	4596
856.595	4569
856.729	4615
856.862	4706
856.996	4721
857.13	4725
857.263	4774
857.397	4790
857.53	4622
857.664	4717
857.797	4714
857.931	4786
858.064	4660
858.197	4725
858.331	4649
858.464	4622
858.597	4512
858.731	4630
858.864	4637
858.997	4603
859.13	4626
859.263	4664
859.396	4717
859.529	4565
859.662	4573
859.795	4485
859.928	4618
860.061	4782
860.194	4740
860.327	4580
860.46	4519
860.592	4694
860.725	4725
860.858	4691
860.99	4538
861.123	4485
861.256	4489
861.388	4607
861.521	5455
861.653	4493
861.786	4443
861.918	4478
862.05	4493
862.183	4538
862.315	4554
862.447	4592
862.58	4519
862.712	4402
862.844	4272
862.976	4459
863.108	4459
863.24	4896
863.372	4314
863.504	4405
863.636	4421
863.768	4493
863.9	4417
864.032	4337
864.164	4363
864.296	4478
864.428	4519
864.559	4519
864.691	4512
864.823	4493
864.954	4504
865.086	4519
865.217	4436
865.349	4421
865.48	4455
865.612	4443
865.743	4637
865.875	4421
866.006	4470
866.137	4455
866.269	4413
866.4	4440
866.531	4367
866.662	4386
866.793	4440
866.924	4428
867.055	4478
867.186	4432
867.317	4375
867.448	4409
867.579	4371
867.71	4390
867.841	4394
867.972	4443
868.103	4443
868.233	4451
868.364	4447
868.495	4508
868.625	4672
868.756	4797
868.886	4565
869.017	4588
869.147	4767
869.278	4763
869.408	4683
869.539	4660
869.669	4714
869.799	4656
869.929	4702
870.06	4752
870.19	4927
870.32	4908
870.45	4957
870.58	5010
870.71	5029
870.84	5094
870.97	4927
871.1	4911
871.23	5166
871.36	5090
871.489	5060
871.619	5067
871.749	5045
871.879	5075
872.008	5193
872.138	5071
872.267	4995
872.397	4790
872.526	4831
872.656	4706
872.785	4752
872.915	4965
873.044	5052
873.173	4885
873.303	4927
873.432	4942
873.561	4953
873.69	4866
873.819	4839
873.948	4885
874.077	4809
874.206	4714
874.335	4805
874.464	4976
874.593	5060
874.722	4961
874.851	5124
874.979	5056
875.108	5025
875.237	4881
875.365	4862
875.494	4839
875.623	4991
875.751	4797
875.88	4850
876.008	4919
876.136	5003
876.265	5178
876.393	5307
876.521	5216
876.65	5261
876.778	5121
876.906	5003
877.034	5056
877.162	5048
877.29	5037
877.418	5029
877.546	4976
877.674	5006
877.802	4991
877.93	5003
878.058	4896
878.185	4828
878.313	4965
878.441	4896
878.568	4812
878.696	4873
878.824	4965
878.951	4995
879.079	5162
879.206	5261
879.333	5079
879.461	4949
879.588	5003
879.715	5090
879.842	5208
879.97	4995
880.097	4805
880.224	4733
880.351	4797
880.478	4858
880.605	4733
880.732	4809
880.859	5033
880.986	4885
881.112	4858
881.239	4763
881.366	4683
881.493	4599
881.619	4596
881.746	4641
881.872	4645
881.999	4641
882.125	4675
882.252	4782
882.378	4809
882.505	4980
882.631	4816
882.757	4668
882.883	4691
883.01	4664
883.136	4683
883.262	4599
883.388	4656
883.514	4793
883.64	4854
883.766	4790
883.892	4618
884.018	4710
884.143	4900
884.269	5045
884.395	4698
884.52	4618
884.646	4611
884.772	4588
884.897	4584
885.023	4706
885.148	4797
885.274	4870
885.399	4812
885.524	4653
885.65	4729
885.775	4755
885.9	4706
886.025	4812
886.15	4782
886.275	4717
886.4	4656
886.525	4714
886.65	4668
886.775	4653
886.9	4835
887.025	5022
887.149	4786
887.274	4599
887.399	4554
887.523	4615
887.648	4599
887.773	4577
887.897	4706
888.021	4744
888.146	4675
888.27	4850
888.395	4904
888.519	4797
888.643	4820
888.767	4809
888.891	4717
889.015	4580
889.139	4645
889.263	4622
889.387	4809
889.511	4889
889.635	4801
889.759	4588
889.883	4637
890.006	4729
890.13	4847
890.254	4603
890.377	4672
890.501	4546
890.624	4546
890.748	4622
890.871	4470
890.995	4447
891.118	4356
891.241	4535
891.364	4523
891.488	4588
891.611	4500
891.734	4561
891.857	4554
891.98	4569
892.103	4615
892.226	4569
892.349	4538
892.471	4428
892.594	4508
892.717	4596
892.839	4542
892.962	4588
893.085	4710
893.207	4580
893.33	4432
893.452	4474
893.575	4645
893.697	4592
893.819	4767
893.941	4812
894.064	4786
894.186	4561
894.308	4497
894.43	4752
894.552	4824
894.674	4729
894.796	4497
894.918	4561
895.04	4569
895.161	4679
895.283	4656
895.405	4588
895.526	4664
895.648	4660
895.769	4637
895.891	4641
896.012	4683
896.134	4698
896.255	4615
896.376	4584
896.498	4577
896.619	4687
896.74	4649
896.861	4649
896.982	4892
897.103	5071
897.224	4752
897.345	4714
897.466	4675
897.587	4736
897.708	4797
897.828	4797
897.949	4656
898.07	4481
898.19	4618
898.311	4858
898.431	4649
898.552	4744
898.672	4809
898.792	4820
898.913	4683
899.033	4607
899.153	4538
899.273	4474
899.393	4478
899.513	4516
899.633	4481
899.753	4588
899.873	4519
899.993	4588
900.113	4504
900.232	4596
900.352	4519
900.472	4474
900.591	4341
900.711	4470
900.83	4421
900.95	4596
901.069	4710
901.189	4535
901.308	4352
901.427	4341
901.546	4348
901.665	4474
901.784	4500
901.904	4356
902.023	4314
902.141	4173
902.26	4124
902.379	4268
902.498	4257
902.617	4207
902.735	4348
902.854	4390
902.973	4337
903.091	4219
903.21	4200
903.328	4276
903.446	4287
903.565	4287
903.683	4367
903.801	4314
903.919	4417
904.038	4436
904.156	4284
904.274	4405
904.392	4344
904.51	4390
904.627	4485
904.745	4561
904.863	4645
904.981	4398
905.098	4344
905.216	4371
905.334	4413
905.451	4493
905.569	4459
905.686	4554
905.803	4573
905.921	4386
906.038	4554
906.155	4459
906.272	4405
906.389	4470
906.506	4352
906.623	4386
906.74	4402
906.857	4314
906.974	4432
907.091	4527
907.208	4710
907.324	4599
907.441	4523
907.557	4337
907.674	4360
907.79	4348
907.907	4337
908.023	4527
908.139	4436
908.256	4421
908.372	4478
908.488	4443
908.604	4371
908.72	4299
908.836	4310
908.952	4371
909.068	4409
909.184	4569
909.3	4500
909.415	4592
909.531	4561
909.647	4310
909.762	4386
909.878	4344
909.993	4485
910.108	4455
910.224	4394
910.339	4493
910.454	4383
910.57	4341
910.685	4310
910.8	4618
910.915	4588
911.03	4459
911.145	4306
911.259	4325
911.374	4386
911.489	4318
911.604	4284
911.718	4128
911.833	4227
911.947	4082
912.062	4010
912.176	4223
912.291	4230
912.405	4215
912.519	4489
912.633	4512
912.748	4363
912.862	4276
912.976	4207
913.09	4128
913.204	4196
913.318	4242
913.431	4383
913.545	4295
913.659	4405
913.772	4394
913.886	4268
914	4177
914.113	4348
914.226	4436
914.34	4383
914.453	4192
914.566	4421
914.68	4227
914.793	4295
914.906	4181
915.019	4120
915.132	4063
915.245	4169
915.358	4204
915.47	4204
915.583	4211
915.696	4249
915.809	4360
915.921	4436
916.034	4215
916.146	4276
916.259	4207
916.371	4363
916.483	4356
916.595	4310
916.708	4265
916.82	4322
916.932	4322
917.044	4314
917.156	4322
917.268	4246
917.38	4280
917.491	4234
917.603	4314
917.715	4428
917.826	4421
917.938	4303
918.049	4238
918.161	4413
918.272	4546
918.384	4542
918.495	4462
918.606	4284
918.717	4211
918.828	4310
918.939	4360
919.05	4246
919.161	4306
919.272	4078
919.383	4204
919.494	4470
919.604	4622
919.715	4402
919.826	4322
919.936	4409
920.047	4485
920.157	4466
920.267	4698
920.378	4558
920.488	4485
920.598	4679
920.708	4885
920.818	4763
920.928	4729
921.038	4930
921.148	4927
921.258	4603
921.368	4558
921.477	4516
921.587	4405
921.697	4367
921.806	4523
921.916	4402
922.025	4329
922.134	4265
922.244	4166
922.353	4352
922.462	4112
922.571	4150
922.68	3987
922.789	3983
922.898	4017
923.007	4013
923.116	4021
923.224	3994
923.333	4090
923.442	3979
923.55	3968
923.659	3994
923.767	4071
923.876	3975
923.984	4086
924.092	3964
924.201	4063
924.309	4071
924.417	4135
924.525	4029
924.633	4051
924.741	5064
924.849	3876
924.956	4143
925.064	3960
925.172	3915
925.279	3926
925.387	4078
925.494	4074
925.602	4207
925.709	4196
925.816	3998
925.924	4112
926.031	4257
926.138	4112
926.245	4253
926.352	4044
926.459	4219
926.566	4314
926.673	4109
926.779	4040
926.886	4086
926.993	3953
927.099	3949
927.206	3922
927.312	3937
927.419	4029
927.525	4021
927.631	4120
927.737	3960
927.843	3949
927.95	3842
928.056	3953
928.162	3953
928.267	4036
928.373	4558
928.479	4124
928.585	3842
928.69	4025
928.796	4109
928.901	3960
929.007	3812
929.112	3956
929.218	3968
929.323	3956
929.428	3949
929.533	4109
929.638	3888
929.743	3949
929.848	4067
929.953	3972
930.058	3899
930.163	3747
930.267	3812
930.372	3926
930.477	3793
930.581	4090
930.685	3960
930.79	3812
930.894	3876
930.998	3857
931.103	4048
931.207	3705
931.311	3736
931.415	3679
931.519	3561
931.623	3530
