Data from test_V78500241_1011.txt Node
Date: Fri Mar 25 16:56:01 CST 2022
User: usil
Spectrometer: V785-0024
Trigger mode: 0
Integration Time (sec): 4.000000E-1
Scans to average: 1
Nonlinearity correction enabled: false
Boxcar width: 0
Storing dark spectrum: false
XAxis mode: Wavelengths
Number of Pixels in Spectrum: 1024
>>>>>Begin Spectral Data<<<<<
801.071	8031
801.214	8012
801.356	7883
801.499	7864
801.641	7750
801.783	7803
801.926	7917
802.068	7959
802.211	7921
802.353	7986
802.496	7883
802.638	7875
802.78	7849
802.923	7887
803.065	7868
803.208	7849
803.35	7947
803.492	8107
803.635	8202
803.777	8046
803.919	8103
804.061	8370
804.204	8157
804.346	8039
804.488	8027
804.63	8191
804.773	8016
804.915	8100
805.057	8275
805.199	8195
805.341	8199
805.483	8233
805.626	8130
805.768	8130
805.91	8172
806.052	8183
806.194	8107
806.336	8221
806.478	8100
806.62	8012
806.762	8092
806.904	8279
807.046	8492
807.188	8290
807.33	8191
807.472	8362
807.614	8123
807.756	8100
807.898	7970
808.04	7871
808.182	7936
808.324	7860
808.465	7868
808.607	7963
808.749	8073
808.891	8130
809.033	8328
809.174	8252
809.316	8012
809.458	8073
809.6	7967
809.741	8024
809.883	7989
810.025	8069
810.166	8001
810.308	8024
810.45	8016
810.591	7849
810.733	7746
810.875	7666
811.016	7499
811.158	7502
811.299	7567
811.441	7746
811.582	7636
811.724	7582
811.865	7529
812.007	7567
812.148	7636
812.29	7563
812.431	7677
812.573	7845
812.714	7936
812.855	8142
812.997	8191
813.138	8256
813.279	8142
813.421	8069
813.562	8001
813.703	7879
813.845	7814
813.986	7472
814.127	7263
814.268	7285
814.41	7206
814.551	7145
814.692	7110
814.833	7042
814.974	7072
815.115	7095
815.256	6954
815.397	6909
815.539	6935
815.68	6825
815.821	6806
815.962	6882
816.103	6856
816.244	6681
816.385	6608
816.526	6601
816.666	6448
816.807	6289
816.948	6388
817.089	6441
817.23	6433
817.371	6331
817.512	6376
817.653	6391
817.793	6350
817.934	6437
818.075	6418
818.216	6426
818.356	6410
818.497	6216
818.638	6110
818.778	6117
818.919	6163
819.06	6106
819.2	6285
819.341	6232
819.481	6350
819.622	6467
819.762	6673
819.903	6722
820.043	6604
820.184	6521
820.324	6635
820.465	6715
820.605	6650
820.746	6601
820.886	6502
821.026	6623
821.167	6677
821.307	6776
821.447	6768
821.588	6658
821.728	6551
821.868	6486
822.008	6270
822.149	6296
822.289	6327
822.429	6155
822.569	6087
822.709	6129
822.849	5920
822.99	5866
823.13	5923
823.27	5931
823.41	5760
823.55	5817
823.69	5794
823.83	5741
823.97	5642
824.11	5512
824.25	5493
824.389	5532
824.529	5532
824.669	5554
824.809	5630
824.949	5653
825.089	5592
825.228	5532
825.368	5364
825.508	5364
825.648	5345
825.787	5398
825.927	5353
826.067	5315
826.206	5334
826.346	5417
826.485	5448
826.625	5452
826.765	5573
826.904	5520
827.044	5265
827.183	5235
827.323	5128
827.462	5261
827.601	5216
827.741	5220
827.88	5254
828.02	5162
828.159	5258
828.298	5277
828.437	5395
828.577	5391
828.716	5486
828.855	5322
828.994	5166
829.134	5159
829.273	5220
829.412	5193
829.551	5102
829.69	5204
829.829	5235
829.968	5360
830.107	5273
830.246	5292
830.385	5208
830.524	5159
830.663	5117
830.802	5014
830.941	4877
831.08	4923
831.219	5010
831.357	4984
831.496	5178
831.635	4957
831.774	4915
831.913	4889
832.051	4797
832.19	4717
832.329	4847
832.467	4752
832.606	4672
832.744	4755
832.883	4744
833.022	4767
833.16	4831
833.299	4786
833.437	4858
833.576	4850
833.714	4892
833.852	4904
833.991	4892
834.129	5003
834.267	4946
834.406	4923
834.544	4965
834.682	5018
834.821	5029
834.959	5181
835.097	5029
835.235	5197
835.373	5102
835.511	5136
835.65	5071
835.788	5041
835.926	4961
836.064	4892
836.202	4972
836.34	5193
836.478	5261
836.615	5193
836.753	5265
836.891	5307
837.029	5326
837.167	5261
837.305	5197
837.443	5128
837.58	5090
837.718	5280
837.856	5193
837.993	5174
838.131	5242
838.269	5239
838.406	5197
838.544	5178
838.681	5056
838.819	4991
838.956	4885
839.094	4934
839.231	4965
839.369	5094
839.506	5440
839.643	5292
839.781	5117
839.918	5014
840.055	5109
840.193	5113
840.33	5075
840.467	5143
840.604	5216
840.742	5436
840.879	5086
841.016	5109
841.153	5166
841.29	5345
841.427	5391
841.564	5337
841.701	5337
841.838	5296
841.975	5220
842.112	5258
842.249	5178
842.385	5140
842.522	5372
842.659	5193
842.796	5166
842.933	5204
843.069	5181
843.206	5174
843.343	5330
843.479	5288
843.616	5223
843.752	5071
843.889	5029
844.025	5216
844.162	5033
844.298	5284
844.435	5083
844.571	5060
844.708	5223
844.844	5364
844.98	5334
845.117	5326
845.253	5174
845.389	5132
845.525	5159
845.661	5166
845.798	5041
845.934	5189
846.07	5037
846.206	5136
846.342	5334
846.478	5166
846.614	5109
846.75	4980
846.886	4930
847.022	5147
847.158	5086
847.294	5083
847.429	5124
847.565	5056
847.701	5341
847.837	4835
847.972	4797
848.108	4995
848.244	4980
848.379	4843
848.515	4744
848.65	4694
848.786	4820
848.921	4759
849.057	4900
849.192	4915
849.328	4820
849.463	4866
849.598	4839
849.734	4782
849.869	4717
850.004	4626
850.14	4668
850.275	4603
850.41	4561
850.545	4550
850.68	4603
850.815	4653
850.95	4637
851.085	4847
851.22	4774
851.355	4721
851.49	4656
851.625	4641
851.76	4687
851.895	4569
852.03	4527
852.165	4706
852.299	4767
852.434	4843
852.569	4767
852.703	4752
852.838	4824
852.973	4934
853.107	4938
853.242	4778
853.376	4733
853.511	4561
853.645	4603
853.78	4858
853.914	4687
854.048	4656
854.183	4694
854.317	4759
854.451	4862
854.585	4683
854.72	4683
854.854	4771
854.988	4603
855.122	4702
855.256	4500
855.39	4691
855.524	4774
855.658	4767
855.792	4714
855.926	4744
856.06	4763
856.194	4782
856.327	4733
856.461	4660
856.595	4615
856.729	4626
856.862	4755
856.996	4694
857.13	4744
857.263	4755
857.397	4805
857.53	4653
857.664	4706
857.797	4774
857.931	4831
858.064	4706
858.197	4733
858.331	4702
858.464	4626
858.597	4546
858.731	4634
858.864	4626
858.997	4622
859.13	4702
859.263	4710
859.396	4721
859.529	4580
859.662	4630
859.795	4596
859.928	4615
860.061	4729
860.194	4820
860.327	4645
860.46	4561
860.592	4763
860.725	4736
860.858	4714
860.99	4592
861.123	4512
861.256	4558
861.388	4653
861.521	5303
861.653	4462
861.786	4443
861.918	4516
862.05	4527
862.183	4535
862.315	4584
862.447	4664
862.58	4554
862.712	4417
862.844	4352
862.976	4459
863.108	4459
863.24	4854
863.372	4333
863.504	4413
863.636	4421
863.768	4481
863.9	4485
864.032	4379
864.164	4417
864.296	4481
864.428	4538
864.559	4596
864.691	4500
864.823	4535
864.954	4466
865.086	4527
865.217	4485
865.349	4394
865.48	4512
865.612	4500
865.743	4626
865.875	4451
866.006	4462
866.137	4485
866.269	4451
866.4	4428
866.531	4443
866.662	4398
866.793	4375
866.924	4436
867.055	4440
867.186	4443
867.317	4428
867.448	4363
867.579	4409
867.71	4394
867.841	4462
867.972	4493
868.103	4497
868.233	4474
868.364	4462
868.495	4508
868.625	4683
868.756	4793
868.886	4592
869.017	4664
869.147	4782
869.278	4752
869.408	4641
869.539	4641
869.669	4717
869.799	4660
869.929	4786
870.06	4740
870.19	4953
870.32	4930
870.45	4957
870.58	5056
870.71	5102
870.84	5124
870.97	4915
871.1	4858
871.23	5128
871.36	5132
871.489	5037
871.619	5094
871.749	5132
871.879	5181
872.008	5174
872.138	5071
872.267	4968
872.397	4877
872.526	4835
872.656	4702
872.785	4854
872.915	4965
873.044	4984
873.173	4942
873.303	4984
873.432	4965
873.561	4965
873.69	4923
873.819	4873
873.948	4923
874.077	4847
874.206	4763
874.335	4866
874.464	4938
874.593	5113
874.722	4980
874.851	5128
874.979	5056
875.108	5041
875.237	4938
875.365	4885
875.494	4896
875.623	4984
875.751	4870
875.88	4896
876.008	4987
876.136	5025
876.265	5174
876.393	5368
876.521	5258
876.65	5246
876.778	5113
876.906	5018
877.034	4995
877.162	5037
877.29	5029
877.418	5003
877.546	5052
877.674	5052
877.802	5018
877.93	4999
878.058	4968
878.185	4850
878.313	4976
878.441	4930
878.568	4801
878.696	4812
878.824	5006
878.951	4999
879.079	5113
879.206	5242
879.333	5094
879.461	4980
879.588	4991
879.715	5083
879.842	5261
879.97	4999
880.097	4797
880.224	4755
880.351	4835
880.478	4881
880.605	4809
880.732	4771
880.859	5128
880.986	4930
881.112	4927
881.239	4778
881.366	4698
881.493	4611
881.619	4622
881.746	4618
881.872	4653
881.999	4668
882.125	4687
882.252	4771
882.378	4843
882.505	4984
882.631	4797
882.757	4691
882.883	4740
883.01	4752
883.136	4736
883.262	4660
883.388	4599
883.514	4812
883.64	4904
883.766	4809
883.892	4706
884.018	4782
884.143	4904
884.269	4999
884.395	4656
884.52	4596
884.646	4698
884.772	4569
884.897	4504
885.023	4679
885.148	4774
885.274	4862
885.399	4805
885.524	4729
885.65	4717
885.775	4733
885.9	4706
886.025	4866
886.15	4767
886.275	4748
886.4	4660
886.525	4767
886.65	4706
886.775	4729
886.9	4919
887.025	5064
887.149	4809
887.274	4656
887.399	4615
887.523	4584
887.648	4596
887.773	4611
887.897	4744
888.021	4831
888.146	4714
888.27	4824
888.395	4946
888.519	4809
888.643	4816
888.767	4858
888.891	4675
889.015	4622
889.139	4664
889.263	4626
889.387	4771
889.511	4908
889.635	4801
889.759	4626
889.883	4714
890.006	4714
890.13	4831
890.254	4645
890.377	4672
890.501	4588
890.624	4580
890.748	4687
890.871	4527
890.995	4466
891.118	4360
891.241	4497
891.364	4550
891.488	4660
891.611	4455
891.734	4531
891.857	4618
891.98	4577
892.103	4656
892.226	4618
892.349	4497
892.471	4447
892.594	4459
892.717	4561
892.839	4554
892.962	4603
893.085	4675
893.207	4607
893.33	4459
893.452	4504
893.575	4683
893.697	4558
893.819	4831
893.941	4824
894.064	4752
894.186	4580
894.308	4531
894.43	4694
894.552	4892
894.674	4763
894.796	4542
894.918	4626
895.04	4558
895.161	4706
895.283	4664
895.405	4542
895.526	4641
895.648	4698
895.769	4687
895.891	4725
896.012	4714
896.134	4717
896.255	4698
896.376	4634
896.498	4615
896.619	4687
896.74	4672
896.861	4691
896.982	4927
897.103	5052
897.224	4839
897.345	4744
897.466	4626
897.587	4740
897.708	4885
897.828	4805
897.949	4694
898.07	4550
898.19	4637
898.311	4839
898.431	4679
898.552	4710
898.672	4812
898.792	4805
898.913	4675
899.033	4637
899.153	4485
899.273	4440
899.393	4519
899.513	4561
899.633	4573
899.753	4558
899.873	4554
899.993	4588
900.113	4542
900.232	4531
900.352	4569
900.472	4523
900.591	4390
900.711	4512
900.83	4428
900.95	4622
901.069	4698
901.189	4592
901.308	4360
901.427	4344
901.546	4352
901.665	4470
901.784	4558
901.904	4348
902.023	4337
902.141	4150
902.26	4166
902.379	4386
902.498	4204
902.617	4238
902.735	4363
902.854	4462
902.973	4348
903.091	4200
903.21	4230
903.328	4322
903.446	4272
903.565	4284
903.683	4356
903.801	4265
903.919	4421
904.038	4436
904.156	4318
904.274	4424
904.392	4386
904.51	4413
904.627	4455
904.745	4611
904.863	4626
904.981	4398
905.098	4325
905.216	4379
905.334	4443
905.451	4436
905.569	4466
905.686	4561
905.803	4550
905.921	4383
906.038	4538
906.155	4409
906.272	4360
906.389	4459
906.506	4337
906.623	4352
906.74	4409
906.857	4325
906.974	4379
907.091	4607
907.208	4649
907.324	4573
907.441	4512
907.557	4405
907.674	4348
907.79	4337
907.907	4413
908.023	4478
908.139	4440
908.256	4508
908.372	4443
908.488	4474
908.604	4371
908.72	4322
908.836	4356
908.952	4344
909.068	4447
909.184	4554
909.3	4436
909.415	4596
909.531	4550
909.647	4356
909.762	4363
909.878	4318
909.993	4424
910.108	4478
910.224	4405
910.339	4470
910.454	4383
910.57	4344
910.685	4356
910.8	4637
910.915	4626
911.03	4481
911.145	4322
911.259	4348
911.374	4402
911.489	4272
911.604	4261
911.718	4185
911.833	4215
911.947	4040
912.062	4059
912.176	4139
912.291	4188
912.405	4227
912.519	4371
912.633	4508
912.748	4367
912.862	4325
912.976	4219
913.09	4120
913.204	4169
913.318	4261
913.431	4375
913.545	4367
913.659	4455
913.772	4352
913.886	4265
914	4200
914.113	4367
914.226	4421
914.34	4398
914.453	4219
914.566	4352
914.68	4287
914.793	4306
914.906	4150
915.019	4143
915.132	4044
915.245	4173
915.358	4204
915.47	4200
915.583	4204
915.696	4287
915.809	4405
915.921	4424
916.034	4284
916.146	4242
916.259	4219
916.371	4325
916.483	4402
916.595	4272
916.708	4310
916.82	4348
916.932	4325
917.044	4333
917.156	4299
917.268	4287
917.38	4249
917.491	4276
917.603	4306
917.715	4424
917.826	4466
917.938	4360
918.049	4238
918.161	4409
918.272	4584
918.384	4531
918.495	4424
918.606	4306
918.717	4265
918.828	4299
918.939	4318
919.05	4284
919.161	4360
919.272	4166
919.383	4188
919.494	4451
919.604	4668
919.715	4424
919.826	4318
919.936	4390
920.047	4504
920.157	4497
920.267	4717
920.378	4558
920.488	4489
920.598	4721
920.708	4900
920.818	4763
920.928	4744
921.038	4942
921.148	4923
921.258	4634
921.368	4523
921.477	4455
921.587	4443
921.697	4363
921.806	4531
921.916	4424
922.025	4249
922.134	4257
922.244	4219
922.353	4306
922.462	4188
922.571	4162
922.68	4029
922.789	3979
922.898	4040
923.007	4017
923.116	4071
923.224	4090
923.333	4078
923.442	3953
923.55	3975
923.659	4032
923.767	4048
923.876	4044
923.984	4120
924.092	3956
924.201	4059
924.309	4101
924.417	4093
924.525	4051
924.633	4067
924.741	5056
924.849	3884
924.956	4135
925.064	3949
925.172	3892
925.279	3953
925.387	4036
925.494	4040
925.602	4154
925.709	4185
925.816	4048
925.924	4162
926.031	4276
926.138	4154
926.245	4154
926.352	4071
926.459	4219
926.566	4299
926.673	4185
926.779	4090
926.886	4112
926.993	3953
927.099	3991
927.206	3953
927.312	3941
927.419	4078
927.525	4017
927.631	4093
927.737	3972
927.843	3930
927.95	3873
928.056	3941
928.162	3949
928.267	4051
928.373	4672
928.479	4109
928.585	3869
928.69	4021
928.796	4082
928.901	3968
929.007	3846
929.112	3979
929.218	4013
929.323	3987
929.428	3956
929.533	4101
929.638	3896
929.743	3956
929.848	4071
929.953	3975
930.058	3956
930.163	3823
930.267	3835
930.372	3960
930.477	3774
930.581	4086
930.685	3960
930.79	3793
930.894	3861
930.998	3835
931.103	4002
931.207	3679
931.311	3705
931.415	3728
931.519	3523
931.623	3549
