Data from test_V78500241_2021.txt Node
Date: Fri Mar 25 17:03:03 CST 2022
User: usil
Spectrometer: V785-0024
Trigger mode: 0
Integration Time (sec): 4.000000E-1
Scans to average: 1
Nonlinearity correction enabled: false
Boxcar width: 0
Storing dark spectrum: false
XAxis mode: Wavelengths
Number of Pixels in Spectrum: 1024
>>>>>Begin Spectral Data<<<<<
801.071	7978
801.214	7974
801.356	7723
801.499	7833
801.641	7818
801.783	7795
801.926	7921
802.068	7909
802.211	7997
802.353	8024
802.496	7837
802.638	7852
802.78	7868
802.923	7887
803.065	7761
803.208	7902
803.35	8008
803.492	8092
803.635	8195
803.777	8001
803.919	8119
804.061	8423
804.204	8161
804.346	8081
804.488	7947
804.63	8054
804.773	8100
804.915	8142
805.057	8244
805.199	8153
805.341	8149
805.483	8218
805.626	8168
805.768	8096
805.91	8229
806.052	8187
806.194	8103
806.336	8252
806.478	8073
806.62	8084
806.762	8134
806.904	8199
807.046	8461
807.188	8412
807.33	8332
807.472	8381
807.614	8164
807.756	8134
807.898	8039
808.04	7890
808.182	7887
808.324	7807
808.465	7925
808.607	8100
808.749	8142
808.891	8206
809.033	8275
809.174	8305
809.316	8035
809.458	8111
809.6	8069
809.741	8043
809.883	8035
810.025	8115
810.166	8020
810.308	8039
810.45	7967
810.591	7925
810.733	7723
810.875	7647
811.016	7453
811.158	7487
811.299	7586
811.441	7727
811.582	7704
811.724	7571
811.865	7533
812.007	7674
812.148	7632
812.29	7662
812.431	7742
812.573	7902
812.714	7989
812.855	8153
812.997	8218
813.138	8324
813.279	8153
813.421	8119
813.562	8054
813.703	7807
813.845	7662
813.986	7388
814.127	7228
814.268	7202
814.41	7183
814.551	7187
814.692	7179
814.833	7152
814.974	7145
815.115	7141
815.256	6916
815.397	6913
815.539	6913
815.68	6798
815.821	6745
815.962	6829
816.103	6837
816.244	6688
816.385	6551
816.526	6555
816.666	6540
816.807	6372
816.948	6460
817.089	6471
817.23	6460
817.371	6365
817.512	6384
817.653	6418
817.793	6441
817.934	6384
818.075	6479
818.216	6467
818.356	6426
818.497	6262
818.638	6087
818.778	6095
818.919	6140
819.06	6163
819.2	6300
819.341	6270
819.481	6357
819.622	6555
819.762	6768
819.903	6665
820.043	6635
820.184	6528
820.324	6525
820.465	6711
820.605	6612
820.746	6646
820.886	6540
821.026	6681
821.167	6707
821.307	6829
821.447	6764
821.588	6684
821.728	6601
821.868	6490
822.008	6270
822.149	6346
822.289	6338
822.429	6095
822.569	6098
822.709	6102
822.849	5904
822.99	5889
823.13	5897
823.27	5901
823.41	5775
823.55	5805
823.69	5745
823.83	5771
823.97	5665
824.11	5535
824.25	5505
824.389	5505
824.529	5623
824.669	5524
824.809	5688
824.949	5665
825.089	5581
825.228	5532
825.368	5383
825.508	5280
825.648	5334
825.787	5372
825.927	5383
826.067	5326
826.206	5296
826.346	5391
826.485	5395
826.625	5410
826.765	5539
826.904	5497
827.044	5258
827.183	5216
827.323	5143
827.462	5235
827.601	5147
827.741	5166
827.88	5197
828.02	5140
828.159	5204
828.298	5258
828.437	5341
828.577	5235
828.716	5436
828.855	5258
828.994	5109
829.134	5162
829.273	5170
829.412	5185
829.551	5132
829.69	5147
829.829	5185
829.968	5334
830.107	5261
830.246	5311
830.385	5102
830.524	5109
830.663	4999
830.802	4949
830.941	4911
831.08	4877
831.219	4968
831.357	4908
831.496	5178
831.635	4892
831.774	4839
831.913	4828
832.051	4717
832.19	4714
832.329	4847
832.467	4664
832.606	4653
832.744	4755
832.883	4736
833.022	4710
833.16	4812
833.299	4809
833.437	4839
833.576	4828
833.714	4843
833.852	4885
833.991	4892
834.129	4980
834.267	4934
834.406	4854
834.544	4965
834.682	5010
834.821	4972
834.959	5143
835.097	4957
835.235	5170
835.373	5079
835.511	5132
835.65	4957
835.788	4991
835.926	4866
836.064	4873
836.202	4915
836.34	5098
836.478	5239
836.615	5113
836.753	5223
836.891	5242
837.029	5254
837.167	5181
837.305	5170
837.443	5140
837.58	5071
837.718	5261
837.856	5155
837.993	5113
838.131	5216
838.269	5216
838.406	5132
838.544	5181
838.681	5022
838.819	5010
838.956	4919
839.094	4843
839.231	5033
839.369	5094
839.506	5490
839.643	5296
839.781	5071
839.918	5018
840.055	5086
840.193	5090
840.33	5128
840.467	5071
840.604	5227
840.742	5417
840.879	5079
841.016	5083
841.153	5185
841.29	5322
841.427	5337
841.564	5349
841.701	5353
841.838	5254
841.975	5261
842.112	5204
842.249	5132
842.385	5105
842.522	5345
842.659	5159
842.796	5166
842.933	5223
843.069	5136
843.206	5147
843.343	5341
843.479	5246
843.616	5269
843.752	4965
843.889	5060
844.025	5208
844.162	4984
844.298	5185
844.435	5090
844.571	5037
844.708	5170
844.844	5269
844.98	5322
845.117	5284
845.253	5132
845.389	5071
845.525	5181
845.661	5117
845.798	5025
845.934	5090
846.07	5033
846.206	5159
846.342	5254
846.478	5151
846.614	5045
846.75	4953
846.886	4934
847.022	5132
847.158	4984
847.294	5067
847.429	5105
847.565	4995
847.701	5315
847.837	4889
847.972	4831
848.108	4934
848.244	4942
848.379	4801
848.515	4740
848.65	4717
848.786	4740
848.921	4771
849.057	4850
849.192	4885
849.328	4812
849.463	4839
849.598	4828
849.734	4687
849.869	4679
850.004	4580
850.14	4656
850.275	4588
850.41	4538
850.545	4588
850.68	4538
850.815	4569
850.95	4588
851.085	4850
851.22	4755
851.355	4645
851.49	4649
851.625	4668
851.76	4622
851.895	4577
852.03	4535
852.165	4618
852.299	4683
852.434	4809
852.569	4736
852.703	4801
852.838	4839
852.973	4949
853.107	4915
853.242	4698
853.376	4698
853.511	4546
853.645	4573
853.78	4763
853.914	4725
854.048	4675
854.183	4634
854.317	4641
854.451	4843
854.585	4672
854.72	4626
854.854	4778
854.988	4596
855.122	4615
855.256	4508
855.39	4649
855.524	4801
855.658	4710
855.792	4694
855.926	4740
856.06	4778
856.194	4767
856.327	4675
856.461	4599
856.595	4607
856.729	4599
856.862	4736
856.996	4706
857.13	4748
857.263	4744
857.397	4858
857.53	4637
857.664	4694
857.797	4740
857.931	4809
858.064	4691
858.197	4740
858.331	4691
858.464	4599
858.597	4512
858.731	4630
858.864	4580
858.997	4634
859.13	4637
859.263	4653
859.396	4729
859.529	4588
859.662	4558
859.795	4565
859.928	4634
860.061	4702
860.194	4729
860.327	4622
860.46	4546
860.592	4706
860.725	4752
860.858	4683
860.99	4573
861.123	4474
861.256	4516
861.388	4615
861.521	5273
861.653	4474
861.786	4428
861.918	4455
862.05	4516
862.183	4588
862.315	4634
862.447	4637
862.58	4523
862.712	4367
862.844	4352
862.976	4417
863.108	4478
863.24	4767
863.372	4348
863.504	4421
863.636	4375
863.768	4440
863.9	4451
864.032	4375
864.164	4394
864.296	4462
864.428	4508
864.559	4516
864.691	4580
864.823	4500
864.954	4531
865.086	4489
865.217	4455
865.349	4424
865.48	4462
865.612	4504
865.743	4577
865.875	4455
866.006	4417
866.137	4447
866.269	4443
866.4	4421
866.531	4451
866.662	4386
866.793	4367
866.924	4402
867.055	4493
867.186	4474
867.317	4402
867.448	4329
867.579	4379
867.71	4405
867.841	4318
867.972	4474
868.103	4474
868.233	4462
868.364	4417
868.495	4470
868.625	4622
868.756	4717
868.886	4554
869.017	4630
869.147	4763
869.278	4763
869.408	4683
869.539	4672
869.669	4710
869.799	4672
869.929	4706
870.06	4702
870.19	4942
870.32	4889
870.45	4949
870.58	5006
870.71	5079
870.84	5124
870.97	4923
871.1	4850
871.23	5140
871.36	5098
871.489	5033
871.619	5102
871.749	5075
871.879	5178
872.008	5140
872.138	5071
872.267	4961
872.397	4858
872.526	4793
872.656	4714
872.785	4809
872.915	5006
873.044	5041
873.173	4942
873.303	4991
873.432	4942
873.561	4961
873.69	4858
873.819	4896
873.948	4927
874.077	4820
874.206	4733
874.335	4824
874.464	4896
874.593	5064
874.722	4987
874.851	5056
874.979	5045
875.108	5025
875.237	4889
875.365	4885
875.494	4889
875.623	5003
875.751	4816
875.88	4881
876.008	4965
876.136	5022
876.265	5155
876.393	5326
876.521	5235
876.65	5242
876.778	5121
876.906	5086
877.034	5048
877.162	5056
877.29	4980
877.418	5060
877.546	5056
877.674	5075
877.802	5045
877.93	4995
878.058	4965
878.185	4866
878.313	4915
878.441	4965
878.568	4816
878.696	4877
878.824	4953
878.951	4987
879.079	5136
879.206	5280
879.333	5022
879.461	4957
879.588	4980
879.715	5117
879.842	5159
879.97	4991
880.097	4748
880.224	4748
880.351	4812
880.478	4877
880.605	4793
880.732	4797
880.859	5124
880.986	4866
881.112	4915
881.239	4767
881.366	4630
881.493	4618
881.619	4584
881.746	4637
881.872	4664
881.999	4691
882.125	4698
882.252	4801
882.378	4828
882.505	4987
882.631	4782
882.757	4672
882.883	4759
883.01	4744
883.136	4634
883.262	4538
883.388	4603
883.514	4805
883.64	4839
883.766	4778
883.892	4672
884.018	4702
884.143	4885
884.269	4999
884.395	4683
884.52	4645
884.646	4637
884.772	4569
884.897	4542
885.023	4649
885.148	4786
885.274	4862
885.399	4786
885.524	4683
885.65	4668
885.775	4725
885.9	4679
886.025	4881
886.15	4774
886.275	4672
886.4	4675
886.525	4694
886.65	4672
886.775	4660
886.9	4911
887.025	5041
887.149	4767
887.274	4668
887.399	4577
887.523	4577
887.648	4569
887.773	4615
887.897	4778
888.021	4759
888.146	4683
888.27	4816
888.395	4915
888.519	4763
888.643	4828
888.767	4812
888.891	4668
889.015	4615
889.139	4668
889.263	4599
889.387	4767
889.511	4839
889.635	4816
889.759	4683
889.883	4630
890.006	4736
890.13	4771
890.254	4615
890.377	4702
890.501	4500
890.624	4508
890.748	4645
890.871	4519
890.995	4394
891.118	4394
891.241	4489
891.364	4554
891.488	4649
891.611	4466
891.734	4565
891.857	4592
891.98	4519
892.103	4599
892.226	4618
892.349	4527
892.471	4440
892.594	4531
892.717	4538
892.839	4523
892.962	4611
893.085	4687
893.207	4569
893.33	4462
893.452	4538
893.575	4634
893.697	4569
893.819	4816
893.941	4828
894.064	4793
894.186	4550
894.308	4584
894.43	4733
894.552	4831
894.674	4744
894.796	4550
894.918	4603
895.04	4538
895.161	4729
895.283	4679
895.405	4577
895.526	4660
895.648	4733
895.769	4645
895.891	4706
896.012	4721
896.134	4714
896.255	4630
896.376	4653
896.498	4615
896.619	4645
896.74	4607
896.861	4611
896.982	5006
897.103	5102
897.224	4854
897.345	4755
897.466	4630
897.587	4717
897.708	4839
897.828	4736
897.949	4679
898.07	4550
898.19	4626
898.311	4850
898.431	4672
898.552	4740
898.672	4774
898.792	4805
898.913	4752
899.033	4653
899.153	4493
899.273	4455
899.393	4527
899.513	4550
899.633	4497
899.753	4580
899.873	4489
899.993	4565
900.113	4531
900.232	4607
900.352	4508
900.472	4462
900.591	4409
900.711	4481
900.83	4409
900.95	4596
901.069	4710
901.189	4554
901.308	4375
901.427	4295
901.546	4447
901.665	4470
901.784	4500
901.904	4421
902.023	4284
902.141	4192
902.26	4173
902.379	4299
902.498	4265
902.617	4230
902.735	4337
902.854	4390
902.973	4348
903.091	4238
903.21	4253
903.328	4268
903.446	4295
903.565	4257
903.683	4306
903.801	4280
903.919	4402
904.038	4436
904.156	4287
904.274	4432
904.392	4383
904.51	4421
904.627	4504
904.745	4577
904.863	4656
904.981	4432
905.098	4276
905.216	4383
905.334	4405
905.451	4405
905.569	4402
905.686	4535
905.803	4500
905.921	4428
906.038	4554
906.155	4455
906.272	4383
906.389	4428
906.506	4363
906.623	4375
906.74	4386
906.857	4291
906.974	4394
907.091	4561
907.208	4714
907.324	4626
907.441	4512
907.557	4356
907.674	4379
907.79	4295
907.907	4409
908.023	4470
908.139	4493
908.256	4386
908.372	4481
908.488	4462
908.604	4383
908.72	4341
908.836	4348
908.952	4394
909.068	4398
909.184	4542
909.3	4478
909.415	4561
909.531	4565
909.647	4352
909.762	4333
909.878	4367
909.993	4424
910.108	4405
910.224	4383
910.339	4466
910.454	4394
910.57	4386
910.685	4291
910.8	4622
910.915	4596
911.03	4508
911.145	4303
911.259	4348
911.374	4344
911.489	4360
911.604	4299
911.718	4188
911.833	4200
911.947	4086
912.062	4006
912.176	4230
912.291	4207
912.405	4227
912.519	4455
912.633	4497
912.748	4405
912.862	4329
912.976	4188
913.09	4112
913.204	4188
913.318	4234
913.431	4375
913.545	4413
913.659	4409
913.772	4337
913.886	4253
914	4223
914.113	4405
914.226	4417
914.34	4386
914.453	4219
914.566	4405
914.68	4299
914.793	4333
914.906	4158
915.019	4109
915.132	4093
915.245	4150
915.358	4211
915.47	4211
915.583	4249
915.696	4242
915.809	4390
915.921	4417
916.034	4299
916.146	4257
916.259	4215
916.371	4341
916.483	4367
916.595	4299
916.708	4322
916.82	4337
916.932	4303
917.044	4329
917.156	4295
917.268	4227
917.38	4253
917.491	4299
917.603	4318
917.715	4402
917.826	4413
917.938	4402
918.049	4280
918.161	4360
918.272	4573
918.384	4542
918.495	4451
918.606	4314
918.717	4234
918.828	4352
918.939	4344
919.05	4268
919.161	4322
919.272	4124
919.383	4257
919.494	4451
919.604	4618
919.715	4413
919.826	4344
919.936	4405
920.047	4523
920.157	4466
920.267	4717
920.378	4561
920.488	4527
920.598	4691
920.708	4862
920.818	4782
920.928	4778
921.038	4919
921.148	4919
921.258	4603
921.368	4546
921.477	4516
921.587	4440
921.697	4348
921.806	4519
921.916	4424
922.025	4227
922.134	4253
922.244	4219
922.353	4352
922.462	4192
922.571	4139
922.68	3979
922.789	3994
922.898	3994
923.007	3968
923.116	4105
923.224	4082
923.333	4071
923.442	3972
923.55	3972
923.659	4044
923.767	4078
923.876	4017
923.984	4093
924.092	3964
924.201	4059
924.309	4097
924.417	4112
924.525	4059
924.633	4135
924.741	5018
924.849	3903
924.956	4105
925.064	3975
925.172	3842
925.279	3972
925.387	4032
925.494	4036
925.602	4215
925.709	4177
925.816	4032
925.924	4128
926.031	4219
926.138	4169
926.245	4204
926.352	4086
926.459	4257
926.566	4295
926.673	4131
926.779	4048
926.886	4082
926.993	4013
927.099	3926
927.206	3979
927.312	3937
927.419	4002
927.525	4032
927.631	4074
927.737	4002
927.843	3960
927.95	3846
928.056	3937
928.162	3983
928.267	3994
928.373	4603
928.479	4131
928.585	3880
928.69	3994
928.796	4120
928.901	3975
929.007	3865
929.112	4017
929.218	3964
929.323	3991
929.428	3941
929.533	4093
929.638	3892
929.743	3945
929.848	4048
929.953	3979
930.058	3922
930.163	3781
930.267	3838
930.372	3979
930.477	3823
930.581	4105
930.685	3869
930.79	3835
930.894	3854
930.998	3854
931.103	4048
931.207	3694
931.311	3675
931.415	3656
931.519	3523
931.623	3523
