Data from test_V78500241_1370.txt Node
Date: Fri Mar 25 16:58:31 CST 2022
User: usil
Spectrometer: V785-0024
Trigger mode: 0
Integration Time (sec): 4.000000E-1
Scans to average: 1
Nonlinearity correction enabled: false
Boxcar width: 0
Storing dark spectrum: false
XAxis mode: Wavelengths
Number of Pixels in Spectrum: 1024
>>>>>Begin Spectral Data<<<<<
801.071	7970
801.214	7967
801.356	7951
801.499	7898
801.641	7776
801.783	7822
801.926	7921
802.068	7974
802.211	7909
802.353	7959
802.496	7792
802.638	7849
802.78	7917
802.923	7997
803.065	7864
803.208	7898
803.35	7997
803.492	8012
803.635	8157
803.777	8024
803.919	8062
804.061	8431
804.204	8164
804.346	8027
804.488	7928
804.63	8058
804.773	7997
804.915	8088
805.057	8362
805.199	8187
805.341	8259
805.483	8301
805.626	8221
805.768	8149
805.91	8210
806.052	8195
806.194	8088
806.336	8275
806.478	8107
806.62	8054
806.762	8237
806.904	8206
807.046	8499
807.188	8294
807.33	8298
807.472	8336
807.614	8180
807.756	8088
807.898	7951
808.04	7871
808.182	7925
808.324	7841
808.465	7925
808.607	8183
808.749	8084
808.891	8123
809.033	8259
809.174	8153
809.316	8100
809.458	8069
809.6	7989
809.741	7944
809.883	8027
810.025	8115
810.166	8081
810.308	8046
810.45	7986
810.591	7875
810.733	7750
810.875	7632
811.016	7544
811.158	7510
811.299	7567
811.441	7662
811.582	7719
811.724	7582
811.865	7548
812.007	7582
812.148	7594
812.29	7586
812.431	7738
812.573	7875
812.714	7963
812.855	8058
812.997	8157
813.138	8324
813.279	8172
813.421	8123
813.562	7997
813.703	7830
813.845	7750
813.986	7449
814.127	7270
814.268	7240
814.41	7183
814.551	7183
814.692	7175
814.833	7031
814.974	7065
815.115	7126
815.256	6920
815.397	6928
815.539	6958
815.68	6821
815.821	6791
815.962	6837
816.103	6776
816.244	6688
816.385	6578
816.526	6642
816.666	6471
816.807	6319
816.948	6437
817.089	6448
817.23	6357
817.371	6323
817.512	6407
817.653	6407
817.793	6353
817.934	6426
818.075	6460
818.216	6372
818.356	6410
818.497	6247
818.638	6060
818.778	6091
818.919	6079
819.06	6148
819.2	6270
819.341	6323
819.481	6361
819.622	6566
819.762	6768
819.903	6681
820.043	6559
820.184	6566
820.324	6585
820.465	6776
820.605	6700
820.746	6642
820.886	6441
821.026	6623
821.167	6669
821.307	6764
821.447	6764
821.588	6623
821.728	6498
821.868	6525
822.008	6334
822.149	6365
822.289	6327
822.429	6175
822.569	6053
822.709	6102
822.849	5901
822.99	5897
823.13	5912
823.27	5870
823.41	5756
823.55	5707
823.69	5794
823.83	5798
823.97	5661
824.11	5547
824.25	5490
824.389	5524
824.529	5562
824.669	5516
824.809	5581
824.949	5608
825.089	5585
825.228	5528
825.368	5398
825.508	5296
825.648	5299
825.787	5337
825.927	5402
826.067	5322
826.206	5296
826.346	5364
826.485	5364
826.625	5391
826.765	5478
826.904	5490
827.044	5288
827.183	5178
827.323	5117
827.462	5239
827.601	5170
827.741	5204
827.88	5162
828.02	5113
828.159	5246
828.298	5277
828.437	5299
828.577	5349
828.716	5497
828.855	5311
828.994	5151
829.134	5147
829.273	5143
829.412	5143
829.551	5117
829.69	5159
829.829	5227
829.968	5341
830.107	5269
830.246	5273
830.385	5117
830.524	5086
830.663	5025
830.802	4934
830.941	4892
831.08	4854
831.219	4968
831.357	4949
831.496	5147
831.635	4930
831.774	4801
831.913	4866
832.051	4744
832.19	4755
832.329	4858
832.467	4622
832.606	4649
832.744	4656
832.883	4744
833.022	4668
833.16	4778
833.299	4805
833.437	4805
833.576	4839
833.714	4892
833.852	4854
833.991	4870
834.129	4915
834.267	4911
834.406	4839
834.544	4957
834.682	4957
834.821	4923
834.959	5098
835.097	4942
835.235	5151
835.373	5045
835.511	5067
835.65	5003
835.788	5006
835.926	4911
836.064	4881
836.202	4866
836.34	5159
836.478	5216
836.615	5140
836.753	5189
836.891	5273
837.029	5212
837.167	5201
837.305	5162
837.443	5140
837.58	5060
837.718	5201
837.856	5189
837.993	5151
838.131	5201
838.269	5201
838.406	5231
838.544	5181
838.681	5105
838.819	4946
838.956	4892
839.094	4889
839.231	4965
839.369	5048
839.506	5372
839.643	5242
839.781	4995
839.918	5006
840.055	5033
840.193	5071
840.33	5071
840.467	5140
840.604	5185
840.742	5452
840.879	5083
841.016	5094
841.153	5189
841.29	5345
841.427	5357
841.564	5303
841.701	5364
841.838	5269
841.975	5250
842.112	5265
842.249	5121
842.385	5094
842.522	5345
842.659	5143
842.796	5117
842.933	5178
843.069	5140
843.206	5166
843.343	5280
843.479	5201
843.616	5239
843.752	4999
843.889	4976
844.025	5185
844.162	5003
844.298	5193
844.435	5060
844.571	5060
844.708	5162
844.844	5280
844.98	5372
845.117	5318
845.253	5147
845.389	5098
845.525	5155
845.661	5090
845.798	4999
845.934	5067
846.07	5014
846.206	5193
846.342	5254
846.478	5162
846.614	5010
846.75	4885
846.886	4934
847.022	5143
847.158	4972
847.294	5056
847.429	5075
847.565	4976
847.701	5337
847.837	4877
847.972	4805
848.108	4961
848.244	4923
848.379	4755
848.515	4736
848.65	4683
848.786	4717
848.921	4793
849.057	4835
849.192	4847
849.328	4797
849.463	4854
849.598	4748
849.734	4774
849.869	4668
850.004	4653
850.14	4675
850.275	4611
850.41	4512
850.545	4542
850.68	4615
850.815	4592
850.95	4630
851.085	4816
851.22	4744
851.355	4691
851.49	4596
851.625	4622
851.76	4622
851.895	4550
852.03	4497
852.165	4615
852.299	4721
852.434	4771
852.569	4729
852.703	4752
852.838	4858
852.973	4889
853.107	4923
853.242	4767
853.376	4611
853.511	4573
853.645	4596
853.78	4759
853.914	4668
854.048	4675
854.183	4622
854.317	4656
854.451	4839
854.585	4641
854.72	4626
854.854	4767
854.988	4622
855.122	4634
855.256	4478
855.39	4660
855.524	4778
855.658	4683
855.792	4694
855.926	4687
856.06	4717
856.194	4755
856.327	4698
856.461	4592
856.595	4596
856.729	4615
856.862	4733
856.996	4702
857.13	4736
857.263	4725
857.397	4774
857.53	4630
857.664	4694
857.797	4729
857.931	4812
858.064	4691
858.197	4740
858.331	4615
858.464	4615
858.597	4478
858.731	4656
858.864	4622
858.997	4622
859.13	4596
859.263	4668
859.396	4679
859.529	4569
859.662	4531
859.795	4561
859.928	4592
860.061	4717
860.194	4755
860.327	4588
860.46	4561
860.592	4679
860.725	4691
860.858	4721
860.99	4550
861.123	4504
861.256	4523
861.388	4592
861.521	5429
861.653	4451
861.786	4417
861.918	4481
862.05	4500
862.183	4558
862.315	4607
862.447	4645
862.58	4512
862.712	4413
862.844	4322
862.976	4466
863.108	4459
863.24	4877
863.372	4363
863.504	4409
863.636	4421
863.768	4516
863.9	4424
864.032	4371
864.164	4379
864.296	4432
864.428	4542
864.559	4561
864.691	4462
864.823	4493
864.954	4508
865.086	4500
865.217	4394
865.349	4402
865.48	4413
865.612	4462
865.743	4599
865.875	4470
866.006	4379
866.137	4443
866.269	4466
866.4	4443
866.531	4398
866.662	4371
866.793	4436
866.924	4394
867.055	4512
867.186	4371
867.317	4409
867.448	4371
867.579	4363
867.71	4428
867.841	4344
867.972	4470
868.103	4512
868.233	4470
868.364	4436
868.495	4428
868.625	4672
868.756	4774
868.886	4580
869.017	4603
869.147	4755
869.278	4759
869.408	4668
869.539	4649
869.669	4679
869.799	4615
869.929	4706
870.06	4744
870.19	4953
870.32	4942
870.45	4911
870.58	5018
870.71	5098
870.84	5109
870.97	4919
871.1	4877
871.23	5132
871.36	5117
871.489	4991
871.619	5067
871.749	5098
871.879	5071
872.008	5140
872.138	5033
872.267	4984
872.397	4862
872.526	4809
872.656	4687
872.785	4782
872.915	4908
873.044	5010
873.173	4919
873.303	4980
873.432	4938
873.561	4930
873.69	4839
873.819	4870
873.948	4911
874.077	4801
874.206	4790
874.335	4805
874.464	4938
874.593	5022
874.722	5003
874.851	5090
874.979	4987
875.108	5045
875.237	4915
875.365	4881
875.494	4835
875.623	4889
875.751	4828
875.88	4824
876.008	4972
876.136	5033
876.265	5181
876.393	5341
876.521	5231
876.65	5170
876.778	5128
876.906	5037
877.034	5014
877.162	5048
877.29	4908
877.418	5033
877.546	5037
877.674	5037
877.802	5029
877.93	4984
878.058	4892
878.185	4850
878.313	4915
878.441	4923
878.568	4847
878.696	4873
878.824	4961
878.951	4961
879.079	5052
879.206	5284
879.333	5090
879.461	4968
879.588	5041
879.715	5056
879.842	5265
879.97	5010
880.097	4778
880.224	4801
880.351	4793
880.478	4809
880.605	4816
880.732	4767
880.859	5067
880.986	4908
881.112	4889
881.239	4748
881.366	4626
881.493	4573
881.619	4573
881.746	4668
881.872	4626
881.999	4672
882.125	4584
882.252	4790
882.378	4786
882.505	4923
882.631	4816
882.757	4687
882.883	4736
883.01	4752
883.136	4672
883.262	4588
883.388	4622
883.514	4786
883.64	4820
883.766	4847
883.892	4679
884.018	4729
884.143	4877
884.269	4980
884.395	4733
884.52	4592
884.646	4656
884.772	4569
884.897	4573
885.023	4660
885.148	4797
885.274	4835
885.399	4820
885.524	4675
885.65	4729
885.775	4767
885.9	4736
886.025	4850
886.15	4812
886.275	4668
886.4	4637
886.525	4755
886.65	4710
886.775	4664
886.9	4885
887.025	5045
887.149	4816
887.274	4664
887.399	4603
887.523	4565
887.648	4558
887.773	4584
887.897	4782
888.021	4786
888.146	4698
888.27	4820
888.395	4915
888.519	4809
888.643	4782
888.767	4839
888.891	4679
889.015	4588
889.139	4618
889.263	4580
889.387	4812
889.511	4824
889.635	4740
889.759	4649
889.883	4687
890.006	4782
890.13	4755
890.254	4580
890.377	4675
890.501	4531
890.624	4519
890.748	4653
890.871	4535
890.995	4428
891.118	4390
891.241	4500
891.364	4504
891.488	4615
891.611	4497
891.734	4497
891.857	4550
891.98	4531
892.103	4637
892.226	4561
892.349	4535
892.471	4432
892.594	4535
892.717	4645
892.839	4542
892.962	4546
893.085	4660
893.207	4603
893.33	4462
893.452	4493
893.575	4679
893.697	4546
893.819	4812
893.941	4809
894.064	4744
894.186	4584
894.308	4542
894.43	4710
894.552	4816
894.674	4752
894.796	4535
894.918	4558
895.04	4596
895.161	4752
895.283	4660
895.405	4531
895.526	4634
895.648	4702
895.769	4664
895.891	4717
896.012	4740
896.134	4702
896.255	4588
896.376	4592
896.498	4599
896.619	4687
896.74	4607
896.861	4618
896.982	4946
897.103	4995
897.224	4862
897.345	4691
897.466	4645
897.587	4706
897.708	4877
897.828	4767
897.949	4668
898.07	4580
898.19	4649
898.311	4866
898.431	4660
898.552	4774
898.672	4759
898.792	4778
898.913	4744
899.033	4607
899.153	4504
899.273	4440
899.393	4455
899.513	4527
899.633	4500
899.753	4561
899.873	4504
899.993	4573
900.113	4504
900.232	4577
900.352	4527
900.472	4470
900.591	4383
900.711	4508
900.83	4424
900.95	4637
901.069	4691
901.189	4542
901.308	4348
901.427	4287
901.546	4348
901.665	4462
901.784	4485
901.904	4360
902.023	4276
902.141	4181
902.26	4150
902.379	4333
902.498	4223
902.617	4257
902.735	4348
902.854	4360
902.973	4363
903.091	4230
903.21	4257
903.328	4303
903.446	4303
903.565	4219
903.683	4344
903.801	4280
903.919	4371
904.038	4383
904.156	4303
904.274	4424
904.392	4367
904.51	4421
904.627	4443
904.745	4607
904.863	4649
904.981	4375
905.098	4299
905.216	4386
905.334	4386
905.451	4405
905.569	4424
905.686	4584
905.803	4573
905.921	4424
906.038	4512
906.155	4428
906.272	4379
906.389	4455
906.506	4360
906.623	4379
906.74	4386
906.857	4344
906.974	4367
907.091	4538
907.208	4664
907.324	4580
907.441	4478
907.557	4375
907.674	4303
907.79	4272
907.907	4360
908.023	4493
908.139	4481
908.256	4459
908.372	4436
908.488	4443
908.604	4314
908.72	4325
908.836	4413
908.952	4383
909.068	4462
909.184	4569
909.3	4417
909.415	4558
909.531	4508
909.647	4272
909.762	4363
909.878	4398
909.993	4459
910.108	4405
910.224	4383
910.339	4470
910.454	4379
910.57	4303
910.685	4284
910.8	4664
910.915	4588
911.03	4500
911.145	4337
911.259	4337
911.374	4348
911.489	4261
911.604	4265
911.718	4166
911.833	4169
911.947	4071
912.062	4029
912.176	4196
912.291	4249
912.405	4246
912.519	4451
912.633	4535
912.748	4375
912.862	4242
912.976	4207
913.09	4120
913.204	4173
913.318	4227
913.431	4383
913.545	4386
913.659	4447
913.772	4356
913.886	4246
914	4169
914.113	4371
914.226	4440
914.34	4386
914.453	4238
914.566	4443
914.68	4291
914.793	4314
914.906	4169
915.019	4147
915.132	4086
915.245	4173
915.358	4192
915.47	4200
915.583	4276
915.696	4276
915.809	4375
915.921	4451
916.034	4272
916.146	4257
916.259	4246
916.371	4405
916.483	4363
916.595	4219
916.708	4352
916.82	4295
916.932	4329
917.044	4287
917.156	4322
917.268	4242
917.38	4303
917.491	4291
917.603	4341
917.715	4455
917.826	4413
917.938	4348
918.049	4227
918.161	4413
918.272	4519
918.384	4508
918.495	4451
918.606	4276
918.717	4204
918.828	4299
918.939	4394
919.05	4234
919.161	4261
919.272	4097
919.383	4230
919.494	4432
919.604	4641
919.715	4485
919.826	4348
919.936	4417
920.047	4542
920.157	4489
920.267	4653
920.378	4523
920.488	4508
920.598	4725
920.708	4877
920.818	4755
920.928	4755
921.038	4904
921.148	4919
921.258	4607
921.368	4538
921.477	4527
921.587	4371
921.697	4352
921.806	4519
921.916	4398
922.025	4265
922.134	4280
922.244	4219
922.353	4310
922.462	4166
922.571	4128
922.68	3998
922.789	3975
922.898	4006
923.007	3991
923.116	4112
923.224	4013
923.333	4090
923.442	4013
923.55	3972
923.659	4006
923.767	4101
923.876	3983
923.984	4143
924.092	3991
924.201	4112
924.309	4090
924.417	4128
924.525	4010
924.633	4071
924.741	5003
924.849	3880
924.956	4120
925.064	3949
925.172	3857
925.279	3975
925.387	4021
925.494	4067
925.602	4207
925.709	4166
925.816	3979
925.924	4124
926.031	4219
926.138	4158
926.245	4196
926.352	4055
926.459	4246
926.566	4306
926.673	4135
926.779	4116
926.886	4112
926.993	4017
927.099	3968
927.206	3937
927.312	3945
927.419	4006
927.525	3991
927.631	4090
927.737	3949
927.843	3953
927.95	3880
928.056	3896
928.162	3991
928.267	4051
928.373	4653
928.479	4131
928.585	3884
928.69	4032
928.796	4063
928.901	3964
929.007	3827
929.112	3964
929.218	3987
929.323	3968
929.428	3888
929.533	4105
929.638	3911
929.743	3941
929.848	4078
929.953	3968
930.058	3934
930.163	3736
930.267	3831
930.372	3956
930.477	3838
930.581	4071
930.685	3960
930.79	3812
930.894	3869
930.998	3789
931.103	4055
931.207	3671
931.311	3667
931.415	3690
931.519	3542
931.623	3519
