Data from test_V78500241_2493.txt Node
Date: Fri Mar 25 17:06:20 CST 2022
User: usil
Spectrometer: V785-0024
Trigger mode: 0
Integration Time (sec): 4.000000E-1
Scans to average: 1
Nonlinearity correction enabled: false
Boxcar width: 0
Storing dark spectrum: false
XAxis mode: Wavelengths
Number of Pixels in Spectrum: 1024
>>>>>Begin Spectral Data<<<<<
801.071	7951
801.214	7982
801.356	7807
801.499	7871
801.641	7769
801.783	7833
801.926	7951
802.068	7955
802.211	7932
802.353	7951
802.496	7917
802.638	7883
802.78	7963
802.923	7967
803.065	7833
803.208	7807
803.35	7913
803.492	8100
803.635	8172
803.777	8008
803.919	8138
804.061	8454
804.204	8073
804.346	8016
804.488	7936
804.63	8062
804.773	8050
804.915	8084
805.057	8305
805.199	8180
805.341	8229
805.483	8271
805.626	8279
805.768	8096
805.91	8199
806.052	8172
806.194	8062
806.336	8313
806.478	8096
806.62	8035
806.762	8180
806.904	8214
807.046	8427
807.188	8408
807.33	8309
807.472	8347
807.614	8145
807.756	8145
807.898	8027
808.04	7826
808.182	7909
808.324	7864
808.465	7951
808.607	8084
808.749	8153
808.891	8263
809.033	8244
809.174	8221
809.316	8081
809.458	8012
809.6	8012
809.741	8039
809.883	8001
810.025	8073
810.166	8073
810.308	8031
810.45	7978
810.591	7887
810.733	7738
810.875	7666
811.016	7495
811.158	7460
811.299	7605
811.441	7772
811.582	7727
811.724	7540
811.865	7525
812.007	7556
812.148	7559
812.29	7647
812.431	7738
812.573	7883
812.714	7940
812.855	8145
812.997	8256
813.138	8355
813.279	8153
813.421	8050
813.562	7928
813.703	7883
813.845	7704
813.986	7419
814.127	7285
814.268	7232
814.41	7240
814.551	7168
814.692	7213
814.833	7152
814.974	7126
815.115	7126
815.256	6977
815.397	6973
815.539	6981
815.68	6768
815.821	6825
815.962	6894
816.103	6783
816.244	6768
816.385	6639
816.526	6570
816.666	6486
816.807	6350
816.948	6441
817.089	6490
817.23	6433
817.371	6407
817.512	6369
817.653	6357
817.793	6372
817.934	6372
818.075	6429
818.216	6426
818.356	6365
818.497	6205
818.638	6178
818.778	6140
818.919	6095
819.06	6228
819.2	6319
819.341	6346
819.481	6399
819.622	6574
819.762	6764
819.903	6696
820.043	6585
820.184	6658
820.324	6570
820.465	6696
820.605	6700
820.746	6692
820.886	6570
821.026	6677
821.167	6715
821.307	6829
821.447	6779
821.588	6673
821.728	6642
821.868	6528
822.008	6357
822.149	6372
822.289	6407
822.429	6186
822.569	6152
822.709	6178
822.849	5965
822.99	5912
823.13	5965
823.27	5977
823.41	5908
823.55	5836
823.69	5870
823.83	5832
823.97	5680
824.11	5543
824.25	5512
824.389	5551
824.529	5573
824.669	5577
824.809	5718
824.949	5688
825.089	5703
825.228	5573
825.368	5417
825.508	5379
825.648	5364
825.787	5376
825.927	5493
826.067	5379
826.206	5296
826.346	5440
826.485	5433
826.625	5455
826.765	5611
826.904	5512
827.044	5273
827.183	5239
827.323	5170
827.462	5280
827.601	5223
827.741	5227
827.88	5269
828.02	5159
828.159	5227
828.298	5349
828.437	5387
828.577	5360
828.716	5516
828.855	5349
828.994	5204
829.134	5204
829.273	5235
829.412	5174
829.551	5147
829.69	5193
829.829	5288
829.968	5429
830.107	5307
830.246	5296
830.385	5220
830.524	5189
830.663	5105
830.802	5041
830.941	4999
831.08	4927
831.219	5041
831.357	5025
831.496	5201
831.635	4999
831.774	4885
831.913	4873
832.051	4850
832.19	4801
832.329	4828
832.467	4740
832.606	4733
832.744	4740
832.883	4831
833.022	4748
833.16	4828
833.299	4809
833.437	4854
833.576	4870
833.714	4900
833.852	4847
833.991	4949
834.129	5006
834.267	4949
834.406	4972
834.544	5018
834.682	4999
834.821	5003
834.959	5178
835.097	5045
835.235	5220
835.373	5102
835.511	5178
835.65	5071
835.788	5083
835.926	4957
836.064	4896
836.202	4976
836.34	5189
836.478	5250
836.615	5216
836.753	5223
836.891	5307
837.029	5280
837.167	5265
837.305	5201
837.443	5227
837.58	5181
837.718	5216
837.856	5280
837.993	5181
838.131	5265
838.269	5246
838.406	5204
838.544	5208
838.681	5048
838.819	5075
838.956	4904
839.094	4953
839.231	4976
839.369	5143
839.506	5467
839.643	5284
839.781	5128
839.918	5052
840.055	5170
840.193	5140
840.33	5128
840.467	5155
840.604	5212
840.742	5482
840.879	5128
841.016	5117
841.153	5216
841.29	5395
841.427	5368
841.564	5337
841.701	5398
841.838	5334
841.975	5265
842.112	5254
842.249	5162
842.385	5155
842.522	5360
842.659	5212
842.796	5181
842.933	5227
843.069	5197
843.206	5227
843.343	5345
843.479	5254
843.616	5284
843.752	5075
843.889	4987
844.025	5235
844.162	5052
844.298	5299
844.435	5094
844.571	5083
844.708	5280
844.844	5292
844.98	5376
845.117	5303
845.253	5170
845.389	5159
845.525	5193
845.661	5147
845.798	5022
845.934	5201
846.07	5098
846.206	5204
846.342	5292
846.478	5231
846.614	5083
846.75	4984
846.886	4984
847.022	5147
847.158	5067
847.294	5124
847.429	5140
847.565	5117
847.701	5326
847.837	4850
847.972	4797
848.108	5006
848.244	4930
848.379	4805
848.515	4717
848.65	4725
848.786	4752
848.921	4797
849.057	4923
849.192	4927
849.328	4892
849.463	4866
849.598	4763
849.734	4824
849.869	4702
850.004	4626
850.14	4706
850.275	4645
850.41	4542
850.545	4565
850.68	4645
850.815	4683
850.95	4637
851.085	4839
851.22	4782
851.355	4755
851.49	4672
851.625	4603
851.76	4637
851.895	4607
852.03	4573
852.165	4702
852.299	4759
852.434	4809
852.569	4752
852.703	4843
852.838	4885
852.973	4961
853.107	4957
853.242	4763
853.376	4668
853.511	4561
853.645	4668
853.78	4854
853.914	4748
854.048	4649
854.183	4675
854.317	4694
854.451	4858
854.585	4679
854.72	4641
854.854	4752
854.988	4618
855.122	4634
855.256	4523
855.39	4694
855.524	4828
855.658	4748
855.792	4672
855.926	4755
856.06	4752
856.194	4820
856.327	4683
856.461	4626
856.595	4668
856.729	4626
856.862	4812
856.996	4736
857.13	4752
857.263	4782
857.397	4854
857.53	4675
857.664	4748
857.797	4790
857.931	4797
858.064	4763
858.197	4767
858.331	4637
858.464	4672
858.597	4538
858.731	4596
858.864	4710
858.997	4664
859.13	4679
859.263	4717
859.396	4748
859.529	4645
859.662	4634
859.795	4596
859.928	4668
860.061	4797
860.194	4774
860.327	4649
860.46	4592
860.592	4694
860.725	4786
860.858	4721
860.99	4580
861.123	4546
861.256	4558
861.388	4634
861.521	5216
861.653	4500
861.786	4500
861.918	4508
862.05	4554
862.183	4584
862.315	4607
862.447	4687
862.58	4592
862.712	4440
862.844	4341
862.976	4478
863.108	4443
863.24	4938
863.372	4360
863.504	4390
863.636	4421
863.768	4531
863.9	4470
864.032	4367
864.164	4398
864.296	4523
864.428	4535
864.559	4569
864.691	4504
864.823	4558
864.954	4527
865.086	4558
865.217	4436
865.349	4451
865.48	4466
865.612	4500
865.743	4653
865.875	4497
866.006	4466
866.137	4466
866.269	4459
866.4	4447
866.531	4466
866.662	4478
866.793	4413
866.924	4447
867.055	4508
867.186	4489
867.317	4440
867.448	4375
867.579	4413
867.71	4379
867.841	4386
867.972	4447
868.103	4474
868.233	4447
868.364	4466
868.495	4519
868.625	4687
868.756	4748
868.886	4596
869.017	4637
869.147	4858
869.278	4812
869.408	4683
869.539	4721
869.669	4733
869.799	4687
869.929	4782
870.06	4812
870.19	4991
870.32	4934
870.45	4961
870.58	5010
870.71	5128
870.84	5113
870.97	4968
871.1	4889
871.23	5162
871.36	5159
871.489	5041
871.619	5052
871.749	5143
871.879	5189
872.008	5216
872.138	5056
872.267	4987
872.397	4873
872.526	4843
872.656	4793
872.785	4873
872.915	4972
873.044	5045
873.173	4949
873.303	4965
873.432	4961
873.561	4976
873.69	4930
873.819	4915
873.948	4942
874.077	4812
874.206	4801
874.335	4839
874.464	4911
874.593	5056
874.722	4957
874.851	5098
874.979	5102
875.108	5048
875.237	4915
875.365	4938
875.494	4915
875.623	5014
875.751	4892
875.88	4904
876.008	4991
876.136	5124
876.265	5227
876.393	5368
876.521	5250
876.65	5299
876.778	5204
876.906	5094
877.034	5048
877.162	5041
877.29	5045
877.418	5045
877.546	5048
877.674	5090
877.802	5041
877.93	5067
878.058	4915
878.185	4870
878.313	4995
878.441	4976
878.568	4835
878.696	4900
878.824	4942
878.951	5064
879.079	5143
879.206	5269
879.333	5117
879.461	5022
879.588	5033
879.715	5094
879.842	5246
879.97	4995
880.097	4839
880.224	4809
880.351	4790
880.478	4801
880.605	4873
880.732	4835
880.859	5083
880.986	4923
881.112	4930
881.239	4771
881.366	4653
881.493	4622
881.619	4626
881.746	4649
881.872	4675
881.999	4611
882.125	4714
882.252	4778
882.378	4847
882.505	4957
882.631	4816
882.757	4687
882.883	4748
883.01	4744
883.136	4710
883.262	4618
883.388	4622
883.514	4828
883.64	4911
883.766	4782
883.892	4714
884.018	4729
884.143	4850
884.269	5003
884.395	4660
884.52	4660
884.646	4637
884.772	4565
884.897	4565
885.023	4694
885.148	4797
885.274	4870
885.399	4850
885.524	4698
885.65	4717
885.775	4748
885.9	4710
886.025	4877
886.15	4835
886.275	4725
886.4	4660
886.525	4740
886.65	4653
886.775	4710
886.9	4927
887.025	5086
887.149	4790
887.274	4675
887.399	4626
887.523	4603
887.648	4607
887.773	4607
887.897	4759
888.021	4771
888.146	4668
888.27	4843
888.395	4923
888.519	4786
888.643	4892
888.767	4843
888.891	4706
889.015	4599
889.139	4637
889.263	4637
889.387	4771
889.511	4870
889.635	4797
889.759	4660
889.883	4748
890.006	4710
890.13	4881
890.254	4664
890.377	4721
890.501	4558
890.624	4569
890.748	4630
890.871	4508
890.995	4478
891.118	4413
891.241	4508
891.364	4535
891.488	4660
891.611	4497
891.734	4569
891.857	4645
891.98	4596
892.103	4660
892.226	4542
892.349	4531
892.471	4451
892.594	4573
892.717	4550
892.839	4626
892.962	4630
893.085	4687
893.207	4603
893.33	4462
893.452	4527
893.575	4653
893.697	4622
893.819	4835
893.941	4828
894.064	4774
894.186	4580
894.308	4558
894.43	4763
894.552	4850
894.674	4759
894.796	4573
894.918	4607
895.04	4603
895.161	4717
895.283	4672
895.405	4603
895.526	4653
895.648	4717
895.769	4672
895.891	4736
896.012	4710
896.134	4755
896.255	4714
896.376	4596
896.498	4653
896.619	4634
896.74	4577
896.861	4694
896.982	4984
897.103	5071
897.224	4812
897.345	4729
897.466	4706
897.587	4714
897.708	4843
897.828	4774
897.949	4706
898.07	4580
898.19	4653
898.311	4824
898.431	4672
898.552	4721
898.672	4812
898.792	4790
898.913	4736
899.033	4611
899.153	4554
899.273	4474
899.393	4497
899.513	4558
899.633	4516
899.753	4474
899.873	4531
899.993	4584
900.113	4577
900.232	4615
900.352	4558
900.472	4466
900.591	4386
900.711	4512
900.83	4421
900.95	4653
901.069	4706
901.189	4538
901.308	4360
901.427	4325
901.546	4363
901.665	4508
901.784	4489
901.904	4386
902.023	4344
902.141	4192
902.26	4188
902.379	4295
902.498	4261
902.617	4230
902.735	4375
902.854	4371
902.973	4402
903.091	4249
903.21	4238
903.328	4257
903.446	4284
903.565	4306
903.683	4360
903.801	4284
903.919	4390
904.038	4417
904.156	4322
904.274	4432
904.392	4394
904.51	4428
904.627	4466
904.745	4561
904.863	4645
904.981	4386
905.098	4318
905.216	4413
905.334	4390
905.451	4440
905.569	4459
905.686	4535
905.803	4599
905.921	4421
906.038	4550
906.155	4466
906.272	4436
906.389	4474
906.506	4344
906.623	4348
906.74	4375
906.857	4356
906.974	4329
907.091	4596
907.208	4672
907.324	4577
907.441	4523
907.557	4325
907.674	4379
907.79	4310
907.907	4386
908.023	4516
908.139	4440
908.256	4447
908.372	4432
908.488	4462
908.604	4394
908.72	4303
908.836	4367
908.952	4375
909.068	4428
909.184	4519
909.3	4481
909.415	4607
909.531	4561
909.647	4424
909.762	4386
909.878	4371
909.993	4478
910.108	4424
910.224	4390
910.339	4485
910.454	4383
910.57	4405
910.685	4314
910.8	4672
910.915	4596
911.03	4512
911.145	4371
911.259	4280
911.374	4367
911.489	4303
911.604	4257
911.718	4200
911.833	4173
911.947	4101
912.062	4059
912.176	4207
912.291	4238
912.405	4246
912.519	4485
912.633	4516
912.748	4383
912.862	4303
912.976	4238
913.09	4120
913.204	4177
913.318	4188
913.431	4352
913.545	4337
913.659	4459
913.772	4325
913.886	4268
914	4238
914.113	4363
914.226	4432
914.34	4413
914.453	4280
914.566	4478
914.68	4325
914.793	4367
914.906	4139
915.019	4173
915.132	4097
915.245	4200
915.358	4200
915.47	4227
915.583	4265
915.696	4322
915.809	4367
915.921	4386
916.034	4230
916.146	4287
916.259	4238
916.371	4428
916.483	4325
916.595	4223
916.708	4367
916.82	4306
916.932	4325
917.044	4268
917.156	4310
917.268	4200
917.38	4287
917.491	4257
917.603	4325
917.715	4413
917.826	4466
917.938	4341
918.049	4234
918.161	4390
918.272	4573
918.384	4554
918.495	4481
918.606	4280
918.717	4265
918.828	4333
918.939	4337
919.05	4287
919.161	4348
919.272	4124
919.383	4196
919.494	4455
919.604	4634
919.715	4413
919.826	4379
919.936	4443
920.047	4527
920.157	4459
920.267	4714
920.378	4569
920.488	4550
920.598	4675
920.708	4812
920.818	4729
920.928	4809
921.038	4892
921.148	4980
921.258	4622
921.368	4554
921.477	4470
921.587	4485
921.697	4413
921.806	4546
921.916	4428
922.025	4322
922.134	4257
922.244	4227
922.353	4329
922.462	4192
922.571	4147
922.68	3956
922.789	3968
922.898	4051
923.007	4010
923.116	4109
923.224	4078
923.333	4082
923.442	4021
923.55	3968
923.659	4013
923.767	4093
923.876	3998
923.984	4109
924.092	3991
924.201	4048
924.309	4082
924.417	4124
924.525	4086
924.633	4097
924.741	4881
924.849	3899
924.956	4139
925.064	3949
925.172	3880
925.279	3937
925.387	4059
925.494	4078
925.602	4185
925.709	4150
925.816	4048
925.924	4154
926.031	4177
926.138	4158
926.245	4211
926.352	4105
926.459	4238
926.566	4280
926.673	4154
926.779	4112
926.886	4071
926.993	3960
927.099	3983
927.206	3915
927.312	3934
927.419	4029
927.525	4059
927.631	4063
927.737	4002
927.843	3941
927.95	3846
928.056	3926
928.162	3972
928.267	4063
928.373	4561
928.479	4116
928.585	3816
928.69	4002
928.796	4032
928.901	3979
929.007	3884
929.112	4006
929.218	4006
929.323	3968
929.428	3934
929.533	4086
929.638	3926
929.743	3964
929.848	4044
929.953	3983
930.058	3922
930.163	3808
930.267	3835
930.372	4006
930.477	3816
930.581	4074
930.685	3945
930.79	3816
930.894	3865
930.998	3850
931.103	4051
931.207	3759
931.311	3690
931.415	3682
931.519	3534
931.623	3534
