Data from test_V78500241_1711.txt Node
Date: Fri Mar 25 17:00:53 CST 2022
User: usil
Spectrometer: V785-0024
Trigger mode: 0
Integration Time (sec): 4.000000E-1
Scans to average: 1
Nonlinearity correction enabled: false
Boxcar width: 0
Storing dark spectrum: false
XAxis mode: Wavelengths
Number of Pixels in Spectrum: 1024
>>>>>Begin Spectral Data<<<<<
801.071	8020
801.214	7959
801.356	7860
801.499	7788
801.641	7807
801.783	7799
801.926	7959
802.068	7856
802.211	8024
802.353	7932
802.496	7830
802.638	7868
802.78	7887
802.923	7875
803.065	7890
803.208	7837
803.35	7940
803.492	8035
803.635	8161
803.777	7955
803.919	8088
804.061	8385
804.204	8168
804.346	7989
804.488	8012
804.63	8157
804.773	7963
804.915	8088
805.057	8294
805.199	8058
805.341	8180
805.483	8225
805.626	8187
805.768	8107
805.91	8206
806.052	8229
806.194	8103
806.336	8263
806.478	8039
806.62	8077
806.762	8187
806.904	8282
807.046	8465
807.188	8404
807.33	8279
807.472	8317
807.614	8107
807.756	8157
807.898	7947
808.04	7921
808.182	7868
808.324	7925
808.465	7890
808.607	8103
808.749	8126
808.891	8210
809.033	8286
809.174	8149
809.316	8024
809.458	8142
809.6	8050
809.741	8012
809.883	8088
810.025	8100
810.166	8062
810.308	7967
810.45	7986
810.591	7875
810.733	7734
810.875	7700
811.016	7506
811.158	7491
811.299	7620
811.441	7734
811.582	7666
811.724	7518
811.865	7525
812.007	7609
812.148	7628
812.29	7594
812.431	7738
812.573	7849
812.714	7936
812.855	8153
812.997	8202
813.138	8267
813.279	8130
813.421	8039
813.562	7932
813.703	7845
813.845	7734
813.986	7426
814.127	7232
814.268	7209
814.41	7152
814.551	7183
814.692	7225
814.833	7149
814.974	7141
815.115	7050
815.256	6989
815.397	6867
815.539	6913
815.68	6833
815.821	6738
815.962	6894
816.103	6795
816.244	6700
816.385	6646
816.526	6639
816.666	6502
816.807	6292
816.948	6448
817.089	6490
817.23	6429
817.371	6384
817.512	6384
817.653	6357
817.793	6369
817.934	6407
818.075	6486
818.216	6365
818.356	6410
818.497	6243
818.638	6072
818.778	6155
818.919	6136
819.06	6144
819.2	6384
819.341	6308
819.481	6331
819.622	6540
819.762	6768
819.903	6734
820.043	6627
820.184	6589
820.324	6589
820.465	6730
820.605	6608
820.746	6608
820.886	6536
821.026	6650
821.167	6669
821.307	6787
821.447	6734
821.588	6639
821.728	6604
821.868	6448
822.008	6289
822.149	6403
822.289	6346
822.429	6133
822.569	6098
822.709	6095
822.849	5958
822.99	5874
823.13	5893
823.27	5855
823.41	5779
823.55	5783
823.69	5726
823.83	5794
823.97	5653
824.11	5547
824.25	5539
824.389	5547
824.529	5608
824.669	5539
824.809	5627
824.949	5695
825.089	5596
825.228	5532
825.368	5387
825.508	5288
825.648	5337
825.787	5330
825.927	5357
826.067	5303
826.206	5269
826.346	5383
826.485	5372
826.625	5421
826.765	5535
826.904	5490
827.044	5246
827.183	5235
827.323	5121
827.462	5250
827.601	5189
827.741	5170
827.88	5181
828.02	5067
828.159	5273
828.298	5258
828.437	5337
828.577	5258
828.716	5425
828.855	5311
828.994	5166
829.134	5124
829.273	5181
829.412	5132
829.551	5174
829.69	5193
829.829	5254
829.968	5330
830.107	5220
830.246	5254
830.385	5140
830.524	5102
830.663	5052
830.802	4984
830.941	4927
831.08	4854
831.219	5006
831.357	4987
831.496	5166
831.635	4847
831.774	4862
831.913	4812
832.051	4717
832.19	4733
832.329	4835
832.467	4660
832.606	4653
832.744	4744
832.883	4706
833.022	4672
833.16	4797
833.299	4786
833.437	4824
833.576	4847
833.714	4892
833.852	4873
833.991	4858
834.129	4999
834.267	4900
834.406	4911
834.544	4953
834.682	4938
834.821	4968
834.959	5162
835.097	4972
835.235	5140
835.373	5071
835.511	5109
835.65	5033
835.788	5075
835.926	4919
836.064	4889
836.202	4873
836.34	5197
836.478	5208
836.615	5086
836.753	5212
836.891	5254
837.029	5227
837.167	5204
837.305	5201
837.443	5083
837.58	5079
837.718	5223
837.856	5181
837.993	5132
838.131	5204
838.269	5242
838.406	5223
838.544	5246
838.681	5029
838.819	4930
838.956	4881
839.094	4938
839.231	4965
839.369	5090
839.506	5459
839.643	5242
839.781	5075
839.918	4980
840.055	5064
840.193	5105
840.33	5117
840.467	5090
840.604	5155
840.742	5425
840.879	5083
841.016	5098
841.153	5162
841.29	5360
841.427	5269
841.564	5326
841.701	5273
841.838	5261
841.975	5204
842.112	5250
842.249	5121
842.385	5086
842.522	5299
842.659	5151
842.796	5140
842.933	5178
843.069	5113
843.206	5151
843.343	5277
843.479	5185
843.616	5299
843.752	5029
843.889	4976
844.025	5208
844.162	5025
844.298	5178
844.435	5071
844.571	5060
844.708	5235
844.844	5315
844.98	5299
845.117	5292
845.253	5098
845.389	5094
845.525	5170
845.661	5098
845.798	5025
845.934	5151
846.07	5037
846.206	5189
846.342	5269
846.478	5170
846.614	5045
846.75	4984
846.886	4930
847.022	5105
847.158	5003
847.294	5067
847.429	5094
847.565	5037
847.701	5296
847.837	4797
847.972	4786
848.108	4915
848.244	4892
848.379	4767
848.515	4744
848.65	4714
848.786	4782
848.921	4774
849.057	4805
849.192	4858
849.328	4850
849.463	4870
849.598	4820
849.734	4733
849.869	4675
850.004	4607
850.14	4668
850.275	4580
850.41	4516
850.545	4558
850.68	4599
850.815	4649
850.95	4637
851.085	4805
851.22	4694
851.355	4622
851.49	4603
851.625	4626
851.76	4653
851.895	4554
852.03	4531
852.165	4649
852.299	4694
852.434	4755
852.569	4736
852.703	4736
852.838	4858
852.973	4908
853.107	4923
853.242	4729
853.376	4653
853.511	4531
853.645	4622
853.78	4767
853.914	4698
854.048	4630
854.183	4618
854.317	4656
854.451	4793
854.585	4660
854.72	4637
854.854	4733
854.988	4573
855.122	4588
855.256	4508
855.39	4649
855.524	4763
855.658	4721
855.792	4660
855.926	4694
856.06	4748
856.194	4759
856.327	4710
856.461	4561
856.595	4622
856.729	4599
856.862	4771
856.996	4656
857.13	4679
857.263	4748
857.397	4801
857.53	4599
857.664	4767
857.797	4767
857.931	4744
858.064	4664
858.197	4782
858.331	4618
858.464	4596
858.597	4447
858.731	4622
858.864	4592
858.997	4554
859.13	4660
859.263	4664
859.396	4641
859.529	4569
859.662	4558
859.795	4527
859.928	4645
860.061	4729
860.194	4725
860.327	4607
860.46	4508
860.592	4653
860.725	4698
860.858	4675
860.99	4561
861.123	4523
861.256	4497
861.388	4588
861.521	5258
861.653	4485
861.786	4409
861.918	4447
862.05	4504
862.183	4512
862.315	4599
862.447	4645
862.58	4519
862.712	4379
862.844	4363
862.976	4462
863.108	4428
863.24	4870
863.372	4371
863.504	4386
863.636	4386
863.768	4451
863.9	4371
864.032	4356
864.164	4443
864.296	4516
864.428	4508
864.559	4561
864.691	4519
864.823	4538
864.954	4519
865.086	4550
865.217	4451
865.349	4455
865.48	4432
865.612	4504
865.743	4630
865.875	4481
866.006	4474
866.137	4478
866.269	4485
866.4	4432
866.531	4459
866.662	4421
866.793	4466
866.924	4447
867.055	4546
867.186	4481
867.317	4405
867.448	4398
867.579	4402
867.71	4424
867.841	4417
867.972	4481
868.103	4481
868.233	4478
868.364	4459
868.495	4546
868.625	4683
868.756	4843
868.886	4599
869.017	4668
869.147	4816
869.278	4835
869.408	4698
869.539	4630
869.669	4793
869.799	4668
869.929	4782
870.06	4755
870.19	5014
870.32	4919
870.45	4995
870.58	5037
870.71	5151
870.84	5155
870.97	5010
871.1	4900
871.23	5178
871.36	5185
871.489	5041
871.619	5143
871.749	5105
871.879	5090
872.008	5212
872.138	5117
872.267	4968
872.397	4866
872.526	4831
872.656	4767
872.785	4877
872.915	5025
873.044	5071
873.173	5006
873.303	4965
873.432	5022
873.561	5018
873.69	4915
873.819	4930
873.948	4938
874.077	4873
874.206	4801
874.335	4816
874.464	4923
874.593	5113
874.722	5003
874.851	5102
874.979	5075
875.108	5048
875.237	4965
875.365	4938
875.494	4915
875.623	5033
875.751	4870
875.88	4870
876.008	4915
876.136	5105
876.265	5201
876.393	5406
876.521	5307
876.65	5288
876.778	5212
876.906	5117
877.034	5041
877.162	5060
877.29	5010
877.418	5045
877.546	5098
877.674	5132
877.802	5037
877.93	5010
878.058	4980
878.185	4904
878.313	5018
878.441	4957
878.568	4828
878.696	4908
878.824	4919
878.951	4991
879.079	5132
879.206	5235
879.333	5117
879.461	4995
879.588	5029
879.715	5147
879.842	5231
879.97	5029
880.097	4786
880.224	4797
880.351	4793
880.478	4831
880.605	4870
880.732	4778
880.859	5124
880.986	4889
881.112	4900
881.239	4790
881.366	4687
881.493	4626
881.619	4577
881.746	4668
881.872	4691
881.999	4706
882.125	4721
882.252	4797
882.378	4877
882.505	5022
882.631	4797
882.757	4729
882.883	4740
883.01	4710
883.136	4706
883.262	4714
883.388	4596
883.514	4835
883.64	4809
883.766	4828
883.892	4660
884.018	4702
884.143	4915
884.269	5029
884.395	4717
884.52	4626
884.646	4694
884.772	4611
884.897	4599
885.023	4694
885.148	4870
885.274	4866
885.399	4889
885.524	4721
885.65	4687
885.775	4828
885.9	4721
886.025	4881
886.15	4820
886.275	4744
886.4	4672
886.525	4744
886.65	4752
886.775	4740
886.9	4938
887.025	5086
887.149	4809
887.274	4717
887.399	4641
887.523	4645
887.648	4622
887.773	4622
887.897	4793
888.021	4763
888.146	4729
888.27	4812
888.395	4915
888.519	4824
888.643	4831
888.767	4828
888.891	4729
889.015	4653
889.139	4702
889.263	4618
889.387	4748
889.511	4873
889.635	4835
889.759	4668
889.883	4698
890.006	4740
890.13	4873
890.254	4668
890.377	4774
890.501	4558
890.624	4512
890.748	4664
890.871	4596
890.995	4462
891.118	4394
891.241	4523
891.364	4573
891.488	4634
891.611	4554
891.734	4615
891.857	4599
891.98	4584
892.103	4668
892.226	4599
892.349	4542
892.471	4455
892.594	4577
892.717	4611
892.839	4630
892.962	4637
893.085	4687
893.207	4634
893.33	4500
893.452	4561
893.575	4668
893.697	4626
893.819	4812
893.941	4809
894.064	4744
894.186	4615
894.308	4580
894.43	4790
894.552	4854
894.674	4740
894.796	4599
894.918	4645
895.04	4588
895.161	4763
895.283	4691
895.405	4561
895.526	4668
895.648	4683
895.769	4698
895.891	4748
896.012	4740
896.134	4710
896.255	4706
896.376	4672
896.498	4622
896.619	4736
896.74	4668
896.861	4668
896.982	4949
897.103	5086
897.224	4873
897.345	4736
897.466	4664
897.587	4748
897.708	4900
897.828	4870
897.949	4675
898.07	4607
898.19	4653
898.311	4881
898.431	4729
898.552	4729
898.672	4885
898.792	4793
898.913	4767
899.033	4645
899.153	4527
899.273	4421
899.393	4519
899.513	4550
899.633	4523
899.753	4565
899.873	4596
899.993	4634
900.113	4550
900.232	4603
900.352	4535
900.472	4527
900.591	4424
900.711	4500
900.83	4440
900.95	4611
901.069	4714
901.189	4527
901.308	4421
901.427	4409
901.546	4428
901.665	4493
901.784	4554
901.904	4398
902.023	4337
902.141	4257
902.26	4185
902.379	4333
902.498	4291
902.617	4265
902.735	4409
902.854	4417
902.973	4390
903.091	4261
903.21	4230
903.328	4295
903.446	4325
903.565	4303
903.683	4398
903.801	4268
903.919	4428
904.038	4432
904.156	4287
904.274	4455
904.392	4474
904.51	4466
904.627	4504
904.745	4588
904.863	4622
904.981	4409
905.098	4310
905.216	4352
905.334	4500
905.451	4478
905.569	4421
905.686	4519
905.803	4577
905.921	4428
906.038	4550
906.155	4500
906.272	4424
906.389	4447
906.506	4424
906.623	4405
906.74	4421
906.857	4322
906.974	4466
907.091	4580
907.208	4668
907.324	4592
907.441	4550
907.557	4405
907.674	4409
907.79	4341
907.907	4367
908.023	4485
908.139	4516
908.256	4428
908.372	4512
908.488	4447
908.604	4409
908.72	4375
908.836	4413
908.952	4367
909.068	4398
909.184	4550
909.3	4478
909.415	4592
909.531	4584
909.647	4436
909.762	4413
909.878	4360
909.993	4424
910.108	4432
910.224	4428
910.339	4512
910.454	4440
910.57	4379
910.685	4352
910.8	4641
910.915	4596
911.03	4493
911.145	4344
911.259	4291
911.374	4383
911.489	4314
911.604	4280
911.718	4204
911.833	4246
911.947	4116
912.062	4029
912.176	4211
912.291	4265
912.405	4272
912.519	4478
912.633	4500
912.748	4386
912.862	4352
912.976	4230
913.09	4154
913.204	4207
913.318	4280
913.431	4383
913.545	4375
913.659	4474
913.772	4356
913.886	4227
914	4253
914.113	4405
914.226	4443
914.34	4325
914.453	4272
914.566	4481
914.68	4348
914.793	4265
914.906	4177
915.019	4143
915.132	4055
915.245	4204
915.358	4242
915.47	4261
915.583	4265
915.696	4310
915.809	4424
915.921	4394
916.034	4276
916.146	4200
916.259	4196
916.371	4413
916.483	4310
916.595	4276
916.708	4329
916.82	4299
916.932	4299
917.044	4329
917.156	4341
917.268	4257
917.38	4310
917.491	4276
917.603	4291
917.715	4428
917.826	4459
917.938	4363
918.049	4265
918.161	4375
918.272	4554
918.384	4561
918.495	4478
918.606	4310
918.717	4242
918.828	4356
918.939	4348
919.05	4265
919.161	4287
919.272	4150
919.383	4284
919.494	4481
919.604	4573
919.715	4489
919.826	4344
919.936	4421
920.047	4527
920.157	4481
920.267	4683
920.378	4535
920.488	4497
920.598	4771
920.708	4949
920.818	4790
920.928	4805
921.038	4968
921.148	4896
921.258	4592
921.368	4603
921.477	4531
921.587	4455
921.697	4436
921.806	4500
921.916	4466
922.025	4249
922.134	4268
922.244	4223
922.353	4386
922.462	4181
922.571	4166
922.68	4010
922.789	4013
922.898	4055
923.007	4051
923.116	4112
923.224	4051
923.333	4059
923.442	3994
923.55	3975
923.659	4059
923.767	4116
923.876	4006
923.984	4112
924.092	3979
924.201	4097
924.309	4097
924.417	4112
924.525	3994
924.633	4116
924.741	4870
924.849	3907
924.956	4128
925.064	3991
925.172	3918
925.279	4010
925.387	4128
925.494	4051
925.602	4196
925.709	4188
925.816	4051
925.924	4166
926.031	4265
926.138	4169
926.245	4166
926.352	4109
926.459	4242
926.566	4306
926.673	4162
926.779	4078
926.886	4086
926.993	3987
927.099	3983
927.206	4025
927.312	3930
927.419	4097
927.525	4029
927.631	4101
927.737	4017
927.843	3983
927.95	3850
928.056	4002
928.162	4002
928.267	4044
928.373	4691
928.479	4131
928.585	3880
928.69	4040
928.796	4101
928.901	3987
929.007	3876
929.112	3956
929.218	3998
929.323	3926
929.428	3926
929.533	4071
929.638	3918
929.743	4017
929.848	4074
929.953	4006
930.058	3926
930.163	3797
930.267	3800
930.372	4002
930.477	3816
930.581	4101
930.685	3964
930.79	3876
930.894	3918
930.998	3922
931.103	4086
931.207	3743
931.311	3709
931.415	3732
931.519	3564
931.623	3572
