Data from test_V78500241_2772.txt Node
Date: Fri Mar 25 17:08:16 CST 2022
User: usil
Spectrometer: V785-0024
Trigger mode: 0
Integration Time (sec): 4.000000E-1
Scans to average: 1
Nonlinearity correction enabled: false
Boxcar width: 0
Storing dark spectrum: false
XAxis mode: Wavelengths
Number of Pixels in Spectrum: 1024
>>>>>Begin Spectral Data<<<<<
801.071	8027
801.214	7997
801.356	7902
801.499	7856
801.641	7753
801.783	7864
801.926	7997
802.068	7963
802.211	8020
802.353	7986
802.496	7856
802.638	7833
802.78	7982
802.923	7959
803.065	7947
803.208	7890
803.35	7955
803.492	8054
803.635	8157
803.777	8016
803.919	8103
804.061	8442
804.204	8149
804.346	8111
804.488	7963
804.63	8024
804.773	8096
804.915	8107
805.057	8248
805.199	8161
805.341	8172
805.483	8259
805.626	8183
805.768	8214
805.91	8210
806.052	8214
806.194	8119
806.336	8259
806.478	8069
806.62	8039
806.762	8126
806.904	8237
807.046	8522
807.188	8408
807.33	8301
807.472	8263
807.614	8161
807.756	8221
807.898	8088
808.04	7830
808.182	7902
808.324	7875
808.465	7947
808.607	8020
808.749	8138
808.891	8328
809.033	8381
809.174	8248
809.316	8126
809.458	8039
809.6	8008
809.741	8027
809.883	8001
810.025	8123
810.166	8115
810.308	7993
810.45	8027
810.591	7871
810.733	7784
810.875	7628
811.016	7597
811.158	7457
811.299	7613
811.441	7712
811.582	7677
811.724	7571
811.865	7597
812.007	7643
812.148	7586
812.29	7567
812.431	7746
812.573	7868
812.714	7970
812.855	8180
812.997	8195
813.138	8339
813.279	8195
813.421	8115
813.562	8020
813.703	7856
813.845	7746
813.986	7506
814.127	7270
814.268	7225
814.41	7168
814.551	7164
814.692	7198
814.833	7099
814.974	7091
815.115	7129
815.256	6951
815.397	6935
815.539	6966
815.68	6806
815.821	6795
815.962	6916
816.103	6837
816.244	6734
816.385	6608
816.526	6620
816.666	6456
816.807	6331
816.948	6384
817.089	6456
817.23	6445
817.371	6365
817.512	6410
817.653	6376
817.793	6304
817.934	6433
818.075	6445
818.216	6490
818.356	6399
818.497	6224
818.638	6171
818.778	6144
818.919	6121
819.06	6175
819.2	6361
819.341	6285
819.481	6350
819.622	6532
819.762	6776
819.903	6734
820.043	6616
820.184	6563
820.324	6604
820.465	6692
820.605	6665
820.746	6654
820.886	6494
821.026	6703
821.167	6677
821.307	6829
821.447	6768
821.588	6650
821.728	6559
821.868	6521
822.008	6357
822.149	6372
822.289	6372
822.429	6136
822.569	6064
822.709	6140
822.849	5946
822.99	5939
823.13	5954
823.27	5912
823.41	5779
823.55	5794
823.69	5802
823.83	5779
823.97	5684
824.11	5532
824.25	5512
824.389	5573
824.529	5516
824.669	5554
824.809	5615
824.949	5661
825.089	5661
825.228	5581
825.368	5406
825.508	5376
825.648	5376
825.787	5349
825.927	5383
826.067	5277
826.206	5250
826.346	5379
826.485	5383
826.625	5383
826.765	5554
826.904	5516
827.044	5265
827.183	5216
827.323	5098
827.462	5246
827.601	5189
827.741	5166
827.88	5223
828.02	5147
828.159	5216
828.298	5296
828.437	5341
828.577	5250
828.716	5440
828.855	5318
828.994	5159
829.134	5170
829.273	5185
829.412	5113
829.551	5121
829.69	5155
829.829	5227
829.968	5387
830.107	5242
830.246	5258
830.385	5201
830.524	5136
830.663	5086
830.802	4976
830.941	4858
831.08	4892
831.219	4946
831.357	4976
831.496	5197
831.635	4873
831.774	4835
831.913	4801
832.051	4664
832.19	4725
832.329	4847
832.467	4694
832.606	4637
832.744	4698
832.883	4752
833.022	4714
833.16	4828
833.299	4801
833.437	4797
833.576	4866
833.714	4858
833.852	4839
833.991	4847
834.129	4976
834.267	4923
834.406	4949
834.544	4923
834.682	4987
834.821	4984
834.959	5128
835.097	4938
835.235	5162
835.373	5056
835.511	5094
835.65	5033
835.788	4984
835.926	4908
836.064	4892
836.202	4904
836.34	5220
836.478	5174
836.615	5113
836.753	5212
836.891	5258
837.029	5193
837.167	5147
837.305	5132
837.443	5136
837.58	5071
837.718	5208
837.856	5201
837.993	5140
838.131	5223
838.269	5170
838.406	5185
838.544	5208
838.681	4991
838.819	4995
838.956	4908
839.094	4904
839.231	4968
839.369	5037
839.506	5414
839.643	5284
839.781	5045
839.918	4961
840.055	5079
840.193	5083
840.33	5052
840.467	5098
840.604	5201
840.742	5395
840.879	5071
841.016	5079
841.153	5105
841.29	5330
841.427	5330
841.564	5330
841.701	5357
841.838	5273
841.975	5204
842.112	5261
842.249	5113
842.385	5109
842.522	5246
842.659	5166
842.796	5147
842.933	5185
843.069	5128
843.206	5178
843.343	5330
843.479	5212
843.616	5239
843.752	5029
843.889	4995
844.025	5208
844.162	5056
844.298	5239
844.435	5067
844.571	5048
844.708	5151
844.844	5322
844.98	5326
845.117	5307
845.253	5121
845.389	5121
845.525	5204
845.661	5151
845.798	5033
845.934	5117
846.07	5056
846.206	5178
846.342	5337
846.478	5166
846.614	4987
846.75	4961
846.886	4946
847.022	5136
847.158	5037
847.294	5037
847.429	5094
847.565	5010
847.701	5334
847.837	4854
847.972	4824
848.108	4892
848.244	4961
848.379	4790
848.515	4721
848.65	4706
848.786	4748
848.921	4801
849.057	4866
849.192	4866
849.328	4790
849.463	4835
849.598	4755
849.734	4763
849.869	4725
850.004	4649
850.14	4702
850.275	4634
850.41	4554
850.545	4561
850.68	4611
850.815	4588
850.95	4615
851.085	4824
851.22	4801
851.355	4721
851.49	4599
851.625	4596
851.76	4599
851.895	4538
852.03	4512
852.165	4664
852.299	4790
852.434	4831
852.569	4767
852.703	4790
852.838	4820
852.973	4934
853.107	4908
853.242	4725
853.376	4744
853.511	4565
853.645	4607
853.78	4809
853.914	4683
854.048	4664
854.183	4607
854.317	4683
854.451	4828
854.585	4626
854.72	4599
854.854	4771
854.988	4558
855.122	4656
855.256	4542
855.39	4691
855.524	4809
855.658	4691
855.792	4698
855.926	4706
856.06	4755
856.194	4831
856.327	4702
856.461	4592
856.595	4558
856.729	4599
856.862	4736
856.996	4668
857.13	4733
857.263	4774
857.397	4786
857.53	4675
857.664	4679
857.797	4786
857.931	4767
858.064	4706
858.197	4698
858.331	4607
858.464	4611
858.597	4527
858.731	4630
858.864	4599
858.997	4531
859.13	4641
859.263	4694
859.396	4675
859.529	4630
859.662	4596
859.795	4504
859.928	4641
860.061	4778
860.194	4763
860.327	4637
860.46	4588
860.592	4687
860.725	4694
860.858	4691
860.99	4550
861.123	4538
861.256	4523
861.388	4634
861.521	5307
861.653	4516
861.786	4466
861.918	4478
862.05	4497
862.183	4588
862.315	4546
862.447	4630
862.58	4542
862.712	4379
862.844	4314
862.976	4428
863.108	4474
863.24	4755
863.372	4322
863.504	4409
863.636	4432
863.768	4478
863.9	4485
864.032	4402
864.164	4405
864.296	4478
864.428	4584
864.559	4558
864.691	4558
864.823	4550
864.954	4455
865.086	4523
865.217	4497
865.349	4363
865.48	4424
865.612	4512
865.743	4664
865.875	4440
866.006	4428
866.137	4493
866.269	4470
866.4	4428
866.531	4447
866.662	4367
866.793	4424
866.924	4413
867.055	4459
867.186	4443
867.317	4390
867.448	4402
867.579	4394
867.71	4386
867.841	4371
867.972	4508
868.103	4443
868.233	4489
868.364	4455
868.495	4535
868.625	4675
868.756	4786
868.886	4584
869.017	4603
869.147	4748
869.278	4774
869.408	4683
869.539	4596
869.669	4710
869.799	4660
869.929	4801
870.06	4710
870.19	4984
870.32	4900
870.45	4930
870.58	4987
870.71	5045
870.84	5029
870.97	4953
871.1	4900
871.23	5151
871.36	5121
871.489	5045
871.619	5079
871.749	5079
871.879	5083
872.008	5189
872.138	5025
872.267	5003
872.397	4885
872.526	4820
872.656	4702
872.785	4839
872.915	4980
873.044	5033
873.173	4942
873.303	4968
873.432	4953
873.561	4889
873.69	4885
873.819	4854
873.948	4892
874.077	4816
874.206	4744
874.335	4839
874.464	4965
874.593	5006
874.722	4957
874.851	5124
874.979	5014
875.108	5037
875.237	4919
875.365	4877
875.494	4908
875.623	4972
875.751	4828
875.88	4862
876.008	4919
876.136	5014
876.265	5189
876.393	5284
876.521	5220
876.65	5261
876.778	5151
876.906	5048
877.034	5052
877.162	5079
877.29	4984
877.418	5079
877.546	5003
877.674	5083
877.802	5045
877.93	4995
878.058	4919
878.185	4831
878.313	4995
878.441	4953
878.568	4786
878.696	4889
878.824	4991
878.951	4949
879.079	5140
879.206	5227
879.333	5105
879.461	5018
879.588	4980
879.715	5064
879.842	5235
879.97	5048
880.097	4782
880.224	4755
880.351	4812
880.478	4805
880.605	4778
880.732	4790
880.859	5071
880.986	4904
881.112	4877
881.239	4744
881.366	4630
881.493	4630
881.619	4607
881.746	4656
881.872	4630
881.999	4656
882.125	4668
882.252	4820
882.378	4816
882.505	4938
882.631	4774
882.757	4702
882.883	4744
883.01	4767
883.136	4641
883.262	4626
883.388	4630
883.514	4816
883.64	4854
883.766	4805
883.892	4653
884.018	4752
884.143	4961
884.269	5022
884.395	4622
884.52	4611
884.646	4694
884.772	4599
884.897	4584
885.023	4637
885.148	4786
885.274	4824
885.399	4809
885.524	4729
885.65	4645
885.775	4793
885.9	4717
886.025	4835
886.15	4767
886.275	4729
886.4	4637
886.525	4748
886.65	4683
886.775	4679
886.9	4938
887.025	4980
887.149	4771
887.274	4683
887.399	4611
887.523	4584
887.648	4615
887.773	4626
887.897	4748
888.021	4759
888.146	4679
888.27	4812
888.395	4904
888.519	4748
888.643	4790
888.767	4854
888.891	4641
889.015	4592
889.139	4630
889.263	4618
889.387	4755
889.511	4835
889.635	4820
889.759	4664
889.883	4622
890.006	4755
890.13	4816
890.254	4637
890.377	4729
890.501	4527
890.624	4535
890.748	4596
890.871	4550
890.995	4440
891.118	4409
891.241	4512
891.364	4558
891.488	4618
891.611	4474
891.734	4535
891.857	4592
891.98	4577
892.103	4645
892.226	4527
892.349	4569
892.471	4417
892.594	4508
892.717	4634
892.839	4573
892.962	4592
893.085	4645
893.207	4645
893.33	4455
893.452	4542
893.575	4630
893.697	4569
893.819	4763
893.941	4816
894.064	4752
894.186	4577
894.308	4554
894.43	4721
894.552	4885
894.674	4725
894.796	4580
894.918	4577
895.04	4618
895.161	4717
895.283	4649
895.405	4577
895.526	4622
895.648	4683
895.769	4725
895.891	4744
896.012	4778
896.134	4694
896.255	4611
896.376	4622
896.498	4611
896.619	4691
896.74	4588
896.861	4664
896.982	4892
897.103	5056
897.224	4790
897.345	4710
897.466	4691
897.587	4729
897.708	4896
897.828	4786
897.949	4645
898.07	4550
898.19	4668
898.311	4835
898.431	4683
898.552	4755
898.672	4820
898.792	4812
898.913	4733
899.033	4653
899.153	4569
899.273	4470
899.393	4466
899.513	4512
899.633	4577
899.753	4523
899.873	4489
899.993	4588
900.113	4580
900.232	4596
900.352	4523
900.472	4474
900.591	4367
900.711	4470
900.83	4493
900.95	4607
901.069	4683
901.189	4573
901.308	4375
901.427	4287
901.546	4421
901.665	4466
901.784	4493
901.904	4424
902.023	4333
902.141	4207
902.26	4173
902.379	4318
902.498	4227
902.617	4223
902.735	4333
902.854	4413
902.973	4383
903.091	4230
903.21	4272
903.328	4329
903.446	4242
903.565	4234
903.683	4363
903.801	4246
903.919	4409
904.038	4436
904.156	4314
904.274	4417
904.392	4371
904.51	4428
904.627	4459
904.745	4569
904.863	4637
904.981	4402
905.098	4325
905.216	4325
905.334	4390
905.451	4455
905.569	4432
905.686	4542
905.803	4554
905.921	4409
906.038	4542
906.155	4497
906.272	4424
906.389	4497
906.506	4329
906.623	4375
906.74	4375
906.857	4306
906.974	4417
907.091	4596
907.208	4649
907.324	4596
907.441	4500
907.557	4367
907.674	4322
907.79	4341
907.907	4367
908.023	4512
908.139	4500
908.256	4379
908.372	4455
908.488	4394
908.604	4356
908.72	4322
908.836	4394
908.952	4371
909.068	4440
909.184	4565
909.3	4462
909.415	4584
909.531	4535
909.647	4375
909.762	4367
909.878	4341
909.993	4413
910.108	4417
910.224	4424
910.339	4455
910.454	4417
910.57	4371
910.685	4306
910.8	4611
910.915	4569
911.03	4512
911.145	4284
911.259	4322
911.374	4352
911.489	4295
911.604	4234
911.718	4135
911.833	4261
911.947	4059
912.062	4059
912.176	4257
912.291	4242
912.405	4230
912.519	4466
912.633	4527
912.748	4417
912.862	4306
912.976	4215
913.09	4105
913.204	4169
913.318	4253
913.431	4371
913.545	4390
913.659	4436
913.772	4337
913.886	4238
914	4238
914.113	4386
914.226	4409
914.34	4333
914.453	4166
914.566	4443
914.68	4325
914.793	4314
914.906	4124
915.019	4128
915.132	4120
915.245	4169
915.358	4219
915.47	4223
915.583	4249
915.696	4295
915.809	4367
915.921	4481
916.034	4272
916.146	4238
916.259	4204
916.371	4383
916.483	4344
916.595	4265
916.708	4295
916.82	4322
916.932	4341
917.044	4337
917.156	4379
917.268	4200
917.38	4265
917.491	4284
917.603	4402
917.715	4417
917.826	4447
917.938	4398
918.049	4249
918.161	4447
918.272	4565
918.384	4531
918.495	4447
918.606	4329
918.717	4211
918.828	4333
918.939	4371
919.05	4280
919.161	4329
919.272	4139
919.383	4227
919.494	4455
919.604	4599
919.715	4443
919.826	4363
919.936	4402
920.047	4546
920.157	4516
920.267	4694
920.378	4542
920.488	4497
920.598	4664
920.708	4881
920.818	4748
920.928	4786
921.038	4904
921.148	4908
921.258	4653
921.368	4542
921.477	4485
921.587	4474
921.697	4344
921.806	4558
921.916	4417
922.025	4257
922.134	4265
922.244	4223
922.353	4337
922.462	4173
922.571	4143
922.68	4082
922.789	4010
922.898	4055
923.007	3949
923.116	4090
923.224	4063
923.333	4078
923.442	4006
923.55	4006
923.659	4067
923.767	4112
923.876	4013
923.984	4082
924.092	3968
924.201	4086
924.309	4097
924.417	4109
924.525	4067
924.633	4143
924.741	4870
924.849	3964
924.956	4139
925.064	3937
925.172	3915
925.279	3953
925.387	4040
925.494	4059
925.602	4207
925.709	4143
925.816	4025
925.924	4086
926.031	4192
926.138	4147
926.245	4219
926.352	4086
926.459	4253
926.566	4280
926.673	4158
926.779	4071
926.886	4109
926.993	4013
927.099	3979
927.206	3941
927.312	3991
927.419	4017
927.525	4048
927.631	4105
927.737	3975
927.843	3926
927.95	3835
928.056	3968
928.162	3975
928.267	4044
928.373	4706
928.479	4131
928.585	3873
928.69	4029
928.796	4036
928.901	3987
929.007	3827
929.112	4025
929.218	3941
929.323	3926
929.428	3983
929.533	4116
929.638	3884
929.743	3930
929.848	4071
929.953	4017
930.058	3930
930.163	3774
930.267	3808
930.372	3975
930.477	3781
930.581	4078
930.685	3956
930.79	3781
930.894	3888
930.998	3888
931.103	4078
931.207	3701
931.311	3698
931.415	3648
931.519	3542
931.623	3545
