Data from test_V78500241_137.txt Node
Date: Fri Mar 25 16:49:57 CST 2022
User: usil
Spectrometer: V785-0024
Trigger mode: 0
Integration Time (sec): 4.000000E-1
Scans to average: 1
Nonlinearity correction enabled: false
Boxcar width: 0
Storing dark spectrum: false
XAxis mode: Wavelengths
Number of Pixels in Spectrum: 1024
>>>>>Begin Spectral Data<<<<<
801.071	8012
801.214	8050
801.356	7902
801.499	7883
801.641	7837
801.783	7864
801.926	7986
802.068	7944
802.211	8005
802.353	7970
802.496	7887
802.638	7921
802.78	7868
802.923	7909
803.065	7894
803.208	7868
803.35	7982
803.492	8077
803.635	8187
803.777	7955
803.919	8134
804.061	8404
804.204	8084
804.346	8065
804.488	7871
804.63	8065
804.773	7963
804.915	8111
805.057	8195
805.199	8092
805.341	8199
805.483	8286
805.626	8191
805.768	8103
805.91	8142
806.052	8202
806.194	8065
806.336	8305
806.478	8142
806.62	8096
806.762	8210
806.904	8271
807.046	8457
807.188	8358
807.33	8343
807.472	8336
807.614	8161
807.756	8191
807.898	8031
808.04	7955
808.182	7932
808.324	7940
808.465	7955
808.607	8027
808.749	8107
808.891	8259
809.033	8317
809.174	8218
809.316	8050
809.458	8092
809.6	8012
809.741	8031
809.883	8058
810.025	8134
810.166	8126
810.308	8084
810.45	8069
810.591	7898
810.733	7780
810.875	7700
811.016	7491
811.158	7518
811.299	7563
811.441	7750
811.582	7731
811.724	7689
811.865	7571
812.007	7674
812.148	7609
812.29	7670
812.431	7811
812.573	7906
812.714	8107
812.855	8210
812.997	8362
813.138	8400
813.279	8206
813.421	8130
813.562	8092
813.703	7944
813.845	7765
813.986	7422
814.127	7377
814.268	7301
814.41	7270
814.551	7232
814.692	7259
814.833	7110
814.974	7228
815.115	7206
815.256	7004
815.397	6977
815.539	6981
815.68	6821
815.821	6833
815.962	6878
816.103	6852
816.244	6726
816.385	6662
816.526	6688
816.666	6521
816.807	6380
816.948	6521
817.089	6494
817.23	6506
817.371	6414
817.512	6437
817.653	6365
817.793	6369
817.934	6422
818.075	6448
818.216	6452
818.356	6486
818.497	6289
818.638	6144
818.778	6144
818.919	6159
819.06	6194
819.2	6384
819.341	6346
819.481	6369
819.622	6536
819.762	6703
819.903	6681
820.043	6597
820.184	6623
820.324	6612
820.465	6696
820.605	6719
820.746	6673
820.886	6623
821.026	6692
821.167	6768
821.307	6833
821.447	6776
821.588	6684
821.728	6620
821.868	6513
822.008	6361
822.149	6464
822.289	6445
822.429	6194
822.569	6057
822.709	6152
822.849	5946
822.99	5878
823.13	6019
823.27	5992
823.41	5790
823.55	5840
823.69	5786
823.83	5817
823.97	5718
824.11	5573
824.25	5554
824.389	5547
824.529	5634
824.669	5604
824.809	5729
824.949	5676
825.089	5657
825.228	5566
825.368	5383
825.508	5410
825.648	5330
825.787	5334
825.927	5433
826.067	5307
826.206	5349
826.346	5425
826.485	5417
826.625	5444
826.765	5509
826.904	5520
827.044	5311
827.183	5242
827.323	5166
827.462	5227
827.601	5181
827.741	5216
827.88	5235
828.02	5140
828.159	5242
828.298	5364
828.437	5406
828.577	5296
828.716	5501
828.855	5345
828.994	5185
829.134	5159
829.273	5178
829.412	5147
829.551	5113
829.69	5170
829.829	5242
829.968	5421
830.107	5303
830.246	5277
830.385	5155
830.524	5181
830.663	5121
830.802	5037
830.941	4877
831.08	4938
831.219	5014
831.357	5022
831.496	5181
831.635	4934
831.774	4835
831.913	4873
832.051	4786
832.19	4774
832.329	4870
832.467	4748
832.606	4706
832.744	4736
832.883	4759
833.022	4717
833.16	4767
833.299	4858
833.437	4850
833.576	4858
833.714	4889
833.852	4881
833.991	4889
834.129	4961
834.267	4946
834.406	4942
834.544	5006
834.682	4957
834.821	5014
834.959	5174
835.097	5048
835.235	5227
835.373	5143
835.511	5155
835.65	5056
835.788	5033
835.926	4946
836.064	4915
836.202	4930
836.34	5201
836.478	5246
836.615	5201
836.753	5269
836.891	5280
837.029	5269
837.167	5235
837.305	5235
837.443	5197
837.58	5124
837.718	5280
837.856	5166
837.993	5178
838.131	5204
838.269	5201
838.406	5208
838.544	5197
838.681	5071
838.819	5025
838.956	4938
839.094	4957
839.231	4999
839.369	5083
839.506	5478
839.643	5265
839.781	5090
839.918	5029
840.055	5136
840.193	5166
840.33	5166
840.467	5166
840.604	5178
840.742	5490
840.879	5136
841.016	5083
841.153	5181
841.29	5379
841.427	5334
841.564	5315
841.701	5357
841.838	5299
841.975	5288
842.112	5292
842.249	5178
842.385	5113
842.522	5311
842.659	5140
842.796	5162
842.933	5181
843.069	5132
843.206	5216
843.343	5334
843.479	5246
843.616	5292
843.752	5029
843.889	5006
844.025	5193
844.162	5052
844.298	5242
844.435	5121
844.571	5124
844.708	5178
844.844	5330
844.98	5368
845.117	5341
845.253	5166
845.389	5147
845.525	5105
845.661	5143
845.798	5064
845.934	5189
846.07	5136
846.206	5204
846.342	5296
846.478	5212
846.614	5014
846.75	4972
846.886	4927
847.022	5151
847.158	5071
847.294	5098
847.429	5162
847.565	5109
847.701	5345
847.837	4892
847.972	4923
848.108	4991
848.244	4965
848.379	4790
848.515	4721
848.65	4740
848.786	4714
848.921	4858
849.057	4908
849.192	4957
849.328	4774
849.463	4858
849.598	4858
849.734	4786
849.869	4706
850.004	4607
850.14	4660
850.275	4668
850.41	4554
850.545	4599
850.68	4615
850.815	4668
850.95	4645
851.085	4824
851.22	4786
851.355	4653
851.49	4626
851.625	4664
851.76	4641
851.895	4596
852.03	4542
852.165	4656
852.299	4740
852.434	4790
852.569	4763
852.703	4805
852.838	4896
852.973	4911
853.107	4908
853.242	4801
853.376	4634
853.511	4611
853.645	4634
853.78	4752
853.914	4706
854.048	4668
854.183	4649
854.317	4736
854.451	4835
854.585	4687
854.72	4668
854.854	4725
854.988	4622
855.122	4622
855.256	4577
855.39	4672
855.524	4839
855.658	4759
855.792	4721
855.926	4778
856.06	4752
856.194	4790
856.327	4710
856.461	4599
856.595	4641
856.729	4641
856.862	4752
856.996	4740
857.13	4698
857.263	4767
857.397	4790
857.53	4592
857.664	4748
857.797	4759
857.931	4782
858.064	4694
858.197	4790
858.331	4694
858.464	4615
858.597	4558
858.731	4683
858.864	4656
858.997	4626
859.13	4691
859.263	4664
859.396	4691
859.529	4565
859.662	4538
859.795	4523
859.928	4683
860.061	4812
860.194	4809
860.327	4672
860.46	4584
860.592	4759
860.725	4717
860.858	4691
860.99	4653
861.123	4546
861.256	4523
861.388	4622
861.521	5387
861.653	4462
861.786	4504
861.918	4443
862.05	4527
862.183	4558
862.315	4649
862.447	4641
862.58	4550
862.712	4424
862.844	4333
862.976	4500
863.108	4508
863.24	4862
863.372	4383
863.504	4440
863.636	4440
863.768	4523
863.9	4455
864.032	4398
864.164	4451
864.296	4519
864.428	4558
864.559	4615
864.691	4542
864.823	4550
864.954	4538
865.086	4569
865.217	4478
865.349	4459
865.48	4489
865.612	4489
865.743	4672
865.875	4485
866.006	4405
866.137	4527
866.269	4417
866.4	4455
866.531	4451
866.662	4398
866.793	4405
866.924	4470
867.055	4558
867.186	4497
867.317	4493
867.448	4421
867.579	4424
867.71	4440
867.841	4432
867.972	4489
868.103	4474
868.233	4459
868.364	4504
868.495	4500
868.625	4672
868.756	4748
868.886	4592
869.017	4618
869.147	4797
869.278	4797
869.408	4736
869.539	4702
869.669	4763
869.799	4675
869.929	4771
870.06	4736
870.19	4892
870.32	4934
870.45	4934
870.58	5033
870.71	5132
870.84	5086
870.97	4961
871.1	4881
871.23	5201
871.36	5151
871.489	5067
871.619	5056
871.749	5124
871.879	5166
872.008	5201
872.138	5052
872.267	5022
872.397	4839
872.526	4873
872.656	4786
872.785	4797
872.915	4965
873.044	5037
873.173	4930
873.303	4976
873.432	4984
873.561	4976
873.69	4904
873.819	4862
873.948	4980
874.077	4850
874.206	4824
874.335	4793
874.464	4961
874.593	5067
874.722	4980
874.851	5094
874.979	5075
875.108	5064
875.237	4915
875.365	4927
875.494	4915
875.623	4968
875.751	4797
875.88	4949
876.008	4999
876.136	5060
876.265	5239
876.393	5330
876.521	5239
876.65	5235
876.778	5204
876.906	5094
877.034	5041
877.162	5124
877.29	5006
877.418	5071
877.546	5037
877.674	5022
877.802	5033
877.93	5048
878.058	4987
878.185	4858
878.313	4942
878.441	4995
878.568	4778
878.696	4908
878.824	4957
878.951	5014
879.079	5185
879.206	5277
879.333	5102
879.461	5006
879.588	4965
879.715	5117
879.842	5277
879.97	5041
880.097	4824
880.224	4755
880.351	4850
880.478	4820
880.605	4824
880.732	4850
880.859	5102
880.986	4968
881.112	4904
881.239	4782
881.366	4675
881.493	4588
881.619	4637
881.746	4645
881.872	4653
881.999	4634
882.125	4618
882.252	4828
882.378	4858
882.505	4934
882.631	4801
882.757	4694
882.883	4736
883.01	4721
883.136	4672
883.262	4645
883.388	4611
883.514	4816
883.64	4866
883.766	4809
883.892	4645
884.018	4744
884.143	4919
884.269	4968
884.395	4645
884.52	4656
884.646	4672
884.772	4596
884.897	4596
885.023	4653
885.148	4835
885.274	4900
885.399	4809
885.524	4752
885.65	4717
885.775	4801
885.9	4694
886.025	4862
886.15	4828
886.275	4744
886.4	4653
886.525	4740
886.65	4694
886.775	4694
886.9	4934
887.025	5060
887.149	4809
887.274	4607
887.399	4542
887.523	4607
887.648	4622
887.773	4626
887.897	4790
888.021	4771
888.146	4702
888.27	4790
888.395	4911
888.519	4835
888.643	4862
888.767	4782
888.891	4675
889.015	4607
889.139	4698
889.263	4588
889.387	4733
889.511	4843
889.635	4812
889.759	4645
889.883	4664
890.006	4809
890.13	4850
890.254	4656
890.377	4706
890.501	4550
890.624	4554
890.748	4645
890.871	4485
890.995	4462
891.118	4424
891.241	4573
891.364	4588
891.488	4634
891.611	4504
891.734	4561
891.857	4649
891.98	4580
892.103	4668
892.226	4611
892.349	4531
892.471	4455
892.594	4596
892.717	4626
892.839	4660
892.962	4630
893.085	4710
893.207	4630
893.33	4436
893.452	4550
893.575	4668
893.697	4626
893.819	4831
893.941	4854
894.064	4767
894.186	4611
894.308	4596
894.43	4782
894.552	4889
894.674	4759
894.796	4561
894.918	4653
895.04	4592
895.161	4706
895.283	4694
895.405	4607
895.526	4615
895.648	4721
895.769	4714
895.891	4721
896.012	4736
896.134	4748
896.255	4649
896.376	4656
896.498	4626
896.619	4679
896.74	4611
896.861	4668
896.982	4965
897.103	5117
897.224	4900
897.345	4717
897.466	4672
897.587	4748
897.708	4885
897.828	4786
897.949	4694
898.07	4565
898.19	4664
898.311	4847
898.431	4675
898.552	4729
898.672	4839
898.792	4835
898.913	4763
899.033	4641
899.153	4451
899.273	4478
899.393	4489
899.513	4561
899.633	4538
899.753	4573
899.873	4550
899.993	4538
900.113	4569
900.232	4569
900.352	4554
900.472	4538
900.591	4402
900.711	4508
900.83	4497
900.95	4607
901.069	4649
901.189	4565
901.308	4383
901.427	4287
901.546	4398
901.665	4451
901.784	4535
901.904	4413
902.023	4310
902.141	4223
902.26	4215
902.379	4333
902.498	4299
902.617	4249
902.735	4371
902.854	4443
902.973	4344
903.091	4234
903.21	4230
903.328	4337
903.446	4318
903.565	4276
903.683	4386
903.801	4299
903.919	4405
904.038	4474
904.156	4356
904.274	4443
904.392	4398
904.51	4527
904.627	4470
904.745	4573
904.863	4675
904.981	4402
905.098	4314
905.216	4383
905.334	4462
905.451	4440
905.569	4493
905.686	4542
905.803	4596
905.921	4402
906.038	4580
906.155	4508
906.272	4360
906.389	4500
906.506	4363
906.623	4379
906.74	4398
906.857	4367
906.974	4402
907.091	4618
907.208	4736
907.324	4580
907.441	4493
907.557	4303
907.674	4367
907.79	4379
907.907	4432
908.023	4489
908.139	4512
908.256	4436
908.372	4474
908.488	4459
908.604	4356
908.72	4352
908.836	4405
908.952	4402
909.068	4451
909.184	4569
909.3	4455
909.415	4618
909.531	4535
909.647	4375
909.762	4417
909.878	4375
909.993	4440
910.108	4413
910.224	4390
910.339	4527
910.454	4466
910.57	4424
910.685	4352
910.8	4675
910.915	4634
911.03	4538
911.145	4344
911.259	4360
911.374	4383
911.489	4306
911.604	4291
911.718	4169
911.833	4246
911.947	4147
912.062	4078
912.176	4204
912.291	4200
912.405	4295
912.519	4497
912.633	4535
912.748	4371
912.862	4329
912.976	4185
913.09	4105
913.204	4204
913.318	4280
913.431	4367
913.545	4363
913.659	4462
913.772	4386
913.886	4272
914	4234
914.113	4367
914.226	4447
914.34	4383
914.453	4268
914.566	4417
914.68	4306
914.793	4276
914.906	4200
915.019	4169
915.132	4101
915.245	4211
915.358	4238
915.47	4238
915.583	4291
915.696	4238
915.809	4466
915.921	4440
916.034	4227
916.146	4280
916.259	4223
916.371	4409
916.483	4398
916.595	4303
916.708	4344
916.82	4360
916.932	4417
917.044	4398
917.156	4325
917.268	4284
917.38	4291
917.491	4287
917.603	4394
917.715	4481
917.826	4466
917.938	4360
918.049	4234
918.161	4432
918.272	4542
918.384	4538
918.495	4455
918.606	4329
918.717	4257
918.828	4310
918.939	4405
919.05	4280
919.161	4337
919.272	4177
919.383	4219
919.494	4485
919.604	4588
919.715	4466
919.826	4348
919.936	4394
920.047	4542
920.157	4459
920.267	4714
920.378	4618
920.488	4531
920.598	4744
920.708	4949
920.818	4797
920.928	4759
921.038	4995
921.148	4965
921.258	4626
921.368	4561
921.477	4512
921.587	4440
921.697	4383
921.806	4596
921.916	4451
922.025	4280
922.134	4284
922.244	4215
922.353	4356
922.462	4204
922.571	4181
922.68	4017
922.789	3983
922.898	4067
923.007	3983
923.116	4135
923.224	4086
923.333	4101
923.442	3987
923.55	3987
923.659	3998
923.767	4101
923.876	4010
923.984	4147
924.092	3987
924.201	4086
924.309	4120
924.417	4147
924.525	4025
924.633	4116
924.741	4904
924.849	3937
924.956	4143
925.064	3975
925.172	3888
925.279	3945
925.387	4032
925.494	4071
925.602	4173
925.709	4204
925.816	4074
925.924	4158
926.031	4272
926.138	4192
926.245	4238
926.352	4055
926.459	4272
926.566	4356
926.673	4185
926.779	4112
926.886	4128
926.993	3975
927.099	3983
927.206	3949
927.312	3934
927.419	4059
927.525	4036
927.631	4131
927.737	4002
927.843	3968
927.95	3880
928.056	3964
928.162	3994
928.267	4071
928.373	4637
928.479	4124
928.585	3922
928.69	4017
928.796	4055
928.901	3960
929.007	3896
929.112	4025
929.218	3960
929.323	3960
929.428	4021
929.533	4109
929.638	3922
929.743	3949
929.848	4063
929.953	4036
930.058	3922
930.163	3751
930.267	3831
930.372	3975
930.477	3827
930.581	4147
930.685	3949
930.79	3819
930.894	3918
930.998	3827
931.103	4067
931.207	3751
931.311	3713
931.415	3686
931.519	3507
931.623	3568
