Data from test_V78500241_2783.txt Node
Date: Fri Mar 25 17:08:21 CST 2022
User: usil
Spectrometer: V785-0024
Trigger mode: 0
Integration Time (sec): 4.000000E-1
Scans to average: 1
Nonlinearity correction enabled: false
Boxcar width: 0
Storing dark spectrum: false
XAxis mode: Wavelengths
Number of Pixels in Spectrum: 1024
>>>>>Begin Spectral Data<<<<<
801.071	7997
801.214	8050
801.356	7947
801.499	7879
801.641	7871
801.783	7871
801.926	7982
802.068	7986
802.211	7959
802.353	8016
802.496	7879
802.638	7951
802.78	7978
802.923	7944
803.065	7883
803.208	7879
803.35	7967
803.492	8096
803.635	8161
803.777	8119
803.919	8164
804.061	8404
804.204	8252
804.346	8130
804.488	8065
804.63	8092
804.773	8069
804.915	8138
805.057	8362
805.199	8180
805.341	8229
805.483	8381
805.626	8248
805.768	8176
805.91	8195
806.052	8267
806.194	8172
806.336	8336
806.478	8130
806.62	8145
806.762	8191
806.904	8259
807.046	8415
807.188	8381
807.33	8328
807.472	8366
807.614	8267
807.756	8244
807.898	8027
808.04	7909
808.182	7959
808.324	7955
808.465	7928
808.607	8111
808.749	8206
808.891	8267
809.033	8343
809.174	8286
809.316	8107
809.458	8084
809.6	7925
809.741	8081
809.883	8081
810.025	8164
810.166	8081
810.308	8027
810.45	8069
810.591	7982
810.733	7731
810.875	7639
811.016	7556
811.158	7495
811.299	7647
811.441	7715
811.582	7784
811.724	7601
811.865	7624
812.007	7674
812.148	7624
812.29	7658
812.431	7753
812.573	7887
812.714	7963
812.855	8183
812.997	8218
813.138	8320
813.279	8313
813.421	8134
813.562	8062
813.703	7947
813.845	7856
813.986	7457
814.127	7316
814.268	7282
814.41	7240
814.551	7149
814.692	7251
814.833	7152
814.974	7122
815.115	7095
815.256	7065
815.397	6939
815.539	6989
815.68	6897
815.821	6882
815.962	6928
816.103	6924
816.244	6757
816.385	6639
816.526	6700
816.666	6555
816.807	6338
816.948	6498
817.089	6494
817.23	6490
817.371	6403
817.512	6369
817.653	6471
817.793	6418
817.934	6384
818.075	6517
818.216	6540
818.356	6418
818.497	6262
818.638	6163
818.778	6167
818.919	6197
819.06	6155
819.2	6361
819.341	6365
819.481	6426
819.622	6578
819.762	6741
819.903	6772
820.043	6612
820.184	6559
820.324	6654
820.465	6684
820.605	6650
820.746	6749
820.886	6601
821.026	6662
821.167	6738
821.307	6802
821.447	6810
821.588	6719
821.728	6536
821.868	6498
822.008	6365
822.149	6369
822.289	6369
822.429	6254
822.569	6133
822.709	6175
822.849	5969
822.99	5912
823.13	5969
823.27	5939
823.41	5790
823.55	5805
823.69	5779
823.83	5783
823.97	5672
824.11	5482
824.25	5539
824.389	5551
824.529	5596
824.669	5562
824.809	5668
824.949	5691
825.089	5661
825.228	5600
825.368	5421
825.508	5372
825.648	5402
825.787	5417
825.927	5402
826.067	5337
826.206	5303
826.346	5406
826.485	5417
826.625	5501
826.765	5573
826.904	5448
827.044	5303
827.183	5254
827.323	5132
827.462	5269
827.601	5204
827.741	5208
827.88	5223
828.02	5132
828.159	5265
828.298	5265
828.437	5421
828.577	5315
828.716	5497
828.855	5330
828.994	5216
829.134	5151
829.273	5197
829.412	5216
829.551	5181
829.69	5185
829.829	5299
829.968	5414
830.107	5345
830.246	5258
830.385	5223
830.524	5136
830.663	5132
830.802	4987
830.941	4904
831.08	4915
831.219	4965
831.357	5052
831.496	5193
831.635	4942
831.774	4870
831.913	4881
832.051	4812
832.19	4763
832.329	4881
832.467	4744
832.606	4687
832.744	4729
832.883	4774
833.022	4717
833.16	4812
833.299	4816
833.437	4809
833.576	4847
833.714	4820
833.852	4911
833.991	4934
834.129	4984
834.267	5025
834.406	4965
834.544	4984
834.682	5033
834.821	5006
834.959	5185
835.097	4942
835.235	5147
835.373	5094
835.511	5094
835.65	5037
835.788	5022
835.926	4915
836.064	4892
836.202	4934
836.34	5201
836.478	5223
836.615	5136
836.753	5201
836.891	5322
837.029	5284
837.167	5166
837.305	5166
837.443	5170
837.58	5117
837.718	5277
837.856	5105
837.993	5170
838.131	5261
838.269	5178
838.406	5201
838.544	5223
838.681	5056
838.819	5052
838.956	4900
839.094	4911
839.231	5033
839.369	5109
839.506	5444
839.643	5296
839.781	5045
839.918	5018
840.055	5102
840.193	5075
840.33	5113
840.467	5204
840.604	5178
840.742	5452
840.879	5102
841.016	5140
841.153	5151
841.29	5410
841.427	5357
841.564	5364
841.701	5345
841.838	5337
841.975	5235
842.112	5315
842.249	5181
842.385	5037
842.522	5357
842.659	5181
842.796	5162
842.933	5193
843.069	5174
843.206	5235
843.343	5299
843.479	5227
843.616	5265
843.752	5041
843.889	5067
844.025	5250
844.162	4965
844.298	5235
844.435	5094
844.571	5067
844.708	5197
844.844	5353
844.98	5341
845.117	5311
845.253	5136
845.389	5067
845.525	5140
845.661	5140
845.798	5033
845.934	5136
846.07	5052
846.206	5227
846.342	5326
846.478	5227
846.614	5083
846.75	4968
846.886	5003
847.022	5117
847.158	5071
847.294	5090
847.429	5128
847.565	5064
847.701	5303
847.837	4866
847.972	4820
848.108	4961
848.244	4965
848.379	4809
848.515	4755
848.65	4763
848.786	4755
848.921	4820
849.057	4866
849.192	4911
849.328	4847
849.463	4824
849.598	4850
849.734	4786
849.869	4752
850.004	4645
850.14	4691
850.275	4630
850.41	4611
850.545	4622
850.68	4641
850.815	4649
850.95	4672
851.085	4892
851.22	4736
851.355	4725
851.49	4653
851.625	4668
851.76	4683
851.895	4584
852.03	4577
852.165	4683
852.299	4763
852.434	4809
852.569	4702
852.703	4797
852.838	4881
852.973	4980
853.107	4946
853.242	4767
853.376	4668
853.511	4615
853.645	4630
853.78	4812
853.914	4721
854.048	4687
854.183	4679
854.317	4679
854.451	4809
854.585	4679
854.72	4653
854.854	4797
854.988	4611
855.122	4626
855.256	4546
855.39	4694
855.524	4816
855.658	4672
855.792	4687
855.926	4759
856.06	4763
856.194	4801
856.327	4706
856.461	4618
856.595	4626
856.729	4630
856.862	4767
856.996	4752
857.13	4786
857.263	4767
857.397	4858
857.53	4675
857.664	4740
857.797	4767
857.931	4797
858.064	4630
858.197	4736
858.331	4607
858.464	4634
858.597	4554
858.731	4645
858.864	4668
858.997	4637
859.13	4698
859.263	4694
859.396	4675
859.529	4603
859.662	4573
859.795	4588
859.928	4641
860.061	4801
860.194	4782
860.327	4611
860.46	4615
860.592	4767
860.725	4736
860.858	4714
860.99	4599
861.123	4558
861.256	4535
861.388	4618
861.521	5307
861.653	4493
861.786	4462
861.918	4447
862.05	4531
862.183	4599
862.315	4645
862.447	4683
862.58	4546
862.712	4360
862.844	4322
862.976	4527
863.108	4466
863.24	4812
863.372	4371
863.504	4413
863.636	4405
863.768	4466
863.9	4455
864.032	4383
864.164	4443
864.296	4462
864.428	4558
864.559	4588
864.691	4500
864.823	4535
864.954	4504
865.086	4489
865.217	4493
865.349	4481
865.48	4428
865.612	4478
865.743	4683
865.875	4466
866.006	4440
866.137	4440
866.269	4440
866.4	4508
866.531	4405
866.662	4413
866.793	4459
866.924	4440
867.055	4561
867.186	4424
867.317	4462
867.448	4402
867.579	4405
867.71	4386
867.841	4348
867.972	4409
868.103	4432
868.233	4455
868.364	4459
868.495	4504
868.625	4694
868.756	4847
868.886	4599
869.017	4607
869.147	4759
869.278	4759
869.408	4687
869.539	4641
869.669	4729
869.799	4672
869.929	4721
870.06	4706
870.19	4930
870.32	4949
870.45	4938
870.58	5045
870.71	5113
870.84	5105
870.97	4923
871.1	4919
871.23	5174
871.36	5174
871.489	5022
871.619	5041
871.749	5067
871.879	5033
872.008	5181
872.138	5083
872.267	4965
872.397	4824
872.526	4831
872.656	4744
872.785	4816
872.915	4991
873.044	5037
873.173	4923
873.303	4984
873.432	4972
873.561	4995
873.69	4908
873.819	4885
873.948	4965
874.077	4858
874.206	4767
874.335	4801
874.464	4896
874.593	5079
874.722	5041
874.851	5121
874.979	5083
875.108	5033
875.237	4919
875.365	4809
875.494	4908
875.623	4968
875.751	4812
875.88	4862
876.008	4999
876.136	5033
876.265	5132
876.393	5376
876.521	5284
876.65	5277
876.778	5189
876.906	5060
877.034	5018
877.162	5079
877.29	4953
877.418	5079
877.546	5033
877.674	5075
877.802	5067
877.93	5075
878.058	4965
878.185	4881
878.313	4927
878.441	5003
878.568	4774
878.696	4881
878.824	4991
878.951	5025
879.079	5185
879.206	5261
879.333	5155
879.461	4995
879.588	5037
879.715	5147
879.842	5216
879.97	5003
880.097	4767
880.224	4740
880.351	4835
880.478	4828
880.605	4778
880.732	4790
880.859	5064
880.986	4881
881.112	4900
881.239	4793
881.366	4717
881.493	4588
881.619	4599
881.746	4615
881.872	4672
881.999	4672
882.125	4653
882.252	4824
882.378	4831
882.505	4953
882.631	4801
882.757	4653
882.883	4687
883.01	4755
883.136	4694
883.262	4637
883.388	4561
883.514	4778
883.64	4873
883.766	4812
883.892	4683
884.018	4698
884.143	4847
884.269	5003
884.395	4660
884.52	4618
884.646	4664
884.772	4577
884.897	4573
885.023	4645
885.148	4774
885.274	4873
885.399	4786
885.524	4729
885.65	4706
885.775	4774
885.9	4717
886.025	4900
886.15	4854
886.275	4717
886.4	4645
886.525	4717
886.65	4668
886.775	4634
886.9	4858
887.025	5079
887.149	4824
887.274	4653
887.399	4584
887.523	4618
887.648	4599
887.773	4599
887.897	4759
888.021	4782
888.146	4717
888.27	4824
888.395	4934
888.519	4786
888.643	4812
888.767	4866
888.891	4660
889.015	4596
889.139	4694
889.263	4588
889.387	4771
889.511	4866
889.635	4839
889.759	4611
889.883	4634
890.006	4748
890.13	4797
890.254	4615
890.377	4679
890.501	4554
890.624	4535
890.748	4687
890.871	4508
890.995	4481
891.118	4428
891.241	4481
891.364	4523
891.488	4615
891.611	4527
891.734	4550
891.857	4599
891.98	4527
892.103	4653
892.226	4615
892.349	4527
892.471	4443
892.594	4561
892.717	4626
892.839	4516
892.962	4607
893.085	4637
893.207	4554
893.33	4462
893.452	4538
893.575	4683
893.697	4573
893.819	4759
893.941	4850
894.064	4801
894.186	4580
894.308	4611
894.43	4717
894.552	4820
894.674	4721
894.796	4565
894.918	4599
895.04	4531
895.161	4752
895.283	4641
895.405	4603
895.526	4687
895.648	4664
895.769	4664
895.891	4725
896.012	4752
896.134	4733
896.255	4694
896.376	4641
896.498	4622
896.619	4706
896.74	4653
896.861	4656
896.982	4919
897.103	5098
897.224	4839
897.345	4790
897.466	4721
897.587	4691
897.708	4824
897.828	4805
897.949	4702
898.07	4615
898.19	4656
898.311	4786
898.431	4664
898.552	4721
898.672	4824
898.792	4866
898.913	4736
899.033	4615
899.153	4554
899.273	4451
899.393	4478
899.513	4523
899.633	4504
899.753	4558
899.873	4508
899.993	4592
900.113	4538
900.232	4596
900.352	4558
900.472	4500
900.591	4402
900.711	4500
900.83	4440
900.95	4611
901.069	4717
901.189	4512
901.308	4375
901.427	4322
901.546	4459
901.665	4500
901.784	4451
901.904	4348
902.023	4333
902.141	4227
902.26	4207
902.379	4295
902.498	4287
902.617	4249
902.735	4398
902.854	4413
902.973	4371
903.091	4219
903.21	4242
903.328	4299
903.446	4291
903.565	4261
903.683	4348
903.801	4291
903.919	4390
904.038	4428
904.156	4329
904.274	4478
904.392	4394
904.51	4390
904.627	4440
904.745	4580
904.863	4599
904.981	4405
905.098	4371
905.216	4371
905.334	4417
905.451	4386
905.569	4447
905.686	4561
905.803	4558
905.921	4436
906.038	4554
906.155	4512
906.272	4367
906.389	4421
906.506	4333
906.623	4363
906.74	4405
906.857	4295
906.974	4371
907.091	4596
907.208	4698
907.324	4558
907.441	4474
907.557	4352
907.674	4322
907.79	4310
907.907	4367
908.023	4447
908.139	4451
908.256	4481
908.372	4462
908.488	4436
908.604	4352
908.72	4318
908.836	4409
908.952	4386
909.068	4413
909.184	4615
909.3	4485
909.415	4584
909.531	4516
909.647	4379
909.762	4405
909.878	4306
909.993	4409
910.108	4424
910.224	4485
910.339	4489
910.454	4383
910.57	4390
910.685	4352
910.8	4622
910.915	4622
911.03	4493
911.145	4291
911.259	4337
911.374	4325
911.489	4287
911.604	4287
911.718	4181
911.833	4181
911.947	4063
912.062	4040
912.176	4200
912.291	4261
912.405	4207
912.519	4481
912.633	4535
912.748	4367
912.862	4337
912.976	4200
913.09	4135
913.204	4166
913.318	4246
913.431	4413
913.545	4325
913.659	4413
913.772	4383
913.886	4280
914	4230
914.113	4398
914.226	4432
914.34	4413
914.453	4257
914.566	4428
914.68	4295
914.793	4322
914.906	4188
915.019	4158
915.132	4109
915.245	4181
915.358	4215
915.47	4238
915.583	4280
915.696	4287
915.809	4424
915.921	4447
916.034	4249
916.146	4265
916.259	4215
916.371	4375
916.483	4344
916.595	4249
916.708	4265
916.82	4310
916.932	4318
917.044	4341
917.156	4363
917.268	4223
917.38	4287
917.491	4276
917.603	4337
917.715	4394
917.826	4436
917.938	4318
918.049	4257
918.161	4398
918.272	4584
918.384	4527
918.495	4489
918.606	4310
918.717	4219
918.828	4375
918.939	4348
919.05	4268
919.161	4341
919.272	4135
919.383	4211
919.494	4485
919.604	4618
919.715	4466
919.826	4363
919.936	4424
920.047	4485
920.157	4466
920.267	4706
920.378	4561
920.488	4519
920.598	4733
920.708	4892
920.818	4801
920.928	4805
921.038	4976
921.148	4908
921.258	4660
921.368	4565
921.477	4497
921.587	4447
921.697	4371
921.806	4558
921.916	4386
922.025	4227
922.134	4284
922.244	4219
922.353	4352
922.462	4169
922.571	4135
922.68	4059
922.789	3998
922.898	4067
923.007	3994
923.116	4109
923.224	4044
923.333	4078
923.442	4029
923.55	3964
923.659	4032
923.767	4059
923.876	4021
923.984	4116
924.092	3979
924.201	4101
924.309	4067
924.417	4128
924.525	4055
924.633	4105
924.741	4862
924.849	3922
924.956	4120
925.064	3987
925.172	3884
925.279	3998
925.387	4063
925.494	4063
925.602	4177
925.709	4150
925.816	4071
925.924	4116
926.031	4223
926.138	4192
926.245	4204
926.352	4074
926.459	4223
926.566	4272
926.673	4181
926.779	4059
926.886	4090
926.993	3991
927.099	3960
927.206	3926
927.312	3926
927.419	4082
927.525	4013
927.631	4082
927.737	3983
927.843	3964
927.95	3835
928.056	3934
928.162	3983
928.267	4044
928.373	4694
928.479	4135
928.585	3907
928.69	4040
928.796	4036
928.901	3979
929.007	3865
929.112	3945
929.218	3968
929.323	3899
929.428	3949
929.533	4131
929.638	3896
929.743	3930
929.848	4086
929.953	4017
930.058	3918
930.163	3797
930.267	3857
930.372	3979
930.477	3808
930.581	4120
930.685	3899
930.79	3842
930.894	3873
930.998	3846
931.103	4036
931.207	3713
931.311	3690
931.415	3656
931.519	3519
931.623	3526
