Data from test_V78500241_1665.txt Node
Date: Fri Mar 25 17:00:34 CST 2022
User: usil
Spectrometer: V785-0024
Trigger mode: 0
Integration Time (sec): 4.000000E-1
Scans to average: 1
Nonlinearity correction enabled: false
Boxcar width: 0
Storing dark spectrum: false
XAxis mode: Wavelengths
Number of Pixels in Spectrum: 1024
>>>>>Begin Spectral Data<<<<<
801.071	7986
801.214	7974
801.356	7826
801.499	7856
801.641	7795
801.783	7841
801.926	7959
802.068	7913
802.211	7963
802.353	7890
802.496	7784
802.638	7849
802.78	7902
802.923	7940
803.065	7879
803.208	7849
803.35	7982
803.492	8130
803.635	8210
803.777	8069
803.919	8134
804.061	8457
804.204	8164
804.346	8062
804.488	7925
804.63	8039
804.773	7978
804.915	8107
805.057	8313
805.199	8100
805.341	8233
805.483	8252
805.626	8233
805.768	8103
805.91	8218
806.052	8206
806.194	8081
806.336	8290
806.478	8005
806.62	8039
806.762	8142
806.904	8244
807.046	8454
807.188	8381
807.33	8279
807.472	8282
807.614	8218
807.756	8126
807.898	8031
808.04	7902
808.182	7887
808.324	7868
808.465	7963
808.607	8107
808.749	8142
808.891	8183
809.033	8275
809.174	8180
809.316	8096
809.458	8073
809.6	7993
809.741	7951
809.883	8073
810.025	8123
810.166	8062
810.308	8046
810.45	7989
810.591	7852
810.733	7704
810.875	7681
811.016	7590
811.158	7453
811.299	7571
811.441	7719
811.582	7624
811.724	7620
811.865	7521
812.007	7575
812.148	7609
812.29	7597
812.431	7723
812.573	7875
812.714	7982
812.855	8142
812.997	8134
813.138	8339
813.279	8164
813.421	8081
813.562	7963
813.703	7807
813.845	7799
813.986	7426
814.127	7202
814.268	7228
814.41	7206
814.551	7164
814.692	7171
814.833	7133
814.974	7133
815.115	7103
815.256	6920
815.397	6947
815.539	6924
815.68	6772
815.821	6734
815.962	6798
816.103	6791
816.244	6642
816.385	6574
816.526	6635
816.666	6475
816.807	6270
816.948	6369
817.089	6471
817.23	6403
817.371	6353
817.512	6346
817.653	6338
817.793	6308
817.934	6429
818.075	6391
818.216	6437
818.356	6384
818.497	6235
818.638	6095
818.778	6117
818.919	6098
819.06	6117
819.2	6346
819.341	6277
819.481	6376
819.622	6544
819.762	6711
819.903	6719
820.043	6623
820.184	6566
820.324	6585
820.465	6703
820.605	6654
820.746	6642
820.886	6506
821.026	6688
821.167	6646
821.307	6764
821.447	6730
821.588	6642
821.728	6574
821.868	6441
822.008	6319
822.149	6380
822.289	6361
822.429	6155
822.569	6076
822.709	6102
822.849	5863
822.99	5882
823.13	5908
823.27	5935
823.41	5767
823.55	5805
823.69	5745
823.83	5794
823.97	5699
824.11	5562
824.25	5474
824.389	5543
824.529	5596
824.669	5516
824.809	5642
824.949	5615
825.089	5581
825.228	5528
825.368	5402
825.508	5284
825.648	5330
825.787	5326
825.927	5345
826.067	5254
826.206	5318
826.346	5360
826.485	5421
826.625	5425
826.765	5535
826.904	5433
827.044	5261
827.183	5185
827.323	5185
827.462	5216
827.601	5147
827.741	5204
827.88	5284
828.02	5109
828.159	5280
828.298	5258
828.437	5376
828.577	5303
828.716	5474
828.855	5311
828.994	5223
829.134	5204
829.273	5174
829.412	5117
829.551	5197
829.69	5197
829.829	5250
829.968	5425
830.107	5280
830.246	5277
830.385	5231
830.524	5132
830.663	5075
830.802	5029
830.941	4873
831.08	4965
831.219	4980
831.357	4987
831.496	5159
831.635	4976
831.774	4904
831.913	4873
832.051	4733
832.19	4782
832.329	4892
832.467	4752
832.606	4660
832.744	4748
832.883	4824
833.022	4778
833.16	4820
833.299	4881
833.437	4816
833.576	4854
833.714	4877
833.852	4915
833.991	4896
834.129	4995
834.267	4949
834.406	4915
834.544	5045
834.682	5006
834.821	4976
834.959	5185
835.097	5006
835.235	5166
835.373	5109
835.511	5162
835.65	5056
835.788	5098
835.926	4949
836.064	4923
836.202	4991
836.34	5204
836.478	5231
836.615	5143
836.753	5246
836.891	5307
837.029	5280
837.167	5299
837.305	5181
837.443	5166
837.58	5117
837.718	5250
837.856	5227
837.993	5181
838.131	5231
838.269	5235
838.406	5216
838.544	5201
838.681	5056
838.819	5022
838.956	4961
839.094	4968
839.231	4961
839.369	5105
839.506	5455
839.643	5273
839.781	5071
839.918	5064
840.055	5147
840.193	5128
840.33	5132
840.467	5136
840.604	5181
840.742	5459
840.879	5113
841.016	5136
841.153	5181
841.29	5414
841.427	5387
841.564	5280
841.701	5383
841.838	5299
841.975	5208
842.112	5284
842.249	5174
842.385	5113
842.522	5341
842.659	5197
842.796	5185
842.933	5235
843.069	5227
843.206	5208
843.343	5288
843.479	5299
843.616	5322
843.752	5094
843.889	5029
844.025	5212
844.162	5064
844.298	5277
844.435	5109
844.571	5041
844.708	5189
844.844	5299
844.98	5345
845.117	5353
845.253	5181
845.389	5109
845.525	5170
845.661	5254
845.798	5079
845.934	5132
846.07	5037
846.206	5181
846.342	5277
846.478	5197
846.614	5052
846.75	5010
846.886	4961
847.022	5136
847.158	5033
847.294	5064
847.429	5113
847.565	5029
847.701	5322
847.837	4858
847.972	4820
848.108	5029
848.244	4953
848.379	4812
848.515	4748
848.65	4729
848.786	4771
848.921	4812
849.057	4892
849.192	4946
849.328	4862
849.463	4889
849.598	4812
849.734	4801
849.869	4717
850.004	4630
850.14	4744
850.275	4626
850.41	4535
850.545	4542
850.68	4649
850.815	4664
850.95	4641
851.085	4847
851.22	4763
851.355	4748
851.49	4618
851.625	4706
851.76	4672
851.895	4592
852.03	4565
852.165	4691
852.299	4767
852.434	4831
852.569	4790
852.703	4771
852.838	4862
852.973	4995
853.107	4949
853.242	4752
853.376	4679
853.511	4588
853.645	4607
853.78	4752
853.914	4706
854.048	4687
854.183	4656
854.317	4717
854.451	4911
854.585	4721
854.72	4679
854.854	4774
854.988	4645
855.122	4656
855.256	4573
855.39	4668
855.524	4809
855.658	4740
855.792	4733
855.926	4771
856.06	4797
856.194	4790
856.327	4729
856.461	4660
856.595	4649
856.729	4637
856.862	4828
856.996	4763
857.13	4755
857.263	4797
857.397	4805
857.53	4744
857.664	4759
857.797	4790
857.931	4767
858.064	4672
858.197	4786
858.331	4698
858.464	4653
858.597	4542
858.731	4656
858.864	4656
858.997	4607
859.13	4694
859.263	4698
859.396	4717
859.529	4577
859.662	4519
859.795	4561
859.928	4626
860.061	4740
860.194	4790
860.327	4653
860.46	4569
860.592	4759
860.725	4755
860.858	4748
860.99	4592
861.123	4599
861.256	4527
861.388	4603
861.521	5334
861.653	4443
861.786	4485
861.918	4493
862.05	4554
862.183	4573
862.315	4584
862.447	4592
862.58	4565
862.712	4417
862.844	4344
862.976	4459
863.108	4489
863.24	4744
863.372	4375
863.504	4436
863.636	4424
863.768	4504
863.9	4478
864.032	4413
864.164	4379
864.296	4459
864.428	4573
864.559	4569
864.691	4615
864.823	4535
864.954	4512
865.086	4542
865.217	4500
865.349	4478
865.48	4443
865.612	4489
865.743	4694
865.875	4485
866.006	4455
866.137	4504
866.269	4466
866.4	4462
866.531	4413
866.662	4428
866.793	4428
866.924	4447
867.055	4519
867.186	4497
867.317	4409
867.448	4394
867.579	4371
867.71	4413
867.841	4413
867.972	4481
868.103	4516
868.233	4504
868.364	4440
868.495	4466
868.625	4645
868.756	4767
868.886	4615
869.017	4641
869.147	4721
869.278	4797
869.408	4687
869.539	4641
869.669	4710
869.799	4698
869.929	4778
870.06	4763
870.19	4927
870.32	4942
870.45	4938
870.58	5048
870.71	5075
870.84	5102
870.97	4999
871.1	4923
871.23	5132
871.36	5102
871.489	5045
871.619	5121
871.749	5121
871.879	5136
872.008	5166
872.138	5052
872.267	4923
872.397	4873
872.526	4805
872.656	4717
872.785	4812
872.915	4965
873.044	5003
873.173	4976
873.303	4961
873.432	4968
873.561	4968
873.69	4885
873.819	4900
873.948	4892
874.077	4843
874.206	4801
874.335	4759
874.464	4911
874.593	5083
874.722	4961
874.851	5117
874.979	5086
875.108	5048
875.237	4900
875.365	4919
875.494	4919
875.623	4976
875.751	4862
875.88	4824
876.008	4987
876.136	5060
876.265	5170
876.393	5277
876.521	5250
876.65	5227
876.778	5201
876.906	5079
877.034	4995
877.162	5033
877.29	5041
877.418	5071
877.546	5094
877.674	5029
877.802	5071
877.93	5071
878.058	4972
878.185	4927
878.313	4987
878.441	4961
878.568	4797
878.696	4892
878.824	4968
878.951	5018
879.079	5113
879.206	5296
879.333	5014
879.461	5018
879.588	5022
879.715	5113
879.842	5231
879.97	5041
880.097	4809
880.224	4744
880.351	4828
880.478	4862
880.605	4835
880.732	4809
880.859	5121
880.986	4904
881.112	4927
881.239	4778
881.366	4691
881.493	4679
881.619	4577
881.746	4622
881.872	4694
881.999	4618
882.125	4774
882.252	4809
882.378	4824
882.505	4980
882.631	4809
882.757	4679
882.883	4755
883.01	4774
883.136	4691
883.262	4611
883.388	4630
883.514	4885
883.64	4877
883.766	4786
883.892	4725
884.018	4698
884.143	4915
884.269	5033
884.395	4733
884.52	4630
884.646	4637
884.772	4580
884.897	4538
885.023	4702
885.148	4774
885.274	4904
885.399	4805
885.524	4729
885.65	4698
885.775	4778
885.9	4748
886.025	4900
886.15	4767
886.275	4683
886.4	4691
886.525	4740
886.65	4736
886.775	4694
886.9	4889
887.025	5025
887.149	4793
887.274	4649
887.399	4618
887.523	4626
887.648	4622
887.773	4645
887.897	4740
888.021	4820
888.146	4725
888.27	4843
888.395	4934
888.519	4831
888.643	4812
888.767	4828
888.891	4706
889.015	4615
889.139	4675
889.263	4630
889.387	4755
889.511	4870
889.635	4790
889.759	4634
889.883	4668
890.006	4740
890.13	4877
890.254	4622
890.377	4660
890.501	4546
890.624	4504
890.748	4596
890.871	4493
890.995	4493
891.118	4413
891.241	4527
891.364	4603
891.488	4630
891.611	4542
891.734	4550
891.857	4592
891.98	4542
892.103	4717
892.226	4630
892.349	4558
892.471	4421
892.594	4531
892.717	4592
892.839	4618
892.962	4588
893.085	4691
893.207	4580
893.33	4500
893.452	4512
893.575	4668
893.697	4584
893.819	4812
893.941	4820
894.064	4801
894.186	4573
894.308	4569
894.43	4748
894.552	4828
894.674	4782
894.796	4569
894.918	4588
895.04	4561
895.161	4729
895.283	4668
895.405	4596
895.526	4691
895.648	4702
895.769	4637
895.891	4717
896.012	4675
896.134	4721
896.255	4691
896.376	4672
896.498	4641
896.619	4725
896.74	4660
896.861	4714
896.982	4919
897.103	5121
897.224	4812
897.345	4733
897.466	4706
897.587	4744
897.708	4862
897.828	4820
897.949	4683
898.07	4554
898.19	4634
898.311	4774
898.431	4645
898.552	4763
898.672	4854
898.792	4847
898.913	4706
899.033	4615
899.153	4519
899.273	4462
899.393	4554
899.513	4565
899.633	4550
899.753	4542
899.873	4550
899.993	4611
900.113	4554
900.232	4599
900.352	4527
900.472	4512
900.591	4413
900.711	4447
900.83	4462
900.95	4603
901.069	4683
901.189	4561
901.308	4325
901.427	4303
901.546	4390
901.665	4512
901.784	4550
901.904	4443
902.023	4352
902.141	4200
902.26	4139
902.379	4314
902.498	4227
902.617	4211
902.735	4371
902.854	4383
902.973	4371
903.091	4238
903.21	4238
903.328	4322
903.446	4287
903.565	4219
903.683	4348
903.801	4310
903.919	4466
904.038	4440
904.156	4352
904.274	4413
904.392	4394
904.51	4443
904.627	4462
904.745	4577
904.863	4603
904.981	4405
905.098	4318
905.216	4383
905.334	4443
905.451	4462
905.569	4455
905.686	4603
905.803	4565
905.921	4367
906.038	4565
906.155	4474
906.272	4421
906.389	4466
906.506	4363
906.623	4371
906.74	4413
906.857	4322
906.974	4390
907.091	4535
907.208	4649
907.324	4607
907.441	4497
907.557	4322
907.674	4287
907.79	4299
907.907	4375
908.023	4466
908.139	4466
908.256	4447
908.372	4523
908.488	4459
908.604	4314
908.72	4344
908.836	4379
908.952	4371
909.068	4451
909.184	4588
909.3	4443
909.415	4584
909.531	4561
909.647	4383
909.762	4329
909.878	4318
909.993	4443
910.108	4386
910.224	4424
910.339	4485
910.454	4409
910.57	4344
910.685	4318
910.8	4664
910.915	4577
911.03	4512
911.145	4318
911.259	4356
911.374	4356
911.489	4280
911.604	4265
911.718	4211
911.833	4223
911.947	4109
912.062	4029
912.176	4219
912.291	4242
912.405	4257
912.519	4478
912.633	4535
912.748	4329
912.862	4348
912.976	4166
913.09	4116
913.204	4173
913.318	4287
913.431	4318
913.545	4360
913.659	4409
913.772	4333
913.886	4219
914	4246
914.113	4398
914.226	4432
914.34	4428
914.453	4253
914.566	4417
914.68	4322
914.793	4352
914.906	4188
915.019	4109
915.132	4059
915.245	4169
915.358	4219
915.47	4230
915.583	4276
915.696	4284
915.809	4398
915.921	4417
916.034	4249
916.146	4246
916.259	4257
916.371	4413
916.483	4371
916.595	4230
916.708	4318
916.82	4360
916.932	4318
917.044	4356
917.156	4329
917.268	4249
917.38	4268
917.491	4261
917.603	4310
917.715	4440
917.826	4421
917.938	4421
918.049	4272
918.161	4436
918.272	4550
918.384	4523
918.495	4462
918.606	4261
918.717	4223
918.828	4329
918.939	4303
919.05	4272
919.161	4322
919.272	4124
919.383	4253
919.494	4459
919.604	4618
919.715	4409
919.826	4390
919.936	4421
920.047	4504
920.157	4485
920.267	4683
920.378	4546
920.488	4527
920.598	4717
920.708	4831
920.818	4755
920.928	4736
921.038	5025
921.148	4877
921.258	4691
921.368	4565
921.477	4512
921.587	4485
921.697	4424
921.806	4531
921.916	4402
922.025	4261
922.134	4272
922.244	4207
922.353	4337
922.462	4169
922.571	4150
922.68	3972
922.789	3975
922.898	4048
923.007	3983
923.116	4093
923.224	4120
923.333	4101
923.442	3964
923.55	4021
923.659	3991
923.767	4139
923.876	3960
923.984	4086
924.092	3960
924.201	4097
924.309	4051
924.417	4128
924.525	4082
924.633	4093
924.741	4862
924.849	3926
924.956	4109
925.064	3949
925.172	3922
925.279	3953
925.387	4055
925.494	4074
925.602	4223
925.709	4185
925.816	4013
925.924	4147
926.031	4192
926.138	4150
926.245	4169
926.352	4067
926.459	4234
926.566	4287
926.673	4177
926.779	4074
926.886	4036
926.993	3972
927.099	3926
927.206	3907
927.312	3953
927.419	4082
927.525	4067
927.631	4101
927.737	4010
927.843	3918
927.95	3808
928.056	3918
928.162	3975
928.267	4055
928.373	4603
928.479	4128
928.585	3876
928.69	4021
928.796	4086
928.901	3968
929.007	3846
929.112	4021
929.218	3983
929.323	3956
929.428	3953
929.533	4112
929.638	3945
929.743	3941
929.848	4048
929.953	4017
930.058	3907
930.163	3774
930.267	3838
930.372	3998
930.477	3785
930.581	4048
930.685	3983
930.79	3842
930.894	3892
930.998	3888
931.103	4044
931.207	3701
931.311	3698
931.415	3671
931.519	3488
931.623	3538
