Data from test_V78500241_1106.txt Node
Date: Fri Mar 25 16:56:41 CST 2022
User: usil
Spectrometer: V785-0024
Trigger mode: 0
Integration Time (sec): 4.000000E-1
Scans to average: 1
Nonlinearity correction enabled: false
Boxcar width: 0
Storing dark spectrum: false
XAxis mode: Wavelengths
Number of Pixels in Spectrum: 1024
>>>>>Begin Spectral Data<<<<<
801.071	8005
801.214	8046
801.356	7928
801.499	7890
801.641	7742
801.783	7780
801.926	8005
802.068	7947
802.211	7894
802.353	7993
802.496	7814
802.638	7902
802.78	7894
802.923	7906
803.065	7845
803.208	7860
803.35	7982
803.492	8073
803.635	8180
803.777	7993
803.919	8153
804.061	8465
804.204	8168
804.346	8024
804.488	7898
804.63	8107
804.773	8050
804.915	8100
805.057	8259
805.199	8119
805.341	8225
805.483	8252
805.626	8164
805.768	8130
805.91	8187
806.052	8168
806.194	8100
806.336	8275
806.478	8111
806.62	8016
806.762	8088
806.904	8336
807.046	8450
807.188	8290
807.33	8301
807.472	8309
807.614	8134
807.756	8092
807.898	7982
808.04	7917
808.182	7906
808.324	7921
808.465	7898
808.607	8020
808.749	8084
808.891	8157
809.033	8229
809.174	8153
809.316	8027
809.458	8050
809.6	7947
809.741	7986
809.883	7993
810.025	8092
810.166	8054
810.308	8111
810.45	8001
810.591	7784
810.733	7655
810.875	7601
811.016	7559
811.158	7449
811.299	7639
811.441	7647
811.582	7677
811.724	7582
811.865	7476
812.007	7506
812.148	7613
812.29	7647
812.431	7685
812.573	7917
812.714	7947
812.855	8103
812.997	8142
813.138	8256
813.279	8157
813.421	8161
813.562	7989
813.703	7826
813.845	7753
813.986	7354
814.127	7247
814.268	7228
814.41	7187
814.551	7145
814.692	7110
814.833	7019
814.974	7076
815.115	7099
815.256	6951
815.397	6913
815.539	6920
815.68	6882
815.821	6730
815.962	6894
816.103	6829
816.244	6665
816.385	6604
816.526	6593
816.666	6513
816.807	6304
816.948	6403
817.089	6498
817.23	6445
817.371	6334
817.512	6365
817.653	6395
817.793	6369
817.934	6391
818.075	6460
818.216	6441
818.356	6388
818.497	6300
818.638	6197
818.778	6110
818.919	6079
819.06	6167
819.2	6319
819.341	6254
819.481	6327
819.622	6547
819.762	6776
819.903	6684
820.043	6608
820.184	6547
820.324	6540
820.465	6631
820.605	6635
820.746	6620
820.886	6429
821.026	6658
821.167	6730
821.307	6783
821.447	6753
821.588	6665
821.728	6559
821.868	6494
822.008	6296
822.149	6323
822.289	6319
822.429	6121
822.569	6121
822.709	6079
822.849	5893
822.99	5874
823.13	5863
823.27	5942
823.41	5794
823.55	5779
823.69	5775
823.83	5802
823.97	5653
824.11	5509
824.25	5493
824.389	5562
824.529	5554
824.669	5482
824.809	5619
824.949	5623
825.089	5581
825.228	5539
825.368	5357
825.508	5341
825.648	5311
825.787	5379
825.927	5341
826.067	5265
826.206	5318
826.346	5391
826.485	5383
826.625	5379
826.765	5524
826.904	5493
827.044	5216
827.183	5212
827.323	5121
827.462	5246
827.601	5220
827.741	5223
827.88	5227
828.02	5090
828.159	5197
828.298	5284
828.437	5307
828.577	5250
828.716	5463
828.855	5311
828.994	5162
829.134	5174
829.273	5189
829.412	5155
829.551	5143
829.69	5140
829.829	5246
829.968	5387
830.107	5254
830.246	5204
830.385	5155
830.524	5094
830.663	5090
830.802	4995
830.941	4877
831.08	4862
831.219	4938
831.357	4980
831.496	5170
831.635	4900
831.774	4816
831.913	4854
832.051	4702
832.19	4748
832.329	4824
832.467	4683
832.606	4603
832.744	4721
832.883	4683
833.022	4748
833.16	4778
833.299	4782
833.437	4831
833.576	4801
833.714	4854
833.852	4850
833.991	4831
834.129	4961
834.267	4968
834.406	4911
834.544	4942
834.682	4976
834.821	4957
834.959	5136
835.097	4965
835.235	5132
835.373	5048
835.511	5090
835.65	5052
835.788	5006
835.926	4892
836.064	4839
836.202	4862
836.34	5121
836.478	5212
836.615	5136
836.753	5189
836.891	5277
837.029	5242
837.167	5197
837.305	5136
837.443	5132
837.58	5010
837.718	5242
837.856	5136
837.993	5147
838.131	5250
838.269	5174
838.406	5178
838.544	5143
838.681	5033
838.819	4980
838.956	4870
839.094	4885
839.231	4911
839.369	5029
839.506	5440
839.643	5254
839.781	5079
839.918	4995
840.055	5079
840.193	5102
840.33	5102
840.467	5128
840.604	5162
840.742	5436
840.879	5105
841.016	5090
841.153	5159
841.29	5345
841.427	5322
841.564	5311
841.701	5357
841.838	5296
841.975	5204
842.112	5212
842.249	5155
842.385	5124
842.522	5288
842.659	5181
842.796	5121
842.933	5166
843.069	5109
843.206	5113
843.343	5227
843.479	5220
843.616	5216
843.752	4999
843.889	4980
844.025	5162
844.162	4991
844.298	5227
844.435	5094
844.571	4987
844.708	5159
844.844	5311
844.98	5334
845.117	5250
845.253	5117
845.389	5060
845.525	5147
845.661	5102
845.798	5064
845.934	5147
846.07	5010
846.206	5151
846.342	5277
846.478	5151
846.614	5018
846.75	4972
846.886	4991
847.022	5159
847.158	5022
847.294	5048
847.429	5041
847.565	5022
847.701	5299
847.837	4809
847.972	4801
848.108	4934
848.244	4968
848.379	4767
848.515	4767
848.65	4675
848.786	4706
848.921	4721
849.057	4870
849.192	4892
849.328	4797
849.463	4866
849.598	4786
849.734	4691
849.869	4698
850.004	4584
850.14	4675
850.275	4577
850.41	4497
850.545	4538
850.68	4630
850.815	4569
850.95	4603
851.085	4839
851.22	4698
851.355	4637
851.49	4580
851.625	4645
851.76	4592
851.895	4535
852.03	4531
852.165	4641
852.299	4702
852.434	4736
852.569	4687
852.703	4778
852.838	4793
852.973	4889
853.107	4896
853.242	4687
853.376	4672
853.511	4565
853.645	4626
853.78	4805
853.914	4694
854.048	4656
854.183	4603
854.317	4641
854.451	4809
854.585	4687
854.72	4641
854.854	4691
854.988	4573
855.122	4618
855.256	4519
855.39	4656
855.524	4767
855.658	4717
855.792	4687
855.926	4736
856.06	4793
856.194	4763
856.327	4710
856.461	4546
856.595	4565
856.729	4615
856.862	4733
856.996	4694
857.13	4664
857.263	4748
857.397	4793
857.53	4653
857.664	4710
857.797	4694
857.931	4767
858.064	4694
858.197	4721
858.331	4641
858.464	4618
858.597	4542
858.731	4615
858.864	4599
858.997	4592
859.13	4618
859.263	4660
859.396	4672
859.529	4599
859.662	4565
859.795	4527
859.928	4584
860.061	4733
860.194	4702
860.327	4653
860.46	4546
860.592	4687
860.725	4702
860.858	4683
860.99	4580
861.123	4558
861.256	4523
861.388	4618
861.521	5322
861.653	4455
861.786	4466
861.918	4436
862.05	4535
862.183	4500
862.315	4603
862.447	4584
862.58	4516
862.712	4394
862.844	4344
862.976	4474
863.108	4417
863.24	4702
863.372	4291
863.504	4386
863.636	4394
863.768	4447
863.9	4440
864.032	4394
864.164	4413
864.296	4459
864.428	4455
864.559	4546
864.691	4508
864.823	4497
864.954	4489
865.086	4462
865.217	4451
865.349	4413
865.48	4447
865.612	4443
865.743	4584
865.875	4489
866.006	4413
866.137	4447
866.269	4405
866.4	4405
866.531	4402
866.662	4356
866.793	4413
866.924	4417
867.055	4474
867.186	4489
867.317	4386
867.448	4348
867.579	4356
867.71	4363
867.841	4344
867.972	4440
868.103	4421
868.233	4413
868.364	4424
868.495	4474
868.625	4637
868.756	4725
868.886	4504
869.017	4603
869.147	4752
869.278	4717
869.408	4664
869.539	4649
869.669	4702
869.799	4653
869.929	4790
870.06	4755
870.19	4900
870.32	4927
870.45	4919
870.58	4980
870.71	5025
870.84	5094
870.97	4942
871.1	4889
871.23	5155
871.36	5079
871.489	5041
871.619	5071
871.749	5109
871.879	5105
872.008	5140
872.138	5121
872.267	4968
872.397	4854
872.526	4717
872.656	4714
872.785	4748
872.915	4968
873.044	5010
873.173	4904
873.303	4900
873.432	4953
873.561	4930
873.69	4847
873.819	4854
873.948	4877
874.077	4828
874.206	4752
874.335	4812
874.464	4915
874.593	5113
874.722	4972
874.851	5056
874.979	5014
875.108	5018
875.237	4896
875.365	4881
875.494	4885
875.623	4999
875.751	4805
875.88	4835
876.008	4942
876.136	5052
876.265	5197
876.393	5292
876.521	5212
876.65	5208
876.778	5162
876.906	5075
877.034	4968
877.162	5025
877.29	4999
877.418	5041
877.546	5048
877.674	5064
877.802	4923
877.93	5025
878.058	4889
878.185	4850
878.313	4904
878.441	4934
878.568	4831
878.696	4843
878.824	4957
878.951	4900
879.079	5090
879.206	5292
879.333	5079
879.461	4968
879.588	5006
879.715	5132
879.842	5231
879.97	4984
880.097	4805
880.224	4702
880.351	4793
880.478	4801
880.605	4805
880.732	4816
880.859	5071
880.986	4862
881.112	4908
881.239	4755
881.366	4626
881.493	4588
881.619	4626
881.746	4596
881.872	4637
881.999	4618
882.125	4664
882.252	4850
882.378	4831
882.505	4995
882.631	4801
882.757	4641
882.883	4733
883.01	4679
883.136	4653
883.262	4546
883.388	4599
883.514	4805
883.64	4870
883.766	4790
883.892	4668
884.018	4683
884.143	4866
884.269	5014
884.395	4630
884.52	4641
884.646	4672
884.772	4618
884.897	4531
885.023	4664
885.148	4721
885.274	4820
885.399	4782
885.524	4725
885.65	4698
885.775	4717
885.9	4691
886.025	4790
886.15	4786
886.275	4687
886.4	4596
886.525	4714
886.65	4729
886.775	4672
886.9	4930
887.025	5029
887.149	4729
887.274	4645
887.399	4599
887.523	4565
887.648	4538
887.773	4599
887.897	4793
888.021	4763
888.146	4668
888.27	4759
888.395	4881
888.519	4801
888.643	4790
888.767	4824
888.891	4626
889.015	4596
889.139	4603
889.263	4622
889.387	4710
889.511	4839
889.635	4809
889.759	4641
889.883	4573
890.006	4694
890.13	4801
890.254	4618
890.377	4691
890.501	4538
890.624	4478
890.748	4603
890.871	4516
890.995	4424
891.118	4337
891.241	4500
891.364	4519
891.488	4675
891.611	4481
891.734	4561
891.857	4546
891.98	4535
892.103	4626
892.226	4592
892.349	4535
892.471	4371
892.594	4554
892.717	4584
892.839	4542
892.962	4630
893.085	4630
893.207	4599
893.33	4447
893.452	4550
893.575	4649
893.697	4577
893.819	4763
893.941	4816
894.064	4790
894.186	4584
894.308	4607
894.43	4698
894.552	4816
894.674	4755
894.796	4558
894.918	4573
895.04	4588
895.161	4668
895.283	4649
895.405	4611
895.526	4588
895.648	4683
895.769	4668
895.891	4721
896.012	4729
896.134	4710
896.255	4660
896.376	4660
896.498	4634
896.619	4679
896.74	4580
896.861	4668
896.982	4911
897.103	5045
897.224	4828
897.345	4736
897.466	4675
897.587	4683
897.708	4843
897.828	4771
897.949	4679
898.07	4558
898.19	4592
898.311	4793
898.431	4634
898.552	4702
898.672	4786
898.792	4771
898.913	4763
899.033	4660
899.153	4478
899.273	4413
899.393	4497
899.513	4519
899.633	4478
899.753	4558
899.873	4478
899.993	4592
900.113	4527
900.232	4607
900.352	4565
900.472	4440
900.591	4413
900.711	4440
900.83	4417
900.95	4637
901.069	4637
901.189	4497
901.308	4333
901.427	4306
901.546	4337
901.665	4519
901.784	4474
901.904	4409
902.023	4367
902.141	4154
902.26	4169
902.379	4329
902.498	4265
902.617	4219
902.735	4394
902.854	4386
902.973	4432
903.091	4185
903.21	4219
903.328	4246
903.446	4253
903.565	4223
903.683	4333
903.801	4265
903.919	4390
904.038	4413
904.156	4310
904.274	4428
904.392	4409
904.51	4390
904.627	4409
904.745	4592
904.863	4618
904.981	4341
905.098	4299
905.216	4325
905.334	4413
905.451	4402
905.569	4405
905.686	4577
905.803	4558
905.921	4379
906.038	4554
906.155	4508
906.272	4398
906.389	4440
906.506	4356
906.623	4367
906.74	4409
906.857	4295
906.974	4367
907.091	4554
907.208	4679
907.324	4588
907.441	4443
907.557	4318
907.674	4325
907.79	4276
907.907	4421
908.023	4455
908.139	4417
908.256	4421
908.372	4481
908.488	4421
908.604	4348
908.72	4284
908.836	4337
908.952	4333
909.068	4421
909.184	4512
909.3	4485
909.415	4523
909.531	4516
909.647	4348
909.762	4417
909.878	4371
909.993	4440
910.108	4405
910.224	4379
910.339	4481
910.454	4360
910.57	4322
910.685	4287
910.8	4637
910.915	4599
911.03	4436
911.145	4310
911.259	4329
911.374	4360
911.489	4291
911.604	4310
911.718	4162
911.833	4204
911.947	4078
912.062	4017
912.176	4207
912.291	4223
912.405	4230
912.519	4485
912.633	4474
912.748	4367
912.862	4341
912.976	4185
913.09	4082
913.204	4166
913.318	4272
913.431	4371
913.545	4379
913.659	4421
913.772	4337
913.886	4227
914	4207
914.113	4379
914.226	4379
914.34	4367
914.453	4211
914.566	4398
914.68	4303
914.793	4306
914.906	4162
915.019	4169
915.132	4074
915.245	4188
915.358	4177
915.47	4261
915.583	4238
915.696	4299
915.809	4432
915.921	4356
916.034	4227
916.146	4261
916.259	4200
916.371	4390
916.483	4375
916.595	4253
916.708	4284
916.82	4306
916.932	4337
917.044	4310
917.156	4287
917.268	4211
917.38	4265
917.491	4287
917.603	4310
917.715	4451
917.826	4424
917.938	4379
918.049	4227
918.161	4356
918.272	4527
918.384	4546
918.495	4474
918.606	4272
918.717	4238
918.828	4341
918.939	4386
919.05	4261
919.161	4314
919.272	4101
919.383	4192
919.494	4428
919.604	4634
919.715	4478
919.826	4341
919.936	4386
920.047	4538
920.157	4386
920.267	4702
920.378	4558
920.488	4485
920.598	4706
920.708	4870
920.818	4755
920.928	4736
921.038	4934
921.148	4942
921.258	4580
921.368	4558
921.477	4519
921.587	4447
921.697	4360
921.806	4550
921.916	4436
922.025	4261
922.134	4287
922.244	4181
922.353	4318
922.462	4158
922.571	4143
922.68	3964
922.789	3983
922.898	4002
923.007	3960
923.116	4082
923.224	4013
923.333	4044
923.442	3964
923.55	3926
923.659	4017
923.767	4086
923.876	3987
923.984	4109
924.092	4002
924.201	4116
924.309	4105
924.417	4120
924.525	4036
924.633	4112
924.741	4858
924.849	3899
924.956	4101
925.064	3934
925.172	3926
925.279	3949
925.387	4029
925.494	4074
925.602	4204
925.709	4154
925.816	4044
925.924	4105
926.031	4219
926.138	4143
926.245	4211
926.352	4044
926.459	4196
926.566	4261
926.673	4101
926.779	4093
926.886	4086
926.993	3975
927.099	3949
927.206	3876
927.312	3884
927.419	4067
927.525	4036
927.631	4067
927.737	3983
927.843	3915
927.95	3850
928.056	3934
928.162	3972
928.267	4067
928.373	4698
928.479	4101
928.585	3846
928.69	3991
928.796	4093
928.901	3972
929.007	3812
929.112	4048
929.218	3956
929.323	3922
929.428	3922
929.533	4082
929.638	3888
929.743	3953
929.848	4025
929.953	3991
930.058	3926
930.163	3740
930.267	3781
930.372	3941
930.477	3808
930.581	4090
930.685	3915
930.79	3800
930.894	3873
930.998	3831
931.103	4013
931.207	3679
931.311	3701
931.415	3709
931.519	3492
931.623	3534
