Data from test_V78500241_939.txt Node
Date: Fri Mar 25 16:55:31 CST 2022
User: usil
Spectrometer: V785-0024
Trigger mode: 0
Integration Time (sec): 4.000000E-1
Scans to average: 1
Nonlinearity correction enabled: false
Boxcar width: 0
Storing dark spectrum: false
XAxis mode: Wavelengths
Number of Pixels in Spectrum: 1024
>>>>>Begin Spectral Data<<<<<
801.071	8031
801.214	8027
801.356	7871
801.499	7940
801.641	7852
801.783	7841
801.926	8031
802.068	7852
802.211	7944
802.353	7947
802.496	7837
802.638	7845
802.78	7860
802.923	7887
803.065	7887
803.208	7902
803.35	8012
803.492	8107
803.635	8233
803.777	7989
803.919	8138
804.061	8427
804.204	8050
804.346	8027
804.488	7967
804.63	8161
804.773	7997
804.915	8062
805.057	8252
805.199	8176
805.341	8256
805.483	8271
805.626	8252
805.768	8115
805.91	8180
806.052	8180
806.194	8054
806.336	8305
806.478	8142
806.62	8096
806.762	8103
806.904	8233
807.046	8408
807.188	8366
807.33	8279
807.472	8347
807.614	8119
807.756	8069
807.898	8016
808.04	7883
808.182	7856
808.324	7894
808.465	7917
808.607	7974
808.749	8081
808.891	8157
809.033	8309
809.174	8244
809.316	8043
809.458	8046
809.6	7970
809.741	8027
809.883	8069
810.025	8081
810.166	7974
810.308	8035
810.45	8046
810.591	7902
810.733	7761
810.875	7708
811.016	7491
811.158	7453
811.299	7601
811.441	7704
811.582	7655
811.724	7575
811.865	7510
812.007	7540
812.148	7597
812.29	7514
812.431	7761
812.573	7917
812.714	7955
812.855	8077
812.997	8202
813.138	8279
813.279	8202
813.421	8111
813.562	7974
813.703	7890
813.845	7788
813.986	7430
814.127	7202
814.268	7213
814.41	7206
814.551	7114
814.692	7149
814.833	7091
814.974	7050
815.115	7171
815.256	6932
815.397	6932
815.539	6928
815.68	6890
815.821	6768
815.962	6787
816.103	6814
816.244	6749
816.385	6620
816.526	6635
816.666	6528
816.807	6296
816.948	6407
817.089	6422
817.23	6445
817.371	6388
817.512	6338
817.653	6376
817.793	6399
817.934	6372
818.075	6399
818.216	6410
818.356	6395
818.497	6292
818.638	6068
818.778	6148
818.919	6110
819.06	6171
819.2	6323
819.341	6399
819.481	6361
819.622	6540
819.762	6665
819.903	6642
820.043	6616
820.184	6616
820.324	6566
820.465	6707
820.605	6730
820.746	6658
820.886	6513
821.026	6612
821.167	6730
821.307	6829
821.447	6810
821.588	6669
821.728	6582
821.868	6540
822.008	6281
822.149	6346
822.289	6376
822.429	6121
822.569	6114
822.709	6098
822.849	5874
822.99	5885
823.13	5927
823.27	5946
823.41	5809
823.55	5813
823.69	5786
823.83	5828
823.97	5718
824.11	5577
824.25	5524
824.389	5558
824.529	5619
824.669	5619
824.809	5665
824.949	5653
825.089	5630
825.228	5577
825.368	5398
825.508	5360
825.648	5436
825.787	5471
825.927	5395
826.067	5364
826.206	5330
826.346	5448
826.485	5410
826.625	5395
826.765	5562
826.904	5493
827.044	5288
827.183	5246
827.323	5174
827.462	5299
827.601	5231
827.741	5181
827.88	5235
828.02	5102
828.159	5273
828.298	5376
828.437	5421
828.577	5292
828.716	5452
828.855	5318
828.994	5159
829.134	5197
829.273	5193
829.412	5174
829.551	5155
829.69	5231
829.829	5265
829.968	5341
830.107	5334
830.246	5299
830.385	5197
830.524	5147
830.663	5067
830.802	5022
830.941	4915
831.08	4889
831.219	5064
831.357	5048
831.496	5208
831.635	5003
831.774	4881
831.913	4889
832.051	4729
832.19	4767
832.329	4881
832.467	4710
832.606	4714
832.744	4755
832.883	4729
833.022	4759
833.16	4782
833.299	4850
833.437	4858
833.576	4858
833.714	4873
833.852	4919
833.991	4930
834.129	5037
834.267	4984
834.406	4942
834.544	5010
834.682	5048
834.821	5022
834.959	5155
835.097	5003
835.235	5155
835.373	5094
835.511	5109
835.65	5067
835.788	5132
835.926	4984
836.064	4934
836.202	4953
836.34	5185
836.478	5296
836.615	5140
836.753	5299
836.891	5299
837.029	5315
837.167	5273
837.305	5193
837.443	5155
837.58	5064
837.718	5261
837.856	5174
837.993	5155
838.131	5261
838.269	5235
838.406	5239
838.544	5242
838.681	5109
838.819	5052
838.956	4908
839.094	4930
839.231	5045
839.369	5121
839.506	5406
839.643	5303
839.781	5079
839.918	5067
840.055	5143
840.193	5121
840.33	5162
840.467	5151
840.604	5216
840.742	5410
840.879	5113
841.016	5132
841.153	5250
841.29	5391
841.427	5318
841.564	5357
841.701	5311
841.838	5322
841.975	5258
842.112	5284
842.249	5166
842.385	5109
842.522	5326
842.659	5223
842.796	5155
842.933	5208
843.069	5109
843.206	5204
843.343	5303
843.479	5220
843.616	5303
843.752	5098
843.889	4972
844.025	5216
844.162	5083
844.298	5250
844.435	5128
844.571	5060
844.708	5212
844.844	5337
844.98	5326
845.117	5334
845.253	5117
845.389	5064
845.525	5181
845.661	5185
845.798	5048
845.934	5181
846.07	5071
846.206	5246
846.342	5277
846.478	5181
846.614	5029
846.75	5006
846.886	4896
847.022	5121
847.158	5037
847.294	5105
847.429	5136
847.565	5079
847.701	5330
847.837	4892
847.972	4736
848.108	4942
848.244	4942
848.379	4767
848.515	4740
848.65	4694
848.786	4748
848.921	4805
849.057	4927
849.192	4892
849.328	4850
849.463	4896
849.598	4820
849.734	4763
849.869	4694
850.004	4603
850.14	4672
850.275	4649
850.41	4558
850.545	4592
850.68	4615
850.815	4653
850.95	4668
851.085	4885
851.22	4774
851.355	4668
851.49	4599
851.625	4653
851.76	4607
851.895	4573
852.03	4527
852.165	4649
852.299	4744
852.434	4793
852.569	4809
852.703	4782
852.838	4858
852.973	4961
853.107	4862
853.242	4771
853.376	4687
853.511	4592
853.645	4637
853.78	4816
853.914	4721
854.048	4668
854.183	4683
854.317	4740
854.451	4847
854.585	4660
854.72	4630
854.854	4733
854.988	4603
855.122	4615
855.256	4500
855.39	4634
855.524	4805
855.658	4725
855.792	4687
855.926	4771
856.06	4759
856.194	4801
856.327	4702
856.461	4626
856.595	4653
856.729	4634
856.862	4744
856.996	4740
857.13	4755
857.263	4729
857.397	4828
857.53	4645
857.664	4706
857.797	4809
857.931	4778
858.064	4683
858.197	4748
858.331	4683
858.464	4668
858.597	4561
858.731	4637
858.864	4672
858.997	4558
859.13	4668
859.263	4706
859.396	4744
859.529	4596
859.662	4618
859.795	4554
859.928	4691
860.061	4744
860.194	4801
860.327	4672
860.46	4554
860.592	4683
860.725	4763
860.858	4755
860.99	4573
861.123	4531
861.256	4519
861.388	4649
861.521	5204
861.653	4497
861.786	4443
861.918	4459
862.05	4558
862.183	4580
862.315	4637
862.447	4645
862.58	4637
862.712	4493
862.844	4329
862.976	4466
863.108	4489
863.24	4847
863.372	4363
863.504	4424
863.636	4447
863.768	4500
863.9	4481
864.032	4318
864.164	4344
864.296	4478
864.428	4535
864.559	4565
864.691	4561
864.823	4523
864.954	4462
865.086	4535
865.217	4493
865.349	4432
865.48	4462
865.612	4535
865.743	4630
865.875	4512
866.006	4421
866.137	4489
866.269	4462
866.4	4474
866.531	4421
866.662	4390
866.793	4424
866.924	4417
867.055	4462
867.186	4481
867.317	4417
867.448	4375
867.579	4394
867.71	4409
867.841	4371
867.972	4481
868.103	4447
868.233	4421
868.364	4481
868.495	4535
868.625	4630
868.756	4771
868.886	4603
869.017	4637
869.147	4774
869.278	4740
869.408	4664
869.539	4615
869.669	4733
869.799	4653
869.929	4748
870.06	4767
870.19	4965
870.32	4938
870.45	4915
870.58	5010
870.71	5083
870.84	5090
870.97	4908
871.1	4900
871.23	5136
871.36	5124
871.489	4980
871.619	5048
871.749	5075
871.879	5102
872.008	5193
872.138	5045
872.267	4984
872.397	4858
872.526	4824
872.656	4744
872.785	4812
872.915	4957
873.044	5048
873.173	4972
873.303	4961
873.432	4934
873.561	4900
873.69	4881
873.819	4809
873.948	4927
874.077	4847
874.206	4809
874.335	4835
874.464	4968
874.593	5052
874.722	4972
874.851	5105
874.979	5086
875.108	5048
875.237	4927
875.365	4908
875.494	4900
875.623	5003
875.751	4843
875.88	4923
876.008	4961
876.136	5071
876.265	5204
876.393	5357
876.521	5231
876.65	5235
876.778	5124
876.906	5045
877.034	4995
877.162	5029
877.29	5025
877.418	5045
877.546	5006
877.674	5025
877.802	5029
877.93	4984
878.058	4927
878.185	4881
878.313	4915
878.441	4965
878.568	4809
878.696	4866
878.824	4946
878.951	5003
879.079	5117
879.206	5288
879.333	5079
879.461	4976
879.588	5025
879.715	5124
879.842	5204
879.97	5018
880.097	4782
880.224	4809
880.351	4850
880.478	4816
880.605	4771
880.732	4793
880.859	5090
880.986	4980
881.112	4911
881.239	4824
881.366	4641
881.493	4622
881.619	4584
881.746	4596
881.872	4626
881.999	4679
882.125	4736
882.252	4801
882.378	4805
882.505	4995
882.631	4812
882.757	4698
882.883	4717
883.01	4755
883.136	4668
883.262	4584
883.388	4626
883.514	4839
883.64	4854
883.766	4801
883.892	4706
884.018	4805
884.143	4870
884.269	5048
884.395	4675
884.52	4645
884.646	4622
884.772	4512
884.897	4558
885.023	4698
885.148	4782
885.274	4831
885.399	4809
885.524	4748
885.65	4687
885.775	4740
885.9	4752
886.025	4885
886.15	4771
886.275	4717
886.4	4634
886.525	4637
886.65	4721
886.775	4687
886.9	4892
887.025	5018
887.149	4862
887.274	4664
887.399	4599
887.523	4596
887.648	4558
887.773	4592
887.897	4771
888.021	4752
888.146	4733
888.27	4774
888.395	4885
888.519	4755
888.643	4774
888.767	4831
888.891	4660
889.015	4607
889.139	4607
889.263	4634
889.387	4740
889.511	4809
889.635	4786
889.759	4649
889.883	4615
890.006	4786
890.13	4812
890.254	4603
890.377	4710
890.501	4531
890.624	4485
890.748	4664
890.871	4512
890.995	4440
891.118	4352
891.241	4538
891.364	4527
891.488	4630
891.611	4504
891.734	4554
891.857	4615
891.98	4577
892.103	4653
892.226	4645
892.349	4550
892.471	4348
892.594	4558
892.717	4634
892.839	4554
892.962	4580
893.085	4634
893.207	4580
893.33	4459
893.452	4497
893.575	4641
893.697	4565
893.819	4809
893.941	4782
894.064	4782
894.186	4584
894.308	4531
894.43	4744
894.552	4812
894.674	4725
894.796	4554
894.918	4580
895.04	4584
895.161	4664
895.283	4668
895.405	4599
895.526	4668
895.648	4672
895.769	4691
895.891	4714
896.012	4717
896.134	4706
896.255	4672
896.376	4672
896.498	4607
896.619	4691
896.74	4618
896.861	4687
896.982	4965
897.103	5075
897.224	4843
897.345	4748
897.466	4645
897.587	4733
897.708	4847
897.828	4771
897.949	4645
898.07	4588
898.19	4672
898.311	4786
898.431	4744
898.552	4721
898.672	4786
898.792	4816
898.913	4729
899.033	4653
899.153	4478
899.273	4424
899.393	4504
899.513	4519
899.633	4538
899.753	4504
899.873	4554
899.993	4618
900.113	4508
900.232	4573
900.352	4519
900.472	4474
900.591	4424
900.711	4462
900.83	4428
900.95	4626
901.069	4694
901.189	4523
901.308	4386
901.427	4333
901.546	4306
901.665	4455
901.784	4588
901.904	4428
902.023	4337
902.141	4223
902.26	4154
902.379	4333
902.498	4234
902.617	4246
902.735	4371
902.854	4367
902.973	4333
903.091	4207
903.21	4234
903.328	4287
903.446	4265
903.565	4234
903.683	4341
903.801	4257
903.919	4390
904.038	4470
904.156	4322
904.274	4424
904.392	4417
904.51	4394
904.627	4470
904.745	4569
904.863	4611
904.981	4394
905.098	4325
905.216	4322
905.334	4417
905.451	4436
905.569	4424
905.686	4538
905.803	4550
905.921	4432
906.038	4580
906.155	4493
906.272	4409
906.389	4432
906.506	4383
906.623	4341
906.74	4379
906.857	4257
906.974	4375
907.091	4554
907.208	4626
907.324	4531
907.441	4531
907.557	4337
907.674	4329
907.79	4318
907.907	4386
908.023	4500
908.139	4489
908.256	4455
908.372	4451
908.488	4360
908.604	4371
908.72	4257
908.836	4394
908.952	4390
909.068	4402
909.184	4584
909.3	4516
909.415	4554
909.531	4538
909.647	4333
909.762	4394
909.878	4344
909.993	4417
910.108	4447
910.224	4440
910.339	4466
910.454	4394
910.57	4329
910.685	4257
910.8	4653
910.915	4550
911.03	4443
911.145	4329
911.259	4341
911.374	4352
911.489	4310
911.604	4303
911.718	4230
911.833	4177
911.947	4105
912.062	4086
912.176	4181
912.291	4280
912.405	4242
912.519	4432
912.633	4470
912.748	4402
912.862	4333
912.976	4242
913.09	4101
913.204	4166
913.318	4242
913.431	4413
913.545	4390
913.659	4462
913.772	4367
913.886	4211
914	4227
914.113	4333
914.226	4470
914.34	4413
914.453	4265
914.566	4417
914.68	4306
914.793	4306
914.906	4139
915.019	4105
915.132	4063
915.245	4143
915.358	4234
915.47	4204
915.583	4257
915.696	4211
915.809	4428
915.921	4436
916.034	4234
916.146	4253
916.259	4211
916.371	4386
916.483	4344
916.595	4280
916.708	4360
916.82	4344
916.932	4325
917.044	4310
917.156	4299
917.268	4204
917.38	4314
917.491	4280
917.603	4322
917.715	4375
917.826	4481
917.938	4337
918.049	4230
918.161	4386
918.272	4504
918.384	4546
918.495	4455
918.606	4322
918.717	4219
918.828	4303
918.939	4337
919.05	4280
919.161	4280
919.272	4116
919.383	4246
919.494	4436
919.604	4580
919.715	4405
919.826	4341
919.936	4386
920.047	4542
920.157	4519
920.267	4672
920.378	4519
920.488	4508
920.598	4721
920.708	4885
920.818	4691
920.928	4729
921.038	4946
921.148	4885
921.258	4622
921.368	4542
921.477	4497
921.587	4443
921.697	4352
921.806	4546
921.916	4443
922.025	4253
922.134	4265
922.244	4276
922.353	4329
922.462	4177
922.571	4116
922.68	4021
922.789	3964
922.898	4036
923.007	3979
923.116	4071
923.224	4093
923.333	4082
923.442	3994
923.55	3979
923.659	3994
923.767	4101
923.876	4017
923.984	4128
924.092	3998
924.201	4078
924.309	4128
924.417	4120
924.525	4063
924.633	4112
924.741	4987
924.849	3930
924.956	4150
925.064	3991
925.172	3880
925.279	3930
925.387	4093
925.494	4063
925.602	4169
925.709	4188
925.816	4055
925.924	4154
926.031	4200
926.138	4192
926.245	4192
926.352	4074
926.459	4230
926.566	4287
926.673	4158
926.779	4048
926.886	4071
926.993	3994
927.099	3915
927.206	3915
927.312	3911
927.419	4032
927.525	3987
927.631	4067
927.737	3956
927.843	3953
927.95	3831
928.056	3983
928.162	3975
928.267	4025
928.373	4668
928.479	4116
928.585	3869
928.69	4002
928.796	4067
928.901	3979
929.007	3838
929.112	3998
929.218	3903
929.323	3896
929.428	3934
929.533	4082
929.638	3892
929.743	3911
929.848	4021
929.953	4006
930.058	3907
930.163	3800
930.267	3762
930.372	3987
930.477	3781
930.581	4051
930.685	3930
930.79	3861
930.894	3842
930.998	3857
931.103	4059
931.207	3713
931.311	3701
931.415	3671
931.519	3523
931.623	3568
