Data from test_V78500241_1079.txt Node
Date: Fri Mar 25 16:56:30 CST 2022
User: usil
Spectrometer: V785-0024
Trigger mode: 0
Integration Time (sec): 4.000000E-1
Scans to average: 1
Nonlinearity correction enabled: false
Boxcar width: 0
Storing dark spectrum: false
XAxis mode: Wavelengths
Number of Pixels in Spectrum: 1024
>>>>>Begin Spectral Data<<<<<
801.071	8039
801.214	8111
801.356	7868
801.499	7917
801.641	7788
801.783	7818
801.926	7944
802.068	7883
802.211	7967
802.353	7921
802.496	7799
802.638	7852
802.78	7913
802.923	7928
803.065	7837
803.208	7917
803.35	8020
803.492	8126
803.635	8199
803.777	8027
803.919	8115
804.061	8389
804.204	8218
804.346	8058
804.488	7921
804.63	8100
804.773	8054
804.915	8130
805.057	8286
805.199	8103
805.341	8267
805.483	8248
805.626	8195
805.768	8111
805.91	8142
806.052	8214
806.194	8134
806.336	8263
806.478	8084
806.62	8138
806.762	8115
806.904	8294
807.046	8465
807.188	8347
807.33	8279
807.472	8328
807.614	8153
807.756	8149
807.898	8027
808.04	7955
808.182	7925
808.324	7849
808.465	7936
808.607	8088
808.749	8126
808.891	8199
809.033	8267
809.174	8172
809.316	8126
809.458	8020
809.6	7932
809.741	7986
809.883	7986
810.025	8069
810.166	8012
810.308	8046
810.45	8043
810.591	7860
810.733	7708
810.875	7636
811.016	7537
811.158	7468
811.299	7594
811.441	7719
811.582	7670
811.724	7575
811.865	7491
812.007	7552
812.148	7624
812.29	7624
812.431	7700
812.573	7898
812.714	8005
812.855	8039
812.997	8157
813.138	8275
813.279	8168
813.421	8123
813.562	7997
813.703	7909
813.845	7837
813.986	7449
814.127	7221
814.268	7217
814.41	7175
814.551	7118
814.692	7114
814.833	7099
814.974	7008
815.115	7149
815.256	6951
815.397	6848
815.539	6935
815.68	6848
815.821	6776
815.962	6867
816.103	6779
816.244	6677
816.385	6589
816.526	6593
816.666	6467
816.807	6296
816.948	6448
817.089	6475
817.23	6448
817.371	6388
817.512	6315
817.653	6410
817.793	6323
817.934	6410
818.075	6486
818.216	6445
818.356	6407
818.497	6220
818.638	6068
818.778	6121
818.919	6114
819.06	6167
819.2	6342
819.341	6338
819.481	6361
819.622	6498
819.762	6715
819.903	6684
820.043	6563
820.184	6547
820.324	6589
820.465	6730
820.605	6612
820.746	6585
820.886	6414
821.026	6650
821.167	6696
821.307	6776
821.447	6791
821.588	6627
821.728	6589
821.868	6494
822.008	6270
822.149	6308
822.289	6342
822.429	6133
822.569	6114
822.709	6129
822.849	5939
822.99	5923
823.13	5923
823.27	5847
823.41	5805
823.55	5726
823.69	5745
823.83	5790
823.97	5680
824.11	5551
824.25	5539
824.389	5604
824.529	5604
824.669	5532
824.809	5615
824.949	5688
825.089	5627
825.228	5558
825.368	5391
825.508	5379
825.648	5364
825.787	5406
825.927	5402
826.067	5307
826.206	5315
826.346	5360
826.485	5398
826.625	5459
826.765	5562
826.904	5474
827.044	5261
827.183	5254
827.323	5124
827.462	5284
827.601	5201
827.741	5166
827.88	5239
828.02	5124
828.159	5269
828.298	5292
828.437	5372
828.577	5239
828.716	5512
828.855	5318
828.994	5254
829.134	5242
829.273	5246
829.412	5159
829.551	5189
829.69	5143
829.829	5193
829.968	5410
830.107	5326
830.246	5299
830.385	5189
830.524	5193
830.663	5105
830.802	4987
830.941	4968
831.08	4873
831.219	5037
831.357	4976
831.496	5201
831.635	4968
831.774	4847
831.913	4881
832.051	4752
832.19	4771
832.329	4850
832.467	4771
832.606	4660
832.744	4759
832.883	4744
833.022	4744
833.16	4812
833.299	4858
833.437	4877
833.576	4835
833.714	4866
833.852	4911
833.991	4972
834.129	5006
834.267	5003
834.406	4968
834.544	5006
834.682	5052
834.821	5045
834.959	5208
835.097	4987
835.235	5193
835.373	5067
835.511	5147
835.65	5029
835.788	5083
835.926	4930
836.064	4911
836.202	4995
836.34	5204
836.478	5261
836.615	5113
836.753	5250
836.891	5334
837.029	5273
837.167	5235
837.305	5201
837.443	5155
837.58	5075
837.718	5254
837.856	5208
837.993	5159
838.131	5288
838.269	5265
838.406	5258
838.544	5246
838.681	5037
838.819	5010
838.956	4904
839.094	4896
839.231	5022
839.369	5109
839.506	5478
839.643	5299
839.781	5075
839.918	5079
840.055	5140
840.193	5121
840.33	5117
840.467	5151
840.604	5216
840.742	5436
840.879	5136
841.016	5151
841.153	5220
841.29	5326
841.427	5345
841.564	5337
841.701	5360
841.838	5258
841.975	5284
842.112	5273
842.249	5128
842.385	5151
842.522	5307
842.659	5170
842.796	5174
842.933	5212
843.069	5159
843.206	5136
843.343	5292
843.479	5307
843.616	5254
843.752	5033
843.889	5056
844.025	5258
844.162	5048
844.298	5246
844.435	5105
844.571	5033
844.708	5231
844.844	5292
844.98	5341
845.117	5288
845.253	5178
845.389	5113
845.525	5174
845.661	5189
845.798	5041
845.934	5147
846.07	5041
846.206	5212
846.342	5387
846.478	5235
846.614	5037
846.75	4980
846.886	4946
847.022	5151
847.158	4991
847.294	5064
847.429	5143
847.565	5117
847.701	5353
847.837	4892
847.972	4816
848.108	4957
848.244	4968
848.379	4786
848.515	4706
848.65	4774
848.786	4820
848.921	4782
849.057	4896
849.192	4911
849.328	4835
849.463	4870
849.598	4862
849.734	4812
849.869	4714
850.004	4664
850.14	4672
850.275	4637
850.41	4558
850.545	4531
850.68	4630
850.815	4607
850.95	4664
851.085	4900
851.22	4786
851.355	4721
851.49	4622
851.625	4603
851.76	4683
851.895	4577
852.03	4592
852.165	4634
852.299	4748
852.434	4778
852.569	4744
852.703	4782
852.838	4854
852.973	4927
853.107	4904
853.242	4793
853.376	4675
853.511	4569
853.645	4622
853.78	4782
853.914	4733
854.048	4660
854.183	4675
854.317	4752
854.451	4843
854.585	4706
854.72	4622
854.854	4778
854.988	4611
855.122	4668
855.256	4512
855.39	4687
855.524	4812
855.658	4675
855.792	4687
855.926	4694
856.06	4736
856.194	4793
856.327	4694
856.461	4637
856.595	4615
856.729	4679
856.862	4752
856.996	4698
857.13	4763
857.263	4793
857.397	4816
857.53	4698
857.664	4755
857.797	4771
857.931	4782
858.064	4725
858.197	4736
858.331	4664
858.464	4637
858.597	4588
858.731	4630
858.864	4653
858.997	4607
859.13	4698
859.263	4683
859.396	4698
859.529	4603
859.662	4561
859.795	4573
859.928	4656
860.061	4820
860.194	4763
860.327	4592
860.46	4645
860.592	4725
860.725	4740
860.858	4736
860.99	4577
861.123	4558
861.256	4577
861.388	4634
861.521	5444
861.653	4443
861.786	4462
861.918	4500
862.05	4542
862.183	4558
862.315	4611
862.447	4649
862.58	4561
862.712	4417
862.844	4337
862.976	4535
863.108	4443
863.24	4904
863.372	4371
863.504	4417
863.636	4379
863.768	4516
863.9	4470
864.032	4402
864.164	4447
864.296	4470
864.428	4523
864.559	4596
864.691	4577
864.823	4550
864.954	4504
865.086	4508
865.217	4436
865.349	4466
865.48	4459
865.612	4481
865.743	4596
865.875	4443
866.006	4455
866.137	4440
866.269	4497
866.4	4462
866.531	4413
866.662	4436
866.793	4402
866.924	4462
867.055	4481
867.186	4481
867.317	4440
867.448	4405
867.579	4432
867.71	4424
867.841	4360
867.972	4538
868.103	4508
868.233	4470
868.364	4504
868.495	4561
868.625	4675
868.756	4790
868.886	4538
869.017	4653
869.147	4778
869.278	4759
869.408	4660
869.539	4645
869.669	4733
869.799	4634
869.929	4733
870.06	4748
870.19	4949
870.32	4946
870.45	4946
870.58	5048
870.71	5128
870.84	5037
870.97	4923
871.1	4904
871.23	5140
871.36	5102
871.489	5025
871.619	5045
871.749	5094
871.879	5132
872.008	5155
872.138	5022
872.267	4984
872.397	4862
872.526	4816
872.656	4759
872.785	4801
872.915	4957
873.044	5056
873.173	4957
873.303	4991
873.432	4968
873.561	4957
873.69	4900
873.819	4858
873.948	4938
874.077	4847
874.206	4790
874.335	4774
874.464	4942
874.593	5033
874.722	4953
874.851	5132
874.979	4999
875.108	5075
875.237	4896
875.365	4847
875.494	4843
875.623	5010
875.751	4858
875.88	4904
876.008	4991
876.136	4999
876.265	5189
876.393	5372
876.521	5277
876.65	5216
876.778	5189
876.906	5075
877.034	5022
877.162	4984
877.29	4995
877.418	5060
877.546	5064
877.674	5029
877.802	5052
877.93	5022
878.058	4873
878.185	4839
878.313	4957
878.441	4942
878.568	4793
878.696	4835
878.824	5018
878.951	4984
879.079	5132
879.206	5303
879.333	5086
879.461	4968
879.588	4987
879.715	5109
879.842	5235
879.97	4980
880.097	4824
880.224	4778
880.351	4828
880.478	4843
880.605	4786
880.732	4828
880.859	5086
880.986	4889
881.112	4930
881.239	4801
881.366	4717
881.493	4637
881.619	4637
881.746	4637
881.872	4653
881.999	4622
882.125	4679
882.252	4778
882.378	4824
882.505	4942
882.631	4786
882.757	4660
882.883	4725
883.01	4694
883.136	4672
883.262	4592
883.388	4615
883.514	4847
883.64	4927
883.766	4797
883.892	4653
884.018	4733
884.143	4900
884.269	5014
884.395	4653
884.52	4630
884.646	4637
884.772	4630
884.897	4561
885.023	4679
885.148	4736
885.274	4881
885.399	4805
885.524	4664
885.65	4656
885.775	4763
885.9	4698
886.025	4881
886.15	4759
886.275	4729
886.4	4660
886.525	4740
886.65	4698
886.775	4714
886.9	4923
887.025	5060
887.149	4854
887.274	4702
887.399	4554
887.523	4615
887.648	4615
887.773	4584
887.897	4831
888.021	4774
888.146	4622
888.27	4824
888.395	4946
888.519	4801
888.643	4881
888.767	4828
888.891	4702
889.015	4599
889.139	4660
889.263	4599
889.387	4755
889.511	4873
889.635	4786
889.759	4656
889.883	4649
890.006	4725
890.13	4820
890.254	4649
890.377	4691
890.501	4565
890.624	4497
890.748	4645
890.871	4466
890.995	4455
891.118	4386
891.241	4516
891.364	4569
891.488	4588
891.611	4474
891.734	4561
891.857	4588
891.98	4554
892.103	4626
892.226	4580
892.349	4535
892.471	4432
892.594	4618
892.717	4584
892.839	4561
892.962	4550
893.085	4641
893.207	4588
893.33	4421
893.452	4489
893.575	4653
893.697	4558
893.819	4782
893.941	4812
894.064	4740
894.186	4588
894.308	4588
894.43	4740
894.552	4782
894.674	4744
894.796	4561
894.918	4577
895.04	4584
895.161	4683
895.283	4672
895.405	4599
895.526	4634
895.648	4694
895.769	4717
895.891	4782
896.012	4740
896.134	4733
896.255	4717
896.376	4675
896.498	4615
896.619	4664
896.74	4626
896.861	4645
896.982	4919
897.103	5056
897.224	4854
897.345	4717
897.466	4702
897.587	4736
897.708	4847
897.828	4797
897.949	4641
898.07	4584
898.19	4634
898.311	4805
898.431	4656
898.552	4668
898.672	4854
898.792	4809
898.913	4767
899.033	4580
899.153	4531
899.273	4424
899.393	4478
899.513	4512
899.633	4542
899.753	4561
899.873	4485
899.993	4577
900.113	4508
900.232	4611
900.352	4538
900.472	4516
900.591	4474
900.711	4508
900.83	4417
900.95	4634
901.069	4675
901.189	4584
901.308	4360
901.427	4333
901.546	4402
901.665	4466
901.784	4462
901.904	4462
902.023	4299
902.141	4169
902.26	4173
902.379	4348
902.498	4211
902.617	4261
902.735	4333
902.854	4398
902.973	4329
903.091	4185
903.21	4246
903.328	4287
903.446	4253
903.565	4276
903.683	4322
903.801	4310
903.919	4394
904.038	4474
904.156	4257
904.274	4455
904.392	4375
904.51	4447
904.627	4405
904.745	4596
904.863	4607
904.981	4398
905.098	4356
905.216	4352
905.334	4394
905.451	4413
905.569	4432
905.686	4573
905.803	4546
905.921	4440
906.038	4558
906.155	4462
906.272	4360
906.389	4481
906.506	4352
906.623	4341
906.74	4394
906.857	4303
906.974	4402
907.091	4588
907.208	4694
907.324	4569
907.441	4462
907.557	4341
907.674	4310
907.79	4322
907.907	4405
908.023	4489
908.139	4489
908.256	4451
908.372	4443
908.488	4428
908.604	4333
908.72	4329
908.836	4360
908.952	4383
909.068	4386
909.184	4584
909.3	4504
909.415	4599
909.531	4592
909.647	4325
909.762	4383
909.878	4333
909.993	4413
910.108	4443
910.224	4394
910.339	4455
910.454	4390
910.57	4379
910.685	4363
910.8	4622
910.915	4580
911.03	4497
911.145	4333
911.259	4284
911.374	4356
911.489	4337
911.604	4280
911.718	4177
911.833	4181
911.947	4051
912.062	4078
912.176	4177
912.291	4196
912.405	4238
912.519	4504
912.633	4504
912.748	4363
912.862	4299
912.976	4223
913.09	4120
913.204	4166
913.318	4276
913.431	4344
913.545	4398
913.659	4470
913.772	4344
913.886	4207
914	4242
914.113	4341
914.226	4466
914.34	4341
914.453	4246
914.566	4424
914.68	4322
914.793	4291
914.906	4166
915.019	4135
915.132	4071
915.245	4200
915.358	4207
915.47	4261
915.583	4272
915.696	4249
915.809	4405
915.921	4436
916.034	4287
916.146	4219
916.259	4207
916.371	4352
916.483	4405
916.595	4295
916.708	4322
916.82	4322
916.932	4303
917.044	4344
917.156	4329
917.268	4261
917.38	4272
917.491	4234
917.603	4318
917.715	4394
917.826	4485
917.938	4325
918.049	4261
918.161	4398
918.272	4558
918.384	4542
918.495	4455
918.606	4310
918.717	4188
918.828	4318
918.939	4310
919.05	4249
919.161	4325
919.272	4116
919.383	4265
919.494	4417
919.604	4622
919.715	4447
919.826	4337
919.936	4375
920.047	4561
920.157	4508
920.267	4706
920.378	4512
920.488	4481
920.598	4721
920.708	4870
920.818	4740
920.928	4752
921.038	4927
921.148	4949
921.258	4607
921.368	4558
921.477	4519
921.587	4481
921.697	4363
921.806	4580
921.916	4432
922.025	4242
922.134	4242
922.244	4211
922.353	4322
922.462	4162
922.571	4105
922.68	4025
922.789	4002
922.898	4025
923.007	3964
923.116	4082
923.224	4059
923.333	4051
923.442	3991
923.55	3968
923.659	3968
923.767	4101
923.876	3968
923.984	4124
924.092	3987
924.201	4071
924.309	4090
924.417	4147
924.525	4006
924.633	4067
924.741	4995
924.849	3918
924.956	4101
925.064	3960
925.172	3876
925.279	4017
925.387	4078
925.494	4101
925.602	4207
925.709	4158
925.816	4029
925.924	4135
926.031	4200
926.138	4185
926.245	4230
926.352	4082
926.459	4238
926.566	4242
926.673	4143
926.779	4048
926.886	4090
926.993	3998
927.099	3930
927.206	3941
927.312	3979
927.419	4090
927.525	3983
927.631	4086
927.737	3972
927.843	3941
927.95	3823
928.056	3964
928.162	3987
928.267	4036
928.373	4706
928.479	4105
928.585	3899
928.69	4032
928.796	4036
928.901	3949
929.007	3797
929.112	4017
929.218	3979
929.323	3953
929.428	3922
929.533	4143
929.638	3911
929.743	3968
929.848	4055
929.953	4021
930.058	3899
930.163	3743
930.267	3808
930.372	3941
930.477	3789
930.581	4067
930.685	3972
930.79	3812
930.894	3876
930.998	3850
931.103	4032
931.207	3698
931.311	3660
931.415	3686
931.519	3534
931.623	3538
