Data from test_V78500241_1453.txt Node
Date: Fri Mar 25 16:59:06 CST 2022
User: usil
Spectrometer: V785-0024
Trigger mode: 0
Integration Time (sec): 4.000000E-1
Scans to average: 1
Nonlinearity correction enabled: false
Boxcar width: 0
Storing dark spectrum: false
XAxis mode: Wavelengths
Number of Pixels in Spectrum: 1024
>>>>>Begin Spectral Data<<<<<
801.071	8024
801.214	7970
801.356	7898
801.499	7807
801.641	7807
801.783	7814
801.926	7890
802.068	7982
802.211	7963
802.353	7951
802.496	7822
802.638	7875
802.78	7936
802.923	7921
803.065	7906
803.208	7852
803.35	7951
803.492	8126
803.635	8123
803.777	8005
803.919	8145
804.061	8473
804.204	8145
804.346	8020
804.488	8005
804.63	8088
804.773	8027
804.915	8069
805.057	8305
805.199	8103
805.341	8237
805.483	8317
805.626	8229
805.768	8123
805.91	8149
806.052	8206
806.194	8081
806.336	8290
806.478	8058
806.62	8020
806.762	8138
806.904	8263
807.046	8457
807.188	8389
807.33	8248
807.472	8351
807.614	8126
807.756	8145
807.898	7993
808.04	7902
808.182	7909
808.324	7906
808.465	7936
808.607	8092
808.749	8046
808.891	8240
809.033	8267
809.174	8153
809.316	8024
809.458	8024
809.6	7898
809.741	8020
809.883	7974
810.025	8054
810.166	8081
810.308	8016
810.45	7947
810.591	7833
810.733	7708
810.875	7689
811.016	7453
811.158	7464
811.299	7571
811.441	7727
811.582	7651
811.724	7651
811.865	7518
812.007	7438
812.148	7563
812.29	7533
812.431	7723
812.573	7811
812.714	7955
812.855	8062
812.997	8187
813.138	8229
813.279	8267
813.421	8103
813.562	7978
813.703	7814
813.845	7712
813.986	7373
814.127	7175
814.268	7213
814.41	7149
814.551	7160
814.692	7236
814.833	7076
814.974	7095
815.115	7118
815.256	6966
815.397	6993
815.539	6871
815.68	6753
815.821	6749
815.962	6859
816.103	6741
816.244	6696
816.385	6642
816.526	6582
816.666	6483
816.807	6251
816.948	6452
817.089	6464
817.23	6429
817.371	6331
817.512	6384
817.653	6338
817.793	6395
817.934	6403
818.075	6445
818.216	6452
818.356	6395
818.497	6292
818.638	6125
818.778	6091
818.919	6140
819.06	6148
819.2	6289
819.341	6357
819.481	6327
819.622	6555
819.762	6734
819.903	6684
820.043	6589
820.184	6582
820.324	6582
820.465	6639
820.605	6623
820.746	6547
820.886	6422
821.026	6616
821.167	6692
821.307	6791
821.447	6753
821.588	6639
821.728	6525
821.868	6536
822.008	6319
822.149	6350
822.289	6300
822.429	6095
822.569	6083
822.709	6125
822.849	5939
822.99	5832
823.13	5893
823.27	5874
823.41	5745
823.55	5771
823.69	5805
823.83	5783
823.97	5661
824.11	5497
824.25	5471
824.389	5581
824.529	5562
824.669	5467
824.809	5604
824.949	5657
825.089	5570
825.228	5501
825.368	5311
825.508	5315
825.648	5349
825.787	5395
825.927	5334
826.067	5311
826.206	5296
826.346	5364
826.485	5387
826.625	5379
826.765	5547
826.904	5490
827.044	5197
827.183	5181
827.323	5102
827.462	5242
827.601	5124
827.741	5128
827.88	5258
828.02	5147
828.159	5250
828.298	5288
828.437	5353
828.577	5273
828.716	5452
828.855	5322
828.994	5227
829.134	5136
829.273	5151
829.412	5094
829.551	5113
829.69	5201
829.829	5299
829.968	5357
830.107	5250
830.246	5269
830.385	5155
830.524	5162
830.663	5086
830.802	4980
830.941	4866
831.08	4908
831.219	4957
831.357	4976
831.496	5147
831.635	4915
831.774	4812
831.913	4862
832.051	4759
832.19	4687
832.329	4801
832.467	4675
832.606	4687
832.744	4694
832.883	4687
833.022	4729
833.16	4790
833.299	4801
833.437	4820
833.576	4790
833.714	4801
833.852	4892
833.991	4908
834.129	4949
834.267	4915
834.406	4900
834.544	4930
834.682	4980
834.821	4908
834.959	5140
835.097	5022
835.235	5113
835.373	5086
835.511	5048
835.65	5033
835.788	4999
835.926	4870
836.064	4854
836.202	4877
836.34	5136
836.478	5208
836.615	5086
836.753	5239
836.891	5277
837.029	5242
837.167	5235
837.305	5159
837.443	5174
837.58	5052
837.718	5223
837.856	5185
837.993	5136
838.131	5174
838.269	5185
838.406	5239
838.544	5159
838.681	4999
838.819	4995
838.956	4892
839.094	4885
839.231	4987
839.369	5098
839.506	5387
839.643	5280
839.781	5102
839.918	5052
840.055	5060
840.193	5098
840.33	5178
840.467	5071
840.604	5197
840.742	5417
840.879	5086
841.016	5067
841.153	5113
841.29	5368
841.427	5353
841.564	5284
841.701	5368
841.838	5277
841.975	5208
842.112	5261
842.249	5189
842.385	5121
842.522	5318
842.659	5159
842.796	5105
842.933	5166
843.069	5155
843.206	5124
843.343	5311
843.479	5277
843.616	5334
843.752	5014
843.889	4961
844.025	5201
844.162	4995
844.298	5143
844.435	5113
844.571	5041
844.708	5216
844.844	5265
844.98	5273
845.117	5277
845.253	5143
845.389	5075
845.525	5136
845.661	5159
845.798	5022
845.934	5143
846.07	5056
846.206	5216
846.342	5258
846.478	5136
846.614	4968
846.75	4919
846.886	4938
847.022	5155
847.158	5033
847.294	5086
847.429	5041
847.565	5071
847.701	5303
847.837	4835
847.972	4790
848.108	4934
848.244	4953
848.379	4767
848.515	4767
848.65	4698
848.786	4782
848.921	4744
849.057	4858
849.192	4847
849.328	4790
849.463	4850
849.598	4752
849.734	4725
849.869	4645
850.004	4603
850.14	4653
850.275	4607
850.41	4519
850.545	4554
850.68	4573
850.815	4634
850.95	4660
851.085	4858
851.22	4691
851.355	4649
851.49	4573
851.625	4607
851.76	4630
851.895	4561
852.03	4531
852.165	4626
852.299	4706
852.434	4763
852.569	4767
852.703	4729
852.838	4843
852.973	4904
853.107	4919
853.242	4721
853.376	4698
853.511	4508
853.645	4615
853.78	4748
853.914	4691
854.048	4664
854.183	4641
854.317	4729
854.451	4843
854.585	4607
854.72	4588
854.854	4736
854.988	4561
855.122	4603
855.256	4519
855.39	4656
855.524	4782
855.658	4698
855.792	4691
855.926	4721
856.06	4752
856.194	4755
856.327	4691
856.461	4599
856.595	4634
856.729	4618
856.862	4710
856.996	4649
857.13	4710
857.263	4755
857.397	4786
857.53	4641
857.664	4706
857.797	4771
857.931	4740
858.064	4660
858.197	4729
858.331	4626
858.464	4580
858.597	4580
858.731	4599
858.864	4691
858.997	4577
859.13	4664
859.263	4664
859.396	4668
859.529	4611
859.662	4577
859.795	4508
859.928	4618
860.061	4740
860.194	4744
860.327	4607
860.46	4546
860.592	4733
860.725	4714
860.858	4717
860.99	4565
861.123	4535
861.256	4474
861.388	4561
861.521	5398
861.653	4440
861.786	4421
861.918	4428
862.05	4512
862.183	4531
862.315	4618
862.447	4660
862.58	4531
862.712	4417
862.844	4295
862.976	4500
863.108	4474
863.24	4748
863.372	4333
863.504	4421
863.636	4417
863.768	4459
863.9	4421
864.032	4337
864.164	4390
864.296	4500
864.428	4565
864.559	4546
864.691	4519
864.823	4489
864.954	4504
865.086	4500
865.217	4440
865.349	4421
865.48	4451
865.612	4493
865.743	4603
865.875	4470
866.006	4383
866.137	4470
866.269	4417
866.4	4436
866.531	4417
866.662	4360
866.793	4386
866.924	4398
867.055	4489
867.186	4466
867.317	4421
867.448	4367
867.579	4371
867.71	4371
867.841	4310
867.972	4440
868.103	4466
868.233	4428
868.364	4459
868.495	4443
868.625	4691
868.756	4748
868.886	4546
869.017	4611
869.147	4767
869.278	4763
869.408	4634
869.539	4592
869.669	4622
869.799	4645
869.929	4774
870.06	4710
870.19	4957
870.32	4908
870.45	4938
870.58	4949
870.71	5079
870.84	5109
870.97	4923
871.1	4839
871.23	5159
871.36	5124
871.489	5018
871.619	5083
871.749	5132
871.879	5086
872.008	5189
872.138	5056
872.267	4972
872.397	4809
872.526	4797
872.656	4694
872.785	4831
872.915	4953
873.044	5056
873.173	4927
873.303	4938
873.432	4946
873.561	4889
873.69	4892
873.819	4873
873.948	4923
874.077	4786
874.206	4782
874.335	4805
874.464	4915
874.593	4999
874.722	4946
874.851	5109
874.979	5025
875.108	5037
875.237	4835
875.365	4831
875.494	4881
875.623	4957
875.751	4847
875.88	4854
876.008	5014
876.136	4972
876.265	5174
876.393	5280
876.521	5227
876.65	5235
876.778	5159
876.906	5048
877.034	4968
877.162	4999
877.29	4980
877.418	5052
877.546	5041
877.674	5022
877.802	5006
877.93	4999
878.058	4900
878.185	4854
878.313	4968
878.441	4919
878.568	4797
878.696	4862
878.824	4938
878.951	4965
879.079	5113
879.206	5296
879.333	5048
879.461	4961
879.588	5003
879.715	5155
879.842	5174
879.97	4919
880.097	4740
880.224	4744
880.351	4820
880.478	4881
880.605	4755
880.732	4752
880.859	5075
880.986	4885
881.112	4896
881.239	4767
881.366	4626
881.493	4573
881.619	4565
881.746	4649
881.872	4599
881.999	4649
882.125	4637
882.252	4809
882.378	4782
882.505	4911
882.631	4759
882.757	4641
882.883	4729
883.01	4752
883.136	4660
883.262	4592
883.388	4622
883.514	4839
883.64	4870
883.766	4755
883.892	4626
884.018	4717
884.143	4839
884.269	5029
884.395	4683
884.52	4645
884.646	4618
884.772	4565
884.897	4554
885.023	4637
885.148	4782
885.274	4847
885.399	4778
885.524	4725
885.65	4683
885.775	4748
885.9	4717
886.025	4904
886.15	4733
886.275	4706
886.4	4668
886.525	4710
886.65	4668
886.775	4729
886.9	4927
887.025	5041
887.149	4801
887.274	4656
887.399	4554
887.523	4599
887.648	4603
887.773	4580
887.897	4771
888.021	4778
888.146	4748
888.27	4824
888.395	4896
888.519	4809
888.643	4778
888.767	4835
888.891	4668
889.015	4618
889.139	4687
889.263	4618
889.387	4831
889.511	4847
889.635	4839
889.759	4687
889.883	4637
890.006	4698
890.13	4801
890.254	4683
890.377	4698
890.501	4558
890.624	4554
890.748	4634
890.871	4512
890.995	4485
891.118	4432
891.241	4519
891.364	4626
891.488	4698
891.611	4538
891.734	4569
891.857	4637
891.98	4626
892.103	4694
892.226	4634
892.349	4550
892.471	4459
892.594	4599
892.717	4603
892.839	4634
892.962	4687
893.085	4725
893.207	4645
893.33	4481
893.452	4584
893.575	4771
893.697	4622
893.819	4877
893.941	4854
894.064	4816
894.186	4615
894.308	4626
894.43	4763
894.552	4896
894.674	4725
894.796	4565
894.918	4649
895.04	4588
895.161	4778
895.283	4721
895.405	4618
895.526	4649
895.648	4736
895.769	4679
895.891	4729
896.012	4752
896.134	4755
896.255	4725
896.376	4668
896.498	4542
896.619	4725
896.74	4622
896.861	4675
896.982	4938
897.103	5102
897.224	4885
897.345	4793
897.466	4668
897.587	4763
897.708	4862
897.828	4797
897.949	4706
898.07	4554
898.19	4679
898.311	4831
898.431	4702
898.552	4748
898.672	4854
898.792	4778
898.913	4721
899.033	4634
899.153	4584
899.273	4459
899.393	4508
899.513	4550
899.633	4580
899.753	4558
899.873	4527
899.993	4611
900.113	4558
900.232	4584
900.352	4580
900.472	4531
900.591	4379
900.711	4485
900.83	4436
900.95	4622
901.069	4725
901.189	4626
901.308	4375
901.427	4329
901.546	4413
901.665	4512
901.784	4550
901.904	4375
902.023	4386
902.141	4246
902.26	4173
902.379	4352
902.498	4261
902.617	4246
902.735	4383
902.854	4455
902.973	4375
903.091	4230
903.21	4234
903.328	4310
903.446	4341
903.565	4257
903.683	4348
903.801	4322
903.919	4455
904.038	4462
904.156	4379
904.274	4413
904.392	4394
904.51	4447
904.627	4508
904.745	4634
904.863	4698
904.981	4386
905.098	4299
905.216	4375
905.334	4455
905.451	4462
905.569	4481
905.686	4596
905.803	4615
905.921	4462
906.038	4607
906.155	4500
906.272	4417
906.389	4493
906.506	4360
906.623	4379
906.74	4402
906.857	4352
906.974	4405
907.091	4599
907.208	4710
907.324	4607
907.441	4538
907.557	4333
907.674	4394
907.79	4360
907.907	4344
908.023	4504
908.139	4516
908.256	4447
908.372	4481
908.488	4497
908.604	4424
908.72	4341
908.836	4379
908.952	4413
909.068	4466
909.184	4599
909.3	4523
909.415	4607
909.531	4599
909.647	4360
909.762	4413
909.878	4390
909.993	4512
910.108	4413
910.224	4432
910.339	4527
910.454	4413
910.57	4383
910.685	4303
910.8	4691
910.915	4656
911.03	4523
911.145	4329
911.259	4356
911.374	4394
911.489	4325
911.604	4291
911.718	4204
911.833	4223
911.947	4120
912.062	4021
912.176	4230
912.291	4257
912.405	4276
912.519	4493
912.633	4538
912.748	4409
912.862	4322
912.976	4211
913.09	4086
913.204	4238
913.318	4310
913.431	4405
913.545	4375
913.659	4447
913.772	4371
913.886	4234
914	4257
914.113	4394
914.226	4504
914.34	4383
914.453	4268
914.566	4489
914.68	4337
914.793	4325
914.906	4188
915.019	4173
915.132	4150
915.245	4207
915.358	4257
915.47	4272
915.583	4284
915.696	4291
915.809	4424
915.921	4413
916.034	4287
916.146	4230
916.259	4249
916.371	4413
916.483	4341
916.595	4291
916.708	4360
916.82	4337
916.932	4341
917.044	4379
917.156	4386
917.268	4303
917.38	4322
917.491	4287
917.603	4409
917.715	4394
917.826	4440
917.938	4352
918.049	4280
918.161	4417
918.272	4573
918.384	4546
918.495	4478
918.606	4268
918.717	4238
918.828	4428
918.939	4417
919.05	4291
919.161	4325
919.272	4166
919.383	4306
919.494	4466
919.604	4641
919.715	4436
919.826	4325
919.936	4478
920.047	4577
920.157	4519
920.267	4774
920.378	4550
920.488	4500
920.598	4717
920.708	4946
920.818	4839
920.928	4797
921.038	4915
921.148	4942
921.258	4618
921.368	4592
921.477	4531
921.587	4470
921.697	4386
921.806	4542
921.916	4424
922.025	4325
922.134	4303
922.244	4230
922.353	4383
922.462	4223
922.571	4128
922.68	4051
922.789	3987
922.898	4029
923.007	3998
923.116	4169
923.224	4044
923.333	4116
923.442	3979
923.55	4013
923.659	4051
923.767	4109
923.876	4032
923.984	4139
924.092	4025
924.201	4051
924.309	4128
924.417	4112
924.525	4093
924.633	4116
924.741	5052
924.849	3972
924.956	4131
925.064	3972
925.172	3926
925.279	4002
925.387	4071
925.494	4097
925.602	4261
925.709	4181
925.816	4044
925.924	4154
926.031	4207
926.138	4169
926.245	4223
926.352	4116
926.459	4272
926.566	4299
926.673	4154
926.779	4071
926.886	4067
926.993	3960
927.099	3941
927.206	3922
927.312	3964
927.419	4097
927.525	4097
927.631	4124
927.737	3937
927.843	3968
927.95	3873
928.056	4006
928.162	3991
928.267	4101
928.373	4637
928.479	4105
928.585	3918
928.69	4044
928.796	4082
928.901	4002
929.007	3903
929.112	4044
929.218	3972
929.323	3972
929.428	3972
929.533	4147
929.638	3918
929.743	3994
929.848	4048
929.953	3987
930.058	3918
930.163	3816
930.267	3892
930.372	3983
930.477	3804
930.581	4078
930.685	3975
930.79	3846
930.894	3876
930.998	3854
931.103	4029
931.207	3785
931.311	3705
931.415	3679
931.519	3545
931.623	3561
