Data from test_V78500241_2334.txt Node
Date: Fri Mar 25 17:05:13 CST 2022
User: usil
Spectrometer: V785-0024
Trigger mode: 0
Integration Time (sec): 4.000000E-1
Scans to average: 1
Nonlinearity correction enabled: false
Boxcar width: 0
Storing dark spectrum: false
XAxis mode: Wavelengths
Number of Pixels in Spectrum: 1024
>>>>>Begin Spectral Data<<<<<
801.071	7970
801.214	7978
801.356	7837
801.499	7776
801.641	7803
801.783	7780
801.926	7894
802.068	7993
802.211	8024
802.353	8027
802.496	7849
802.638	7792
802.78	7890
802.923	7887
803.065	7864
803.208	7849
803.35	8005
803.492	8069
803.635	8191
803.777	8031
803.919	8134
804.061	8355
804.204	8145
804.346	8065
804.488	7986
804.63	8111
804.773	8005
804.915	8096
805.057	8305
805.199	8161
805.341	8191
805.483	8237
805.626	8233
805.768	8145
805.91	8195
806.052	8237
806.194	8111
806.336	8275
806.478	8092
806.62	8115
806.762	8119
806.904	8275
807.046	8385
807.188	8336
807.33	8313
807.472	8343
807.614	8218
807.756	8210
807.898	7989
808.04	7856
808.182	7890
808.324	7852
808.465	7826
808.607	8020
808.749	8100
808.891	8180
809.033	8279
809.174	8183
809.316	8050
809.458	8123
809.6	7967
809.741	7989
809.883	8012
810.025	8103
810.166	8008
810.308	7993
810.45	7986
810.591	7875
810.733	7727
810.875	7643
811.016	7552
811.158	7426
811.299	7544
811.441	7696
811.582	7666
811.724	7552
811.865	7533
812.007	7575
812.148	7624
812.29	7601
812.431	7719
812.573	7883
812.714	8012
812.855	8103
812.997	8168
813.138	8294
813.279	8130
813.421	8077
813.562	7890
813.703	7837
813.845	7712
813.986	7422
814.127	7316
814.268	7217
814.41	7133
814.551	7129
814.692	7255
814.833	7072
814.974	7095
815.115	7088
815.256	6966
815.397	6913
815.539	6954
815.68	6760
815.821	6753
815.962	6920
816.103	6783
816.244	6703
816.385	6620
816.526	6563
816.666	6532
816.807	6262
816.948	6456
817.089	6437
817.23	6467
817.371	6384
817.512	6334
817.653	6384
817.793	6315
817.934	6365
818.075	6441
818.216	6414
818.356	6376
818.497	6220
818.638	6114
818.778	6167
818.919	6087
819.06	6190
819.2	6289
819.341	6304
819.481	6357
819.622	6563
819.762	6764
819.903	6681
820.043	6563
820.184	6593
820.324	6555
820.465	6658
820.605	6681
820.746	6639
820.886	6479
821.026	6665
821.167	6711
821.307	6779
821.447	6787
821.588	6700
821.728	6601
821.868	6502
822.008	6357
822.149	6403
822.289	6353
822.429	6163
822.569	6102
822.709	6133
822.849	5931
822.99	5931
823.13	5882
823.27	5958
823.41	5832
823.55	5786
823.69	5745
823.83	5714
823.97	5589
824.11	5516
824.25	5528
824.389	5570
824.529	5589
824.669	5516
824.809	5615
824.949	5672
825.089	5604
825.228	5558
825.368	5444
825.508	5383
825.648	5349
825.787	5337
825.927	5391
826.067	5265
826.206	5288
826.346	5421
826.485	5436
826.625	5398
826.765	5581
826.904	5452
827.044	5246
827.183	5212
827.323	5143
827.462	5216
827.601	5162
827.741	5189
827.88	5265
828.02	5098
828.159	5265
828.298	5322
828.437	5353
828.577	5322
828.716	5417
828.855	5303
828.994	5140
829.134	5140
829.273	5204
829.412	5136
829.551	5132
829.69	5147
829.829	5280
829.968	5387
830.107	5242
830.246	5315
830.385	5204
830.524	5159
830.663	5071
830.802	4991
830.941	4858
831.08	4843
831.219	4995
831.357	4980
831.496	5094
831.635	4946
831.774	4843
831.913	4809
832.051	4717
832.19	4698
832.329	4881
832.467	4698
832.606	4645
832.744	4721
832.883	4721
833.022	4729
833.16	4843
833.299	4839
833.437	4816
833.576	4816
833.714	4870
833.852	4843
833.991	4881
834.129	4972
834.267	4904
834.406	4919
834.544	4961
834.682	4972
834.821	4984
834.959	5121
835.097	5048
835.235	5136
835.373	5071
835.511	5102
835.65	5003
835.788	4987
835.926	4892
836.064	4847
836.202	4881
836.34	5201
836.478	5197
836.615	5124
836.753	5166
836.891	5280
837.029	5296
837.167	5155
837.305	5128
837.443	5117
837.58	5105
837.718	5250
837.856	5181
837.993	5132
838.131	5231
838.269	5220
838.406	5223
838.544	5140
838.681	5041
838.819	5022
838.956	4889
839.094	4885
839.231	4946
839.369	5083
839.506	5414
839.643	5261
839.781	5079
839.918	5083
840.055	5071
840.193	5052
840.33	5102
840.467	5117
840.604	5170
840.742	5410
840.879	5075
841.016	5025
841.153	5143
841.29	5337
841.427	5349
841.564	5307
841.701	5391
841.838	5273
841.975	5227
842.112	5220
842.249	5124
842.385	5090
842.522	5357
842.659	5212
842.796	5102
842.933	5204
843.069	5117
843.206	5162
843.343	5296
843.479	5265
843.616	5273
843.752	5052
843.889	4972
844.025	5250
844.162	5037
844.298	5239
844.435	5083
844.571	5064
844.708	5235
844.844	5258
844.98	5349
845.117	5284
845.253	5117
845.389	5086
845.525	5132
845.661	5185
845.798	5071
845.934	5132
846.07	5052
846.206	5159
846.342	5261
846.478	5162
846.614	5060
846.75	4949
846.886	4930
847.022	5174
847.158	5010
847.294	5067
847.429	5079
847.565	5022
847.701	5269
847.837	4862
847.972	4782
848.108	4934
848.244	4949
848.379	4805
848.515	4706
848.65	4763
848.786	4702
848.921	4744
849.057	4828
849.192	4900
849.328	4774
849.463	4858
849.598	4782
849.734	4759
849.869	4710
850.004	4618
850.14	4679
850.275	4637
850.41	4493
850.545	4569
850.68	4596
850.815	4649
850.95	4622
851.085	4847
851.22	4702
851.355	4679
851.49	4611
851.625	4660
851.76	4622
851.895	4550
852.03	4519
852.165	4611
852.299	4725
852.434	4805
852.569	4714
852.703	4805
852.838	4870
852.973	4911
853.107	4904
853.242	4687
853.376	4653
853.511	4573
853.645	4641
853.78	4854
853.914	4687
854.048	4634
854.183	4618
854.317	4694
854.451	4885
854.585	4645
854.72	4611
854.854	4714
854.988	4653
855.122	4584
855.256	4500
855.39	4649
855.524	4801
855.658	4710
855.792	4714
855.926	4706
856.06	4759
856.194	4801
856.327	4672
856.461	4615
856.595	4675
856.729	4615
856.862	4733
856.996	4710
857.13	4740
857.263	4778
857.397	4782
857.53	4710
857.664	4714
857.797	4740
857.931	4759
858.064	4694
858.197	4744
858.331	4653
858.464	4573
858.597	4504
858.731	4599
858.864	4683
858.997	4599
859.13	4641
859.263	4691
859.396	4653
859.529	4573
859.662	4519
859.795	4554
859.928	4637
860.061	4733
860.194	4736
860.327	4592
860.46	4561
860.592	4717
860.725	4698
860.858	4725
860.99	4577
861.123	4558
861.256	4470
861.388	4622
861.521	5391
861.653	4493
861.786	4474
861.918	4447
862.05	4512
862.183	4527
862.315	4656
862.447	4611
862.58	4558
862.712	4421
862.844	4310
862.976	4436
863.108	4451
863.24	4850
863.372	4371
863.504	4424
863.636	4409
863.768	4459
863.9	4443
864.032	4341
864.164	4394
864.296	4447
864.428	4550
864.559	4527
864.691	4538
864.823	4497
864.954	4523
865.086	4527
865.217	4451
865.349	4428
865.48	4432
865.612	4500
865.743	4592
865.875	4497
866.006	4421
866.137	4436
866.269	4462
866.4	4440
866.531	4424
866.662	4436
866.793	4432
866.924	4383
867.055	4497
867.186	4443
867.317	4421
867.448	4348
867.579	4363
867.71	4379
867.841	4360
867.972	4455
868.103	4481
868.233	4466
868.364	4386
868.495	4478
868.625	4675
868.756	4740
868.886	4596
869.017	4573
869.147	4744
869.278	4740
869.408	4675
869.539	4637
869.669	4706
869.799	4675
869.929	4763
870.06	4759
870.19	4942
870.32	4877
870.45	4915
870.58	4995
870.71	5052
870.84	5075
870.97	4961
871.1	4889
871.23	5181
871.36	5113
871.489	5048
871.619	5064
871.749	5098
871.879	5155
872.008	5170
872.138	5029
872.267	4980
872.397	4843
872.526	4824
872.656	4694
872.785	4778
872.915	4946
873.044	5052
873.173	4904
873.303	4949
873.432	4942
873.561	4965
873.69	4858
873.819	4866
873.948	4923
874.077	4793
874.206	4793
874.335	4831
874.464	4957
874.593	5052
874.722	4999
874.851	5105
874.979	5075
875.108	5045
875.237	4923
875.365	4839
875.494	4873
875.623	4946
875.751	4805
875.88	4858
876.008	4938
876.136	5037
876.265	5181
876.393	5345
876.521	5220
876.65	5170
876.778	5128
876.906	5090
877.034	4995
877.162	4984
877.29	4999
877.418	5006
877.546	5041
877.674	5060
877.802	5006
877.93	4991
878.058	4915
878.185	4908
878.313	4965
878.441	4987
878.568	4828
878.696	4908
878.824	4972
878.951	4999
879.079	5083
879.206	5246
879.333	5067
879.461	4995
879.588	4938
879.715	5098
879.842	5235
879.97	4999
880.097	4828
880.224	4752
880.351	4759
880.478	4828
880.605	4820
880.732	4790
880.859	5083
880.986	4904
881.112	4904
881.239	4767
881.366	4637
881.493	4565
881.619	4569
881.746	4618
881.872	4637
881.999	4683
882.125	4656
882.252	4748
882.378	4801
882.505	5010
882.631	4809
882.757	4664
882.883	4683
883.01	4706
883.136	4664
883.262	4580
883.388	4603
883.514	4771
883.64	4824
883.766	4733
883.892	4603
884.018	4714
884.143	4881
884.269	5022
884.395	4664
884.52	4645
884.646	4630
884.772	4596
884.897	4527
885.023	4672
885.148	4729
885.274	4885
885.399	4767
885.524	4714
885.65	4656
885.775	4725
885.9	4679
886.025	4847
886.15	4759
886.275	4675
886.4	4698
886.525	4729
886.65	4664
886.775	4687
886.9	4896
887.025	5033
887.149	4839
887.274	4660
887.399	4592
887.523	4622
887.648	4611
887.773	4584
887.897	4759
888.021	4759
888.146	4626
888.27	4809
888.395	4930
888.519	4820
888.643	4812
888.767	4809
888.891	4683
889.015	4618
889.139	4668
889.263	4596
889.387	4725
889.511	4835
889.635	4752
889.759	4649
889.883	4626
890.006	4694
890.13	4824
890.254	4618
890.377	4694
890.501	4546
890.624	4485
890.748	4584
890.871	4481
890.995	4432
891.118	4398
891.241	4489
891.364	4485
891.488	4592
891.611	4508
891.734	4504
891.857	4592
891.98	4592
892.103	4694
892.226	4500
892.349	4523
892.471	4417
892.594	4497
892.717	4565
892.839	4580
892.962	4611
893.085	4656
893.207	4626
893.33	4493
893.452	4508
893.575	4626
893.697	4558
893.819	4774
893.941	4797
894.064	4755
894.186	4538
894.308	4558
894.43	4748
894.552	4816
894.674	4847
894.796	4588
894.918	4596
895.04	4603
895.161	4694
895.283	4599
895.405	4573
895.526	4599
895.648	4668
895.769	4641
895.891	4706
896.012	4687
896.134	4710
896.255	4694
896.376	4668
896.498	4588
896.619	4626
896.74	4592
896.861	4615
896.982	4896
897.103	5079
897.224	4771
897.345	4691
897.466	4641
897.587	4721
897.708	4824
897.828	4759
897.949	4668
898.07	4500
898.19	4645
898.311	4870
898.431	4645
898.552	4763
898.672	4843
898.792	4748
898.913	4691
899.033	4596
899.153	4462
899.273	4398
899.393	4455
899.513	4504
899.633	4550
899.753	4531
899.873	4538
899.993	4538
900.113	4512
900.232	4607
900.352	4485
900.472	4493
900.591	4405
900.711	4474
900.83	4451
900.95	4596
901.069	4683
901.189	4462
901.308	4394
901.427	4310
901.546	4379
901.665	4497
901.784	4497
901.904	4398
902.023	4333
902.141	4169
902.26	4135
902.379	4287
902.498	4234
902.617	4223
902.735	4405
902.854	4405
902.973	4413
903.091	4223
903.21	4230
903.328	4344
903.446	4253
903.565	4280
903.683	4363
903.801	4287
903.919	4409
904.038	4489
904.156	4352
904.274	4409
904.392	4459
904.51	4421
904.627	4538
904.745	4558
904.863	4607
904.981	4481
905.098	4341
905.216	4405
905.334	4481
905.451	4489
905.569	4516
905.686	4573
905.803	4558
905.921	4421
906.038	4588
906.155	4531
906.272	4413
906.389	4481
906.506	4417
906.623	4436
906.74	4394
906.857	4341
906.974	4447
907.091	4588
907.208	4691
907.324	4603
907.441	4542
907.557	4398
907.674	4390
907.79	4394
907.907	4489
908.023	4550
908.139	4504
908.256	4474
908.372	4516
908.488	4493
908.604	4375
908.72	4402
908.836	4428
908.952	4440
909.068	4481
909.184	4618
909.3	4508
909.415	4649
909.531	4607
909.647	4371
909.762	4436
909.878	4363
909.993	4474
910.108	4443
910.224	4421
910.339	4504
910.454	4455
910.57	4424
910.685	4405
910.8	4714
910.915	4622
911.03	4538
911.145	4356
911.259	4363
911.374	4386
911.489	4284
911.604	4329
911.718	4196
911.833	4284
911.947	4116
912.062	4101
912.176	4242
912.291	4238
912.405	4272
912.519	4485
912.633	4546
912.748	4421
912.862	4405
912.976	4200
913.09	4135
913.204	4196
913.318	4265
913.431	4394
913.545	4383
913.659	4466
913.772	4398
913.886	4287
914	4215
914.113	4455
914.226	4489
914.34	4497
914.453	4257
914.566	4497
914.68	4341
914.793	4367
914.906	4200
915.019	4200
915.132	4135
915.245	4219
915.358	4253
915.47	4268
915.583	4280
915.696	4310
915.809	4459
915.921	4459
916.034	4287
916.146	4280
916.259	4253
916.371	4356
916.483	4402
916.595	4268
916.708	4379
916.82	4402
916.932	4360
917.044	4352
917.156	4318
917.268	4291
917.38	4261
917.491	4348
917.603	4409
917.715	4443
917.826	4451
917.938	4344
918.049	4314
918.161	4424
918.272	4569
918.384	4542
918.495	4459
918.606	4329
918.717	4272
918.828	4383
918.939	4383
919.05	4310
919.161	4363
919.272	4227
919.383	4272
919.494	4440
919.604	4694
919.715	4493
919.826	4375
919.936	4440
920.047	4565
920.157	4531
920.267	4744
920.378	4558
920.488	4527
920.598	4744
920.708	4923
920.818	4778
920.928	4793
921.038	4976
921.148	4968
921.258	4691
921.368	4615
921.477	4538
921.587	4493
921.697	4436
921.806	4531
921.916	4519
922.025	4299
922.134	4310
922.244	4265
922.353	4344
922.462	4238
922.571	4188
922.68	4036
922.789	4051
922.898	4051
923.007	4086
923.116	4116
923.224	4124
923.333	4097
923.442	4055
923.55	4017
923.659	4017
923.767	4124
923.876	4040
923.984	4154
924.092	4021
924.201	4139
924.309	4135
924.417	4162
924.525	4086
924.633	4120
924.741	5045
924.849	3937
924.956	4143
925.064	4036
925.172	3964
925.279	4006
925.387	4078
925.494	4059
925.602	4223
925.709	4181
925.816	4074
925.924	4188
926.031	4253
926.138	4204
926.245	4246
926.352	4112
926.459	4325
926.566	4379
926.673	4181
926.779	4082
926.886	4105
926.993	4048
927.099	4010
927.206	3998
927.312	3941
927.419	4109
927.525	4063
927.631	4105
927.737	3979
927.843	3983
927.95	3876
928.056	3998
928.162	4025
928.267	4067
928.373	4599
928.479	4143
928.585	3896
928.69	4059
928.796	4128
928.901	3960
929.007	3892
929.112	4044
929.218	4032
929.323	3994
929.428	3937
929.533	4128
929.638	3934
929.743	4006
929.848	4086
929.953	4040
930.058	3941
930.163	3831
930.267	3842
930.372	4006
930.477	3857
930.581	4131
930.685	3994
930.79	3827
930.894	3937
930.998	3956
931.103	4078
931.207	3728
931.311	3720
931.415	3713
931.519	3553
931.623	3576
