Data from test_V78500241_1415.txt Node
Date: Fri Mar 25 16:58:50 CST 2022
User: usil
Spectrometer: V785-0024
Trigger mode: 0
Integration Time (sec): 4.000000E-1
Scans to average: 1
Nonlinearity correction enabled: false
Boxcar width: 0
Storing dark spectrum: false
XAxis mode: Wavelengths
Number of Pixels in Spectrum: 1024
>>>>>Begin Spectral Data<<<<<
801.071	7921
801.214	7959
801.356	7833
801.499	7841
801.641	7776
801.783	7799
801.926	7986
802.068	7928
802.211	7898
802.353	7955
802.496	7814
802.638	7868
802.78	7936
802.923	7986
803.065	7852
803.208	7849
803.35	7986
803.492	8077
803.635	8263
803.777	8016
803.919	8161
804.061	8419
804.204	8119
804.346	8062
804.488	7944
804.63	8138
804.773	8050
804.915	8073
805.057	8267
805.199	8126
805.341	8199
805.483	8275
805.626	8259
805.768	8149
805.91	8180
806.052	8187
806.194	8050
806.336	8259
806.478	8153
806.62	7993
806.762	8153
806.904	8248
807.046	8503
807.188	8336
807.33	8267
807.472	8298
807.614	8172
807.756	8100
807.898	7978
808.04	7909
808.182	7894
808.324	7852
808.465	7913
808.607	8027
808.749	8130
808.891	8168
809.033	8279
809.174	8164
809.316	7974
809.458	8012
809.6	7940
809.741	8020
809.883	8020
810.025	8123
810.166	8062
810.308	8001
810.45	7982
810.591	7879
810.733	7734
810.875	7632
811.016	7537
811.158	7529
811.299	7575
811.441	7636
811.582	7693
811.724	7563
811.865	7518
812.007	7582
812.148	7609
812.29	7655
812.431	7723
812.573	7795
812.714	8035
812.855	8081
812.997	8221
813.138	8290
813.279	8206
813.421	8100
813.562	7951
813.703	7818
813.845	7651
813.986	7373
814.127	7259
814.268	7266
814.41	7175
814.551	7160
814.692	7171
814.833	7095
814.974	7095
815.115	7118
815.256	6970
815.397	6977
815.539	6939
815.68	6798
815.821	6821
815.962	6856
816.103	6859
816.244	6700
816.385	6608
816.526	6582
816.666	6498
816.807	6319
816.948	6422
817.089	6452
817.23	6365
817.371	6338
817.512	6357
817.653	6350
817.793	6357
817.934	6418
818.075	6426
818.216	6414
818.356	6403
818.497	6247
818.638	6102
818.778	6117
818.919	6087
819.06	6163
819.2	6327
819.341	6296
819.481	6372
819.622	6513
819.762	6688
819.903	6665
820.043	6604
820.184	6570
820.324	6570
820.465	6719
820.605	6639
820.746	6608
820.886	6547
821.026	6658
821.167	6681
821.307	6837
821.447	6760
821.588	6673
821.728	6540
821.868	6433
822.008	6331
822.149	6308
822.289	6331
822.429	6148
822.569	6114
822.709	6091
822.849	5908
822.99	5954
823.13	5897
823.27	5878
823.41	5794
823.55	5779
823.69	5756
823.83	5794
823.97	5627
824.11	5512
824.25	5459
824.389	5532
824.529	5562
824.669	5532
824.809	5600
824.949	5653
825.089	5608
825.228	5448
825.368	5391
825.508	5273
825.648	5357
825.787	5376
825.927	5417
826.067	5303
826.206	5242
826.346	5379
826.485	5398
826.625	5414
826.765	5592
826.904	5402
827.044	5231
827.183	5178
827.323	5094
827.462	5189
827.601	5121
827.741	5121
827.88	5223
828.02	5166
828.159	5258
828.298	5242
828.437	5299
828.577	5284
828.716	5433
828.855	5345
828.994	5143
829.134	5098
829.273	5166
829.412	5109
829.551	5102
829.69	5124
829.829	5181
829.968	5368
830.107	5201
830.246	5212
830.385	5151
830.524	5094
830.663	5071
830.802	4991
830.941	4896
831.08	4934
831.219	4968
831.357	4953
831.496	5090
831.635	4946
831.774	4873
831.913	4828
832.051	4748
832.19	4744
832.329	4797
832.467	4660
832.606	4645
832.744	4683
832.883	4733
833.022	4721
833.16	4748
833.299	4809
833.437	4866
833.576	4831
833.714	4801
833.852	4908
833.991	4900
834.129	5014
834.267	4919
834.406	4862
834.544	4953
834.682	4923
834.821	4949
834.959	5109
835.097	4976
835.235	5121
835.373	5033
835.511	5064
835.65	5014
835.788	4995
835.926	4866
836.064	4896
836.202	4889
836.34	5132
836.478	5216
836.615	5048
836.753	5170
836.891	5231
837.029	5250
837.167	5216
837.305	5155
837.443	5086
837.58	5041
837.718	5246
837.856	5170
837.993	5086
838.131	5193
838.269	5258
838.406	5193
838.544	5239
838.681	5067
838.819	5041
838.956	4835
839.094	4885
839.231	4927
839.369	5109
839.506	5364
839.643	5254
839.781	5041
839.918	4984
840.055	5094
840.193	5064
840.33	5056
840.467	5140
840.604	5159
840.742	5421
840.879	5121
841.016	5010
841.153	5083
841.29	5311
841.427	5337
841.564	5311
841.701	5307
841.838	5223
841.975	5216
842.112	5254
842.249	5128
842.385	5117
842.522	5299
842.659	5121
842.796	5143
842.933	5174
843.069	5181
843.206	5128
843.343	5254
843.479	5201
843.616	5235
843.752	4987
843.889	4995
844.025	5212
844.162	4980
844.298	5136
844.435	5075
844.571	5060
844.708	5151
844.844	5284
844.98	5311
845.117	5284
845.253	5121
845.389	4984
845.525	5155
845.661	5147
845.798	5010
845.934	5105
846.07	5067
846.206	5147
846.342	5197
846.478	5124
846.614	5052
846.75	4946
846.886	4892
847.022	5090
847.158	5010
847.294	5010
847.429	5003
847.565	5052
847.701	5318
847.837	4835
847.972	4816
848.108	4968
848.244	4904
848.379	4725
848.515	4694
848.65	4691
848.786	4717
848.921	4774
849.057	4858
849.192	4911
849.328	4778
849.463	4835
849.598	4782
849.734	4725
849.869	4618
850.004	4649
850.14	4630
850.275	4558
850.41	4561
850.545	4603
850.68	4592
850.815	4622
850.95	4542
851.085	4824
851.22	4759
851.355	4721
851.49	4596
851.625	4611
851.76	4626
851.895	4535
852.03	4542
852.165	4630
852.299	4714
852.434	4744
852.569	4740
852.703	4740
852.838	4839
852.973	4873
853.107	4885
853.242	4759
853.376	4607
853.511	4500
853.645	4584
853.78	4824
853.914	4706
854.048	4668
854.183	4630
854.317	4691
854.451	4847
854.585	4630
854.72	4634
854.854	4767
854.988	4588
855.122	4649
855.256	4497
855.39	4675
855.524	4702
855.658	4687
855.792	4714
855.926	4710
856.06	4679
856.194	4748
856.327	4710
856.461	4615
856.595	4607
856.729	4584
856.862	4717
856.996	4683
857.13	4694
857.263	4763
857.397	4733
857.53	4603
857.664	4748
857.797	4759
857.931	4717
858.064	4691
858.197	4721
858.331	4626
858.464	4580
858.597	4489
858.731	4611
858.864	4615
858.997	4584
859.13	4675
859.263	4599
859.396	4733
859.529	4558
859.662	4573
859.795	4535
859.928	4603
860.061	4748
860.194	4729
860.327	4577
860.46	4546
860.592	4702
860.725	4660
860.858	4694
860.99	4546
861.123	4470
861.256	4500
861.388	4615
861.521	5391
861.653	4500
861.786	4440
861.918	4447
862.05	4542
862.183	4542
862.315	4603
862.447	4637
862.58	4554
862.712	4375
862.844	4333
862.976	4459
863.108	4459
863.24	4831
863.372	4379
863.504	4417
863.636	4398
863.768	4443
863.9	4386
864.032	4402
864.164	4333
864.296	4447
864.428	4527
864.559	4542
864.691	4504
864.823	4508
864.954	4474
865.086	4436
865.217	4462
865.349	4337
865.48	4462
865.612	4470
865.743	4584
865.875	4379
866.006	4390
866.137	4462
866.269	4443
866.4	4451
866.531	4421
866.662	4447
866.793	4421
866.924	4398
867.055	4466
867.186	4424
867.317	4375
867.448	4341
867.579	4360
867.71	4402
867.841	4333
867.972	4440
868.103	4470
868.233	4443
868.364	4470
868.495	4508
868.625	4679
868.756	4809
868.886	4554
869.017	4637
869.147	4767
869.278	4774
869.408	4675
869.539	4653
869.669	4736
869.799	4675
869.929	4744
870.06	4774
870.19	4934
870.32	4911
870.45	4942
870.58	5056
870.71	5147
870.84	5060
870.97	4949
871.1	4900
871.23	5189
871.36	5155
871.489	5071
871.619	5052
871.749	5121
871.879	5121
872.008	5189
872.138	5083
872.267	5022
872.397	4839
872.526	4809
872.656	4767
872.785	4839
872.915	4972
873.044	5025
873.173	4976
873.303	4995
873.432	5006
873.561	4965
873.69	4976
873.819	4858
873.948	4946
874.077	4866
874.206	4820
874.335	4835
874.464	4915
874.593	5056
874.722	4965
874.851	5151
874.979	5105
875.108	5113
875.237	4908
875.365	4938
875.494	4942
875.623	5048
875.751	4862
875.88	4972
876.008	5025
876.136	5025
876.265	5216
876.393	5410
876.521	5269
876.65	5250
876.778	5201
876.906	5143
877.034	4972
877.162	5109
877.29	5003
877.418	5124
877.546	5060
877.674	5025
877.802	5041
877.93	5033
878.058	4968
878.185	4862
878.313	4999
878.441	4972
878.568	4862
878.696	4831
878.824	4995
878.951	5006
879.079	5162
879.206	5303
879.333	5102
879.461	5006
879.588	5045
879.715	5147
879.842	5166
879.97	5025
880.097	4812
880.224	4706
880.351	4786
880.478	4873
880.605	4801
880.732	4854
880.859	5155
880.986	4889
881.112	4908
881.239	4839
881.366	4702
881.493	4603
881.619	4599
881.746	4672
881.872	4694
881.999	4698
882.125	4733
882.252	4790
882.378	4797
882.505	5003
882.631	4824
882.757	4691
882.883	4740
883.01	4809
883.136	4660
883.262	4649
883.388	4675
883.514	4835
883.64	4885
883.766	4854
883.892	4782
884.018	4687
884.143	4923
884.269	5041
884.395	4729
884.52	4649
884.646	4645
884.772	4656
884.897	4592
885.023	4702
885.148	4778
885.274	4839
885.399	4755
885.524	4702
885.65	4759
885.775	4778
885.9	4740
886.025	4927
886.15	4782
886.275	4752
886.4	4694
886.525	4729
886.65	4748
886.775	4744
886.9	4968
887.025	5045
887.149	4820
887.274	4634
887.399	4596
887.523	4630
887.648	4592
887.773	4596
887.897	4733
888.021	4805
888.146	4698
888.27	4839
888.395	4923
888.519	4847
888.643	4797
888.767	4847
888.891	4687
889.015	4588
889.139	4637
889.263	4637
889.387	4820
889.511	4911
889.635	4805
889.759	4672
889.883	4641
890.006	4736
890.13	4812
890.254	4645
890.377	4733
890.501	4588
890.624	4561
890.748	4668
890.871	4584
890.995	4443
891.118	4394
891.241	4535
891.364	4596
891.488	4675
891.611	4489
891.734	4630
891.857	4622
891.98	4577
892.103	4645
892.226	4656
892.349	4531
892.471	4455
892.594	4622
892.717	4618
892.839	4630
892.962	4611
893.085	4736
893.207	4596
893.33	4481
893.452	4618
893.575	4664
893.697	4603
893.819	4763
893.941	4828
894.064	4847
894.186	4611
894.308	4588
894.43	4778
894.552	4850
894.674	4774
894.796	4577
894.918	4607
895.04	4603
895.161	4717
895.283	4675
895.405	4611
895.526	4672
895.648	4736
895.769	4736
895.891	4736
896.012	4725
896.134	4733
896.255	4687
896.376	4637
896.498	4637
896.619	4763
896.74	4675
896.861	4649
896.982	4946
897.103	5136
897.224	4850
897.345	4786
897.466	4630
897.587	4721
897.708	4889
897.828	4843
897.949	4668
898.07	4584
898.19	4649
898.311	4873
898.431	4706
898.552	4748
898.672	4862
898.792	4793
898.913	4717
899.033	4691
899.153	4550
899.273	4478
899.393	4493
899.513	4565
899.633	4466
899.753	4603
899.873	4523
899.993	4611
900.113	4504
900.232	4596
900.352	4542
900.472	4485
900.591	4394
900.711	4546
900.83	4462
900.95	4626
901.069	4740
901.189	4603
901.308	4390
901.427	4371
901.546	4409
901.665	4531
901.784	4558
901.904	4436
902.023	4360
902.141	4219
902.26	4177
902.379	4341
902.498	4295
902.617	4223
902.735	4405
902.854	4417
902.973	4386
903.091	4238
903.21	4322
903.328	4337
903.446	4310
903.565	4268
903.683	4375
903.801	4265
903.919	4424
904.038	4421
904.156	4325
904.274	4436
904.392	4413
904.51	4478
904.627	4535
904.745	4618
904.863	4687
904.981	4413
905.098	4341
905.216	4383
905.334	4466
905.451	4462
905.569	4443
905.686	4577
905.803	4603
905.921	4405
906.038	4546
906.155	4569
906.272	4405
906.389	4481
906.506	4360
906.623	4383
906.74	4375
906.857	4367
906.974	4394
907.091	4588
907.208	4664
907.324	4634
907.441	4481
907.557	4371
907.674	4405
907.79	4322
907.907	4417
908.023	4474
908.139	4512
908.256	4478
908.372	4481
908.488	4424
908.604	4394
908.72	4325
908.836	4402
908.952	4356
909.068	4436
909.184	4626
909.3	4561
909.415	4607
909.531	4561
909.647	4375
909.762	4398
909.878	4363
909.993	4424
910.108	4447
910.224	4428
910.339	4470
910.454	4394
910.57	4356
910.685	4356
910.8	4706
910.915	4634
911.03	4470
911.145	4367
911.259	4337
911.374	4356
911.489	4310
911.604	4306
911.718	4219
911.833	4196
911.947	4101
912.062	4040
912.176	4265
912.291	4249
912.405	4249
912.519	4470
912.633	4519
912.748	4413
912.862	4363
912.976	4246
913.09	4093
913.204	4173
913.318	4284
913.431	4383
913.545	4325
913.659	4481
913.772	4390
913.886	4253
914	4246
914.113	4394
914.226	4493
914.34	4379
914.453	4265
914.566	4466
914.68	4310
914.793	4356
914.906	4154
915.019	4154
915.132	4101
915.245	4158
915.358	4223
915.47	4227
915.583	4234
915.696	4333
915.809	4478
915.921	4432
916.034	4242
916.146	4246
916.259	4204
916.371	4352
916.483	4367
916.595	4314
916.708	4280
916.82	4352
916.932	4356
917.044	4337
917.156	4295
917.268	4261
917.38	4325
917.491	4337
917.603	4322
917.715	4417
917.826	4417
917.938	4356
918.049	4257
918.161	4390
918.272	4565
918.384	4550
918.495	4443
918.606	4310
918.717	4291
918.828	4333
918.939	4417
919.05	4249
919.161	4318
919.272	4097
919.383	4223
919.494	4481
919.604	4645
919.715	4424
919.826	4367
919.936	4428
920.047	4565
920.157	4558
920.267	4698
920.378	4538
920.488	4546
920.598	4687
920.708	4904
920.818	4778
920.928	4831
921.038	4938
921.148	4942
921.258	4668
921.368	4596
921.477	4470
921.587	4535
921.697	4379
921.806	4535
921.916	4451
922.025	4310
922.134	4249
922.244	4207
922.353	4356
922.462	4219
922.571	4101
922.68	4044
922.789	4036
922.898	4048
923.007	4059
923.116	4120
923.224	4120
923.333	4082
923.442	4006
923.55	4010
923.659	3979
923.767	4093
923.876	3998
923.984	4135
924.092	3998
924.201	4124
924.309	4086
924.417	4192
924.525	4051
924.633	4154
924.741	5010
924.849	3949
924.956	4131
925.064	3968
925.172	3960
925.279	4025
925.387	4025
925.494	4059
925.602	4207
925.709	4192
925.816	4055
925.924	4166
926.031	4211
926.138	4173
926.245	4207
926.352	4090
926.459	4280
926.566	4268
926.673	4116
926.779	4109
926.886	4063
926.993	3968
927.099	3994
927.206	3934
927.312	3918
927.419	4055
927.525	4025
927.631	4112
927.737	4013
927.843	3930
927.95	3846
928.056	3964
928.162	3979
928.267	4036
928.373	4675
928.479	4097
928.585	3873
928.69	4029
928.796	4044
928.901	4021
929.007	3838
929.112	3964
929.218	3945
929.323	3930
929.428	3922
929.533	4078
929.638	3930
929.743	3953
929.848	4051
929.953	3991
930.058	3903
930.163	3789
930.267	3857
930.372	3994
930.477	3808
930.581	4093
930.685	3941
930.79	3873
930.894	3861
930.998	3884
931.103	4059
931.207	3690
931.311	3690
931.415	3629
931.519	3530
931.623	3564
