Data from test_V78500241_1452.txt Node
Date: Fri Mar 25 16:59:05 CST 2022
User: usil
Spectrometer: V785-0024
Trigger mode: 0
Integration Time (sec): 4.000000E-1
Scans to average: 1
Nonlinearity correction enabled: false
Boxcar width: 0
Storing dark spectrum: false
XAxis mode: Wavelengths
Number of Pixels in Spectrum: 1024
>>>>>Begin Spectral Data<<<<<
801.071	8012
801.214	8008
801.356	7845
801.499	7799
801.641	7761
801.783	7761
801.926	7917
802.068	7940
802.211	7925
802.353	7925
802.496	7788
802.638	7818
802.78	7875
802.923	7921
803.065	7887
803.208	7894
803.35	7989
803.492	8081
803.635	8138
803.777	7997
803.919	8096
804.061	8415
804.204	8107
804.346	8081
804.488	7959
804.63	8062
804.773	7997
804.915	8081
805.057	8290
805.199	8092
805.341	8191
805.483	8313
805.626	8138
805.768	8115
805.91	8199
806.052	8240
806.194	8058
806.336	8294
806.478	8065
806.62	8115
806.762	8134
806.904	8301
807.046	8442
807.188	8309
807.33	8279
807.472	8301
807.614	8107
807.756	8161
807.898	8062
808.04	7887
808.182	7932
808.324	7875
808.465	7932
808.607	8050
808.749	8096
808.891	8187
809.033	8294
809.174	8202
809.316	8046
809.458	8088
809.6	7970
809.741	8046
809.883	7986
810.025	8119
810.166	8065
810.308	7986
810.45	7936
810.591	7841
810.733	7704
810.875	7689
811.016	7502
811.158	7449
811.299	7578
811.441	7696
811.582	7655
811.724	7582
811.865	7525
812.007	7559
812.148	7544
812.29	7632
812.431	7738
812.573	7864
812.714	7928
812.855	8088
812.997	8210
813.138	8290
813.279	8199
813.421	8142
813.562	7955
813.703	7868
813.845	7814
813.986	7419
814.127	7225
814.268	7232
814.41	7236
814.551	7164
814.692	7156
814.833	7046
814.974	7084
815.115	7072
815.256	7019
815.397	6916
815.539	6943
815.68	6795
815.821	6760
815.962	6856
816.103	6833
816.244	6627
816.385	6551
816.526	6566
816.666	6456
816.807	6273
816.948	6418
817.089	6407
817.23	6403
817.371	6304
817.512	6395
817.653	6395
817.793	6327
817.934	6410
818.075	6410
818.216	6426
818.356	6357
818.497	6239
818.638	6060
818.778	6095
818.919	6106
819.06	6205
819.2	6258
819.341	6254
819.481	6311
819.622	6456
819.762	6692
819.903	6722
820.043	6578
820.184	6566
820.324	6604
820.465	6757
820.605	6673
820.746	6612
820.886	6448
821.026	6631
821.167	6669
821.307	6768
821.447	6791
821.588	6719
821.728	6566
821.868	6479
822.008	6334
822.149	6334
822.289	6300
822.429	6133
822.569	6064
822.709	6117
822.849	5969
822.99	5901
823.13	5916
823.27	5889
823.41	5760
823.55	5794
823.69	5726
823.83	5726
823.97	5668
824.11	5611
824.25	5493
824.389	5486
824.529	5554
824.669	5493
824.809	5642
824.949	5608
825.089	5642
825.228	5505
825.368	5402
825.508	5277
825.648	5322
825.787	5372
825.927	5402
826.067	5296
826.206	5318
826.346	5353
826.485	5364
826.625	5410
826.765	5505
826.904	5490
827.044	5227
827.183	5178
827.323	5117
827.462	5204
827.601	5227
827.741	5189
827.88	5193
828.02	5143
828.159	5280
828.298	5292
828.437	5288
828.577	5288
828.716	5440
828.855	5322
828.994	5162
829.134	5117
829.273	5147
829.412	5174
829.551	5113
829.69	5208
829.829	5242
829.968	5364
830.107	5250
830.246	5265
830.385	5147
830.524	5151
830.663	5075
830.802	4900
830.941	4862
831.08	4904
831.219	4995
831.357	4980
831.496	5166
831.635	4889
831.774	4866
831.913	4828
832.051	4725
832.19	4675
832.329	4820
832.467	4649
832.606	4558
832.744	4729
832.883	4721
833.022	4721
833.16	4782
833.299	4774
833.437	4820
833.576	4858
833.714	4835
833.852	4854
833.991	4862
834.129	4953
834.267	4957
834.406	4877
834.544	4999
834.682	4961
834.821	4968
834.959	5159
835.097	4991
835.235	5086
835.373	5052
835.511	5075
835.65	5037
835.788	4942
835.926	4873
836.064	4896
836.202	4881
836.34	5147
836.478	5193
836.615	5102
836.753	5201
836.891	5197
837.029	5220
837.167	5227
837.305	5159
837.443	5079
837.58	5098
837.718	5235
837.856	5155
837.993	5178
838.131	5227
838.269	5181
838.406	5166
838.544	5197
838.681	5067
838.819	4968
838.956	4892
839.094	4862
839.231	5006
839.369	5025
839.506	5402
839.643	5246
839.781	5056
839.918	5052
840.055	5109
840.193	5090
840.33	5033
840.467	5140
840.604	5178
840.742	5463
840.879	5079
841.016	5045
841.153	5208
841.29	5330
841.427	5280
841.564	5284
841.701	5364
841.838	5197
841.975	5227
842.112	5273
842.249	5132
842.385	5109
842.522	5360
842.659	5162
842.796	5140
842.933	5231
843.069	5185
843.206	5140
843.343	5322
843.479	5197
843.616	5261
843.752	4999
843.889	4984
844.025	5208
844.162	5056
844.298	5212
844.435	5105
844.571	5018
844.708	5166
844.844	5315
844.98	5368
845.117	5265
845.253	5117
845.389	5064
845.525	5132
845.661	5132
845.798	4995
845.934	5140
846.07	4976
846.206	5193
846.342	5273
846.478	5201
846.614	4953
846.75	4927
846.886	4927
847.022	5128
847.158	5006
847.294	5067
847.429	5105
847.565	5079
847.701	5303
847.837	4862
847.972	4831
848.108	4949
848.244	4896
848.379	4778
848.515	4740
848.65	4687
848.786	4755
848.921	4786
849.057	4889
849.192	4919
849.328	4778
849.463	4812
849.598	4752
849.734	4755
849.869	4710
850.004	4622
850.14	4618
850.275	4611
850.41	4516
850.545	4561
850.68	4584
850.815	4622
850.95	4599
851.085	4801
851.22	4729
851.355	4637
851.49	4626
851.625	4634
851.76	4626
851.895	4516
852.03	4558
852.165	4634
852.299	4725
852.434	4755
852.569	4721
852.703	4767
852.838	4820
852.973	4942
853.107	4873
853.242	4733
853.376	4698
853.511	4531
853.645	4630
853.78	4812
853.914	4645
854.048	4641
854.183	4630
854.317	4687
854.451	4873
854.585	4649
854.72	4626
854.854	4714
854.988	4584
855.122	4641
855.256	4470
855.39	4641
855.524	4763
855.658	4729
855.792	4653
855.926	4694
856.06	4759
856.194	4809
856.327	4664
856.461	4603
856.595	4565
856.729	4615
856.862	4767
856.996	4706
857.13	4767
857.263	4740
857.397	4839
857.53	4630
857.664	4672
857.797	4755
857.931	4755
858.064	4706
858.197	4675
858.331	4588
858.464	4580
858.597	4535
858.731	4599
858.864	4660
858.997	4603
859.13	4630
859.263	4653
859.396	4683
859.529	4561
859.662	4558
859.795	4516
859.928	4588
860.061	4729
860.194	4763
860.327	4546
860.46	4523
860.592	4679
860.725	4729
860.858	4637
860.99	4531
861.123	4481
861.256	4493
861.388	4615
861.521	5379
861.653	4519
861.786	4405
861.918	4402
862.05	4516
862.183	4546
862.315	4615
862.447	4622
862.58	4516
862.712	4409
862.844	4341
862.976	4470
863.108	4398
863.24	4744
863.372	4322
863.504	4428
863.636	4371
863.768	4451
863.9	4428
864.032	4352
864.164	4424
864.296	4470
864.428	4504
864.559	4531
864.691	4508
864.823	4535
864.954	4470
865.086	4478
865.217	4443
865.349	4462
865.48	4481
865.612	4447
865.743	4634
865.875	4451
866.006	4409
866.137	4474
866.269	4443
866.4	4386
866.531	4428
866.662	4394
866.793	4314
866.924	4424
867.055	4428
867.186	4462
867.317	4432
867.448	4402
867.579	4402
867.71	4379
867.841	4360
867.972	4394
868.103	4455
868.233	4432
868.364	4432
868.495	4500
868.625	4660
868.756	4706
868.886	4599
869.017	4580
869.147	4736
869.278	4797
869.408	4573
869.539	4656
869.669	4714
869.799	4615
869.929	4771
870.06	4736
870.19	4949
870.32	4866
870.45	4923
870.58	4995
870.71	5048
870.84	5067
870.97	4965
871.1	4896
871.23	5117
871.36	5075
871.489	5025
871.619	5025
871.749	5075
871.879	5086
872.008	5166
872.138	5075
872.267	4904
872.397	4839
872.526	4755
872.656	4725
872.785	4759
872.915	4957
873.044	5064
873.173	4908
873.303	4995
873.432	4927
873.561	4915
873.69	4915
873.819	4858
873.948	4911
874.077	4774
874.206	4721
874.335	4763
874.464	4908
874.593	5014
874.722	4953
874.851	5067
874.979	5029
875.108	4984
875.237	4896
875.365	4858
875.494	4904
875.623	4965
875.751	4847
875.88	4839
876.008	4961
876.136	5048
876.265	5189
876.393	5292
876.521	5265
876.65	5231
876.778	5174
876.906	5079
877.034	5018
877.162	5003
877.29	4965
877.418	5045
877.546	5067
877.674	5045
877.802	5037
877.93	5014
878.058	4896
878.185	4835
878.313	4942
878.441	4927
878.568	4805
878.696	4816
878.824	4942
878.951	4972
879.079	5124
879.206	5288
879.333	5124
879.461	4919
879.588	4976
879.715	5121
879.842	5189
879.97	5003
880.097	4782
880.224	4729
880.351	4801
880.478	4824
880.605	4763
880.732	4801
880.859	5052
880.986	4850
881.112	4908
881.239	4744
881.366	4672
881.493	4561
881.619	4592
881.746	4645
881.872	4656
881.999	4626
882.125	4691
882.252	4771
882.378	4786
882.505	4942
882.631	4805
882.757	4634
882.883	4706
883.01	4714
883.136	4660
883.262	4588
883.388	4561
883.514	4801
883.64	4892
883.766	4702
883.892	4664
884.018	4694
884.143	4850
884.269	5006
884.395	4687
884.52	4653
884.646	4626
884.772	4580
884.897	4538
885.023	4637
885.148	4782
885.274	4816
885.399	4771
885.524	4702
885.65	4679
885.775	4710
885.9	4687
886.025	4843
886.15	4790
886.275	4672
886.4	4634
886.525	4668
886.65	4653
886.775	4634
886.9	4835
887.025	5029
887.149	4786
887.274	4641
887.399	4596
887.523	4603
887.648	4596
887.773	4573
887.897	4721
888.021	4797
888.146	4668
888.27	4809
888.395	4892
888.519	4790
888.643	4805
888.767	4786
888.891	4664
889.015	4584
889.139	4664
889.263	4580
889.387	4729
889.511	4870
889.635	4767
889.759	4607
889.883	4660
890.006	4809
890.13	4877
890.254	4725
890.377	4710
890.501	4569
890.624	4558
890.748	4630
890.871	4485
890.995	4443
891.118	4421
891.241	4531
891.364	4577
891.488	4634
891.611	4489
891.734	4596
891.857	4573
891.98	4565
892.103	4668
892.226	4668
892.349	4550
892.471	4440
892.594	4550
892.717	4588
892.839	4615
892.962	4573
893.085	4653
893.207	4596
893.33	4523
893.452	4558
893.575	4698
893.697	4630
893.819	4824
893.941	4870
894.064	4786
894.186	4618
894.308	4622
894.43	4748
894.552	4862
894.674	4767
894.796	4565
894.918	4637
895.04	4618
895.161	4763
895.283	4717
895.405	4622
895.526	4672
895.648	4691
895.769	4736
895.891	4763
896.012	4767
896.134	4774
896.255	4714
896.376	4637
896.498	4649
896.619	4672
896.74	4698
896.861	4679
896.982	4991
897.103	5052
897.224	4908
897.345	4771
897.466	4668
897.587	4771
897.708	4892
897.828	4790
897.949	4782
898.07	4596
898.19	4653
898.311	4862
898.431	4664
898.552	4786
898.672	4824
898.792	4763
898.913	4801
899.033	4626
899.153	4531
899.273	4432
899.393	4554
899.513	4596
899.633	4538
899.753	4558
899.873	4527
899.993	4596
900.113	4542
900.232	4668
900.352	4569
900.472	4531
900.591	4432
900.711	4485
900.83	4451
900.95	4664
901.069	4721
901.189	4569
901.308	4424
901.427	4329
901.546	4417
901.665	4516
901.784	4531
901.904	4428
902.023	4367
902.141	4211
902.26	4181
902.379	4329
902.498	4284
902.617	4219
902.735	4413
902.854	4409
902.973	4383
903.091	4246
903.21	4261
903.328	4265
903.446	4287
903.565	4318
903.683	4386
903.801	4276
903.919	4398
904.038	4470
904.156	4341
904.274	4428
904.392	4421
904.51	4470
904.627	4508
904.745	4550
904.863	4653
904.981	4413
905.098	4333
905.216	4402
905.334	4485
905.451	4481
905.569	4478
905.686	4554
905.803	4599
905.921	4383
906.038	4542
906.155	4497
906.272	4413
906.389	4451
906.506	4375
906.623	4375
906.74	4379
906.857	4344
906.974	4405
907.091	4607
907.208	4672
907.324	4622
907.441	4535
907.557	4337
907.674	4379
907.79	4341
907.907	4462
908.023	4519
908.139	4493
908.256	4500
908.372	4519
908.488	4447
908.604	4367
908.72	4337
908.836	4474
908.952	4413
909.068	4436
909.184	4531
909.3	4527
909.415	4622
909.531	4592
909.647	4383
909.762	4421
909.878	4375
909.993	4489
910.108	4436
910.224	4485
910.339	4512
910.454	4474
910.57	4436
910.685	4398
910.8	4664
910.915	4637
911.03	4527
911.145	4344
911.259	4329
911.374	4344
911.489	4333
911.604	4310
911.718	4204
911.833	4215
911.947	4124
912.062	4082
912.176	4246
912.291	4287
912.405	4276
912.519	4489
912.633	4527
912.748	4413
912.862	4325
912.976	4223
913.09	4154
913.204	4192
913.318	4238
913.431	4386
913.545	4367
913.659	4500
913.772	4402
913.886	4299
914	4265
914.113	4398
914.226	4428
914.34	4432
914.453	4272
914.566	4459
914.68	4363
914.793	4325
914.906	4196
915.019	4169
915.132	4128
915.245	4200
915.358	4261
915.47	4268
915.583	4318
915.696	4379
915.809	4432
915.921	4470
916.034	4310
916.146	4310
916.259	4200
916.371	4405
916.483	4428
916.595	4280
916.708	4356
916.82	4344
916.932	4356
917.044	4352
917.156	4383
917.268	4211
917.38	4276
917.491	4310
917.603	4367
917.715	4455
917.826	4455
917.938	4375
918.049	4303
918.161	4409
918.272	4550
918.384	4580
918.495	4485
918.606	4360
918.717	4238
918.828	4344
918.939	4417
919.05	4299
919.161	4341
919.272	4154
919.383	4238
919.494	4481
919.604	4618
919.715	4459
919.826	4352
919.936	4413
920.047	4603
920.157	4504
920.267	4748
920.378	4607
920.488	4542
920.598	4721
920.708	4870
920.818	4782
920.928	4763
921.038	4980
921.148	4953
921.258	4694
921.368	4577
921.477	4512
921.587	4504
921.697	4386
921.806	4596
921.916	4466
922.025	4291
922.134	4303
922.244	4265
922.353	4371
922.462	4188
922.571	4162
922.68	4002
922.789	3994
922.898	3998
923.007	3991
923.116	4131
923.224	4071
923.333	4116
923.442	3994
923.55	3975
923.659	4055
923.767	4147
923.876	4040
923.984	4169
924.092	4051
924.201	4112
924.309	4135
924.417	4169
924.525	4097
924.633	4090
924.741	5105
924.849	3896
924.956	4120
925.064	3972
925.172	3899
925.279	3964
925.387	4055
925.494	4078
925.602	4230
925.709	4169
925.816	4021
925.924	4139
926.031	4280
926.138	4211
926.245	4219
926.352	4124
926.459	4253
926.566	4318
926.673	4234
926.779	4078
926.886	4147
926.993	4029
927.099	3975
927.206	3930
927.312	3964
927.419	4101
927.525	4086
927.631	4086
927.737	3972
927.843	3922
927.95	3857
928.056	3960
928.162	4021
928.267	4101
928.373	4565
928.479	4192
928.585	3892
928.69	4044
928.796	4074
928.901	3987
929.007	3884
929.112	4029
929.218	3998
929.323	3972
929.428	3964
929.533	4150
929.638	3934
929.743	3972
929.848	4078
929.953	4025
930.058	3903
930.163	3797
930.267	3865
930.372	3987
930.477	3831
930.581	4139
930.685	3983
930.79	3808
930.894	3888
930.998	3911
931.103	4090
931.207	3740
931.311	3686
931.415	3660
931.519	3572
931.623	3568
