Data from test_V78500241_969.txt Node
Date: Fri Mar 25 16:55:44 CST 2022
User: usil
Spectrometer: V785-0024
Trigger mode: 0
Integration Time (sec): 4.000000E-1
Scans to average: 1
Nonlinearity correction enabled: false
Boxcar width: 0
Storing dark spectrum: false
XAxis mode: Wavelengths
Number of Pixels in Spectrum: 1024
>>>>>Begin Spectral Data<<<<<
801.071	8024
801.214	7986
801.356	7852
801.499	7852
801.641	7856
801.783	7753
801.926	7951
802.068	7932
802.211	7978
802.353	7936
802.496	7852
802.638	7917
802.78	7822
802.923	7917
803.065	7856
803.208	7822
803.35	7963
803.492	8149
803.635	8149
803.777	8020
803.919	8145
804.061	8431
804.204	8187
804.346	8043
804.488	8024
804.63	8123
804.773	8065
804.915	8050
805.057	8320
805.199	8176
805.341	8218
805.483	8210
805.626	8176
805.768	8069
805.91	8176
806.052	8164
806.194	8069
806.336	8256
806.478	8084
806.62	8027
806.762	8191
806.904	8229
807.046	8454
807.188	8343
807.33	8290
807.472	8320
807.614	8142
807.756	8134
807.898	7951
808.04	7818
808.182	7864
808.324	7879
808.465	7909
808.607	8031
808.749	8081
808.891	8145
809.033	8290
809.174	8210
809.316	8069
809.458	7982
809.6	7883
809.741	8084
809.883	8027
810.025	8035
810.166	8024
810.308	8027
810.45	8046
810.591	7898
810.733	7689
810.875	7620
811.016	7514
811.158	7521
811.299	7613
811.441	7693
811.582	7658
811.724	7544
811.865	7502
812.007	7571
812.148	7590
812.29	7620
812.431	7674
812.573	7913
812.714	7909
812.855	8100
812.997	8229
813.138	8313
813.279	8100
813.421	8062
813.562	8001
813.703	7868
813.845	7776
813.986	7403
814.127	7278
814.268	7164
814.41	7145
814.551	7145
814.692	7149
814.833	7088
814.974	7050
815.115	7069
815.256	6935
815.397	6928
815.539	6897
815.68	6810
815.821	6738
815.962	6871
816.103	6772
816.244	6741
816.385	6608
816.526	6658
816.666	6498
816.807	6331
816.948	6471
817.089	6460
817.23	6452
817.371	6388
817.512	6395
817.653	6403
817.793	6369
817.934	6418
818.075	6490
818.216	6437
818.356	6346
818.497	6235
818.638	6133
818.778	6205
818.919	6110
819.06	6087
819.2	6338
819.341	6277
819.481	6357
819.622	6540
819.762	6734
819.903	6768
820.043	6601
820.184	6574
820.324	6525
820.465	6673
820.605	6665
820.746	6597
820.886	6540
821.026	6642
821.167	6673
821.307	6848
821.447	6715
821.588	6650
821.728	6506
821.868	6521
822.008	6334
822.149	6369
822.289	6372
822.429	6163
822.569	6079
822.709	6114
822.849	5912
822.99	5901
823.13	5855
823.27	5859
823.41	5790
823.55	5767
823.69	5805
823.83	5760
823.97	5653
824.11	5547
824.25	5459
824.389	5562
824.529	5520
824.669	5528
824.809	5638
824.949	5657
825.089	5604
825.228	5562
825.368	5387
825.508	5345
825.648	5395
825.787	5307
825.927	5322
826.067	5269
826.206	5258
826.346	5391
826.485	5341
826.625	5425
826.765	5501
826.904	5425
827.044	5227
827.183	5227
827.323	5136
827.462	5204
827.601	5185
827.741	5166
827.88	5178
828.02	5064
828.159	5246
828.298	5277
828.437	5368
828.577	5277
828.716	5486
828.855	5288
828.994	5216
829.134	5128
829.273	5170
829.412	5067
829.551	5067
829.69	5140
829.829	5223
829.968	5387
830.107	5231
830.246	5239
830.385	5136
830.524	5162
830.663	5098
830.802	4961
830.941	4877
831.08	4850
831.219	5006
831.357	4961
831.496	5124
831.635	4896
831.774	4854
831.913	4835
832.051	4721
832.19	4744
832.329	4854
832.467	4694
832.606	4634
832.744	4710
832.883	4744
833.022	4687
833.16	4763
833.299	4786
833.437	4828
833.576	4824
833.714	4843
833.852	4877
833.991	4866
834.129	4934
834.267	4942
834.406	4881
834.544	4934
834.682	4961
834.821	4938
834.959	5136
835.097	4930
835.235	5143
835.373	5113
835.511	5102
835.65	5018
835.788	5037
835.926	4892
836.064	4854
836.202	4946
836.34	5166
836.478	5201
836.615	5121
836.753	5216
836.891	5307
837.029	5250
837.167	5197
837.305	5124
837.443	5181
837.58	5075
837.718	5223
837.856	5170
837.993	5159
838.131	5197
838.269	5181
838.406	5174
838.544	5143
838.681	4987
838.819	4999
838.956	4915
839.094	4946
839.231	4961
839.369	5075
839.506	5406
839.643	5307
839.781	5060
839.918	4976
840.055	5037
840.193	5064
840.33	5071
840.467	5170
840.604	5189
840.742	5417
840.879	5098
841.016	5064
841.153	5185
841.29	5364
841.427	5330
841.564	5318
841.701	5337
841.838	5178
841.975	5254
842.112	5254
842.249	5083
842.385	5048
842.522	5334
842.659	5208
842.796	5079
842.933	5208
843.069	5136
843.206	5132
843.343	5303
843.479	5235
843.616	5201
843.752	5079
843.889	4984
844.025	5212
844.162	5064
844.298	5185
844.435	5067
844.571	5003
844.708	5162
844.844	5277
844.98	5296
845.117	5284
845.253	5083
845.389	5067
845.525	5193
845.661	5094
845.798	5033
845.934	5086
846.07	5037
846.206	5181
846.342	5273
846.478	5128
846.614	5014
846.75	4930
846.886	4942
847.022	5113
847.158	5003
847.294	5018
847.429	5079
847.565	5014
847.701	5303
847.837	4839
847.972	4824
848.108	4927
848.244	4915
848.379	4763
848.515	4740
848.65	4675
848.786	4736
848.921	4740
849.057	4873
849.192	4900
849.328	4801
849.463	4824
849.598	4771
849.734	4752
849.869	4668
850.004	4649
850.14	4668
850.275	4607
850.41	4504
850.545	4569
850.68	4615
850.815	4641
850.95	4626
851.085	4839
851.22	4736
851.355	4672
851.49	4580
851.625	4660
851.76	4634
851.895	4546
852.03	4538
852.165	4615
852.299	4744
852.434	4767
852.569	4687
852.703	4755
852.838	4790
852.973	4919
853.107	4934
853.242	4729
853.376	4660
853.511	4565
853.645	4679
853.78	4752
853.914	4683
854.048	4668
854.183	4630
854.317	4729
854.451	4831
854.585	4683
854.72	4622
854.854	4679
854.988	4580
855.122	4637
855.256	4462
855.39	4615
855.524	4797
855.658	4717
855.792	4710
855.926	4740
856.06	4714
856.194	4809
856.327	4691
856.461	4603
856.595	4592
856.729	4599
856.862	4771
856.996	4656
857.13	4691
857.263	4691
857.397	4763
857.53	4622
857.664	4710
857.797	4706
857.931	4790
858.064	4618
858.197	4721
858.331	4626
858.464	4546
858.597	4554
858.731	4611
858.864	4622
858.997	4599
859.13	4660
859.263	4656
859.396	4664
859.529	4580
859.662	4554
859.795	4546
859.928	4611
860.061	4797
860.194	4755
860.327	4596
860.46	4577
860.592	4702
860.725	4641
860.858	4691
860.99	4626
861.123	4497
861.256	4538
861.388	4622
861.521	5261
861.653	4497
861.786	4398
861.918	4451
862.05	4531
862.183	4535
862.315	4588
862.447	4611
862.58	4550
862.712	4356
862.844	4333
862.976	4512
863.108	4478
863.24	4915
863.372	4322
863.504	4390
863.636	4451
863.768	4432
863.9	4383
864.032	4348
864.164	4367
864.296	4409
864.428	4493
864.559	4519
864.691	4519
864.823	4508
864.954	4470
865.086	4481
865.217	4455
865.349	4379
865.48	4436
865.612	4523
865.743	4569
865.875	4440
866.006	4402
866.137	4432
866.269	4481
866.4	4432
866.531	4436
866.662	4356
866.793	4379
866.924	4409
867.055	4497
867.186	4466
867.317	4394
867.448	4363
867.579	4367
867.71	4402
867.841	4413
867.972	4443
868.103	4436
868.233	4413
868.364	4424
868.495	4519
868.625	4641
868.756	4721
868.886	4558
869.017	4588
869.147	4797
869.278	4721
869.408	4656
869.539	4649
869.669	4649
869.799	4660
869.929	4721
870.06	4725
870.19	4949
870.32	4870
870.45	4934
870.58	5010
870.71	5025
870.84	5090
870.97	4923
871.1	4877
871.23	5098
871.36	5170
871.489	4980
871.619	5079
871.749	5060
871.879	5124
872.008	5185
872.138	5045
872.267	4984
872.397	4835
872.526	4790
872.656	4752
872.785	4755
872.915	4991
873.044	5018
873.173	4934
873.303	4934
873.432	4961
873.561	4942
873.69	4900
873.819	4786
873.948	4900
874.077	4782
874.206	4805
874.335	4805
874.464	4870
874.593	5033
874.722	4930
874.851	5105
874.979	5060
875.108	4991
875.237	4870
875.365	4850
875.494	4847
875.623	4980
875.751	4805
875.88	4831
876.008	4995
876.136	5033
876.265	5197
876.393	5341
876.521	5204
876.65	5151
876.778	5155
876.906	5018
877.034	4984
877.162	5010
877.29	4980
877.418	4987
877.546	4999
877.674	4995
877.802	5018
877.93	5018
878.058	4934
878.185	4870
878.313	4938
878.441	4923
878.568	4717
878.696	4862
878.824	4911
878.951	4991
879.079	5090
879.206	5261
879.333	5121
879.461	4987
879.588	4942
879.715	5102
879.842	5197
879.97	5010
880.097	4767
880.224	4740
880.351	4835
880.478	4816
880.605	4801
880.732	4797
880.859	5067
880.986	4847
881.112	4877
881.239	4767
881.366	4645
881.493	4641
881.619	4558
881.746	4653
881.872	4622
881.999	4630
882.125	4675
882.252	4725
882.378	4793
882.505	4946
882.631	4733
882.757	4656
882.883	4687
883.01	4752
883.136	4630
883.262	4554
883.388	4615
883.514	4816
883.64	4812
883.766	4782
883.892	4679
884.018	4721
884.143	4900
884.269	4995
884.395	4675
884.52	4588
884.646	4641
884.772	4596
884.897	4554
885.023	4618
885.148	4755
885.274	4820
885.399	4782
885.524	4744
885.65	4698
885.775	4729
885.9	4653
886.025	4854
886.15	4748
886.275	4637
886.4	4603
886.525	4710
886.65	4702
886.775	4649
886.9	4843
887.025	5014
887.149	4809
887.274	4645
887.399	4584
887.523	4607
887.648	4596
887.773	4577
887.897	4714
888.021	4790
888.146	4698
888.27	4759
888.395	4870
888.519	4797
888.643	4900
888.767	4774
888.891	4641
889.015	4596
889.139	4649
889.263	4573
889.387	4729
889.511	4843
889.635	4797
889.759	4664
889.883	4679
890.006	4729
890.13	4828
890.254	4554
890.377	4668
890.501	4497
890.624	4519
890.748	4641
890.871	4485
890.995	4405
891.118	4352
891.241	4512
891.364	4523
891.488	4577
891.611	4462
891.734	4519
891.857	4622
891.98	4573
892.103	4630
892.226	4615
892.349	4519
892.471	4363
892.594	4508
892.717	4531
892.839	4558
892.962	4580
893.085	4622
893.207	4603
893.33	4440
893.452	4489
893.575	4622
893.697	4565
893.819	4778
893.941	4831
894.064	4755
894.186	4622
894.308	4554
894.43	4744
894.552	4812
894.674	4744
894.796	4519
894.918	4622
895.04	4573
895.161	4668
895.283	4660
895.405	4554
895.526	4641
895.648	4675
895.769	4645
895.891	4710
896.012	4744
896.134	4733
896.255	4656
896.376	4694
896.498	4607
896.619	4672
896.74	4599
896.861	4645
896.982	4938
897.103	5022
897.224	4850
897.345	4721
897.466	4649
897.587	4729
897.708	4828
897.828	4763
897.949	4714
898.07	4542
898.19	4653
898.311	4824
898.431	4694
898.552	4706
898.672	4820
898.792	4801
898.913	4706
899.033	4630
899.153	4459
899.273	4459
899.393	4497
899.513	4535
899.633	4516
899.753	4481
899.873	4538
899.993	4580
900.113	4542
900.232	4588
900.352	4535
900.472	4455
900.591	4409
900.711	4504
900.83	4432
900.95	4622
901.069	4653
901.189	4535
901.308	4352
901.427	4299
901.546	4344
901.665	4432
901.784	4516
901.904	4390
902.023	4352
902.141	4200
902.26	4135
902.379	4272
902.498	4211
902.617	4230
902.735	4306
902.854	4440
902.973	4383
903.091	4188
903.21	4207
903.328	4257
903.446	4261
903.565	4219
903.683	4325
903.801	4322
903.919	4375
904.038	4386
904.156	4272
904.274	4436
904.392	4333
904.51	4383
904.627	4470
904.745	4588
904.863	4626
904.981	4428
905.098	4299
905.216	4295
905.334	4402
905.451	4413
905.569	4409
905.686	4535
905.803	4519
905.921	4383
906.038	4546
906.155	4459
906.272	4394
906.389	4421
906.506	4352
906.623	4337
906.74	4360
906.857	4284
906.974	4348
907.091	4550
907.208	4588
907.324	4611
907.441	4470
907.557	4352
907.674	4322
907.79	4337
907.907	4314
908.023	4516
908.139	4451
908.256	4417
908.372	4428
908.488	4405
908.604	4337
908.72	4337
908.836	4352
908.952	4379
909.068	4424
909.184	4535
909.3	4436
909.415	4573
909.531	4561
909.647	4325
909.762	4379
909.878	4333
909.993	4417
910.108	4443
910.224	4398
910.339	4447
910.454	4386
910.57	4352
910.685	4363
910.8	4637
910.915	4580
911.03	4459
911.145	4383
911.259	4322
911.374	4306
911.489	4310
911.604	4242
911.718	4181
911.833	4204
911.947	4048
912.062	4006
912.176	4238
912.291	4162
912.405	4249
912.519	4470
912.633	4489
912.748	4379
912.862	4257
912.976	4207
913.09	4093
913.204	4147
913.318	4265
913.431	4398
913.545	4367
913.659	4451
913.772	4344
913.886	4215
914	4246
914.113	4379
914.226	4394
914.34	4352
914.453	4230
914.566	4424
914.68	4276
914.793	4287
914.906	4207
915.019	4097
915.132	4074
915.245	4147
915.358	4219
915.47	4219
915.583	4223
915.696	4265
915.809	4424
915.921	4375
916.034	4242
916.146	4215
916.259	4211
916.371	4428
916.483	4379
916.595	4253
916.708	4322
916.82	4265
916.932	4295
917.044	4333
917.156	4322
917.268	4238
917.38	4261
917.491	4253
917.603	4284
917.715	4417
917.826	4360
917.938	4322
918.049	4196
918.161	4379
918.272	4500
918.384	4516
918.495	4440
918.606	4329
918.717	4230
918.828	4310
918.939	4333
919.05	4246
919.161	4280
919.272	4131
919.383	4249
919.494	4489
919.604	4637
919.715	4424
919.826	4356
919.936	4386
920.047	4481
920.157	4459
920.267	4706
920.378	4538
920.488	4497
920.598	4733
920.708	4892
920.818	4721
920.928	4767
921.038	4934
921.148	4889
921.258	4599
921.368	4516
921.477	4531
921.587	4455
921.697	4356
921.806	4527
921.916	4428
922.025	4215
922.134	4249
922.244	4257
922.353	4306
922.462	4158
922.571	4154
922.68	3991
922.789	3998
922.898	4025
923.007	3941
923.116	4109
923.224	4048
923.333	4044
923.442	4002
923.55	3949
923.659	3975
923.767	4090
923.876	4010
923.984	4093
924.092	3972
924.201	4036
924.309	4090
924.417	4105
924.525	3998
924.633	4051
924.741	5048
924.849	3899
924.956	4128
925.064	3964
925.172	3865
925.279	3956
925.387	4074
925.494	4048
925.602	4181
925.709	4147
925.816	4040
925.924	4116
926.031	4207
926.138	4158
926.245	4211
926.352	4101
926.459	4265
926.566	4356
926.673	4147
926.779	4059
926.886	4090
926.993	3983
927.099	3956
927.206	3934
927.312	3972
927.419	4090
927.525	4006
927.631	4093
927.737	3983
927.843	3918
927.95	3816
928.056	3979
928.162	3998
928.267	4055
928.373	4698
928.479	4131
928.585	3861
928.69	4025
928.796	4090
928.901	3975
929.007	3804
929.112	3987
929.218	3960
929.323	3953
929.428	3922
929.533	4124
929.638	3876
929.743	3968
929.848	4021
929.953	3983
930.058	3922
930.163	3759
930.267	3781
930.372	3979
930.477	3808
930.581	4067
930.685	3926
930.79	3850
930.894	3869
930.998	3873
931.103	4006
931.207	3705
931.311	3671
931.415	3717
931.519	3530
931.623	3538
