Data from test_V78500241_1101.txt Node
Date: Fri Mar 25 16:56:39 CST 2022
User: usil
Spectrometer: V785-0024
Trigger mode: 0
Integration Time (sec): 4.000000E-1
Scans to average: 1
Nonlinearity correction enabled: false
Boxcar width: 0
Storing dark spectrum: false
XAxis mode: Wavelengths
Number of Pixels in Spectrum: 1024
>>>>>Begin Spectral Data<<<<<
801.071	8050
801.214	8024
801.356	7909
801.499	7868
801.641	7761
801.783	7765
801.926	7894
802.068	7879
802.211	7932
802.353	7925
802.496	7845
802.638	7833
802.78	7925
802.923	7959
803.065	7830
803.208	7871
803.35	7974
803.492	8126
803.635	8180
803.777	7986
803.919	8134
804.061	8473
804.204	8161
804.346	8062
804.488	7986
804.63	8092
804.773	8031
804.915	8058
805.057	8263
805.199	8161
805.341	8229
805.483	8305
805.626	8176
805.768	8107
805.91	8107
806.052	8218
806.194	8100
806.336	8328
806.478	8092
806.62	8103
806.762	8084
806.904	8256
807.046	8507
807.188	8286
807.33	8298
807.472	8248
807.614	8115
807.756	8172
807.898	8005
808.04	7928
808.182	7928
808.324	7890
808.465	7906
808.607	8050
808.749	8134
808.891	8229
809.033	8248
809.174	8168
809.316	8058
809.458	8005
809.6	7993
809.741	8084
809.883	8005
810.025	8031
810.166	8054
810.308	7970
810.45	8035
810.591	7849
810.733	7708
810.875	7601
811.016	7521
811.158	7441
811.299	7582
811.441	7689
811.582	7677
811.724	7582
811.865	7544
812.007	7559
812.148	7616
812.29	7571
812.431	7677
812.573	7852
812.714	7925
812.855	8111
812.997	8119
813.138	8229
813.279	8157
813.421	8100
813.562	7974
813.703	7879
813.845	7757
813.986	7499
814.127	7236
814.268	7152
814.41	7213
814.551	7057
814.692	7160
814.833	7042
814.974	7156
815.115	7080
815.256	6981
815.397	6928
815.539	6932
815.68	6848
815.821	6814
815.962	6844
816.103	6802
816.244	6722
816.385	6608
816.526	6604
816.666	6452
816.807	6262
816.948	6410
817.089	6494
817.23	6445
817.371	6319
817.512	6399
817.653	6365
817.793	6357
817.934	6456
818.075	6464
818.216	6464
818.356	6414
818.497	6216
818.638	6159
818.778	6175
818.919	6095
819.06	6140
819.2	6311
819.341	6296
819.481	6323
819.622	6517
819.762	6715
819.903	6719
820.043	6646
820.184	6517
820.324	6547
820.465	6681
820.605	6623
820.746	6620
820.886	6460
821.026	6646
821.167	6665
821.307	6783
821.447	6741
821.588	6646
821.728	6536
821.868	6532
822.008	6346
822.149	6300
822.289	6342
822.429	6133
822.569	6049
822.709	6098
822.849	5935
822.99	5927
823.13	5874
823.27	5863
823.41	5733
823.55	5767
823.69	5756
823.83	5767
823.97	5661
824.11	5520
824.25	5501
824.389	5570
824.529	5581
824.669	5516
824.809	5596
824.949	5581
825.089	5539
825.228	5577
825.368	5387
825.508	5330
825.648	5311
825.787	5376
825.927	5345
826.067	5273
826.206	5303
826.346	5353
826.485	5414
826.625	5383
826.765	5493
826.904	5425
827.044	5265
827.183	5170
827.323	5132
827.462	5204
827.601	5162
827.741	5174
827.88	5201
828.02	5109
828.159	5250
828.298	5269
828.437	5341
828.577	5284
828.716	5444
828.855	5292
828.994	5166
829.134	5124
829.273	5124
829.412	5128
829.551	5064
829.69	5166
829.829	5239
829.968	5349
830.107	5265
830.246	5284
830.385	5181
830.524	5170
830.663	5056
830.802	4934
830.941	4889
831.08	4877
831.219	4938
831.357	4991
831.496	5197
831.635	4896
831.774	4816
831.913	4774
832.051	4672
832.19	4714
832.329	4843
832.467	4630
832.606	4615
832.744	4664
832.883	4694
833.022	4710
833.16	4801
833.299	4778
833.437	4797
833.576	4793
833.714	4850
833.852	4839
833.991	4908
834.129	4934
834.267	4942
834.406	4828
834.544	4980
834.682	4980
834.821	4976
834.959	5178
835.097	4987
835.235	5140
835.373	5056
835.511	5121
835.65	5060
835.788	4949
835.926	4850
836.064	4839
836.202	4885
836.34	5193
836.478	5242
836.615	5105
836.753	5197
836.891	5246
837.029	5227
837.167	5159
837.305	5143
837.443	5155
837.58	5010
837.718	5197
837.856	5189
837.993	5170
838.131	5201
838.269	5189
838.406	5197
838.544	5178
838.681	5064
838.819	5018
838.956	4889
839.094	4915
839.231	4953
839.369	5067
839.506	5459
839.643	5216
839.781	5029
839.918	5045
840.055	5105
840.193	5060
840.33	5109
840.467	5098
840.604	5178
840.742	5452
840.879	5048
841.016	5109
841.153	5113
841.29	5364
841.427	5353
841.564	5349
841.701	5326
841.838	5246
841.975	5239
842.112	5269
842.249	5143
842.385	5060
842.522	5326
842.659	5166
842.796	5143
842.933	5208
843.069	5155
843.206	5151
843.343	5322
843.479	5227
843.616	5261
843.752	5067
843.889	5045
844.025	5155
844.162	5048
844.298	5181
844.435	5128
844.571	4976
844.708	5197
844.844	5258
844.98	5265
845.117	5299
845.253	5140
845.389	5102
845.525	5117
845.661	5136
845.798	5022
845.934	5086
846.07	5029
846.206	5185
846.342	5299
846.478	5174
846.614	5029
846.75	4949
846.886	4938
847.022	5128
847.158	5029
847.294	5037
847.429	5045
847.565	4999
847.701	5269
847.837	4847
847.972	4820
848.108	4881
848.244	4885
848.379	4786
848.515	4683
848.65	4736
848.786	4755
848.921	4717
849.057	4805
849.192	4877
849.328	4786
849.463	4862
849.598	4801
849.734	4740
849.869	4683
850.004	4687
850.14	4649
850.275	4641
850.41	4542
850.545	4538
850.68	4569
850.815	4558
850.95	4618
851.085	4831
851.22	4740
851.355	4641
851.49	4596
851.625	4634
851.76	4607
851.895	4554
852.03	4531
852.165	4630
852.299	4702
852.434	4740
852.569	4767
852.703	4710
852.838	4820
852.973	4896
853.107	4934
853.242	4710
853.376	4656
853.511	4516
853.645	4641
853.78	4790
853.914	4698
854.048	4649
854.183	4607
854.317	4706
854.451	4824
854.585	4634
854.72	4649
854.854	4767
854.988	4577
855.122	4653
855.256	4542
855.39	4626
855.524	4740
855.658	4733
855.792	4698
855.926	4672
856.06	4740
856.194	4782
856.327	4717
856.461	4580
856.595	4588
856.729	4611
856.862	4691
856.996	4672
857.13	4706
857.263	4793
857.397	4816
857.53	4634
857.664	4698
857.797	4752
857.931	4752
858.064	4733
858.197	4740
858.331	4679
858.464	4580
858.597	4489
858.731	4599
858.864	4630
858.997	4599
859.13	4634
859.263	4641
859.396	4702
859.529	4538
859.662	4516
859.795	4508
859.928	4641
860.061	4710
860.194	4744
860.327	4546
860.46	4519
860.592	4714
860.725	4687
860.858	4698
860.99	4577
861.123	4516
861.256	4497
861.388	4569
861.521	5326
861.653	4455
861.786	4436
861.918	4451
862.05	4516
862.183	4577
862.315	4558
862.447	4584
862.58	4542
862.712	4383
862.844	4287
862.976	4432
863.108	4451
863.24	4748
863.372	4291
863.504	4402
863.636	4413
863.768	4451
863.9	4417
864.032	4310
864.164	4398
864.296	4436
864.428	4516
864.559	4569
864.691	4523
864.823	4565
864.954	4481
865.086	4474
865.217	4432
865.349	4413
865.48	4390
865.612	4466
865.743	4603
865.875	4474
866.006	4394
866.137	4478
866.269	4394
866.4	4451
866.531	4455
866.662	4341
866.793	4375
866.924	4451
867.055	4535
867.186	4424
867.317	4371
867.448	4367
867.579	4383
867.71	4371
867.841	4356
867.972	4447
868.103	4424
868.233	4436
868.364	4417
868.495	4481
868.625	4622
868.756	4744
868.886	4580
869.017	4561
869.147	4786
869.278	4740
869.408	4630
869.539	4607
869.669	4721
869.799	4710
869.929	4790
870.06	4733
870.19	4946
870.32	4892
870.45	4885
870.58	4972
870.71	5079
870.84	5094
870.97	4953
871.1	4900
871.23	5155
871.36	5098
871.489	5025
871.619	5056
871.749	5010
871.879	5117
872.008	5132
872.138	5041
872.267	4938
872.397	4854
872.526	4782
872.656	4691
872.785	4793
872.915	4942
873.044	5014
873.173	4965
873.303	4946
873.432	4968
873.561	4866
873.69	4824
873.819	4797
873.948	4953
874.077	4778
874.206	4736
874.335	4816
874.464	4889
874.593	5079
874.722	4949
874.851	5083
874.979	5033
875.108	5022
875.237	4862
875.365	4892
875.494	4896
875.623	4919
875.751	4793
875.88	4812
876.008	4942
876.136	4987
876.265	5227
876.393	5318
876.521	5235
876.65	5216
876.778	5170
876.906	5090
877.034	4991
877.162	4968
877.29	4938
877.418	5064
877.546	5033
877.674	5060
877.802	4987
877.93	4968
878.058	4908
878.185	4885
878.313	4957
878.441	4965
878.568	4759
878.696	4923
878.824	4934
878.951	4976
879.079	5143
879.206	5277
879.333	5155
879.461	4961
879.588	5025
879.715	5143
879.842	5201
879.97	4987
880.097	4801
880.224	4755
880.351	4733
880.478	4820
880.605	4774
880.732	4828
880.859	5010
880.986	4881
881.112	4892
881.239	4759
881.366	4637
881.493	4656
881.619	4577
881.746	4637
881.872	4615
881.999	4679
882.125	4630
882.252	4759
882.378	4755
882.505	5006
882.631	4809
882.757	4649
882.883	4714
883.01	4687
883.136	4702
883.262	4577
883.388	4611
883.514	4782
883.64	4862
883.766	4778
883.892	4634
884.018	4721
884.143	4889
884.269	5037
884.395	4634
884.52	4603
884.646	4603
884.772	4569
884.897	4527
885.023	4641
885.148	4736
885.274	4824
885.399	4809
885.524	4725
885.65	4649
885.775	4744
885.9	4687
886.025	4866
886.15	4778
886.275	4710
886.4	4645
886.525	4679
886.65	4653
886.775	4736
886.9	4919
887.025	5048
887.149	4805
887.274	4649
887.399	4569
887.523	4565
887.648	4550
887.773	4622
887.897	4774
888.021	4729
888.146	4637
888.27	4790
888.395	4889
888.519	4782
888.643	4824
888.767	4763
888.891	4702
889.015	4592
889.139	4592
889.263	4603
889.387	4744
889.511	4839
889.635	4736
889.759	4611
889.883	4634
890.006	4721
890.13	4790
890.254	4634
890.377	4687
890.501	4554
890.624	4455
890.748	4634
890.871	4523
890.995	4386
891.118	4333
891.241	4443
891.364	4519
891.488	4618
891.611	4493
891.734	4561
891.857	4580
891.98	4538
892.103	4675
892.226	4580
892.349	4523
892.471	4459
892.594	4516
892.717	4596
892.839	4546
892.962	4611
893.085	4630
893.207	4615
893.33	4455
893.452	4523
893.575	4649
893.697	4607
893.819	4820
893.941	4847
894.064	4717
894.186	4580
894.308	4565
894.43	4675
894.552	4866
894.674	4740
894.796	4538
894.918	4546
895.04	4535
895.161	4725
895.283	4630
895.405	4618
895.526	4668
895.648	4649
895.769	4649
895.891	4744
896.012	4736
896.134	4679
896.255	4687
896.376	4660
896.498	4569
896.619	4729
896.74	4558
896.861	4618
896.982	4930
897.103	5109
897.224	4828
897.345	4714
897.466	4626
897.587	4740
897.708	4870
897.828	4752
897.949	4675
898.07	4569
898.19	4615
898.311	4820
898.431	4668
898.552	4736
898.672	4786
898.792	4774
898.913	4694
899.033	4641
899.153	4504
899.273	4424
899.393	4523
899.513	4542
899.633	4516
899.753	4531
899.873	4500
899.993	4550
900.113	4538
900.232	4569
900.352	4519
900.472	4523
900.591	4386
900.711	4497
900.83	4462
900.95	4645
901.069	4634
901.189	4497
901.308	4348
901.427	4287
901.546	4360
901.665	4493
901.784	4508
901.904	4367
902.023	4322
902.141	4169
902.26	4158
902.379	4303
902.498	4276
902.617	4234
902.735	4352
902.854	4383
902.973	4371
903.091	4192
903.21	4249
903.328	4322
903.446	4257
903.565	4242
903.683	4337
903.801	4299
903.919	4386
904.038	4421
904.156	4333
904.274	4352
904.392	4428
904.51	4428
904.627	4466
904.745	4596
904.863	4615
904.981	4375
905.098	4314
905.216	4371
905.334	4417
905.451	4451
905.569	4436
905.686	4558
905.803	4535
905.921	4367
906.038	4584
906.155	4459
906.272	4390
906.389	4432
906.506	4360
906.623	4402
906.74	4341
906.857	4261
906.974	4371
907.091	4546
907.208	4641
907.324	4615
907.441	4447
907.557	4310
907.674	4348
907.79	4310
907.907	4337
908.023	4451
908.139	4474
908.256	4413
908.372	4451
908.488	4455
908.604	4394
908.72	4306
908.836	4352
908.952	4367
909.068	4436
909.184	4546
909.3	4466
909.415	4550
909.531	4523
909.647	4356
909.762	4348
909.878	4341
909.993	4405
910.108	4428
910.224	4367
910.339	4516
910.454	4421
910.57	4371
910.685	4268
910.8	4694
910.915	4580
911.03	4466
911.145	4325
911.259	4306
911.374	4390
911.489	4268
911.604	4253
911.718	4154
911.833	4192
911.947	4021
912.062	4040
912.176	4223
912.291	4227
912.405	4257
912.519	4504
912.633	4470
912.748	4314
912.862	4284
912.976	4200
913.09	4082
913.204	4181
913.318	4246
913.431	4383
913.545	4379
913.659	4470
913.772	4341
913.886	4242
914	4185
914.113	4398
914.226	4421
914.34	4379
914.453	4227
914.566	4383
914.68	4303
914.793	4348
914.906	4158
915.019	4112
915.132	4067
915.245	4173
915.358	4219
915.47	4261
915.583	4219
915.696	4268
915.809	4386
915.921	4413
916.034	4238
916.146	4257
916.259	4207
916.371	4413
916.483	4360
916.595	4276
916.708	4284
916.82	4310
916.932	4341
917.044	4276
917.156	4329
917.268	4230
917.38	4249
917.491	4257
917.603	4322
917.715	4436
917.826	4447
917.938	4367
918.049	4249
918.161	4363
918.272	4527
918.384	4565
918.495	4440
918.606	4322
918.717	4257
918.828	4314
918.939	4348
919.05	4268
919.161	4299
919.272	4109
919.383	4196
919.494	4432
919.604	4668
919.715	4443
919.826	4352
919.936	4428
920.047	4504
920.157	4466
920.267	4729
920.378	4561
920.488	4470
920.598	4668
920.708	4816
920.818	4717
920.928	4782
921.038	4942
921.148	4915
921.258	4668
921.368	4546
921.477	4459
921.587	4470
921.697	4371
921.806	4550
921.916	4440
922.025	4249
922.134	4261
922.244	4211
922.353	4352
922.462	4185
922.571	4116
922.68	4025
922.789	3953
922.898	4017
923.007	4017
923.116	4105
923.224	4032
923.333	4101
923.442	4048
923.55	3941
923.659	4048
923.767	4093
923.876	3964
923.984	4101
924.092	4040
924.201	4078
924.309	4097
924.417	4116
924.525	4067
924.633	4097
924.741	4831
924.849	3926
924.956	4135
925.064	3975
925.172	3884
925.279	3983
925.387	4074
925.494	4010
925.602	4169
925.709	4215
925.816	3987
925.924	4154
926.031	4185
926.138	4162
926.245	4204
926.352	4109
926.459	4246
926.566	4268
926.673	4124
926.779	4120
926.886	4090
926.993	4017
927.099	3972
927.206	3918
927.312	3896
927.419	4040
927.525	4010
927.631	4078
927.737	3922
927.843	3960
927.95	3846
928.056	3926
928.162	3979
928.267	4044
928.373	4656
928.479	4105
928.585	3876
928.69	3979
928.796	4097
928.901	3934
929.007	3842
929.112	3994
929.218	3979
929.323	3953
929.428	3945
929.533	4105
929.638	3907
929.743	3953
929.848	4017
929.953	3953
930.058	3937
930.163	3800
930.267	3827
930.372	3998
930.477	3823
930.581	4063
930.685	3968
930.79	3797
930.894	3892
930.998	3831
931.103	3994
931.207	3713
931.311	3713
931.415	3690
931.519	3534
931.623	3523
