Data from test_V78500241_2009.txt Node
Date: Fri Mar 25 17:02:58 CST 2022
User: usil
Spectrometer: V785-0024
Trigger mode: 0
Integration Time (sec): 4.000000E-1
Scans to average: 1
Nonlinearity correction enabled: false
Boxcar width: 0
Storing dark spectrum: false
XAxis mode: Wavelengths
Number of Pixels in Spectrum: 1024
>>>>>Begin Spectral Data<<<<<
801.071	7963
801.214	7947
801.356	7887
801.499	7883
801.641	7727
801.783	7852
801.926	7986
802.068	7921
802.211	7951
802.353	8024
802.496	7833
802.638	7757
802.78	7864
802.923	7898
803.065	7814
803.208	7906
803.35	7913
803.492	8069
803.635	8130
803.777	8084
803.919	8111
804.061	8362
804.204	8180
804.346	8081
804.488	8001
804.63	7997
804.773	7932
804.915	8111
805.057	8324
805.199	8115
805.341	8084
805.483	8263
805.626	8199
805.768	8145
805.91	8233
806.052	8244
806.194	8130
806.336	8309
806.478	8161
806.62	8039
806.762	8199
806.904	8358
807.046	8385
807.188	8393
807.33	8328
807.472	8370
807.614	8138
807.756	8187
807.898	8012
808.04	7860
808.182	7909
808.324	7906
808.465	7925
808.607	8107
808.749	8077
808.891	8248
809.033	8225
809.174	8237
809.316	8069
809.458	8092
809.6	8024
809.741	8005
809.883	8001
810.025	8153
810.166	8008
810.308	8039
810.45	7921
810.591	7837
810.733	7784
810.875	7674
811.016	7487
811.158	7441
811.299	7525
811.441	7746
811.582	7662
811.724	7559
811.865	7533
812.007	7628
812.148	7563
812.29	7620
812.431	7792
812.573	7883
812.714	7940
812.855	8088
812.997	8145
813.138	8275
813.279	8153
813.421	8039
813.562	7963
813.703	7780
813.845	7708
813.986	7419
814.127	7297
814.268	7175
814.41	7217
814.551	7137
814.692	7259
814.833	7114
814.974	7152
815.115	7179
815.256	6916
815.397	6897
815.539	6951
815.68	6802
815.821	6749
815.962	6848
816.103	6795
816.244	6684
816.385	6555
816.526	6578
816.666	6452
816.807	6334
816.948	6429
817.089	6475
817.23	6407
817.371	6414
817.512	6365
817.653	6376
817.793	6323
817.934	6391
818.075	6422
818.216	6441
818.356	6464
818.497	6232
818.638	6133
818.778	6171
818.919	6175
819.06	6163
819.2	6350
819.341	6296
819.481	6346
819.622	6517
819.762	6722
819.903	6722
820.043	6593
820.184	6506
820.324	6627
820.465	6703
820.605	6612
820.746	6627
820.886	6544
821.026	6692
821.167	6745
821.307	6768
821.447	6776
821.588	6722
821.728	6521
821.868	6490
822.008	6346
822.149	6376
822.289	6365
822.429	6152
822.569	6083
822.709	6155
822.849	5916
822.99	5954
823.13	5874
823.27	5897
823.41	5786
823.55	5756
823.69	5760
823.83	5813
823.97	5619
824.11	5566
824.25	5505
824.389	5547
824.529	5570
824.669	5501
824.809	5596
824.949	5634
825.089	5638
825.228	5547
825.368	5337
825.508	5303
825.648	5326
825.787	5368
825.927	5383
826.067	5311
826.206	5330
826.346	5395
826.485	5353
826.625	5379
826.765	5539
826.904	5471
827.044	5261
827.183	5216
827.323	5143
827.462	5231
827.601	5204
827.741	5235
827.88	5193
828.02	5098
828.159	5189
828.298	5311
828.437	5387
828.577	5208
828.716	5478
828.855	5326
828.994	5189
829.134	5170
829.273	5155
829.412	5136
829.551	5102
829.69	5178
829.829	5296
829.968	5357
830.107	5261
830.246	5318
830.385	5170
830.524	5143
830.663	5029
830.802	4965
830.941	4892
831.08	4835
831.219	4976
831.357	4972
831.496	5140
831.635	4927
831.774	4820
831.913	4850
832.051	4729
832.19	4759
832.329	4774
832.467	4687
832.606	4634
832.744	4656
832.883	4733
833.022	4736
833.16	4793
833.299	4831
833.437	4774
833.576	4824
833.714	4858
833.852	4900
833.991	4866
834.129	4965
834.267	4892
834.406	4873
834.544	4968
834.682	4987
834.821	4991
834.959	5185
835.097	4957
835.235	5143
835.373	5079
835.511	5067
835.65	5029
835.788	4934
835.926	4881
836.064	4850
836.202	4961
836.34	5178
836.478	5242
836.615	5121
836.753	5258
836.891	5280
837.029	5258
837.167	5151
837.305	5132
837.443	5060
837.58	5025
837.718	5280
837.856	5151
837.993	5105
838.131	5208
838.269	5181
838.406	5201
838.544	5181
838.681	5052
838.819	4999
838.956	4885
839.094	4930
839.231	4995
839.369	5064
839.506	5448
839.643	5261
839.781	5086
839.918	5048
840.055	5117
840.193	5105
840.33	5086
840.467	5181
840.604	5174
840.742	5410
840.879	5102
841.016	5064
841.153	5140
841.29	5349
841.427	5322
841.564	5315
841.701	5353
841.838	5212
841.975	5189
842.112	5235
842.249	5117
842.385	5128
842.522	5292
842.659	5143
842.796	5064
842.933	5208
843.069	5132
843.206	5143
843.343	5322
843.479	5242
843.616	5242
843.752	4995
843.889	5029
844.025	5223
844.162	5010
844.298	5204
844.435	5102
844.571	4984
844.708	5162
844.844	5292
844.98	5349
845.117	5299
845.253	5113
845.389	5079
845.525	5140
845.661	5124
845.798	5033
845.934	5128
846.07	5056
846.206	5208
846.342	5277
846.478	5174
846.614	4991
846.75	4968
846.886	4919
847.022	5117
847.158	5003
847.294	5083
847.429	5140
847.565	4995
847.701	5280
847.837	4831
847.972	4831
848.108	4957
848.244	4919
848.379	4748
848.515	4710
848.65	4691
848.786	4771
848.921	4729
849.057	4889
849.192	4900
849.328	4805
849.463	4866
849.598	4782
849.734	4721
849.869	4721
850.004	4607
850.14	4668
850.275	4603
850.41	4542
850.545	4550
850.68	4599
850.815	4656
850.95	4622
851.085	4828
851.22	4767
851.355	4630
851.49	4634
851.625	4611
851.76	4656
851.895	4603
852.03	4538
852.165	4641
852.299	4763
852.434	4759
852.569	4740
852.703	4778
852.838	4843
852.973	4930
853.107	4908
853.242	4755
853.376	4630
853.511	4550
853.645	4630
853.78	4793
853.914	4694
854.048	4649
854.183	4637
854.317	4710
854.451	4911
854.585	4653
854.72	4645
854.854	4748
854.988	4596
855.122	4615
855.256	4512
855.39	4694
855.524	4744
855.658	4748
855.792	4679
855.926	4694
856.06	4691
856.194	4759
856.327	4641
856.461	4592
856.595	4641
856.729	4645
856.862	4736
856.996	4653
857.13	4733
857.263	4774
857.397	4797
857.53	4664
857.664	4778
857.797	4748
857.931	4714
858.064	4630
858.197	4675
858.331	4668
858.464	4573
858.597	4519
858.731	4615
858.864	4626
858.997	4561
859.13	4653
859.263	4675
859.396	4656
859.529	4580
859.662	4542
859.795	4550
859.928	4580
860.061	4759
860.194	4763
860.327	4558
860.46	4588
860.592	4714
860.725	4733
860.858	4721
860.99	4565
861.123	4531
861.256	4497
861.388	4607
861.521	5296
861.653	4440
861.786	4432
861.918	4459
862.05	4546
862.183	4580
862.315	4603
862.447	4679
862.58	4569
862.712	4348
862.844	4363
862.976	4432
863.108	4440
863.24	4721
863.372	4287
863.504	4428
863.636	4451
863.768	4493
863.9	4436
864.032	4314
864.164	4386
864.296	4474
864.428	4538
864.559	4508
864.691	4516
864.823	4512
864.954	4546
865.086	4500
865.217	4497
865.349	4440
865.48	4436
865.612	4527
865.743	4626
865.875	4481
866.006	4421
866.137	4462
866.269	4375
866.4	4428
866.531	4402
866.662	4405
866.793	4432
866.924	4402
867.055	4489
867.186	4504
867.317	4432
867.448	4398
867.579	4383
867.71	4383
867.841	4348
867.972	4455
868.103	4413
868.233	4459
868.364	4402
868.495	4516
868.625	4637
868.756	4698
868.886	4554
869.017	4615
869.147	4748
869.278	4774
869.408	4672
869.539	4675
869.669	4706
869.799	4615
869.929	4767
870.06	4744
870.19	4968
870.32	4934
870.45	4938
870.58	5018
870.71	5029
870.84	5090
870.97	4896
871.1	4881
871.23	5189
871.36	5124
871.489	4991
871.619	5060
871.749	5090
871.879	5105
872.008	5155
872.138	5010
872.267	4949
872.397	4862
872.526	4831
872.656	4710
872.785	4755
872.915	4995
873.044	4987
873.173	4972
873.303	4980
873.432	4911
873.561	4938
873.69	4892
873.819	4831
873.948	4923
874.077	4812
874.206	4755
874.335	4793
874.464	4949
874.593	5086
874.722	4972
874.851	5109
874.979	5060
875.108	5003
875.237	4889
875.365	4866
875.494	4885
875.623	4999
875.751	4812
875.88	4870
876.008	4965
876.136	5071
876.265	5140
876.393	5349
876.521	5269
876.65	5280
876.778	5159
876.906	5056
877.034	5029
877.162	5033
877.29	4984
877.418	5018
877.546	5029
877.674	5033
877.802	5014
877.93	5003
878.058	4915
878.185	4881
878.313	4957
878.441	4991
878.568	4809
878.696	4866
878.824	4904
878.951	5010
879.079	5124
879.206	5307
879.333	5102
879.461	4976
879.588	4980
879.715	5121
879.842	5254
879.97	4995
880.097	4793
880.224	4763
880.351	4793
880.478	4801
880.605	4801
880.732	4850
880.859	5048
880.986	4938
881.112	4854
881.239	4725
881.366	4637
881.493	4596
881.619	4584
881.746	4607
881.872	4637
881.999	4687
882.125	4664
882.252	4771
882.378	4797
882.505	4961
882.631	4824
882.757	4729
882.883	4744
883.01	4771
883.136	4668
883.262	4634
883.388	4565
883.514	4881
883.64	4847
883.766	4755
883.892	4660
884.018	4717
884.143	4862
884.269	5033
884.395	4679
884.52	4607
884.646	4622
884.772	4580
884.897	4573
885.023	4664
885.148	4797
885.274	4877
885.399	4797
885.524	4717
885.65	4672
885.775	4725
885.9	4729
886.025	4778
886.15	4774
886.275	4740
886.4	4596
886.525	4706
886.65	4672
886.775	4641
886.9	4904
887.025	5033
887.149	4744
887.274	4649
887.399	4618
887.523	4641
887.648	4580
887.773	4637
887.897	4771
888.021	4748
888.146	4714
888.27	4805
888.395	4862
888.519	4824
888.643	4805
888.767	4816
888.891	4672
889.015	4622
889.139	4637
889.263	4577
889.387	4771
889.511	4862
889.635	4790
889.759	4618
889.883	4679
890.006	4733
890.13	4801
890.254	4603
890.377	4687
890.501	4550
890.624	4508
890.748	4611
890.871	4535
890.995	4421
891.118	4386
891.241	4489
891.364	4535
891.488	4694
891.611	4478
891.734	4554
891.857	4611
891.98	4546
892.103	4618
892.226	4550
892.349	4523
892.471	4402
892.594	4580
892.717	4603
892.839	4542
892.962	4573
893.085	4622
893.207	4641
893.33	4459
893.452	4489
893.575	4660
893.697	4561
893.819	4793
893.941	4786
894.064	4748
894.186	4584
894.308	4584
894.43	4729
894.552	4816
894.674	4755
894.796	4535
894.918	4588
895.04	4561
895.161	4729
895.283	4615
895.405	4603
895.526	4645
895.648	4691
895.769	4691
895.891	4755
896.012	4740
896.134	4698
896.255	4634
896.376	4645
896.498	4580
896.619	4672
896.74	4592
896.861	4653
896.982	4930
897.103	5052
897.224	4782
897.345	4710
897.466	4637
897.587	4736
897.708	4881
897.828	4752
897.949	4653
898.07	4546
898.19	4679
898.311	4870
898.431	4645
898.552	4706
898.672	4812
898.792	4797
898.913	4729
899.033	4637
899.153	4512
899.273	4436
899.393	4474
899.513	4596
899.633	4512
899.753	4546
899.873	4497
899.993	4592
900.113	4535
900.232	4565
900.352	4485
900.472	4504
900.591	4421
900.711	4485
900.83	4466
900.95	4641
901.069	4645
901.189	4554
901.308	4329
901.427	4291
901.546	4383
901.665	4436
901.784	4497
901.904	4409
902.023	4295
902.141	4177
902.26	4147
902.379	4276
902.498	4227
902.617	4219
902.735	4352
902.854	4421
902.973	4360
903.091	4158
903.21	4272
903.328	4310
903.446	4295
903.565	4249
903.683	4325
903.801	4303
903.919	4379
904.038	4428
904.156	4322
904.274	4398
904.392	4421
904.51	4451
904.627	4474
904.745	4558
904.863	4622
904.981	4371
905.098	4344
905.216	4337
905.334	4417
905.451	4459
905.569	4428
905.686	4561
905.803	4565
905.921	4417
906.038	4535
906.155	4478
906.272	4443
906.389	4481
906.506	4363
906.623	4356
906.74	4363
906.857	4303
906.974	4344
907.091	4573
907.208	4672
907.324	4618
907.441	4481
907.557	4371
907.674	4371
907.79	4333
907.907	4371
908.023	4451
908.139	4470
908.256	4390
908.372	4455
908.488	4466
908.604	4386
908.72	4333
908.836	4341
908.952	4363
909.068	4447
909.184	4592
909.3	4459
909.415	4535
909.531	4550
909.647	4386
909.762	4360
909.878	4318
909.993	4436
910.108	4466
910.224	4459
910.339	4481
910.454	4428
910.57	4329
910.685	4352
910.8	4675
910.915	4584
911.03	4489
911.145	4352
911.259	4341
911.374	4356
911.489	4322
911.604	4284
911.718	4147
911.833	4200
911.947	4048
912.062	4044
912.176	4249
912.291	4234
912.405	4234
912.519	4455
912.633	4478
912.748	4379
912.862	4367
912.976	4257
913.09	4112
913.204	4166
913.318	4253
913.431	4363
913.545	4360
913.659	4443
913.772	4367
913.886	4253
914	4173
914.113	4337
914.226	4409
914.34	4402
914.453	4257
914.566	4447
914.68	4314
914.793	4314
914.906	4166
915.019	4124
915.132	4097
915.245	4192
915.358	4238
915.47	4261
915.583	4261
915.696	4268
915.809	4413
915.921	4363
916.034	4276
916.146	4257
916.259	4177
916.371	4356
916.483	4341
916.595	4253
916.708	4314
916.82	4303
916.932	4291
917.044	4352
917.156	4314
917.268	4249
917.38	4310
917.491	4303
917.603	4363
917.715	4413
917.826	4405
917.938	4325
918.049	4234
918.161	4363
918.272	4504
918.384	4508
918.495	4481
918.606	4242
918.717	4280
918.828	4356
918.939	4333
919.05	4265
919.161	4333
919.272	4131
919.383	4280
919.494	4436
919.604	4634
919.715	4417
919.826	4356
919.936	4386
920.047	4504
920.157	4489
920.267	4656
920.378	4531
920.488	4451
920.598	4710
920.708	4870
920.818	4755
920.928	4748
921.038	4976
921.148	4881
921.258	4607
921.368	4577
921.477	4538
921.587	4474
921.697	4360
921.806	4512
921.916	4451
922.025	4234
922.134	4272
922.244	4204
922.353	4341
922.462	4150
922.571	4128
922.68	3956
922.789	3979
922.898	3991
923.007	3949
923.116	4143
923.224	4040
923.333	4044
923.442	3994
923.55	4029
923.659	4032
923.767	4105
923.876	3991
923.984	4097
924.092	3972
924.201	4082
924.309	4097
924.417	4131
924.525	4017
924.633	4105
924.741	5025
924.849	3888
924.956	4086
925.064	3918
925.172	3907
925.279	3987
925.387	4074
925.494	4017
925.602	4162
925.709	4192
925.816	4044
925.924	4105
926.031	4234
926.138	4150
926.245	4219
926.352	4082
926.459	4268
926.566	4299
926.673	4139
926.779	4086
926.886	4063
926.993	4006
927.099	3972
927.206	3964
927.312	3945
927.419	4093
927.525	3987
927.631	4059
927.737	3987
927.843	3926
927.95	3823
928.056	3949
928.162	3983
928.267	4059
928.373	4599
928.479	4139
928.585	3846
928.69	4017
928.796	4071
928.901	3956
929.007	3819
929.112	3998
929.218	3941
929.323	3972
929.428	3907
929.533	4082
929.638	3926
929.743	3953
929.848	4017
929.953	3975
930.058	3934
930.163	3800
930.267	3785
930.372	3968
930.477	3808
930.581	4112
930.685	3960
930.79	3808
930.894	3884
930.998	3812
931.103	4021
931.207	3720
931.311	3713
931.415	3652
931.519	3538
931.623	3568
