Data from test_V78500241_2231.txt Node
Date: Fri Mar 25 17:04:30 CST 2022
User: usil
Spectrometer: V785-0024
Trigger mode: 0
Integration Time (sec): 4.000000E-1
Scans to average: 1
Nonlinearity correction enabled: false
Boxcar width: 0
Storing dark spectrum: false
XAxis mode: Wavelengths
Number of Pixels in Spectrum: 1024
>>>>>Begin Spectral Data<<<<<
801.071	8020
801.214	7967
801.356	7837
801.499	7845
801.641	7788
801.783	7830
801.926	8008
802.068	7955
802.211	7940
802.353	7936
802.496	7936
802.638	7818
802.78	7837
802.923	7902
803.065	7833
803.208	7833
803.35	7989
803.492	8149
803.635	8153
803.777	7986
803.919	8119
804.061	8454
804.204	8142
804.346	8073
804.488	7944
804.63	8065
804.773	7974
804.915	8103
805.057	8328
805.199	8180
805.341	8218
805.483	8229
805.626	8199
805.768	8081
805.91	8149
806.052	8130
806.194	8134
806.336	8271
806.478	8077
806.62	8062
806.762	8134
806.904	8282
807.046	8415
807.188	8290
807.33	8279
807.472	8298
807.614	8046
807.756	8176
807.898	7997
808.04	7883
808.182	7909
808.324	7841
808.465	7902
808.607	8024
808.749	8077
808.891	8176
809.033	8275
809.174	8237
809.316	8065
809.458	8031
809.6	7978
809.741	7997
809.883	8058
810.025	8084
810.166	7993
810.308	8001
810.45	7944
810.591	7860
810.733	7708
810.875	7624
811.016	7499
811.158	7438
811.299	7605
811.441	7670
811.582	7636
811.724	7483
811.865	7487
812.007	7571
812.148	7571
812.29	7590
812.431	7788
812.573	7871
812.714	7997
812.855	8084
812.997	8240
813.138	8225
813.279	8172
813.421	8020
813.562	7887
813.703	7807
813.845	7639
813.986	7377
814.127	7217
814.268	7244
814.41	7141
814.551	7206
814.692	7194
814.833	7088
814.974	7069
815.115	7057
815.256	6977
815.397	6939
815.539	6989
815.68	6798
815.821	6791
815.962	6882
816.103	6810
816.244	6745
816.385	6578
816.526	6627
816.666	6506
816.807	6281
816.948	6441
817.089	6456
817.23	6429
817.371	6372
817.512	6391
817.653	6338
817.793	6372
817.934	6350
818.075	6441
818.216	6391
818.356	6452
818.497	6300
818.638	6087
818.778	6110
818.919	6140
819.06	6182
819.2	6334
819.341	6270
819.481	6388
819.622	6578
819.762	6707
819.903	6692
820.043	6627
820.184	6582
820.324	6498
820.465	6681
820.605	6631
820.746	6555
820.886	6494
821.026	6692
821.167	6684
821.307	6768
821.447	6707
821.588	6677
821.728	6574
821.868	6506
822.008	6296
822.149	6289
822.289	6281
822.429	6155
822.569	6129
822.709	6083
822.849	5904
822.99	5855
823.13	5942
823.27	5927
823.41	5802
823.55	5847
823.69	5756
823.83	5767
823.97	5638
824.11	5528
824.25	5490
824.389	5505
824.529	5585
824.669	5490
824.809	5600
824.949	5642
825.089	5608
825.228	5505
825.368	5364
825.508	5337
825.648	5326
825.787	5341
825.927	5357
826.067	5337
826.206	5280
826.346	5288
826.485	5376
826.625	5391
826.765	5558
826.904	5440
827.044	5231
827.183	5151
827.323	5109
827.462	5212
827.601	5155
827.741	5197
827.88	5181
828.02	5075
828.159	5193
828.298	5235
828.437	5299
828.577	5250
828.716	5474
828.855	5261
828.994	5128
829.134	5132
829.273	5189
829.412	5181
829.551	5151
829.69	5166
829.829	5258
829.968	5368
830.107	5330
830.246	5280
830.385	5166
830.524	5143
830.663	5086
830.802	4991
830.941	4854
831.08	4850
831.219	4927
831.357	4919
831.496	5121
831.635	4953
831.774	4847
831.913	4866
832.051	4778
832.19	4778
832.329	4843
832.467	4672
832.606	4596
832.744	4740
832.883	4710
833.022	4778
833.16	4820
833.299	4816
833.437	4793
833.576	4862
833.714	4908
833.852	4881
833.991	4927
834.129	5010
834.267	4987
834.406	4930
834.544	5033
834.682	5010
834.821	4991
834.959	5201
835.097	4995
835.235	5178
835.373	5159
835.511	5147
835.65	5056
835.788	5037
835.926	4919
836.064	4919
836.202	4938
836.34	5204
836.478	5204
836.615	5178
836.753	5239
836.891	5341
837.029	5296
837.167	5258
837.305	5189
837.443	5140
837.58	5094
837.718	5250
837.856	5220
837.993	5178
838.131	5231
838.269	5223
838.406	5201
838.544	5185
838.681	5064
838.819	5041
838.956	4911
839.094	4946
839.231	5025
839.369	5105
839.506	5478
839.643	5303
839.781	5067
839.918	5010
840.055	5159
840.193	5155
840.33	5162
840.467	5151
840.604	5220
840.742	5448
840.879	5113
841.016	5124
841.153	5189
841.29	5425
841.427	5353
841.564	5349
841.701	5357
841.838	5326
841.975	5227
842.112	5315
842.249	5136
842.385	5166
842.522	5330
842.659	5143
842.796	5189
842.933	5220
843.069	5170
843.206	5201
843.343	5334
843.479	5311
843.616	5292
843.752	5079
843.889	5060
844.025	5231
844.162	5071
844.298	5220
844.435	5094
844.571	5136
844.708	5273
844.844	5322
844.98	5364
845.117	5315
845.253	5193
845.389	5086
845.525	5143
845.661	5174
845.798	5056
845.934	5174
846.07	5071
846.206	5223
846.342	5235
846.478	5140
846.614	5045
846.75	5003
846.886	4957
847.022	5166
847.158	5064
847.294	5086
847.429	5140
847.565	5064
847.701	5322
847.837	4877
847.972	4854
848.108	4999
848.244	4995
848.379	4824
848.515	4733
848.65	4729
848.786	4801
848.921	4755
849.057	4866
849.192	4892
849.328	4824
849.463	4889
849.598	4820
849.734	4755
849.869	4733
850.004	4645
850.14	4687
850.275	4660
850.41	4542
850.545	4573
850.68	4641
850.815	4641
850.95	4691
851.085	4793
851.22	4809
851.355	4717
851.49	4603
851.625	4729
851.76	4687
851.895	4618
852.03	4573
852.165	4668
852.299	4752
852.434	4797
852.569	4763
852.703	4782
852.838	4877
852.973	4930
853.107	4968
853.242	4790
853.376	4736
853.511	4584
853.645	4634
853.78	4816
853.914	4717
854.048	4736
854.183	4664
854.317	4752
854.451	4824
854.585	4679
854.72	4679
854.854	4835
854.988	4634
855.122	4702
855.256	4546
855.39	4691
855.524	4839
855.658	4771
855.792	4755
855.926	4748
856.06	4828
856.194	4824
856.327	4706
856.461	4694
856.595	4664
856.729	4645
856.862	4763
856.996	4725
857.13	4748
857.263	4820
857.397	4870
857.53	4679
857.664	4698
857.797	4744
857.931	4797
858.064	4698
858.197	4744
858.331	4694
858.464	4630
858.597	4580
858.731	4656
858.864	4679
858.997	4618
859.13	4694
859.263	4698
859.396	4759
859.529	4596
859.662	4577
859.795	4523
859.928	4634
860.061	4816
860.194	4774
860.327	4607
860.46	4599
860.592	4702
860.725	4759
860.858	4790
860.99	4672
861.123	4535
861.256	4550
861.388	4637
861.521	5337
861.653	4535
861.786	4436
861.918	4489
862.05	4538
862.183	4603
862.315	4653
862.447	4668
862.58	4580
862.712	4436
862.844	4409
862.976	4531
863.108	4455
863.24	4870
863.372	4352
863.504	4421
863.636	4417
863.768	4523
863.9	4474
864.032	4424
864.164	4443
864.296	4504
864.428	4561
864.559	4588
864.691	4607
864.823	4561
864.954	4516
865.086	4569
865.217	4497
865.349	4451
865.48	4474
865.612	4512
865.743	4679
865.875	4470
866.006	4478
866.137	4516
866.269	4428
866.4	4413
866.531	4440
866.662	4470
866.793	4436
866.924	4432
867.055	4535
867.186	4470
867.317	4440
867.448	4424
867.579	4436
867.71	4424
867.841	4363
867.972	4432
868.103	4489
868.233	4493
868.364	4466
868.495	4508
868.625	4687
868.756	4759
868.886	4592
869.017	4653
869.147	4778
869.278	4809
869.408	4645
869.539	4649
869.669	4710
869.799	4626
869.929	4820
870.06	4767
870.19	4976
870.32	4961
870.45	4957
870.58	5025
870.71	5121
870.84	5113
870.97	5010
871.1	5003
871.23	5143
871.36	5124
871.489	5090
871.619	5056
871.749	5113
871.879	5128
872.008	5170
872.138	5079
872.267	5003
872.397	4850
872.526	4820
872.656	4767
872.785	4820
872.915	5003
873.044	5075
873.173	4915
873.303	5006
873.432	4972
873.561	4961
873.69	4904
873.819	4919
873.948	4957
874.077	4850
874.206	4797
874.335	4839
874.464	5014
874.593	5102
874.722	5022
874.851	5094
874.979	5117
875.108	5071
875.237	4900
875.365	4881
875.494	4911
875.623	5025
875.751	4862
875.88	4930
876.008	5003
876.136	5056
876.265	5273
876.393	5349
876.521	5254
876.65	5239
876.778	5181
876.906	5083
877.034	5048
877.162	5105
877.29	4999
877.418	5075
877.546	5098
877.674	5052
877.802	5041
877.93	5064
878.058	4984
878.185	4919
878.313	4953
878.441	4968
878.568	4831
878.696	4831
878.824	5006
878.951	5060
879.079	5181
879.206	5315
879.333	5109
879.461	5018
879.588	5010
879.715	5143
879.842	5250
879.97	5010
880.097	4786
880.224	4767
880.351	4809
880.478	4843
880.605	4850
880.732	4801
880.859	5105
880.986	4919
881.112	4923
881.239	4790
881.366	4725
881.493	4637
881.619	4649
881.746	4660
881.872	4664
881.999	4637
882.125	4698
882.252	4797
882.378	4820
882.505	4957
882.631	4797
882.757	4736
882.883	4736
883.01	4763
883.136	4725
883.262	4618
883.388	4622
883.514	4805
883.64	4870
883.766	4809
883.892	4664
884.018	4725
884.143	4968
884.269	5029
884.395	4679
884.52	4626
884.646	4714
884.772	4588
884.897	4615
885.023	4725
885.148	4824
885.274	4873
885.399	4790
885.524	4721
885.65	4729
885.775	4778
885.9	4736
886.025	4831
886.15	4805
886.275	4729
886.4	4664
886.525	4736
886.65	4714
886.775	4698
886.9	4919
887.025	5056
887.149	4850
887.274	4653
887.399	4645
887.523	4626
887.648	4611
887.773	4611
887.897	4763
888.021	4763
888.146	4656
888.27	4793
888.395	4930
888.519	4892
888.643	4850
888.767	4797
888.891	4759
889.015	4588
889.139	4649
889.263	4607
889.387	4767
889.511	4866
889.635	4778
889.759	4656
889.883	4626
890.006	4740
890.13	4835
890.254	4637
890.377	4694
890.501	4561
890.624	4558
890.748	4641
890.871	4466
890.995	4440
891.118	4356
891.241	4523
891.364	4558
891.488	4649
891.611	4512
891.734	4573
891.857	4618
891.98	4577
892.103	4714
892.226	4565
892.349	4580
892.471	4413
892.594	4542
892.717	4607
892.839	4569
892.962	4599
893.085	4702
893.207	4584
893.33	4508
893.452	4512
893.575	4618
893.697	4580
893.819	4771
893.941	4816
894.064	4786
894.186	4618
894.308	4607
894.43	4714
894.552	4835
894.674	4782
894.796	4554
894.918	4637
895.04	4565
895.161	4710
895.283	4645
895.405	4603
895.526	4660
895.648	4740
895.769	4733
895.891	4706
896.012	4755
896.134	4710
896.255	4664
896.376	4607
896.498	4649
896.619	4664
896.74	4618
896.861	4649
896.982	4938
897.103	5140
897.224	4896
897.345	4797
897.466	4664
897.587	4725
897.708	4911
897.828	4767
897.949	4721
898.07	4580
898.19	4645
898.311	4847
898.431	4656
898.552	4733
898.672	4816
898.792	4786
898.913	4801
899.033	4611
899.153	4519
899.273	4413
899.393	4478
899.513	4573
899.633	4538
899.753	4554
899.873	4493
899.993	4607
900.113	4558
900.232	4615
900.352	4485
900.472	4493
900.591	4413
900.711	4504
900.83	4485
900.95	4615
901.069	4675
901.189	4512
901.308	4436
901.427	4303
901.546	4402
901.665	4447
901.784	4485
901.904	4402
902.023	4341
902.141	4204
902.26	4207
902.379	4272
902.498	4265
902.617	4230
902.735	4348
902.854	4386
902.973	4436
903.091	4177
903.21	4223
903.328	4344
903.446	4299
903.565	4268
903.683	4348
903.801	4291
903.919	4390
904.038	4443
904.156	4348
904.274	4481
904.392	4402
904.51	4402
904.627	4455
904.745	4565
904.863	4649
904.981	4428
905.098	4306
905.216	4405
905.334	4451
905.451	4440
905.569	4504
905.686	4584
905.803	4577
905.921	4436
906.038	4611
906.155	4523
906.272	4421
906.389	4436
906.506	4310
906.623	4379
906.74	4394
906.857	4348
906.974	4379
907.091	4618
907.208	4653
907.324	4558
907.441	4512
907.557	4325
907.674	4348
907.79	4352
907.907	4466
908.023	4489
908.139	4497
908.256	4398
908.372	4459
908.488	4428
908.604	4341
908.72	4356
908.836	4398
908.952	4383
909.068	4466
909.184	4573
909.3	4500
909.415	4599
909.531	4538
909.647	4371
909.762	4409
909.878	4363
909.993	4466
910.108	4367
910.224	4424
910.339	4470
910.454	4405
910.57	4318
910.685	4295
910.8	4710
910.915	4599
911.03	4519
911.145	4363
911.259	4310
911.374	4367
911.489	4280
911.604	4246
911.718	4162
911.833	4234
911.947	4040
912.062	4036
912.176	4223
912.291	4287
912.405	4234
912.519	4447
912.633	4500
912.748	4379
912.862	4299
912.976	4211
913.09	4097
913.204	4162
913.318	4272
913.431	4367
913.545	4386
913.659	4421
913.772	4360
913.886	4280
914	4204
914.113	4352
914.226	4455
914.34	4363
914.453	4265
914.566	4455
914.68	4344
914.793	4314
914.906	4169
915.019	4154
915.132	4048
915.245	4173
915.358	4234
915.47	4242
915.583	4280
915.696	4257
915.809	4424
915.921	4405
916.034	4280
916.146	4272
916.259	4207
916.371	4405
916.483	4375
916.595	4246
916.708	4337
916.82	4322
916.932	4314
917.044	4344
917.156	4303
917.268	4204
917.38	4310
917.491	4284
917.603	4337
917.715	4440
917.826	4459
917.938	4344
918.049	4257
918.161	4386
918.272	4554
918.384	4542
918.495	4451
918.606	4261
918.717	4234
918.828	4352
918.939	4367
919.05	4284
919.161	4356
919.272	4101
919.383	4246
919.494	4493
919.604	4622
919.715	4451
919.826	4306
919.936	4455
920.047	4538
920.157	4500
920.267	4687
920.378	4500
920.488	4546
920.598	4694
920.708	4889
920.818	4786
920.928	4820
921.038	4881
921.148	4946
921.258	4645
921.368	4558
921.477	4512
921.587	4493
921.697	4371
921.806	4550
921.916	4424
922.025	4257
922.134	4291
922.244	4253
922.353	4371
922.462	4147
922.571	4124
922.68	4013
922.789	3960
922.898	4093
923.007	3994
923.116	4086
923.224	4109
923.333	4086
923.442	3979
923.55	4013
923.659	4013
923.767	4078
923.876	3972
923.984	4135
924.092	4013
924.201	4124
924.309	4090
924.417	4097
924.525	4097
924.633	4086
924.741	5102
924.849	3880
924.956	4150
925.064	3953
925.172	3903
925.279	3949
925.387	4059
925.494	4048
925.602	4196
925.709	4173
925.816	4025
925.924	4150
926.031	4227
926.138	4185
926.245	4261
926.352	4105
926.459	4211
926.566	4314
926.673	4181
926.779	4101
926.886	4082
926.993	3964
927.099	3968
927.206	3903
927.312	3979
927.419	4048
927.525	4048
927.631	4093
927.737	3964
927.843	3918
927.95	3812
928.056	3934
928.162	3994
928.267	4101
928.373	4649
928.479	4135
928.585	3876
928.69	4067
928.796	4086
928.901	3968
929.007	3838
929.112	4032
929.218	4017
929.323	3873
929.428	3918
929.533	4128
929.638	3915
929.743	3983
929.848	4048
929.953	3964
930.058	3975
930.163	3778
930.267	3827
930.372	3983
930.477	3819
930.581	4067
930.685	3968
930.79	3831
930.894	3892
930.998	3823
931.103	4059
931.207	3736
931.311	3690
931.415	3701
931.519	3507
931.623	3572
