Data from test_V78500241_2427.txt Node
Date: Fri Mar 25 17:05:52 CST 2022
User: usil
Spectrometer: V785-0024
Trigger mode: 0
Integration Time (sec): 4.000000E-1
Scans to average: 1
Nonlinearity correction enabled: false
Boxcar width: 0
Storing dark spectrum: false
XAxis mode: Wavelengths
Number of Pixels in Spectrum: 1024
>>>>>Begin Spectral Data<<<<<
801.071	8077
801.214	8043
801.356	7868
801.499	7879
801.641	7830
801.783	7803
801.926	8005
802.068	7917
802.211	8016
802.353	7982
802.496	7902
802.638	7974
802.78	7936
802.923	7951
803.065	7826
803.208	7917
803.35	8012
803.492	8024
803.635	8161
803.777	8035
803.919	8145
804.061	8427
804.204	8214
804.346	8046
804.488	8016
804.63	8103
804.773	8012
804.915	8119
805.057	8317
805.199	8199
805.341	8199
805.483	8324
805.626	8248
805.768	8111
805.91	8218
806.052	8256
806.194	8119
806.336	8328
806.478	8084
806.62	8134
806.762	8172
806.904	8263
807.046	8545
807.188	8358
807.33	8290
807.472	8332
807.614	8202
807.756	8168
807.898	8058
808.04	7849
808.182	7879
808.324	7871
808.465	7947
808.607	8027
808.749	8096
808.891	8286
809.033	8366
809.174	8206
809.316	8092
809.458	8092
809.6	8081
809.741	8092
809.883	7963
810.025	8119
810.166	8096
810.308	8020
810.45	8016
810.591	7955
810.733	7757
810.875	7662
811.016	7578
811.158	7544
811.299	7666
811.441	7708
811.582	7727
811.724	7620
811.865	7559
812.007	7559
812.148	7575
812.29	7681
812.431	7727
812.573	7875
812.714	8027
812.855	8153
812.997	8248
813.138	8389
813.279	8180
813.421	8149
813.562	7963
813.703	7894
813.845	7803
813.986	7426
814.127	7244
814.268	7263
814.41	7236
814.551	7190
814.692	7168
814.833	7099
814.974	7069
815.115	7072
815.256	7004
815.397	6966
815.539	6943
815.68	6814
815.821	6798
815.962	6871
816.103	6837
816.244	6726
816.385	6681
816.526	6639
816.666	6521
816.807	6254
816.948	6433
817.089	6471
817.23	6513
817.371	6384
817.512	6391
817.653	6490
817.793	6365
817.934	6418
818.075	6471
818.216	6464
818.356	6452
818.497	6323
818.638	6110
818.778	6136
818.919	6159
819.06	6216
819.2	6346
819.341	6403
819.481	6441
819.622	6547
819.762	6726
819.903	6719
820.043	6654
820.184	6616
820.324	6578
820.465	6768
820.605	6726
820.746	6688
820.886	6551
821.026	6711
821.167	6783
821.307	6821
821.447	6821
821.588	6749
821.728	6620
821.868	6563
822.008	6342
822.149	6479
822.289	6327
822.429	6182
822.569	6091
822.709	6216
822.849	5920
822.99	5961
823.13	5901
823.27	5939
823.41	5802
823.55	5821
823.69	5844
823.83	5790
823.97	5665
824.11	5570
824.25	5543
824.389	5619
824.529	5592
824.669	5505
824.809	5604
824.949	5695
825.089	5646
825.228	5566
825.368	5395
825.508	5368
825.648	5376
825.787	5330
825.927	5398
826.067	5288
826.206	5318
826.346	5360
826.485	5478
826.625	5402
826.765	5562
826.904	5493
827.044	5227
827.183	5246
827.323	5132
827.462	5288
827.601	5193
827.741	5212
827.88	5197
828.02	5109
828.159	5242
828.298	5318
828.437	5387
828.577	5326
828.716	5554
828.855	5311
828.994	5178
829.134	5109
829.273	5212
829.412	5105
829.551	5155
829.69	5162
829.829	5254
829.968	5440
830.107	5315
830.246	5254
830.385	5147
830.524	5185
830.663	5079
830.802	5018
830.941	4870
831.08	4923
831.219	5003
831.357	4987
831.496	5151
831.635	4930
831.774	4900
831.913	4889
832.051	4752
832.19	4721
832.329	4828
832.467	4721
832.606	4683
832.744	4733
832.883	4748
833.022	4771
833.16	4839
833.299	4854
833.437	4790
833.576	4858
833.714	4908
833.852	4908
833.991	4881
834.129	4930
834.267	4938
834.406	4938
834.544	4949
834.682	4980
834.821	5010
834.959	5147
835.097	5014
835.235	5170
835.373	5105
835.511	5102
835.65	5060
835.788	5094
835.926	4934
836.064	4919
836.202	4972
836.34	5212
836.478	5242
836.615	5155
836.753	5197
836.891	5326
837.029	5216
837.167	5185
837.305	5185
837.443	5231
837.58	5140
837.718	5239
837.856	5246
837.993	5162
838.131	5212
838.269	5208
838.406	5212
838.544	5208
838.681	5041
838.819	5025
838.956	4885
839.094	4923
839.231	5003
839.369	5113
839.506	5433
839.643	5326
839.781	5083
839.918	5029
840.055	5094
840.193	5064
840.33	5140
840.467	5151
840.604	5201
840.742	5429
840.879	5098
841.016	5083
841.153	5185
841.29	5360
841.427	5337
841.564	5353
841.701	5383
841.838	5299
841.975	5193
842.112	5299
842.249	5117
842.385	5136
842.522	5269
842.659	5136
842.796	5197
842.933	5193
843.069	5147
843.206	5181
843.343	5330
843.479	5250
843.616	5231
843.752	5064
843.889	5033
844.025	5212
844.162	5071
844.298	5277
844.435	5060
844.571	5079
844.708	5220
844.844	5334
844.98	5337
845.117	5307
845.253	5159
845.389	5098
845.525	5185
845.661	5113
845.798	5041
845.934	5151
846.07	5056
846.206	5166
846.342	5315
846.478	5140
846.614	5022
846.75	4980
846.886	4927
847.022	5147
847.158	5094
847.294	5025
847.429	5113
847.565	5037
847.701	5387
847.837	4835
847.972	4839
848.108	4991
848.244	4999
848.379	4740
848.515	4763
848.65	4740
848.786	4767
848.921	4805
849.057	4919
849.192	4919
849.328	4881
849.463	4889
849.598	4782
849.734	4801
849.869	4714
850.004	4641
850.14	4656
850.275	4615
850.41	4554
850.545	4603
850.68	4615
850.815	4675
850.95	4626
851.085	4839
851.22	4725
851.355	4679
851.49	4618
851.625	4653
851.76	4675
851.895	4615
852.03	4538
852.165	4668
852.299	4729
852.434	4790
852.569	4793
852.703	4782
852.838	4820
852.973	4877
853.107	4904
853.242	4767
853.376	4675
853.511	4603
853.645	4656
853.78	4793
853.914	4679
854.048	4698
854.183	4668
854.317	4687
854.451	4873
854.585	4691
854.72	4664
854.854	4771
854.988	4573
855.122	4653
855.256	4546
855.39	4694
855.524	4801
855.658	4740
855.792	4683
855.926	4748
856.06	4797
856.194	4809
856.327	4714
856.461	4645
856.595	4626
856.729	4641
856.862	4820
856.996	4679
857.13	4755
857.263	4744
857.397	4831
857.53	4710
857.664	4698
857.797	4755
857.931	4729
858.064	4656
858.197	4778
858.331	4637
858.464	4660
858.597	4497
858.731	4622
858.864	4630
858.997	4611
859.13	4672
859.263	4630
859.396	4672
859.529	4573
859.662	4622
859.795	4569
859.928	4622
860.061	4786
860.194	4748
860.327	4637
860.46	4592
860.592	4668
860.725	4752
860.858	4752
860.99	4577
861.123	4554
861.256	4588
861.388	4618
861.521	5353
861.653	4504
861.786	4481
861.918	4451
862.05	4580
862.183	4512
862.315	4634
862.447	4675
862.58	4584
862.712	4405
862.844	4318
862.976	4538
863.108	4462
863.24	4763
863.372	4348
863.504	4451
863.636	4398
863.768	4493
863.9	4481
864.032	4352
864.164	4405
864.296	4504
864.428	4599
864.559	4558
864.691	4577
864.823	4535
864.954	4493
865.086	4512
865.217	4462
865.349	4470
865.48	4478
865.612	4542
865.743	4611
865.875	4474
866.006	4443
866.137	4508
866.269	4478
866.4	4428
866.531	4405
866.662	4421
866.793	4402
866.924	4413
867.055	4504
867.186	4390
867.317	4451
867.448	4360
867.579	4436
867.71	4421
867.841	4405
867.972	4489
868.103	4440
868.233	4481
868.364	4466
868.495	4519
868.625	4675
868.756	4771
868.886	4565
869.017	4675
869.147	4774
869.278	4778
869.408	4660
869.539	4679
869.669	4752
869.799	4694
869.929	4774
870.06	4710
870.19	4957
870.32	4889
870.45	4995
870.58	5060
870.71	5090
870.84	5109
870.97	5022
871.1	4923
871.23	5136
871.36	5124
871.489	5064
871.619	5045
871.749	5113
871.879	5147
872.008	5162
872.138	5083
872.267	4999
872.397	4885
872.526	4820
872.656	4740
872.785	4820
872.915	4972
873.044	4987
873.173	4953
873.303	4972
873.432	4972
873.561	4987
873.69	4889
873.819	4858
873.948	4908
874.077	4793
874.206	4744
874.335	4790
874.464	4900
874.593	5056
874.722	4980
874.851	5128
874.979	5071
875.108	5018
875.237	4904
875.365	4892
875.494	4930
875.623	4942
875.751	4828
875.88	4892
876.008	4991
876.136	5025
876.265	5132
876.393	5376
876.521	5299
876.65	5231
876.778	5143
876.906	5086
877.034	5025
877.162	5041
877.29	4995
877.418	5045
877.546	5083
877.674	5086
877.802	5037
877.93	5064
878.058	4923
878.185	4877
878.313	4980
878.441	4995
878.568	4828
878.696	4923
878.824	4965
878.951	5029
879.079	5124
879.206	5326
879.333	5128
879.461	4991
879.588	5029
879.715	5140
879.842	5227
879.97	5010
880.097	4782
880.224	4721
880.351	4824
880.478	4824
880.605	4767
880.732	4805
880.859	5071
880.986	4908
881.112	4915
881.239	4866
881.366	4679
881.493	4622
881.619	4577
881.746	4630
881.872	4634
881.999	4656
882.125	4706
882.252	4767
882.378	4809
882.505	4965
882.631	4786
882.757	4630
882.883	4755
883.01	4786
883.136	4752
883.262	4634
883.388	4535
883.514	4790
883.64	4850
883.766	4839
883.892	4664
884.018	4717
884.143	4889
884.269	5037
884.395	4702
884.52	4664
884.646	4599
884.772	4622
884.897	4531
885.023	4679
885.148	4771
885.274	4896
885.399	4782
885.524	4725
885.65	4679
885.775	4763
885.9	4694
886.025	4839
886.15	4866
886.275	4721
886.4	4668
886.525	4752
886.65	4691
886.775	4721
886.9	4911
887.025	5022
887.149	4854
887.274	4656
887.399	4607
887.523	4588
887.648	4561
887.773	4565
887.897	4744
888.021	4812
888.146	4679
888.27	4778
888.395	4930
888.519	4858
888.643	4820
888.767	4797
888.891	4653
889.015	4637
889.139	4626
889.263	4558
889.387	4740
889.511	4854
889.635	4809
889.759	4649
889.883	4637
890.006	4736
890.13	4816
890.254	4649
890.377	4683
890.501	4531
890.624	4531
890.748	4615
890.871	4474
890.995	4462
891.118	4386
891.241	4504
891.364	4500
891.488	4656
891.611	4470
891.734	4535
891.857	4626
891.98	4615
892.103	4664
892.226	4626
892.349	4527
892.471	4421
892.594	4561
892.717	4634
892.839	4554
892.962	4615
893.085	4649
893.207	4672
893.33	4447
893.452	4512
893.575	4675
893.697	4565
893.819	4778
893.941	4843
894.064	4771
894.186	4596
894.308	4569
894.43	4774
894.552	4725
894.674	4805
894.796	4554
894.918	4626
895.04	4615
895.161	4710
895.283	4679
895.405	4569
895.526	4664
895.648	4740
895.769	4698
895.891	4733
896.012	4744
896.134	4714
896.255	4668
896.376	4634
896.498	4634
896.619	4702
896.74	4622
896.861	4607
896.982	4953
897.103	5052
897.224	4824
897.345	4782
897.466	4660
897.587	4752
897.708	4866
897.828	4801
897.949	4675
898.07	4588
898.19	4607
898.311	4759
898.431	4668
898.552	4763
898.672	4801
898.792	4797
898.913	4740
899.033	4687
899.153	4497
899.273	4421
899.393	4474
899.513	4497
899.633	4558
899.753	4542
899.873	4493
899.993	4569
900.113	4523
900.232	4569
900.352	4516
900.472	4531
900.591	4405
900.711	4455
900.83	4470
900.95	4660
901.069	4702
901.189	4538
901.308	4367
901.427	4295
901.546	4386
901.665	4462
901.784	4516
901.904	4398
902.023	4287
902.141	4211
902.26	4192
902.379	4325
902.498	4219
902.617	4268
902.735	4352
902.854	4367
902.973	4352
903.091	4242
903.21	4261
903.328	4295
903.446	4234
903.565	4249
903.683	4325
903.801	4295
903.919	4383
904.038	4436
904.156	4306
904.274	4443
904.392	4402
904.51	4470
904.627	4512
904.745	4618
904.863	4645
904.981	4409
905.098	4325
905.216	4360
905.334	4386
905.451	4447
905.569	4462
905.686	4580
905.803	4573
905.921	4428
906.038	4561
906.155	4443
906.272	4405
906.389	4478
906.506	4386
906.623	4443
906.74	4390
906.857	4314
906.974	4367
907.091	4538
907.208	4664
907.324	4516
907.441	4466
907.557	4360
907.674	4337
907.79	4306
907.907	4402
908.023	4489
908.139	4466
908.256	4413
908.372	4489
908.488	4459
908.604	4352
908.72	4299
908.836	4325
908.952	4333
909.068	4428
909.184	4538
909.3	4500
909.415	4565
909.531	4542
909.647	4344
909.762	4352
909.878	4341
909.993	4424
910.108	4375
910.224	4356
910.339	4504
910.454	4398
910.57	4390
910.685	4310
910.8	4656
910.915	4626
911.03	4432
911.145	4272
911.259	4329
911.374	4386
911.489	4287
911.604	4303
911.718	4169
911.833	4169
911.947	4097
912.062	4044
912.176	4234
912.291	4227
912.405	4238
912.519	4478
912.633	4512
912.748	4367
912.862	4284
912.976	4211
913.09	4097
913.204	4154
913.318	4268
913.431	4375
913.545	4409
913.659	4459
913.772	4352
913.886	4284
914	4211
914.113	4363
914.226	4493
914.34	4344
914.453	4188
914.566	4402
914.68	4299
914.793	4337
914.906	4135
915.019	4101
915.132	4116
915.245	4200
915.358	4196
915.47	4246
915.583	4276
915.696	4318
915.809	4470
915.921	4417
916.034	4272
916.146	4246
916.259	4242
916.371	4394
916.483	4352
916.595	4234
916.708	4341
916.82	4306
916.932	4310
917.044	4337
917.156	4322
917.268	4215
917.38	4299
917.491	4261
917.603	4383
917.715	4421
917.826	4459
917.938	4310
918.049	4234
918.161	4344
918.272	4497
918.384	4542
918.495	4447
918.606	4337
918.717	4291
918.828	4318
918.939	4341
919.05	4280
919.161	4303
919.272	4109
919.383	4249
919.494	4402
919.604	4637
919.715	4440
919.826	4383
919.936	4405
920.047	4550
920.157	4470
920.267	4664
920.378	4493
920.488	4485
920.598	4691
920.708	4881
920.818	4828
920.928	4744
921.038	4968
921.148	4911
921.258	4645
921.368	4542
921.477	4474
921.587	4481
921.697	4390
921.806	4573
921.916	4459
922.025	4246
922.134	4291
922.244	4211
922.353	4314
922.462	4173
922.571	4147
922.68	4032
922.789	3998
922.898	3987
923.007	3991
923.116	4109
923.224	4025
923.333	4086
923.442	3960
923.55	3979
923.659	4059
923.767	4101
923.876	4032
923.984	4143
924.092	4010
924.201	4051
924.309	4109
924.417	4112
924.525	4029
924.633	4105
924.741	5075
924.849	3876
924.956	4105
925.064	3964
925.172	3907
925.279	3926
925.387	4059
925.494	4051
925.602	4257
925.709	4185
925.816	4055
925.924	4086
926.031	4219
926.138	4154
926.245	4188
926.352	4078
926.459	4257
926.566	4356
926.673	4147
926.779	4086
926.886	4105
926.993	3975
927.099	4010
927.206	3896
927.312	3896
927.419	4071
927.525	4021
927.631	4078
927.737	3979
927.843	3960
927.95	3831
928.056	3926
928.162	4013
928.267	4048
928.373	4618
928.479	4173
928.585	3838
928.69	4040
928.796	4082
928.901	3956
929.007	3850
929.112	3949
929.218	3987
929.323	3945
929.428	3972
929.533	4097
929.638	3892
929.743	3979
929.848	4029
929.953	3987
930.058	3941
930.163	3819
930.267	3816
930.372	3987
930.477	3781
930.581	4067
930.685	3960
930.79	3797
930.894	3869
930.998	3846
931.103	4074
931.207	3713
931.311	3709
931.415	3736
931.519	3496
931.623	3534
