Data from test_V78500241_301.txt Node
Date: Fri Mar 25 16:51:05 CST 2022
User: usil
Spectrometer: V785-0024
Trigger mode: 0
Integration Time (sec): 4.000000E-1
Scans to average: 1
Nonlinearity correction enabled: false
Boxcar width: 0
Storing dark spectrum: false
XAxis mode: Wavelengths
Number of Pixels in Spectrum: 1024
>>>>>Begin Spectral Data<<<<<
801.071	8123
801.214	8039
801.356	7936
801.499	7947
801.641	7868
801.783	7879
801.926	7978
802.068	7936
802.211	8031
802.353	7997
802.496	7940
802.638	8069
802.78	7997
802.923	7967
803.065	7906
803.208	7871
803.35	8008
803.492	8039
803.635	8126
803.777	7993
803.919	8164
804.061	8499
804.204	8187
804.346	8081
804.488	7913
804.63	8138
804.773	8031
804.915	8111
805.057	8320
805.199	8214
805.341	8233
805.483	8256
805.626	8161
805.768	8016
805.91	8214
806.052	8221
806.194	8092
806.336	8324
806.478	8142
806.62	8161
806.762	8119
806.904	8305
807.046	8423
807.188	8393
807.33	8339
807.472	8271
807.614	8126
807.756	8176
807.898	7989
808.04	7936
808.182	7993
808.324	8001
808.465	7875
808.607	8073
808.749	8191
808.891	8271
809.033	8336
809.174	8164
809.316	8145
809.458	8096
809.6	8008
809.741	8062
809.883	7989
810.025	8077
810.166	8107
810.308	8020
810.45	8027
810.591	7917
810.733	7795
810.875	7700
811.016	7499
811.158	7594
811.299	7643
811.441	7822
811.582	7624
811.724	7556
811.865	7521
812.007	7685
812.148	7658
812.29	7693
812.431	7772
812.573	7986
812.714	8001
812.855	8168
812.997	8206
813.138	8328
813.279	8237
813.421	8183
813.562	8024
813.703	7913
813.845	7769
813.986	7422
814.127	7285
814.268	7312
814.41	7209
814.551	7129
814.692	7209
814.833	7126
814.974	7042
815.115	7129
815.256	6996
815.397	6871
815.539	6993
815.68	6897
815.821	6730
815.962	6821
816.103	6852
816.244	6848
816.385	6650
816.526	6570
816.666	6525
816.807	6346
816.948	6433
817.089	6502
817.23	6429
817.371	6437
817.512	6429
817.653	6418
817.793	6372
817.934	6418
818.075	6506
818.216	6460
818.356	6334
818.497	6323
818.638	6148
818.778	6125
818.919	6110
819.06	6148
819.2	6319
819.341	6311
819.481	6361
819.622	6578
819.762	6749
819.903	6703
820.043	6604
820.184	6559
820.324	6528
820.465	6585
820.605	6677
820.746	6623
820.886	6547
821.026	6623
821.167	6635
821.307	6802
821.447	6825
821.588	6722
821.728	6559
821.868	6509
822.008	6281
822.149	6407
822.289	6429
822.429	6144
822.569	6117
822.709	6098
822.849	5965
822.99	5866
823.13	5935
823.27	5916
823.41	5813
823.55	5752
823.69	5745
823.83	5798
823.97	5691
824.11	5497
824.25	5520
824.389	5577
824.529	5566
824.669	5566
824.809	5646
824.949	5638
825.089	5596
825.228	5535
825.368	5387
825.508	5364
825.648	5364
825.787	5337
825.927	5433
826.067	5364
826.206	5280
826.346	5421
826.485	5429
826.625	5436
826.765	5573
826.904	5516
827.044	5318
827.183	5246
827.323	5204
827.462	5250
827.601	5204
827.741	5231
827.88	5239
828.02	5155
828.159	5277
828.298	5322
828.437	5341
828.577	5330
828.716	5532
828.855	5337
828.994	5223
829.134	5178
829.273	5235
829.412	5197
829.551	5159
829.69	5143
829.829	5231
829.968	5433
830.107	5315
830.246	5315
830.385	5181
830.524	5181
830.663	5121
830.802	5045
830.941	4911
831.08	4942
831.219	5060
831.357	5022
831.496	5254
831.635	4923
831.774	4930
831.913	4866
832.051	4854
832.19	4782
832.329	4927
832.467	4778
832.606	4660
832.744	4744
832.883	4767
833.022	4759
833.16	4870
833.299	4892
833.437	4854
833.576	4934
833.714	4923
833.852	4896
833.991	4930
834.129	5010
834.267	4999
834.406	4946
834.544	5022
834.682	5056
834.821	5014
834.959	5216
835.097	5033
835.235	5204
835.373	5105
835.511	5178
835.65	5060
835.788	5128
835.926	4927
836.064	4972
836.202	4995
836.34	5197
836.478	5273
836.615	5212
836.753	5231
836.891	5345
837.029	5364
837.167	5258
837.305	5216
837.443	5170
837.58	5117
837.718	5337
837.856	5261
837.993	5181
838.131	5284
838.269	5269
838.406	5227
838.544	5246
838.681	5033
838.819	5090
838.956	4938
839.094	4999
839.231	5086
839.369	5151
839.506	5440
839.643	5311
839.781	5147
839.918	5060
840.055	5136
840.193	5140
840.33	5170
840.467	5166
840.604	5280
840.742	5478
840.879	5132
841.016	5113
841.153	5212
841.29	5433
841.427	5410
841.564	5360
841.701	5425
841.838	5288
841.975	5292
842.112	5326
842.249	5162
842.385	5178
842.522	5406
842.659	5235
842.796	5204
842.933	5258
843.069	5132
843.206	5201
843.343	5315
843.479	5303
843.616	5311
843.752	5083
843.889	5083
844.025	5216
844.162	5094
844.298	5280
844.435	5136
844.571	5105
844.708	5277
844.844	5341
844.98	5433
845.117	5341
845.253	5151
845.389	5143
845.525	5189
845.661	5174
845.798	5105
845.934	5208
846.07	5098
846.206	5239
846.342	5341
846.478	5197
846.614	5041
846.75	5018
846.886	4980
847.022	5189
847.158	5033
847.294	5045
847.429	5121
847.565	5102
847.701	5337
847.837	4873
847.972	4866
848.108	5010
848.244	4984
848.379	4866
848.515	4767
848.65	4805
848.786	4828
848.921	4850
849.057	4904
849.192	4957
849.328	4843
849.463	4927
849.598	4820
849.734	4771
849.869	4755
850.004	4668
850.14	4710
850.275	4656
850.41	4584
850.545	4580
850.68	4637
850.815	4656
850.95	4679
851.085	4904
851.22	4778
851.355	4740
851.49	4679
851.625	4679
851.76	4687
851.895	4611
852.03	4550
852.165	4683
852.299	4748
852.434	4824
852.569	4809
852.703	4782
852.838	4828
852.973	4961
853.107	4968
853.242	4820
853.376	4725
853.511	4599
853.645	4626
853.78	4858
853.914	4763
854.048	4721
854.183	4714
854.317	4736
854.451	4911
854.585	4702
854.72	4736
854.854	4805
854.988	4626
855.122	4656
855.256	4516
855.39	4717
855.524	4759
855.658	4805
855.792	4793
855.926	4721
856.06	4812
856.194	4850
856.327	4714
856.461	4679
856.595	4649
856.729	4675
856.862	4812
856.996	4793
857.13	4774
857.263	4797
857.397	4809
857.53	4683
857.664	4771
857.797	4812
857.931	4839
858.064	4721
858.197	4767
858.331	4672
858.464	4660
858.597	4611
858.731	4660
858.864	4675
858.997	4656
859.13	4717
859.263	4706
859.396	4740
859.529	4664
859.662	4615
859.795	4527
859.928	4660
860.061	4797
860.194	4801
860.327	4660
860.46	4599
860.592	4763
860.725	4725
860.858	4736
860.99	4558
861.123	4554
861.256	4577
861.388	4683
861.521	5376
861.653	4508
861.786	4481
861.918	4470
862.05	4546
862.183	4596
862.315	4637
862.447	4691
862.58	4573
862.712	4470
862.844	4398
862.976	4531
863.108	4542
863.24	4877
863.372	4325
863.504	4485
863.636	4413
863.768	4535
863.9	4462
864.032	4398
864.164	4493
864.296	4470
864.428	4596
864.559	4626
864.691	4542
864.823	4550
864.954	4542
865.086	4565
865.217	4535
865.349	4428
865.48	4485
865.612	4573
865.743	4653
865.875	4516
866.006	4413
866.137	4554
866.269	4459
866.4	4409
866.531	4489
866.662	4481
866.793	4466
866.924	4466
867.055	4546
867.186	4500
867.317	4451
867.448	4447
867.579	4447
867.71	4360
867.841	4383
867.972	4508
868.103	4542
868.233	4478
868.364	4455
868.495	4500
868.625	4656
868.756	4767
868.886	4615
869.017	4679
869.147	4797
869.278	4797
869.408	4771
869.539	4660
869.669	4744
869.799	4634
869.929	4809
870.06	4763
870.19	4976
870.32	4976
870.45	4961
870.58	5037
870.71	5189
870.84	5117
870.97	4942
871.1	4972
871.23	5170
871.36	5208
871.489	5079
871.619	5155
871.749	5075
871.879	5143
872.008	5197
872.138	5086
872.267	5056
872.397	4908
872.526	4862
872.656	4759
872.785	4870
872.915	5010
873.044	5113
873.173	4946
873.303	5071
873.432	4965
873.561	4968
873.69	4934
873.819	4904
873.948	4980
874.077	4847
874.206	4790
874.335	4870
874.464	4949
874.593	5098
874.722	4995
874.851	5201
874.979	5075
875.108	5113
875.237	4942
875.365	4915
875.494	4885
875.623	4995
875.751	4870
875.88	4896
876.008	4999
876.136	5033
876.265	5223
876.393	5311
876.521	5273
876.65	5284
876.778	5212
876.906	5117
877.034	5045
877.162	5067
877.29	5041
877.418	5090
877.546	5067
877.674	5090
877.802	5056
877.93	4984
878.058	4976
878.185	4904
878.313	4980
878.441	4987
878.568	4870
878.696	4889
878.824	5010
878.951	4980
879.079	5174
879.206	5284
879.333	5071
879.461	5018
879.588	5022
879.715	5151
879.842	5292
879.97	5018
880.097	4820
880.224	4820
880.351	4824
880.478	4862
880.605	4866
880.732	4828
880.859	5121
880.986	4911
881.112	4972
881.239	4812
881.366	4755
881.493	4649
881.619	4577
881.746	4656
881.872	4714
881.999	4607
882.125	4698
882.252	4793
882.378	4839
882.505	4923
882.631	4797
882.757	4729
882.883	4725
883.01	4778
883.136	4744
883.262	4675
883.388	4596
883.514	4877
883.64	4877
883.766	4828
883.892	4736
884.018	4691
884.143	4919
884.269	5006
884.395	4710
884.52	4649
884.646	4656
884.772	4656
884.897	4626
885.023	4675
885.148	4843
885.274	4862
885.399	4850
885.524	4790
885.65	4740
885.775	4744
885.9	4752
886.025	4816
886.15	4831
886.275	4763
886.4	4691
886.525	4736
886.65	4694
886.775	4664
886.9	4938
887.025	5109
887.149	4793
887.274	4687
887.399	4649
887.523	4622
887.648	4618
887.773	4649
887.897	4805
888.021	4820
888.146	4729
888.27	4839
888.395	4953
888.519	4839
888.643	4809
888.767	4843
888.891	4714
889.015	4634
889.139	4675
889.263	4599
889.387	4801
889.511	4866
889.635	4797
889.759	4664
889.883	4679
890.006	4729
890.13	4889
890.254	4656
890.377	4675
890.501	4596
890.624	4546
890.748	4660
890.871	4573
890.995	4493
891.118	4417
891.241	4554
891.364	4599
891.488	4698
891.611	4565
891.734	4538
891.857	4607
891.98	4569
892.103	4683
892.226	4584
892.349	4558
892.471	4485
892.594	4596
892.717	4622
892.839	4622
892.962	4630
893.085	4683
893.207	4641
893.33	4512
893.452	4558
893.575	4729
893.697	4626
893.819	4805
893.941	4824
894.064	4763
894.186	4569
894.308	4626
894.43	4740
894.552	4835
894.674	4752
894.796	4523
894.918	4645
895.04	4580
895.161	4721
895.283	4740
895.405	4615
895.526	4656
895.648	4717
895.769	4698
895.891	4763
896.012	4801
896.134	4824
896.255	4637
896.376	4634
896.498	4634
896.619	4752
896.74	4656
896.861	4622
896.982	4953
897.103	5155
897.224	4839
897.345	4831
897.466	4714
897.587	4733
897.708	4877
897.828	4839
897.949	4683
898.07	4584
898.19	4622
898.311	4820
898.431	4698
898.552	4755
898.672	4782
898.792	4805
898.913	4744
899.033	4630
899.153	4516
899.273	4402
899.393	4535
899.513	4538
899.633	4561
899.753	4542
899.873	4531
899.993	4615
900.113	4523
900.232	4607
900.352	4569
900.472	4493
900.591	4432
900.711	4538
900.83	4413
900.95	4660
901.069	4702
901.189	4573
901.308	4428
901.427	4322
901.546	4375
901.665	4493
901.784	4500
901.904	4402
902.023	4394
902.141	4227
902.26	4173
902.379	4318
902.498	4249
902.617	4291
902.735	4386
902.854	4432
902.973	4379
903.091	4249
903.21	4261
903.328	4310
903.446	4295
903.565	4242
903.683	4390
903.801	4284
903.919	4428
904.038	4459
904.156	4306
904.274	4440
904.392	4428
904.51	4462
904.627	4489
904.745	4580
904.863	4645
904.981	4394
905.098	4341
905.216	4375
905.334	4421
905.451	4443
905.569	4447
905.686	4626
905.803	4550
905.921	4478
906.038	4592
906.155	4558
906.272	4447
906.389	4478
906.506	4360
906.623	4383
906.74	4466
906.857	4356
906.974	4417
907.091	4577
907.208	4637
907.324	4611
907.441	4527
907.557	4367
907.674	4352
907.79	4337
907.907	4367
908.023	4504
908.139	4474
908.256	4432
908.372	4474
908.488	4455
908.604	4386
908.72	4325
908.836	4398
908.952	4356
909.068	4443
909.184	4573
909.3	4554
909.415	4569
909.531	4542
909.647	4409
909.762	4421
909.878	4375
909.993	4466
910.108	4409
910.224	4470
910.339	4466
910.454	4390
910.57	4451
910.685	4348
910.8	4649
910.915	4618
911.03	4531
911.145	4303
911.259	4325
911.374	4383
911.489	4329
911.604	4299
911.718	4173
911.833	4230
911.947	4101
912.062	4036
912.176	4215
912.291	4291
912.405	4234
912.519	4493
912.633	4481
912.748	4348
912.862	4329
912.976	4253
913.09	4109
913.204	4173
913.318	4261
913.431	4417
913.545	4360
913.659	4432
913.772	4383
913.886	4306
914	4219
914.113	4413
914.226	4500
914.34	4424
914.453	4253
914.566	4424
914.68	4344
914.793	4322
914.906	4158
915.019	4131
915.132	4109
915.245	4173
915.358	4257
915.47	4265
915.583	4268
915.696	4383
915.809	4428
915.921	4428
916.034	4257
916.146	4268
916.259	4299
916.371	4398
916.483	4356
916.595	4303
916.708	4356
916.82	4310
916.932	4306
917.044	4325
917.156	4341
917.268	4261
917.38	4280
917.491	4287
917.603	4375
917.715	4474
917.826	4447
917.938	4379
918.049	4204
918.161	4405
918.272	4535
918.384	4535
918.495	4405
918.606	4325
918.717	4246
918.828	4333
918.939	4371
919.05	4291
919.161	4360
919.272	4128
919.383	4257
919.494	4451
919.604	4656
919.715	4451
919.826	4371
919.936	4424
920.047	4546
920.157	4504
920.267	4710
920.378	4550
920.488	4523
920.598	4759
920.708	4927
920.818	4740
920.928	4767
921.038	4984
921.148	5006
921.258	4626
921.368	4569
921.477	4466
921.587	4485
921.697	4413
921.806	4558
921.916	4478
922.025	4276
922.134	4265
922.244	4257
922.353	4360
922.462	4147
922.571	4150
922.68	4002
922.789	3953
922.898	4040
923.007	4055
923.116	4097
923.224	4116
923.333	4116
923.442	4040
923.55	4048
923.659	4044
923.767	4128
923.876	4055
923.984	4097
924.092	4021
924.201	4078
924.309	4097
924.417	4131
924.525	4078
924.633	4166
924.741	5086
924.849	3960
924.956	4082
925.064	3972
925.172	3911
925.279	3991
925.387	4074
925.494	4059
925.602	4181
925.709	4215
925.816	4078
925.924	4143
926.031	4230
926.138	4128
926.245	4204
926.352	4101
926.459	4234
926.566	4329
926.673	4162
926.779	4101
926.886	4071
926.993	3998
927.099	3937
927.206	3964
927.312	3945
927.419	4067
927.525	4017
927.631	4086
927.737	3941
927.843	3945
927.95	3804
928.056	3972
928.162	3987
928.267	4078
928.373	4668
928.479	4105
928.585	3869
928.69	4013
928.796	4086
928.901	3941
929.007	3842
929.112	4013
929.218	3998
929.323	3937
929.428	3975
929.533	4177
929.638	3930
929.743	4010
929.848	4032
929.953	3975
930.058	3941
930.163	3781
930.267	3861
930.372	3998
930.477	3804
930.581	4063
930.685	3934
930.79	3808
930.894	3903
930.998	3842
931.103	4090
931.207	3709
931.311	3682
931.415	3709
931.519	3534
931.623	3580
