Data from test_V78500241_492.txt Node
Date: Fri Mar 25 16:52:25 CST 2022
User: usil
Spectrometer: V785-0024
Trigger mode: 0
Integration Time (sec): 4.000000E-1
Scans to average: 1
Nonlinearity correction enabled: false
Boxcar width: 0
Storing dark spectrum: false
XAxis mode: Wavelengths
Number of Pixels in Spectrum: 1024
>>>>>Begin Spectral Data<<<<<
801.071	8096
801.214	7997
801.356	7871
801.499	7894
801.641	7875
801.783	7849
801.926	8062
802.068	7978
802.211	8103
802.353	7989
802.496	7928
802.638	7909
802.78	7928
802.923	7902
803.065	7875
803.208	7890
803.35	7978
803.492	8043
803.635	8237
803.777	7970
803.919	8138
804.061	8415
804.204	8069
804.346	8065
804.488	7955
804.63	8031
804.773	8008
804.915	8119
805.057	8305
805.199	8180
805.341	8210
805.483	8320
805.626	8157
805.768	8046
805.91	8130
806.052	8187
806.194	8096
806.336	8358
806.478	8111
806.62	8103
806.762	8138
806.904	8256
807.046	8446
807.188	8286
807.33	8324
807.472	8294
807.614	8081
807.756	8153
807.898	7982
808.04	7871
808.182	7989
808.324	7906
808.465	7898
808.607	8012
808.749	8058
808.891	8183
809.033	8275
809.174	8107
809.316	8096
809.458	8043
809.6	8012
809.741	8123
809.883	8103
810.025	8119
810.166	8043
810.308	8027
810.45	7993
810.591	7913
810.733	7719
810.875	7689
811.016	7468
811.158	7499
811.299	7533
811.441	7841
811.582	7693
811.724	7601
811.865	7601
812.007	7639
812.148	7624
812.29	7651
812.431	7811
812.573	7917
812.714	8027
812.855	8172
812.997	8218
813.138	8404
813.279	8275
813.421	8115
813.562	8073
813.703	7875
813.845	7879
813.986	7499
814.127	7396
814.268	7308
814.41	7305
814.551	7198
814.692	7175
814.833	7114
814.974	7118
815.115	7122
815.256	6977
815.397	6894
815.539	7023
815.68	6783
815.821	6791
815.962	6886
816.103	6863
816.244	6741
816.385	6669
816.526	6597
816.666	6494
816.807	6300
816.948	6486
817.089	6483
817.23	6452
817.371	6388
817.512	6410
817.653	6452
817.793	6372
817.934	6418
818.075	6494
818.216	6426
818.356	6456
818.497	6239
818.638	6087
818.778	6121
818.919	6136
819.06	6167
819.2	6350
819.341	6311
819.481	6357
819.622	6506
819.762	6776
819.903	6703
820.043	6582
820.184	6525
820.324	6601
820.465	6776
820.605	6669
820.746	6608
820.886	6490
821.026	6631
821.167	6722
821.307	6722
821.447	6806
821.588	6684
821.728	6517
821.868	6513
822.008	6342
822.149	6334
822.289	6357
822.429	6121
822.569	6117
822.709	6159
822.849	5916
822.99	5889
823.13	5942
823.27	5939
823.41	5748
823.55	5745
823.69	5775
823.83	5817
823.97	5703
824.11	5501
824.25	5512
824.389	5585
824.529	5532
824.669	5535
824.809	5642
824.949	5661
825.089	5668
825.228	5570
825.368	5398
825.508	5345
825.648	5398
825.787	5440
825.927	5368
826.067	5334
826.206	5277
826.346	5376
826.485	5402
826.625	5433
826.765	5570
826.904	5478
827.044	5246
827.183	5254
827.323	5117
827.462	5239
827.601	5235
827.741	5197
827.88	5185
828.02	5159
828.159	5242
828.298	5318
828.437	5353
828.577	5235
828.716	5490
828.855	5337
828.994	5208
829.134	5155
829.273	5185
829.412	5193
829.551	5140
829.69	5143
829.829	5284
829.968	5372
830.107	5250
830.246	5280
830.385	5201
830.524	5124
830.663	5079
830.802	4984
830.941	4896
831.08	4919
831.219	4987
831.357	5014
831.496	5136
831.635	4938
831.774	4854
831.913	4850
832.051	4755
832.19	4717
832.329	4858
832.467	4679
832.606	4656
832.744	4759
832.883	4702
833.022	4714
833.16	4809
833.299	4847
833.437	4835
833.576	4839
833.714	4870
833.852	4866
833.991	4889
834.129	4927
834.267	4942
834.406	4911
834.544	5010
834.682	4972
834.821	4946
834.959	5201
835.097	4965
835.235	5113
835.373	5132
835.511	5098
835.65	5048
835.788	5045
835.926	4934
836.064	4866
836.202	4877
836.34	5147
836.478	5261
836.615	5109
836.753	5239
836.891	5265
837.029	5250
837.167	5220
837.305	5155
837.443	5102
837.58	5075
837.718	5235
837.856	5155
837.993	5189
838.131	5239
838.269	5185
838.406	5220
838.544	5162
838.681	5075
838.819	4991
838.956	4885
839.094	4835
839.231	5033
839.369	5083
839.506	5402
839.643	5265
839.781	5067
839.918	4980
840.055	5079
840.193	5071
840.33	5109
840.467	5162
840.604	5246
840.742	5406
840.879	5067
841.016	5037
841.153	5159
841.29	5379
841.427	5341
841.564	5261
841.701	5296
841.838	5258
841.975	5239
842.112	5265
842.249	5159
842.385	5064
842.522	5307
842.659	5178
842.796	5128
842.933	5140
843.069	5151
843.206	5117
843.343	5250
843.479	5261
843.616	5315
843.752	5048
843.889	4949
844.025	5227
844.162	5048
844.298	5178
844.435	5117
844.571	5056
844.708	5193
844.844	5315
844.98	5322
845.117	5357
845.253	5147
845.389	5056
845.525	5151
845.661	5124
845.798	5064
845.934	5124
846.07	5090
846.206	5212
846.342	5303
846.478	5170
846.614	5018
846.75	4980
846.886	4942
847.022	5124
847.158	4991
847.294	5098
847.429	5083
847.565	5090
847.701	5334
847.837	4847
847.972	4778
848.108	4972
848.244	4946
848.379	4820
848.515	4687
848.65	4736
848.786	4782
848.921	4809
849.057	4873
849.192	4908
849.328	4790
849.463	4835
849.598	4767
849.734	4721
849.869	4729
850.004	4634
850.14	4637
850.275	4618
850.41	4523
850.545	4561
850.68	4558
850.815	4634
850.95	4653
851.085	4847
851.22	4774
851.355	4656
851.49	4599
851.625	4634
851.76	4603
851.895	4554
852.03	4561
852.165	4630
852.299	4759
852.434	4816
852.569	4748
852.703	4793
852.838	4889
852.973	4930
853.107	4957
853.242	4698
853.376	4675
853.511	4489
853.645	4580
853.78	4782
853.914	4710
854.048	4641
854.183	4634
854.317	4702
854.451	4873
854.585	4683
854.72	4618
854.854	4767
854.988	4615
855.122	4626
855.256	4504
855.39	4714
855.524	4793
855.658	4702
855.792	4702
855.926	4694
856.06	4752
856.194	4816
856.327	4706
856.461	4603
856.595	4607
856.729	4672
856.862	4763
856.996	4698
857.13	4771
857.263	4733
857.397	4793
857.53	4683
857.664	4702
857.797	4763
857.931	4740
858.064	4717
858.197	4748
858.331	4618
858.464	4592
858.597	4554
858.731	4618
858.864	4649
858.997	4577
859.13	4641
859.263	4691
859.396	4664
859.529	4577
859.662	4603
859.795	4527
859.928	4660
860.061	4778
860.194	4748
860.327	4626
860.46	4599
860.592	4679
860.725	4744
860.858	4725
860.99	4641
861.123	4489
861.256	4542
861.388	4603
861.521	5345
861.653	4474
861.786	4436
861.918	4474
862.05	4504
862.183	4554
862.315	4649
862.447	4679
862.58	4558
862.712	4356
862.844	4379
862.976	4436
863.108	4455
863.24	4809
863.372	4295
863.504	4440
863.636	4398
863.768	4428
863.9	4424
864.032	4383
864.164	4398
864.296	4478
864.428	4535
864.559	4573
864.691	4561
864.823	4519
864.954	4527
865.086	4470
865.217	4436
865.349	4451
865.48	4432
865.612	4466
865.743	4611
865.875	4436
866.006	4436
866.137	4451
866.269	4512
866.4	4436
866.531	4421
866.662	4409
866.793	4421
866.924	4409
867.055	4474
867.186	4474
867.317	4424
867.448	4428
867.579	4421
867.71	4375
867.841	4421
867.972	4462
868.103	4481
868.233	4424
868.364	4493
868.495	4451
868.625	4668
868.756	4774
868.886	4592
869.017	4603
869.147	4774
869.278	4748
869.408	4675
869.539	4675
869.669	4714
869.799	4653
869.929	4710
870.06	4679
870.19	4991
870.32	4900
870.45	4949
870.58	4999
870.71	5079
870.84	5140
870.97	4961
871.1	4938
871.23	5151
871.36	5162
871.489	5033
871.619	5075
871.749	5113
871.879	5117
872.008	5174
872.138	5041
872.267	5006
872.397	4835
872.526	4801
872.656	4748
872.785	4778
872.915	4957
873.044	5029
873.173	4953
873.303	4919
873.432	4930
873.561	4957
873.69	4923
873.819	4843
873.948	4870
874.077	4805
874.206	4790
874.335	4793
874.464	4938
874.593	5090
874.722	4987
874.851	5075
874.979	5033
875.108	5045
875.237	4961
875.365	4889
875.494	4908
875.623	4911
875.751	4850
875.88	4881
876.008	4961
876.136	5037
876.265	5208
876.393	5345
876.521	5261
876.65	5216
876.778	5128
876.906	5041
877.034	5003
877.162	5067
877.29	4991
877.418	5060
877.546	5075
877.674	5056
877.802	5064
877.93	4999
878.058	4953
878.185	4885
878.313	4927
878.441	4957
878.568	4736
878.696	4885
878.824	4930
878.951	5033
879.079	5098
879.206	5296
879.333	5132
879.461	5014
879.588	5025
879.715	5151
879.842	5197
879.97	5029
880.097	4801
880.224	4744
880.351	4835
880.478	4801
880.605	4801
880.732	4828
880.859	5128
880.986	4938
881.112	4915
881.239	4774
881.366	4660
881.493	4618
881.619	4584
881.746	4664
881.872	4656
881.999	4691
882.125	4717
882.252	4759
882.378	4850
882.505	4934
882.631	4809
882.757	4691
882.883	4771
883.01	4733
883.136	4717
883.262	4634
883.388	4615
883.514	4748
883.64	4885
883.766	4763
883.892	4675
884.018	4717
884.143	4858
884.269	5033
884.395	4752
884.52	4645
884.646	4618
884.772	4649
884.897	4588
885.023	4626
885.148	4782
885.274	4850
885.399	4786
885.524	4748
885.65	4702
885.775	4744
885.9	4683
886.025	4877
886.15	4767
886.275	4740
886.4	4649
886.525	4748
886.65	4694
886.775	4668
886.9	4877
887.025	4972
887.149	4805
887.274	4672
887.399	4588
887.523	4565
887.648	4531
887.773	4554
887.897	4774
888.021	4793
888.146	4714
888.27	4782
888.395	4938
888.519	4793
888.643	4812
888.767	4850
888.891	4672
889.015	4653
889.139	4672
889.263	4637
889.387	4763
889.511	4870
889.635	4809
889.759	4645
889.883	4687
890.006	4725
890.13	4805
890.254	4611
890.377	4672
890.501	4565
890.624	4508
890.748	4637
890.871	4481
890.995	4481
891.118	4394
891.241	4538
891.364	4538
891.488	4641
891.611	4466
891.734	4558
891.857	4584
891.98	4554
892.103	4649
892.226	4573
892.349	4500
892.471	4432
892.594	4535
892.717	4554
892.839	4527
892.962	4615
893.085	4668
893.207	4596
893.33	4447
893.452	4569
893.575	4672
893.697	4618
893.819	4782
893.941	4797
894.064	4767
894.186	4550
894.308	4580
894.43	4729
894.552	4790
894.674	4774
894.796	4561
894.918	4622
895.04	4599
895.161	4736
895.283	4660
895.405	4592
895.526	4634
895.648	4679
895.769	4744
895.891	4714
896.012	4733
896.134	4710
896.255	4679
896.376	4653
896.498	4615
896.619	4694
896.74	4630
896.861	4618
896.982	4904
897.103	5098
897.224	4816
897.345	4717
897.466	4721
897.587	4675
897.708	4858
897.828	4793
897.949	4675
898.07	4531
898.19	4607
898.311	4847
898.431	4698
898.552	4778
898.672	4786
898.792	4778
898.913	4744
899.033	4634
899.153	4481
899.273	4413
899.393	4512
899.513	4504
899.633	4504
899.753	4497
899.873	4500
899.993	4611
900.113	4519
900.232	4577
900.352	4546
900.472	4504
900.591	4379
900.711	4500
900.83	4394
900.95	4584
901.069	4740
901.189	4546
901.308	4341
901.427	4314
901.546	4329
901.665	4474
901.784	4489
901.904	4318
902.023	4299
902.141	4162
902.26	4227
902.379	4318
902.498	4242
902.617	4238
902.735	4386
902.854	4356
902.973	4310
903.091	4188
903.21	4280
903.328	4287
903.446	4303
903.565	4284
903.683	4386
903.801	4295
903.919	4417
904.038	4405
904.156	4341
904.274	4459
904.392	4398
904.51	4432
904.627	4512
904.745	4573
904.863	4626
904.981	4390
905.098	4287
905.216	4424
905.334	4466
905.451	4440
905.569	4462
905.686	4550
905.803	4599
905.921	4417
906.038	4577
906.155	4493
906.272	4379
906.389	4424
906.506	4352
906.623	4398
906.74	4405
906.857	4318
906.974	4402
907.091	4519
907.208	4698
907.324	4588
907.441	4489
907.557	4344
907.674	4352
907.79	4303
907.907	4402
908.023	4508
908.139	4497
908.256	4455
908.372	4462
908.488	4497
908.604	4352
908.72	4348
908.836	4409
908.952	4424
909.068	4421
909.184	4561
909.3	4489
909.415	4634
909.531	4538
909.647	4337
909.762	4352
909.878	4333
909.993	4440
910.108	4440
910.224	4413
910.339	4485
910.454	4409
910.57	4405
910.685	4325
910.8	4630
910.915	4561
911.03	4500
911.145	4367
911.259	4360
911.374	4390
911.489	4329
911.604	4306
911.718	4169
911.833	4219
911.947	4078
912.062	4048
912.176	4257
912.291	4215
912.405	4276
912.519	4421
912.633	4508
912.748	4363
912.862	4284
912.976	4219
913.09	4112
913.204	4147
913.318	4253
913.431	4371
913.545	4383
913.659	4485
913.772	4329
913.886	4276
914	4211
914.113	4413
914.226	4394
914.34	4402
914.453	4230
914.566	4417
914.68	4341
914.793	4344
914.906	4128
915.019	4154
915.132	4112
915.245	4192
915.358	4192
915.47	4200
915.583	4249
915.696	4291
915.809	4409
915.921	4413
916.034	4253
916.146	4238
916.259	4207
916.371	4383
916.483	4352
916.595	4280
916.708	4379
916.82	4356
916.932	4325
917.044	4325
917.156	4333
917.268	4227
917.38	4265
917.491	4253
917.603	4356
917.715	4428
917.826	4455
917.938	4352
918.049	4276
918.161	4386
918.272	4519
918.384	4569
918.495	4466
918.606	4329
918.717	4242
918.828	4310
918.939	4341
919.05	4238
919.161	4310
919.272	4169
919.383	4246
919.494	4455
919.604	4618
919.715	4481
919.826	4333
919.936	4375
920.047	4519
920.157	4497
920.267	4641
920.378	4546
920.488	4474
920.598	4721
920.708	4881
920.818	4835
920.928	4778
921.038	4999
921.148	4930
921.258	4607
921.368	4550
921.477	4508
921.587	4459
921.697	4360
921.806	4584
921.916	4440
922.025	4303
922.134	4257
922.244	4227
922.353	4333
922.462	4154
922.571	4166
922.68	3979
922.789	3983
922.898	4048
923.007	4006
923.116	4101
923.224	4078
923.333	4044
923.442	4017
923.55	4002
923.659	4040
923.767	4090
923.876	4036
923.984	4162
924.092	3956
924.201	4097
924.309	4074
924.417	4124
924.525	4040
924.633	4109
924.741	5075
924.849	3918
924.956	4135
925.064	3968
925.172	3899
925.279	3960
925.387	4029
925.494	4036
925.602	4211
925.709	4173
925.816	4013
925.924	4177
926.031	4284
926.138	4204
926.245	4192
926.352	4116
926.459	4291
926.566	4303
926.673	4162
926.779	4093
926.886	4101
926.993	3975
927.099	3934
927.206	3941
927.312	3922
927.419	4051
927.525	4029
927.631	4128
927.737	3934
927.843	3953
927.95	3869
928.056	3964
928.162	3987
928.267	4040
928.373	4714
928.479	4131
928.585	3854
928.69	4055
928.796	4090
928.901	3991
929.007	3842
929.112	3975
929.218	4032
929.323	3956
929.428	3918
929.533	4082
929.638	3934
929.743	3991
929.848	4101
929.953	3994
930.058	3930
930.163	3759
930.267	3846
930.372	3991
930.477	3778
930.581	4105
930.685	3972
930.79	3785
930.894	3903
930.998	3823
931.103	4044
931.207	3705
931.311	3682
931.415	3652
931.519	3515
931.623	3530
