Data from test_V78500241_2046.txt Node
Date: Fri Mar 25 17:03:13 CST 2022
User: usil
Spectrometer: V785-0024
Trigger mode: 0
Integration Time (sec): 4.000000E-1
Scans to average: 1
Nonlinearity correction enabled: false
Boxcar width: 0
Storing dark spectrum: false
XAxis mode: Wavelengths
Number of Pixels in Spectrum: 1024
>>>>>Begin Spectral Data<<<<<
801.071	7993
801.214	7955
801.356	7822
801.499	7814
801.641	7795
801.783	7837
801.926	7955
802.068	7936
802.211	7986
802.353	7970
802.496	7864
802.638	7868
802.78	7849
802.923	7902
803.065	7822
803.208	7795
803.35	7928
803.492	8115
803.635	8168
803.777	7997
803.919	8119
804.061	8450
804.204	8187
804.346	8092
804.488	7963
804.63	7993
804.773	8050
804.915	8092
805.057	8279
805.199	8161
805.341	8126
805.483	8202
805.626	8214
805.768	8123
805.91	8225
806.052	8183
806.194	8164
806.336	8358
806.478	8054
806.62	8046
806.762	8115
806.904	8229
807.046	8408
807.188	8370
807.33	8267
807.472	8332
807.614	8221
807.756	8081
807.898	7974
808.04	7852
808.182	7890
808.324	7852
808.465	7898
808.607	8096
808.749	8092
808.891	8218
809.033	8298
809.174	8229
809.316	8088
809.458	8130
809.6	8035
809.741	8031
809.883	8001
810.025	8107
810.166	8043
810.308	8020
810.45	7940
810.591	7845
810.733	7719
810.875	7670
811.016	7483
811.158	7502
811.299	7548
811.441	7734
811.582	7693
811.724	7624
811.865	7506
812.007	7662
812.148	7571
812.29	7613
812.431	7677
812.573	7890
812.714	8008
812.855	8153
812.997	8130
813.138	8271
813.279	8096
813.421	8024
813.562	7947
813.703	7780
813.845	7738
813.986	7419
814.127	7255
814.268	7247
814.41	7221
814.551	7179
814.692	7278
814.833	7091
814.974	7164
815.115	7080
815.256	6966
815.397	6909
815.539	6909
815.68	6783
815.821	6802
815.962	6844
816.103	6779
816.244	6673
816.385	6623
816.526	6566
816.666	6528
816.807	6262
816.948	6445
817.089	6506
817.23	6418
817.371	6395
817.512	6350
817.653	6414
817.793	6342
817.934	6407
818.075	6452
818.216	6467
818.356	6407
818.497	6254
818.638	6136
818.778	6110
818.919	6159
819.06	6144
819.2	6285
819.341	6277
819.481	6372
819.622	6471
819.762	6715
819.903	6749
820.043	6604
820.184	6604
820.324	6559
820.465	6627
820.605	6719
820.746	6623
820.886	6544
821.026	6703
821.167	6726
821.307	6821
821.447	6787
821.588	6684
821.728	6593
821.868	6525
822.008	6304
822.149	6361
822.289	6342
822.429	6175
822.569	6106
822.709	6144
822.849	5912
822.99	5954
823.13	5980
823.27	5885
823.41	5741
823.55	5790
823.69	5767
823.83	5836
823.97	5737
824.11	5539
824.25	5512
824.389	5566
824.529	5642
824.669	5535
824.809	5642
824.949	5638
825.089	5630
825.228	5619
825.368	5406
825.508	5357
825.648	5429
825.787	5406
825.927	5421
826.067	5330
826.206	5383
826.346	5410
826.485	5429
826.625	5459
826.765	5608
826.904	5520
827.044	5273
827.183	5242
827.323	5181
827.462	5265
827.601	5227
827.741	5204
827.88	5220
828.02	5121
828.159	5265
828.298	5349
828.437	5360
828.577	5326
828.716	5539
828.855	5391
828.994	5204
829.134	5208
829.273	5212
829.412	5197
829.551	5170
829.69	5185
829.829	5269
829.968	5406
830.107	5345
830.246	5326
830.385	5201
830.524	5143
830.663	5086
830.802	5037
830.941	4972
831.08	4904
831.219	5022
831.357	4972
831.496	5201
831.635	4957
831.774	4850
831.913	4885
832.051	4771
832.19	4858
832.329	4919
832.467	4694
832.606	4706
832.744	4782
832.883	4736
833.022	4752
833.16	4797
833.299	4881
833.437	4873
833.576	4908
833.714	4923
833.852	4866
833.991	4900
834.129	4953
834.267	4938
834.406	4953
834.544	5029
834.682	4999
834.821	5010
834.959	5178
835.097	5029
835.235	5189
835.373	5102
835.511	5105
835.65	5052
835.788	5029
835.926	4957
836.064	4934
836.202	4961
836.34	5201
836.478	5242
836.615	5071
836.753	5174
836.891	5273
837.029	5284
837.167	5223
837.305	5174
837.443	5242
837.58	5086
837.718	5250
837.856	5201
837.993	5151
838.131	5265
838.269	5258
838.406	5220
838.544	5208
838.681	5041
838.819	5025
838.956	4911
839.094	4911
839.231	5014
839.369	5098
839.506	5452
839.643	5326
839.781	5045
839.918	4987
840.055	5162
840.193	5124
840.33	5105
840.467	5140
840.604	5204
840.742	5478
840.879	5140
841.016	5098
841.153	5185
841.29	5417
841.427	5376
841.564	5345
841.701	5318
841.838	5258
841.975	5231
842.112	5284
842.249	5212
842.385	5105
842.522	5349
842.659	5181
842.796	5155
842.933	5208
843.069	5178
843.206	5197
843.343	5315
843.479	5246
843.616	5299
843.752	5071
843.889	4961
844.025	5208
844.162	5029
844.298	5227
844.435	5083
844.571	5117
844.708	5208
844.844	5349
844.98	5330
845.117	5345
845.253	5136
845.389	5124
845.525	5170
845.661	5201
845.798	5048
845.934	5143
846.07	5094
846.206	5261
846.342	5318
846.478	5181
846.614	5029
846.75	5018
846.886	4946
847.022	5185
847.158	5105
847.294	5090
847.429	5143
847.565	5045
847.701	5368
847.837	4839
847.972	4858
848.108	5029
848.244	4999
848.379	4774
848.515	4706
848.65	4740
848.786	4774
848.921	4786
849.057	4885
849.192	4866
849.328	4854
849.463	4870
849.598	4767
849.734	4759
849.869	4714
850.004	4706
850.14	4710
850.275	4626
850.41	4573
850.545	4569
850.68	4634
850.815	4626
850.95	4656
851.085	4816
851.22	4748
851.355	4710
851.49	4653
851.625	4679
851.76	4679
851.895	4573
852.03	4561
852.165	4649
852.299	4717
852.434	4782
852.569	4759
852.703	4790
852.838	4816
852.973	4980
853.107	4896
853.242	4721
853.376	4694
853.511	4577
853.645	4634
853.78	4831
853.914	4714
854.048	4733
854.183	4668
854.317	4759
854.451	4911
854.585	4752
854.72	4653
854.854	4809
854.988	4664
855.122	4653
855.256	4523
855.39	4687
855.524	4835
855.658	4771
855.792	4717
855.926	4805
856.06	4778
856.194	4774
856.327	4679
856.461	4645
856.595	4653
856.729	4626
856.862	4774
856.996	4729
857.13	4744
857.263	4820
857.397	4896
857.53	4592
857.664	4759
857.797	4805
857.931	4793
858.064	4714
858.197	4793
858.331	4691
858.464	4607
858.597	4523
858.731	4698
858.864	4649
858.997	4592
859.13	4702
859.263	4679
859.396	4679
859.529	4637
859.662	4565
859.795	4546
859.928	4691
860.061	4786
860.194	4790
860.327	4641
860.46	4615
860.592	4729
860.725	4717
860.858	4710
860.99	4599
861.123	4546
861.256	4622
861.388	4668
861.521	5299
861.653	4500
861.786	4478
861.918	4523
862.05	4550
862.183	4584
862.315	4615
862.447	4683
862.58	4611
862.712	4428
862.844	4344
862.976	4485
863.108	4474
863.24	4828
863.372	4375
863.504	4447
863.636	4451
863.768	4489
863.9	4481
864.032	4386
864.164	4481
864.296	4485
864.428	4538
864.559	4573
864.691	4504
864.823	4531
864.954	4531
865.086	4584
865.217	4508
865.349	4428
865.48	4489
865.612	4527
865.743	4607
865.875	4485
866.006	4459
866.137	4523
866.269	4466
866.4	4489
866.531	4470
866.662	4417
866.793	4421
866.924	4424
867.055	4538
867.186	4474
867.317	4447
867.448	4417
867.579	4394
867.71	4462
867.841	4379
867.972	4485
868.103	4523
868.233	4493
868.364	4519
868.495	4538
868.625	4679
868.756	4771
868.886	4577
869.017	4596
869.147	4774
869.278	4790
869.408	4694
869.539	4649
869.669	4725
869.799	4729
869.929	4771
870.06	4752
870.19	4938
870.32	4946
870.45	4911
870.58	5090
870.71	5102
870.84	5140
870.97	4923
871.1	4889
871.23	5105
871.36	5162
871.489	5033
871.619	5121
871.749	5117
871.879	5143
872.008	5216
872.138	5052
872.267	5037
872.397	4889
872.526	4850
872.656	4748
872.785	4805
872.915	4984
873.044	5064
873.173	4934
873.303	4976
873.432	4938
873.561	4942
873.69	4889
873.819	4847
873.948	4866
874.077	4881
874.206	4782
874.335	4843
874.464	4957
874.593	5117
874.722	4968
874.851	5113
874.979	5064
875.108	5033
875.237	4968
875.365	4930
875.494	4915
875.623	5010
875.751	4850
875.88	4915
876.008	5006
876.136	5033
876.265	5201
876.393	5345
876.521	5303
876.65	5223
876.778	5201
876.906	5109
877.034	5067
877.162	5109
877.29	5014
877.418	5090
877.546	5014
877.674	5041
877.802	5064
877.93	5048
878.058	4976
878.185	4892
878.313	4995
878.441	4961
878.568	4778
878.696	4850
878.824	4965
878.951	5037
879.079	5132
879.206	5277
879.333	5079
879.461	4999
879.588	5006
879.715	5098
879.842	5242
879.97	4999
880.097	4854
880.224	4797
880.351	4843
880.478	4835
880.605	4850
880.732	4824
880.859	5086
880.986	4923
881.112	4949
881.239	4797
881.366	4687
881.493	4603
881.619	4641
881.746	4664
881.872	4668
881.999	4660
882.125	4706
882.252	4778
882.378	4790
882.505	4980
882.631	4824
882.757	4702
882.883	4733
883.01	4740
883.136	4706
883.262	4577
883.388	4664
883.514	4801
883.64	4873
883.766	4828
883.892	4683
884.018	4702
884.143	4881
884.269	4995
884.395	4694
884.52	4672
884.646	4687
884.772	4607
884.897	4546
885.023	4675
885.148	4805
885.274	4870
885.399	4858
885.524	4748
885.65	4706
885.775	4736
885.9	4744
886.025	4858
886.15	4774
886.275	4778
886.4	4649
886.525	4725
886.65	4660
886.775	4691
886.9	4904
887.025	5037
887.149	4805
887.274	4691
887.399	4588
887.523	4634
887.648	4565
887.773	4535
887.897	4763
888.021	4835
888.146	4702
888.27	4820
888.395	4915
888.519	4778
888.643	4843
888.767	4835
888.891	4706
889.015	4626
889.139	4641
889.263	4637
889.387	4790
889.511	4843
889.635	4835
889.759	4672
889.883	4660
890.006	4744
890.13	4820
890.254	4611
890.377	4733
890.501	4542
890.624	4546
890.748	4668
890.871	4481
890.995	4470
891.118	4421
891.241	4538
891.364	4569
891.488	4622
891.611	4504
891.734	4569
891.857	4603
891.98	4535
892.103	4672
892.226	4573
892.349	4538
892.471	4428
892.594	4565
892.717	4656
892.839	4611
892.962	4615
893.085	4645
893.207	4573
893.33	4451
893.452	4485
893.575	4630
893.697	4573
893.819	4786
893.941	4790
894.064	4786
894.186	4596
894.308	4565
894.43	4748
894.552	4778
894.674	4782
894.796	4561
894.918	4596
895.04	4577
895.161	4748
895.283	4656
895.405	4584
895.526	4645
895.648	4672
895.769	4706
895.891	4755
896.012	4771
896.134	4740
896.255	4687
896.376	4664
896.498	4626
896.619	4687
896.74	4626
896.861	4691
896.982	4946
897.103	5098
897.224	4847
897.345	4721
897.466	4668
897.587	4725
897.708	4862
897.828	4782
897.949	4714
898.07	4599
898.19	4634
898.311	4858
898.431	4649
898.552	4725
898.672	4824
898.792	4847
898.913	4782
899.033	4618
899.153	4523
899.273	4428
899.393	4474
899.513	4497
899.633	4569
899.753	4542
899.873	4497
899.993	4588
900.113	4550
900.232	4615
900.352	4535
900.472	4474
900.591	4459
900.711	4481
900.83	4466
900.95	4615
901.069	4706
901.189	4546
901.308	4390
901.427	4303
901.546	4398
901.665	4466
901.784	4523
901.904	4459
902.023	4348
902.141	4162
902.26	4154
902.379	4322
902.498	4287
902.617	4242
902.735	4360
902.854	4413
902.973	4371
903.091	4215
903.21	4215
903.328	4295
903.446	4287
903.565	4295
903.683	4329
903.801	4284
903.919	4432
904.038	4474
904.156	4341
904.274	4432
904.392	4402
904.51	4386
904.627	4462
904.745	4611
904.863	4660
904.981	4375
905.098	4341
905.216	4383
905.334	4440
905.451	4367
905.569	4466
905.686	4550
905.803	4615
905.921	4466
906.038	4527
906.155	4474
906.272	4440
906.389	4489
906.506	4341
906.623	4371
906.74	4424
906.857	4341
906.974	4371
907.091	4577
907.208	4660
907.324	4580
907.441	4485
907.557	4379
907.674	4314
907.79	4367
907.907	4367
908.023	4519
908.139	4497
908.256	4451
908.372	4497
908.488	4455
908.604	4390
908.72	4337
908.836	4356
908.952	4337
909.068	4462
909.184	4577
909.3	4428
909.415	4599
909.531	4535
909.647	4352
909.762	4375
909.878	4356
909.993	4440
910.108	4398
910.224	4451
910.339	4428
910.454	4421
910.57	4367
910.685	4398
910.8	4675
910.915	4626
911.03	4508
911.145	4390
911.259	4329
911.374	4371
911.489	4318
911.604	4322
911.718	4185
911.833	4211
911.947	4071
912.062	3979
912.176	4219
912.291	4238
912.405	4257
912.519	4489
912.633	4516
912.748	4352
912.862	4291
912.976	4200
913.09	4124
913.204	4154
913.318	4257
913.431	4325
913.545	4352
913.659	4485
913.772	4348
913.886	4291
914	4265
914.113	4383
914.226	4402
914.34	4405
914.453	4219
914.566	4443
914.68	4295
914.793	4303
914.906	4154
915.019	4112
915.132	4063
915.245	4185
915.358	4192
915.47	4204
915.583	4261
915.696	4299
915.809	4417
915.921	4424
916.034	4276
916.146	4242
916.259	4223
916.371	4409
916.483	4363
916.595	4246
916.708	4268
916.82	4329
916.932	4310
917.044	4306
917.156	4348
917.268	4246
917.38	4242
917.491	4211
917.603	4337
917.715	4436
917.826	4417
917.938	4337
918.049	4246
918.161	4405
918.272	4538
918.384	4573
918.495	4466
918.606	4333
918.717	4219
918.828	4333
918.939	4333
919.05	4287
919.161	4325
919.272	4128
919.383	4261
919.494	4462
919.604	4611
919.715	4421
919.826	4360
919.936	4417
920.047	4512
920.157	4478
920.267	4725
920.378	4542
920.488	4519
920.598	4698
920.708	4892
920.818	4759
920.928	4805
921.038	4942
921.148	4938
921.258	4675
921.368	4561
921.477	4516
921.587	4500
921.697	4367
921.806	4527
921.916	4451
922.025	4325
922.134	4230
922.244	4207
922.353	4306
922.462	4166
922.571	4109
922.68	4029
922.789	4017
922.898	4021
923.007	4025
923.116	4143
923.224	4055
923.333	4071
923.442	4013
923.55	3998
923.659	4063
923.767	4078
923.876	4006
923.984	4086
924.092	4021
924.201	4090
924.309	4086
924.417	4128
924.525	4078
924.633	4112
924.741	5060
924.849	3934
924.956	4169
925.064	3994
925.172	3869
925.279	3968
925.387	4040
925.494	4055
925.602	4177
925.709	4150
925.816	4063
925.924	4128
926.031	4242
926.138	4154
926.245	4238
926.352	4109
926.459	4242
926.566	4306
926.673	4166
926.779	4116
926.886	4059
926.993	3960
927.099	3972
927.206	3873
927.312	3922
927.419	4101
927.525	3987
927.631	4105
927.737	3945
927.843	3949
927.95	3831
928.056	3987
928.162	3987
928.267	4032
928.373	4603
928.479	4124
928.585	3865
928.69	4017
928.796	4078
928.901	4021
929.007	3819
929.112	3987
929.218	3968
929.323	3949
929.428	3968
929.533	4097
929.638	3888
929.743	3964
929.848	4059
929.953	3972
930.058	3907
930.163	3785
930.267	3808
930.372	3998
930.477	3770
930.581	4112
930.685	3968
930.79	3785
930.894	3850
930.998	3850
931.103	4013
931.207	3720
931.311	3724
931.415	3698
931.519	3542
931.623	3572
