Data from test_V78500241_2169.txt Node
Date: Fri Mar 25 17:04:05 CST 2022
User: usil
Spectrometer: V785-0024
Trigger mode: 0
Integration Time (sec): 4.000000E-1
Scans to average: 1
Nonlinearity correction enabled: false
Boxcar width: 0
Storing dark spectrum: false
XAxis mode: Wavelengths
Number of Pixels in Spectrum: 1024
>>>>>Begin Spectral Data<<<<<
801.071	8069
801.214	8008
801.356	7807
801.499	7864
801.641	7814
801.783	7875
801.926	7967
802.068	7906
802.211	7928
802.353	8081
802.496	7841
802.638	7860
802.78	7894
802.923	7936
803.065	7871
803.208	7921
803.35	7925
803.492	8077
803.635	8153
803.777	8027
803.919	8138
804.061	8442
804.204	8229
804.346	8096
804.488	8012
804.63	8126
804.773	8016
804.915	8096
805.057	8320
805.199	8229
805.341	8134
805.483	8286
805.626	8218
805.768	8161
805.91	8237
806.052	8252
806.194	8115
806.336	8317
806.478	8164
806.62	8088
806.762	8180
806.904	8294
807.046	8377
807.188	8370
807.33	8317
807.472	8347
807.614	8225
807.756	8183
807.898	8054
808.04	7963
808.182	7909
808.324	7830
808.465	7932
808.607	8088
808.749	8138
808.891	8202
809.033	8305
809.174	8218
809.316	8111
809.458	8126
809.6	8092
809.741	8081
809.883	8039
810.025	8092
810.166	8062
810.308	8039
810.45	7978
810.591	7890
810.733	7727
810.875	7632
811.016	7567
811.158	7422
811.299	7487
811.441	7708
811.582	7772
811.724	7514
811.865	7571
812.007	7613
812.148	7616
812.29	7632
812.431	7734
812.573	7894
812.714	8031
812.855	8134
812.997	8210
813.138	8271
813.279	8119
813.421	8092
813.562	8027
813.703	7784
813.845	7700
813.986	7525
814.127	7213
814.268	7217
814.41	7122
814.551	7228
814.692	7213
814.833	7126
814.974	7190
815.115	7137
815.256	6970
815.397	6970
815.539	6909
815.68	6825
815.821	6806
815.962	6802
816.103	6848
816.244	6673
816.385	6620
816.526	6612
816.666	6563
816.807	6296
816.948	6426
817.089	6486
817.23	6391
817.371	6399
817.512	6414
817.653	6369
817.793	6384
817.934	6475
818.075	6464
818.216	6422
818.356	6452
818.497	6304
818.638	6136
818.778	6106
818.919	6129
819.06	6220
819.2	6369
819.341	6327
819.481	6403
819.622	6582
819.762	6692
819.903	6730
820.043	6555
820.184	6559
820.324	6612
820.465	6753
820.605	6738
820.746	6662
820.886	6532
821.026	6627
821.167	6692
821.307	6787
821.447	6798
821.588	6700
821.728	6593
821.868	6559
822.008	6350
822.149	6331
822.289	6338
822.429	6148
822.569	6098
822.709	6136
822.849	5912
822.99	5935
823.13	5882
823.27	5942
823.41	5821
823.55	5802
823.69	5779
823.83	5767
823.97	5688
824.11	5577
824.25	5524
824.389	5566
824.529	5577
824.669	5543
824.809	5615
824.949	5649
825.089	5604
825.228	5539
825.368	5391
825.508	5398
825.648	5345
825.787	5318
825.927	5425
826.067	5273
826.206	5334
826.346	5410
826.485	5410
826.625	5436
826.765	5532
826.904	5490
827.044	5261
827.183	5174
827.323	5128
827.462	5231
827.601	5201
827.741	5204
827.88	5254
828.02	5128
828.159	5220
828.298	5303
828.437	5372
828.577	5280
828.716	5501
828.855	5303
828.994	5181
829.134	5151
829.273	5162
829.412	5117
829.551	5124
829.69	5143
829.829	5261
829.968	5357
830.107	5303
830.246	5284
830.385	5162
830.524	5159
830.663	5041
830.802	5018
830.941	4885
831.08	4866
831.219	4999
831.357	4968
831.496	5174
831.635	4946
831.774	4858
831.913	4854
832.051	4687
832.19	4714
832.329	4816
832.467	4759
832.606	4611
832.744	4778
832.883	4755
833.022	4714
833.16	4805
833.299	4801
833.437	4877
833.576	4797
833.714	4900
833.852	4862
833.991	4873
834.129	4942
834.267	4942
834.406	4896
834.544	4946
834.682	4991
834.821	4987
834.959	5105
835.097	5018
835.235	5140
835.373	5083
835.511	5117
835.65	5045
835.788	5022
835.926	4892
836.064	4831
836.202	4904
836.34	5132
836.478	5178
836.615	5140
836.753	5197
836.891	5250
837.029	5223
837.167	5178
837.305	5204
837.443	5189
837.58	5041
837.718	5212
837.856	5181
837.993	5239
838.131	5185
838.269	5220
838.406	5208
838.544	5201
838.681	5018
838.819	4987
838.956	4870
839.094	4911
839.231	5003
839.369	5079
839.506	5410
839.643	5235
839.781	5090
839.918	5025
840.055	5060
840.193	5117
840.33	5041
840.467	5162
840.604	5235
840.742	5452
840.879	5102
841.016	5098
841.153	5159
841.29	5383
841.427	5368
841.564	5326
841.701	5337
841.838	5280
841.975	5216
842.112	5280
842.249	5151
842.385	5117
842.522	5311
842.659	5136
842.796	5117
842.933	5208
843.069	5124
843.206	5181
843.343	5242
843.479	5235
843.616	5246
843.752	5086
843.889	5075
844.025	5227
844.162	5010
844.298	5216
844.435	5109
844.571	5052
844.708	5208
844.844	5318
844.98	5311
845.117	5292
845.253	5170
845.389	5094
845.525	5124
845.661	5166
845.798	5075
845.934	5113
846.07	5033
846.206	5189
846.342	5299
846.478	5136
846.614	5003
846.75	4995
846.886	5003
847.022	5102
847.158	5022
847.294	5048
847.429	5079
847.565	5079
847.701	5326
847.837	4809
847.972	4797
848.108	4976
848.244	4949
848.379	4835
848.515	4729
848.65	4702
848.786	4714
848.921	4778
849.057	4831
849.192	4831
849.328	4801
849.463	4839
849.598	4847
849.734	4782
849.869	4683
850.004	4641
850.14	4664
850.275	4622
850.41	4561
850.545	4550
850.68	4611
850.815	4565
850.95	4691
851.085	4824
851.22	4755
851.355	4687
851.49	4565
851.625	4637
851.76	4611
851.895	4580
852.03	4546
852.165	4691
852.299	4717
852.434	4824
852.569	4702
852.703	4752
852.838	4820
852.973	4938
853.107	4881
853.242	4717
853.376	4660
853.511	4523
853.645	4615
853.78	4831
853.914	4656
854.048	4679
854.183	4622
854.317	4691
854.451	4839
854.585	4660
854.72	4603
854.854	4733
854.988	4630
855.122	4622
855.256	4542
855.39	4683
855.524	4801
855.658	4740
855.792	4721
855.926	4687
856.06	4767
856.194	4793
856.327	4706
856.461	4584
856.595	4637
856.729	4641
856.862	4755
856.996	4668
857.13	4702
857.263	4793
857.397	4778
857.53	4626
857.664	4694
857.797	4771
857.931	4782
858.064	4687
858.197	4736
858.331	4634
858.464	4622
858.597	4538
858.731	4649
858.864	4618
858.997	4561
859.13	4622
859.263	4694
859.396	4698
859.529	4565
859.662	4592
859.795	4497
859.928	4637
860.061	4744
860.194	4778
860.327	4592
860.46	4580
860.592	4706
860.725	4717
860.858	4683
860.99	4599
861.123	4516
861.256	4508
861.388	4588
861.521	5395
861.653	4508
861.786	4413
861.918	4436
862.05	4546
862.183	4561
862.315	4596
862.447	4615
862.58	4550
862.712	4383
862.844	4318
862.976	4481
863.108	4443
863.24	4748
863.372	4329
863.504	4390
863.636	4405
863.768	4508
863.9	4394
864.032	4386
864.164	4451
864.296	4470
864.428	4618
864.559	4546
864.691	4561
864.823	4519
864.954	4500
865.086	4516
865.217	4523
865.349	4436
865.48	4478
865.612	4527
865.743	4618
865.875	4432
866.006	4421
866.137	4478
866.269	4447
866.4	4413
866.531	4409
866.662	4356
866.793	4421
866.924	4402
867.055	4500
867.186	4470
867.317	4413
867.448	4360
867.579	4325
867.71	4383
867.841	4386
867.972	4436
868.103	4466
868.233	4421
868.364	4421
868.495	4508
868.625	4664
868.756	4771
868.886	4561
869.017	4645
869.147	4786
869.278	4755
869.408	4660
869.539	4626
869.669	4679
869.799	4694
869.929	4767
870.06	4710
870.19	4911
870.32	4923
870.45	4961
870.58	5033
870.71	5094
870.84	5037
870.97	4957
871.1	4896
871.23	5117
871.36	5166
871.489	5083
871.619	5086
871.749	5113
871.879	5159
872.008	5155
872.138	5045
872.267	4984
872.397	4850
872.526	4839
872.656	4744
872.785	4786
872.915	4953
873.044	5014
873.173	4881
873.303	4999
873.432	4930
873.561	4930
873.69	4885
873.819	4839
873.948	4949
874.077	4786
874.206	4790
874.335	4831
874.464	4915
874.593	4991
874.722	4991
874.851	5098
874.979	5025
875.108	5037
875.237	4942
875.365	4889
875.494	4873
875.623	4946
875.751	4854
875.88	4877
876.008	4976
876.136	5003
876.265	5216
876.393	5318
876.521	5204
876.65	5174
876.778	5124
876.906	5075
877.034	5071
877.162	5014
877.29	5014
877.418	5064
877.546	5071
877.674	5064
877.802	5067
877.93	5037
878.058	4911
878.185	4854
878.313	4965
878.441	4896
878.568	4801
878.696	4873
878.824	4972
878.951	5006
879.079	5132
879.206	5273
879.333	5121
879.461	5006
879.588	5018
879.715	5140
879.842	5269
879.97	5014
880.097	4790
880.224	4733
880.351	4778
880.478	4847
880.605	4866
880.732	4752
880.859	5086
880.986	4938
881.112	4904
881.239	4729
881.366	4683
881.493	4512
881.619	4588
881.746	4611
881.872	4675
881.999	4618
882.125	4675
882.252	4786
882.378	4805
882.505	4934
882.631	4752
882.757	4679
882.883	4797
883.01	4755
883.136	4694
883.262	4622
883.388	4603
883.514	4778
883.64	4862
883.766	4843
883.892	4687
884.018	4710
884.143	4843
884.269	5014
884.395	4729
884.52	4588
884.646	4622
884.772	4550
884.897	4550
885.023	4637
885.148	4786
885.274	4850
885.399	4763
885.524	4694
885.65	4714
885.775	4786
885.9	4698
886.025	4873
886.15	4763
886.275	4721
886.4	4630
886.525	4752
886.65	4634
886.775	4687
886.9	4885
887.025	5029
887.149	4828
887.274	4649
887.399	4599
887.523	4577
887.648	4599
887.773	4588
887.897	4717
888.021	4744
888.146	4683
888.27	4797
888.395	4942
888.519	4767
888.643	4870
888.767	4812
888.891	4702
889.015	4603
889.139	4653
889.263	4622
889.387	4744
889.511	4824
889.635	4797
889.759	4630
889.883	4656
890.006	4706
890.13	4790
890.254	4618
890.377	4649
890.501	4573
890.624	4535
890.748	4630
890.871	4451
890.995	4436
891.118	4383
891.241	4542
891.364	4538
891.488	4573
891.611	4481
891.734	4577
891.857	4584
891.98	4542
892.103	4599
892.226	4573
892.349	4535
892.471	4428
892.594	4561
892.717	4596
892.839	4554
892.962	4611
893.085	4653
893.207	4561
893.33	4466
893.452	4561
893.575	4653
893.697	4554
893.819	4790
893.941	4812
894.064	4774
894.186	4596
894.308	4523
894.43	4706
894.552	4816
894.674	4793
894.796	4588
894.918	4592
895.04	4546
895.161	4679
895.283	4721
895.405	4523
895.526	4611
895.648	4672
895.769	4630
895.891	4717
896.012	4763
896.134	4763
896.255	4675
896.376	4668
896.498	4626
896.619	4687
896.74	4592
896.861	4668
896.982	4938
897.103	5117
897.224	4828
897.345	4740
897.466	4672
897.587	4774
897.708	4824
897.828	4793
897.949	4710
898.07	4592
898.19	4615
898.311	4824
898.431	4664
898.552	4687
898.672	4767
898.792	4831
898.913	4759
899.033	4618
899.153	4481
899.273	4451
899.393	4500
899.513	4504
899.633	4512
899.753	4584
899.873	4531
899.993	4573
900.113	4580
900.232	4603
900.352	4516
900.472	4478
900.591	4375
900.711	4497
900.83	4428
900.95	4645
901.069	4664
901.189	4538
901.308	4383
901.427	4344
901.546	4337
901.665	4493
901.784	4527
901.904	4348
902.023	4314
902.141	4177
902.26	4162
902.379	4284
902.498	4204
902.617	4219
902.735	4352
902.854	4363
902.973	4363
903.091	4188
903.21	4207
903.328	4348
903.446	4234
903.565	4310
903.683	4325
903.801	4261
903.919	4379
904.038	4398
904.156	4337
904.274	4481
904.392	4417
904.51	4440
904.627	4436
904.745	4580
904.863	4634
904.981	4409
905.098	4265
905.216	4333
905.334	4413
905.451	4398
905.569	4481
905.686	4523
905.803	4565
905.921	4386
906.038	4565
906.155	4432
906.272	4367
906.389	4455
906.506	4333
906.623	4363
906.74	4341
906.857	4242
906.974	4398
907.091	4523
907.208	4668
907.324	4649
907.441	4466
907.557	4276
907.674	4341
907.79	4310
907.907	4333
908.023	4500
908.139	4489
908.256	4417
908.372	4470
908.488	4481
908.604	4329
908.72	4322
908.836	4352
908.952	4390
909.068	4398
909.184	4546
909.3	4455
909.415	4558
909.531	4516
909.647	4375
909.762	4394
909.878	4329
909.993	4451
910.108	4447
910.224	4409
910.339	4478
910.454	4398
910.57	4402
910.685	4295
910.8	4645
910.915	4599
911.03	4470
911.145	4318
911.259	4318
911.374	4371
911.489	4306
911.604	4276
911.718	4185
911.833	4166
911.947	4090
912.062	4040
912.176	4181
912.291	4230
912.405	4246
912.519	4462
912.633	4550
912.748	4371
912.862	4318
912.976	4181
913.09	4101
913.204	4139
913.318	4268
913.431	4402
913.545	4310
913.659	4432
913.772	4409
913.886	4268
914	4192
914.113	4367
914.226	4451
914.34	4409
914.453	4246
914.566	4402
914.68	4352
914.793	4325
914.906	4147
915.019	4112
915.132	4124
915.245	4181
915.358	4207
915.47	4223
915.583	4211
915.696	4268
915.809	4417
915.921	4440
916.034	4185
916.146	4219
916.259	4215
916.371	4386
916.483	4341
916.595	4257
916.708	4325
916.82	4276
916.932	4352
917.044	4341
917.156	4314
917.268	4230
917.38	4280
917.491	4265
917.603	4344
917.715	4432
917.826	4405
917.938	4341
918.049	4253
918.161	4443
918.272	4531
918.384	4558
918.495	4405
918.606	4318
918.717	4284
918.828	4329
918.939	4375
919.05	4211
919.161	4367
919.272	4135
919.383	4207
919.494	4409
919.604	4630
919.715	4459
919.826	4333
919.936	4371
920.047	4546
920.157	4470
920.267	4668
920.378	4577
920.488	4523
920.598	4706
920.708	4934
920.818	4698
920.928	4801
921.038	4919
921.148	4870
921.258	4596
921.368	4523
921.477	4531
921.587	4447
921.697	4363
921.806	4497
921.916	4451
922.025	4276
922.134	4261
922.244	4249
922.353	4341
922.462	4166
922.571	4109
922.68	3953
922.789	3968
922.898	4078
923.007	4025
923.116	4090
923.224	4082
923.333	4090
923.442	3979
923.55	3968
923.659	4013
923.767	4120
923.876	4021
923.984	4109
924.092	3994
924.201	4074
924.309	4116
924.417	4135
924.525	4071
924.633	4074
924.741	5010
924.849	3930
924.956	4143
925.064	3994
925.172	3899
925.279	3941
925.387	4059
925.494	4032
925.602	4200
925.709	4154
925.816	4116
925.924	4150
926.031	4238
926.138	4147
926.245	4177
926.352	4067
926.459	4249
926.566	4280
926.673	4154
926.779	4055
926.886	4082
926.993	3972
927.099	3953
927.206	3979
927.312	3960
927.419	4063
927.525	4044
927.631	4105
927.737	3975
927.843	3922
927.95	3835
928.056	3975
928.162	4006
928.267	4040
928.373	4668
928.479	4131
928.585	3869
928.69	4032
928.796	4036
928.901	3975
929.007	3804
929.112	3975
929.218	3934
929.323	3922
929.428	3930
929.533	4128
929.638	3876
929.743	3987
929.848	4006
929.953	4029
930.058	3926
930.163	3778
930.267	3827
930.372	3975
930.477	3781
930.581	4044
930.685	3972
930.79	3838
930.894	3903
930.998	3831
931.103	4025
931.207	3751
931.311	3644
931.415	3648
931.519	3500
931.623	3504
