Data from test_V78500241_834.txt Node
Date: Fri Mar 25 16:54:48 CST 2022
User: usil
Spectrometer: V785-0024
Trigger mode: 0
Integration Time (sec): 4.000000E-1
Scans to average: 1
Nonlinearity correction enabled: false
Boxcar width: 0
Storing dark spectrum: false
XAxis mode: Wavelengths
Number of Pixels in Spectrum: 1024
>>>>>Begin Spectral Data<<<<<
801.071	8001
801.214	7974
801.356	7818
801.499	7830
801.641	7746
801.783	7826
801.926	7978
802.068	7959
802.211	7909
802.353	7925
802.496	7822
802.638	7845
802.78	7883
802.923	7883
803.065	7826
803.208	7902
803.35	8001
803.492	8123
803.635	8210
803.777	8039
803.919	8077
804.061	8385
804.204	8126
804.346	8031
804.488	8012
804.63	8126
804.773	8035
804.915	8111
805.057	8237
805.199	8164
805.341	8225
805.483	8233
805.626	8153
805.768	8058
805.91	8187
806.052	8164
806.194	8096
806.336	8225
806.478	8134
806.62	7955
806.762	8103
806.904	8275
807.046	8396
807.188	8336
807.33	8263
807.472	8313
807.614	8153
807.756	8081
807.898	8005
808.04	7879
808.182	7887
808.324	7864
808.465	7921
808.607	8005
808.749	8031
808.891	8157
809.033	8275
809.174	8225
809.316	8115
809.458	8081
809.6	7936
809.741	8005
809.883	8024
810.025	8100
810.166	8016
810.308	8081
810.45	8008
810.591	7883
810.733	7685
810.875	7681
811.016	7514
811.158	7407
811.299	7582
811.441	7746
811.582	7700
811.724	7556
811.865	7502
812.007	7575
812.148	7632
812.29	7601
812.431	7658
812.573	7845
812.714	7967
812.855	8180
812.997	8138
813.138	8301
813.279	8103
813.421	8103
813.562	7982
813.703	7887
813.845	7765
813.986	7441
814.127	7270
814.268	7255
814.41	7160
814.551	7118
814.692	7122
814.833	7008
814.974	7126
815.115	7103
815.256	6951
815.397	6920
815.539	6932
815.68	6863
815.821	6760
815.962	6810
816.103	6837
816.244	6711
816.385	6627
816.526	6681
816.666	6460
816.807	6235
816.948	6437
817.089	6448
817.23	6407
817.371	6350
817.512	6372
817.653	6365
817.793	6353
817.934	6418
818.075	6422
818.216	6452
818.356	6391
818.497	6235
818.638	6049
818.778	6106
818.919	6175
819.06	6102
819.2	6292
819.341	6350
819.481	6327
819.622	6467
819.762	6677
819.903	6662
820.043	6551
820.184	6509
820.324	6551
820.465	6646
820.605	6646
820.746	6616
820.886	6471
821.026	6616
821.167	6677
821.307	6760
821.447	6738
821.588	6631
821.728	6547
821.868	6456
822.008	6353
822.149	6342
822.289	6331
822.429	6190
822.569	6110
822.709	6152
822.849	5874
822.99	5931
823.13	5885
823.27	5920
823.41	5748
823.55	5794
823.69	5729
823.83	5775
823.97	5615
824.11	5512
824.25	5497
824.389	5520
824.529	5562
824.669	5524
824.809	5634
824.949	5657
825.089	5619
825.228	5577
825.368	5421
825.508	5364
825.648	5349
825.787	5349
825.927	5357
826.067	5330
826.206	5288
826.346	5341
826.485	5376
826.625	5387
826.765	5512
826.904	5452
827.044	5231
827.183	5181
827.323	5140
827.462	5201
827.601	5178
827.741	5170
827.88	5174
828.02	5098
828.159	5242
828.298	5246
828.437	5406
828.577	5235
828.716	5452
828.855	5307
828.994	5140
829.134	5124
829.273	5208
829.412	5105
829.551	5155
829.69	5162
829.829	5216
829.968	5387
830.107	5269
830.246	5261
830.385	5174
830.524	5174
830.663	5071
830.802	4919
830.941	4889
831.08	4862
831.219	4968
831.357	4942
831.496	5170
831.635	4885
831.774	4812
831.913	4854
832.051	4714
832.19	4736
832.329	4824
832.467	4691
832.606	4615
832.744	4714
832.883	4721
833.022	4687
833.16	4774
833.299	4858
833.437	4824
833.576	4824
833.714	4786
833.852	4885
833.991	4877
834.129	4976
834.267	4942
834.406	4915
834.544	4904
834.682	4900
834.821	4919
834.959	5124
835.097	4972
835.235	5136
835.373	5067
835.511	5124
835.65	5029
835.788	4949
835.926	4930
836.064	4896
836.202	4885
836.34	5121
836.478	5174
836.615	5086
836.753	5193
836.891	5288
837.029	5235
837.167	5174
837.305	5140
837.443	5155
837.58	5045
837.718	5185
837.856	5155
837.993	5083
838.131	5258
838.269	5189
838.406	5181
838.544	5143
838.681	4987
838.819	5006
838.956	4885
839.094	4862
839.231	4968
839.369	5006
839.506	5410
839.643	5223
839.781	5037
839.918	5003
840.055	5045
840.193	5086
840.33	5105
840.467	5197
840.604	5151
840.742	5398
840.879	5079
841.016	5117
841.153	5170
841.29	5372
841.427	5326
841.564	5299
841.701	5357
841.838	5242
841.975	5273
842.112	5307
842.249	5178
842.385	5052
842.522	5303
842.659	5174
842.796	5117
842.933	5128
843.069	5136
843.206	5117
843.343	5299
843.479	5246
843.616	5277
843.752	4972
843.889	5014
844.025	5178
844.162	5048
844.298	5254
844.435	5041
844.571	5048
844.708	5193
844.844	5345
844.98	5330
845.117	5280
845.253	5128
845.389	5037
845.525	5098
845.661	5109
845.798	5071
845.934	5094
846.07	5003
846.206	5185
846.342	5235
846.478	5136
846.614	4991
846.75	4976
846.886	4923
847.022	5147
847.158	5025
847.294	5041
847.429	5090
847.565	5041
847.701	5296
847.837	4812
847.972	4771
848.108	4911
848.244	4915
848.379	4774
848.515	4683
848.65	4683
848.786	4706
848.921	4763
849.057	4843
849.192	4908
849.328	4854
849.463	4805
849.598	4786
849.734	4752
849.869	4683
850.004	4622
850.14	4656
850.275	4607
850.41	4512
850.545	4573
850.68	4653
850.815	4603
850.95	4550
851.085	4820
851.22	4725
851.355	4615
851.49	4603
851.625	4611
851.76	4615
851.895	4561
852.03	4523
852.165	4679
852.299	4664
852.434	4778
852.569	4759
852.703	4759
852.838	4805
852.973	4900
853.107	4919
853.242	4721
853.376	4675
853.511	4538
853.645	4580
853.78	4771
853.914	4706
854.048	4694
854.183	4618
854.317	4656
854.451	4790
854.585	4653
854.72	4577
854.854	4801
854.988	4596
855.122	4664
855.256	4554
855.39	4653
855.524	4771
855.658	4668
855.792	4649
855.926	4763
856.06	4740
856.194	4793
856.327	4660
856.461	4592
856.595	4618
856.729	4649
856.862	4687
856.996	4672
857.13	4706
857.263	4736
857.397	4778
857.53	4630
857.664	4710
857.797	4771
857.931	4717
858.064	4687
858.197	4717
858.331	4630
858.464	4599
858.597	4485
858.731	4637
858.864	4622
858.997	4554
859.13	4656
859.263	4660
859.396	4679
859.529	4561
859.662	4607
859.795	4493
859.928	4626
860.061	4771
860.194	4752
860.327	4588
860.46	4516
860.592	4637
860.725	4721
860.858	4740
860.99	4527
861.123	4542
861.256	4497
861.388	4580
861.521	5265
861.653	4428
861.786	4466
861.918	4466
862.05	4493
862.183	4519
862.315	4584
862.447	4660
862.58	4538
862.712	4367
862.844	4295
862.976	4485
863.108	4455
863.24	4687
863.372	4348
863.504	4371
863.636	4440
863.768	4481
863.9	4436
864.032	4352
864.164	4363
864.296	4451
864.428	4546
864.559	4558
864.691	4523
864.823	4516
864.954	4493
865.086	4474
865.217	4462
865.349	4409
865.48	4398
865.612	4459
865.743	4615
865.875	4459
866.006	4424
866.137	4462
866.269	4409
866.4	4413
866.531	4428
866.662	4379
866.793	4375
866.924	4398
867.055	4459
867.186	4447
867.317	4375
867.448	4333
867.579	4375
867.71	4421
867.841	4356
867.972	4443
868.103	4394
868.233	4421
868.364	4443
868.495	4447
868.625	4630
868.756	4778
868.886	4577
869.017	4615
869.147	4748
869.278	4759
869.408	4618
869.539	4603
869.669	4668
869.799	4653
869.929	4733
870.06	4698
870.19	4976
870.32	4873
870.45	4919
870.58	5022
870.71	5117
870.84	5083
870.97	4949
871.1	4870
871.23	5098
871.36	5098
871.489	5006
871.619	5056
871.749	5090
871.879	5064
872.008	5113
872.138	4995
872.267	4999
872.397	4866
872.526	4733
872.656	4694
872.785	4797
872.915	4938
873.044	5052
873.173	4976
873.303	4908
873.432	4968
873.561	4934
873.69	4896
873.819	4820
873.948	4900
874.077	4778
874.206	4774
874.335	4744
874.464	4858
874.593	5041
874.722	4957
874.851	5048
874.979	5045
875.108	5014
875.237	4885
875.365	4862
875.494	4862
875.623	4938
875.751	4831
875.88	4809
876.008	4984
876.136	5010
876.265	5166
876.393	5337
876.521	5250
876.65	5189
876.778	5204
876.906	5052
877.034	5010
877.162	5029
877.29	4965
877.418	5109
877.546	5029
877.674	5014
877.802	5041
877.93	5003
878.058	4904
878.185	4862
878.313	4953
878.441	4934
878.568	4809
878.696	4877
878.824	4961
878.951	4991
879.079	5147
879.206	5315
879.333	5083
879.461	4923
879.588	4987
879.715	5048
879.842	5178
879.97	4980
880.097	4771
880.224	4744
880.351	4805
880.478	4782
880.605	4793
880.732	4763
880.859	5071
880.986	4866
881.112	4847
881.239	4816
881.366	4645
881.493	4584
881.619	4554
881.746	4641
881.872	4656
881.999	4634
882.125	4675
882.252	4763
882.378	4809
882.505	4984
882.631	4809
882.757	4664
882.883	4691
883.01	4729
883.136	4645
883.262	4558
883.388	4645
883.514	4786
883.64	4850
883.766	4763
883.892	4649
884.018	4717
884.143	4847
884.269	4961
884.395	4698
884.52	4622
884.646	4637
884.772	4569
884.897	4538
885.023	4668
885.148	4725
885.274	4889
885.399	4786
885.524	4706
885.65	4622
885.775	4733
885.9	4698
886.025	4889
886.15	4854
886.275	4710
886.4	4653
886.525	4748
886.65	4694
886.775	4702
886.9	4881
887.025	5010
887.149	4782
887.274	4603
887.399	4622
887.523	4588
887.648	4554
887.773	4599
887.897	4721
888.021	4782
888.146	4660
888.27	4866
888.395	4862
888.519	4748
888.643	4793
888.767	4824
888.891	4668
889.015	4546
889.139	4584
889.263	4561
889.387	4752
889.511	4835
889.635	4767
889.759	4611
889.883	4679
890.006	4733
890.13	4812
890.254	4618
890.377	4702
890.501	4535
890.624	4519
890.748	4596
890.871	4527
890.995	4409
891.118	4405
891.241	4508
891.364	4497
891.488	4611
891.611	4481
891.734	4561
891.857	4622
891.98	4569
892.103	4607
892.226	4588
892.349	4485
892.471	4417
892.594	4542
892.717	4626
892.839	4527
892.962	4607
893.085	4694
893.207	4538
893.33	4424
893.452	4493
893.575	4683
893.697	4573
893.819	4771
893.941	4820
894.064	4767
894.186	4588
894.308	4550
894.43	4694
894.552	4835
894.674	4725
894.796	4580
894.918	4584
895.04	4569
895.161	4698
895.283	4641
895.405	4577
895.526	4596
895.648	4675
895.769	4672
895.891	4687
896.012	4714
896.134	4725
896.255	4694
896.376	4637
896.498	4611
896.619	4698
896.74	4653
896.861	4634
896.982	4892
897.103	5022
897.224	4820
897.345	4774
897.466	4626
897.587	4725
897.708	4805
897.828	4748
897.949	4672
898.07	4580
898.19	4550
898.311	4839
898.431	4683
898.552	4759
898.672	4767
898.792	4820
898.913	4763
899.033	4584
899.153	4485
899.273	4417
899.393	4527
899.513	4519
899.633	4538
899.753	4462
899.873	4531
899.993	4558
900.113	4516
900.232	4584
900.352	4519
900.472	4459
900.591	4390
900.711	4485
900.83	4451
900.95	4573
901.069	4641
901.189	4516
901.308	4310
901.427	4299
901.546	4386
901.665	4455
901.784	4485
901.904	4379
902.023	4348
902.141	4200
902.26	4112
902.379	4295
902.498	4200
902.617	4276
902.735	4405
902.854	4356
902.973	4375
903.091	4207
903.21	4185
903.328	4299
903.446	4276
903.565	4272
903.683	4303
903.801	4242
903.919	4417
904.038	4440
904.156	4303
904.274	4367
904.392	4383
904.51	4462
904.627	4451
904.745	4550
904.863	4588
904.981	4405
905.098	4310
905.216	4379
905.334	4417
905.451	4447
905.569	4443
905.686	4561
905.803	4561
905.921	4413
906.038	4546
906.155	4478
906.272	4379
906.389	4455
906.506	4356
906.623	4379
906.74	4386
906.857	4284
906.974	4375
907.091	4519
907.208	4653
907.324	4607
907.441	4470
907.557	4360
907.674	4310
907.79	4299
907.907	4337
908.023	4481
908.139	4466
908.256	4428
908.372	4474
908.488	4436
908.604	4352
908.72	4272
908.836	4325
908.952	4371
909.068	4409
909.184	4592
909.3	4500
909.415	4607
909.531	4554
909.647	4394
909.762	4310
909.878	4314
909.993	4421
910.108	4409
910.224	4402
910.339	4470
910.454	4375
910.57	4383
910.685	4276
910.8	4637
910.915	4519
911.03	4512
911.145	4306
911.259	4352
911.374	4360
911.489	4276
911.604	4223
911.718	4120
911.833	4265
911.947	4090
912.062	4010
912.176	4135
912.291	4207
912.405	4238
912.519	4474
912.633	4516
912.748	4379
912.862	4306
912.976	4200
913.09	4097
913.204	4169
913.318	4257
913.431	4341
913.545	4352
913.659	4421
913.772	4344
913.886	4276
914	4169
914.113	4386
914.226	4466
914.34	4322
914.453	4200
914.566	4466
914.68	4329
914.793	4363
914.906	4143
915.019	4109
915.132	4040
915.245	4150
915.358	4223
915.47	4238
915.583	4246
915.696	4310
915.809	4409
915.921	4402
916.034	4219
916.146	4242
916.259	4219
916.371	4363
916.483	4333
916.595	4230
916.708	4276
916.82	4284
916.932	4341
917.044	4295
917.156	4314
917.268	4200
917.38	4268
917.491	4265
917.603	4314
917.715	4398
917.826	4447
917.938	4360
918.049	4230
918.161	4341
918.272	4542
918.384	4550
918.495	4428
918.606	4257
918.717	4223
918.828	4386
918.939	4344
919.05	4325
919.161	4303
919.272	4154
919.383	4227
919.494	4413
919.604	4637
919.715	4432
919.826	4333
919.936	4375
920.047	4516
920.157	4470
920.267	4714
920.378	4573
920.488	4508
920.598	4687
920.708	4892
920.818	4744
920.928	4752
921.038	4968
921.148	4919
921.258	4577
921.368	4527
921.477	4455
921.587	4462
921.697	4390
921.806	4535
921.916	4447
922.025	4234
922.134	4242
922.244	4257
922.353	4344
922.462	4120
922.571	4128
922.68	4021
922.789	3956
922.898	4048
923.007	4010
923.116	4093
923.224	4051
923.333	4074
923.442	4013
923.55	4010
923.659	4006
923.767	4131
923.876	4013
923.984	4078
924.092	3975
924.201	4097
924.309	4074
924.417	4109
924.525	4063
924.633	4078
924.741	4896
924.849	3953
924.956	4112
925.064	3998
925.172	3945
925.279	3975
925.387	4036
925.494	4051
925.602	4234
925.709	4139
925.816	4025
925.924	4131
926.031	4234
926.138	4166
926.245	4249
926.352	4074
926.459	4280
926.566	4306
926.673	4131
926.779	4093
926.886	4105
926.993	3975
927.099	4010
927.206	3930
927.312	3983
927.419	4063
927.525	4010
927.631	4112
927.737	3937
927.843	3945
927.95	3835
928.056	3972
928.162	3998
928.267	4048
928.373	4615
928.479	4135
928.585	3892
928.69	4063
928.796	4071
928.901	3953
929.007	3846
929.112	3987
929.218	3979
929.323	3953
929.428	3941
929.533	4135
929.638	3869
929.743	3930
929.848	4021
929.953	4021
930.058	3915
930.163	3736
930.267	3770
930.372	4010
930.477	3819
930.581	4051
930.685	3930
930.79	3823
930.894	3884
930.998	3857
931.103	4063
931.207	3705
931.311	3660
931.415	3660
931.519	3511
931.623	3572
