Data from test_V78500241_1215.txt Node
Date: Fri Mar 25 16:57:27 CST 2022
User: usil
Spectrometer: V785-0024
Trigger mode: 0
Integration Time (sec): 4.000000E-1
Scans to average: 1
Nonlinearity correction enabled: false
Boxcar width: 0
Storing dark spectrum: false
XAxis mode: Wavelengths
Number of Pixels in Spectrum: 1024
>>>>>Begin Spectral Data<<<<<
801.071	8027
801.214	7947
801.356	7913
801.499	7830
801.641	7818
801.783	7765
801.926	7921
802.068	7902
802.211	7944
802.353	7997
802.496	7818
802.638	7822
802.78	7894
802.923	7982
803.065	7902
803.208	7925
803.35	7936
803.492	8084
803.635	8161
803.777	8024
803.919	8145
804.061	8400
804.204	8130
804.346	8016
804.488	7970
804.63	8107
804.773	8008
804.915	8088
805.057	8221
805.199	8206
805.341	8259
805.483	8298
805.626	8206
805.768	8145
805.91	8138
806.052	8237
806.194	8073
806.336	8195
806.478	8062
806.62	8062
806.762	8092
806.904	8271
807.046	8450
807.188	8358
807.33	8252
807.472	8275
807.614	8115
807.756	8115
807.898	7982
808.04	7925
808.182	7814
808.324	7932
808.465	7947
808.607	8043
808.749	8126
808.891	8214
809.033	8248
809.174	8202
809.316	8065
809.458	8039
809.6	8043
809.741	7993
809.883	7928
810.025	8058
810.166	8062
810.308	8020
810.45	8001
810.591	7906
810.733	7738
810.875	7590
811.016	7575
811.158	7518
811.299	7582
811.441	7670
811.582	7681
811.724	7613
811.865	7518
812.007	7571
812.148	7502
812.29	7548
812.431	7712
812.573	7879
812.714	7967
812.855	8134
812.997	8164
813.138	8317
813.279	8176
813.421	8081
813.562	8020
813.703	7849
813.845	7780
813.986	7468
814.127	7244
814.268	7137
814.41	7221
814.551	7156
814.692	7259
814.833	7084
814.974	7076
815.115	7084
815.256	6951
815.397	6875
815.539	6905
815.68	6844
815.821	6768
815.962	6802
816.103	6818
816.244	6669
816.385	6700
816.526	6612
816.666	6441
816.807	6289
816.948	6426
817.089	6448
817.23	6429
817.371	6308
817.512	6426
817.653	6372
817.793	6346
817.934	6388
818.075	6464
818.216	6429
818.356	6395
818.497	6239
818.638	6140
818.778	6110
818.919	6091
819.06	6178
819.2	6285
819.341	6292
819.481	6308
819.622	6509
819.762	6768
819.903	6696
820.043	6544
820.184	6547
820.324	6525
820.465	6707
820.605	6642
820.746	6612
820.886	6528
821.026	6627
821.167	6688
821.307	6764
821.447	6818
821.588	6646
821.728	6528
821.868	6498
822.008	6304
822.149	6384
822.289	6308
822.429	6106
822.569	6026
822.709	6083
822.849	5954
822.99	5847
823.13	5916
823.27	5889
823.41	5745
823.55	5767
823.69	5729
823.83	5794
823.97	5684
824.11	5509
824.25	5497
824.389	5554
824.529	5611
824.669	5501
824.809	5630
824.949	5600
825.089	5581
825.228	5528
825.368	5364
825.508	5315
825.648	5360
825.787	5326
825.927	5395
826.067	5303
826.206	5212
826.346	5383
826.485	5421
826.625	5478
826.765	5535
826.904	5444
827.044	5246
827.183	5193
827.323	5170
827.462	5261
827.601	5124
827.741	5193
827.88	5216
828.02	5124
828.159	5246
828.298	5284
828.437	5349
828.577	5277
828.716	5429
828.855	5330
828.994	5185
829.134	5147
829.273	5151
829.412	5132
829.551	5155
829.69	5166
829.829	5246
829.968	5383
830.107	5273
830.246	5265
830.385	5143
830.524	5159
830.663	5067
830.802	4972
830.941	4854
831.08	4881
831.219	4961
831.357	4904
831.496	5098
831.635	4972
831.774	4858
831.913	4847
832.051	4702
832.19	4740
832.329	4812
832.467	4672
832.606	4641
832.744	4733
832.883	4698
833.022	4714
833.16	4778
833.299	4858
833.437	4839
833.576	4801
833.714	4847
833.852	4866
833.991	4835
834.129	4915
834.267	4904
834.406	4900
834.544	4995
834.682	4927
834.821	4934
834.959	5170
835.097	4984
835.235	5083
835.373	5041
835.511	5071
835.65	4991
835.788	4942
835.926	4854
836.064	4820
836.202	4866
836.34	5151
836.478	5235
836.615	5124
836.753	5208
836.891	5250
837.029	5288
837.167	5181
837.305	5151
837.443	5136
837.58	5075
837.718	5178
837.856	5193
837.993	5052
838.131	5235
838.269	5181
838.406	5178
838.544	5181
838.681	4995
838.819	5010
838.956	4908
839.094	4896
839.231	4919
839.369	5018
839.506	5398
839.643	5269
839.781	5033
839.918	5006
840.055	5079
840.193	5041
840.33	5071
840.467	5140
840.604	5151
840.742	5402
840.879	5079
841.016	5064
841.153	5121
841.29	5391
841.427	5349
841.564	5330
841.701	5288
841.838	5258
841.975	5254
842.112	5231
842.249	5117
842.385	5117
842.522	5322
842.659	5204
842.796	5166
842.933	5117
843.069	5159
843.206	5109
843.343	5318
843.479	5208
843.616	5242
843.752	4999
843.889	4984
844.025	5223
844.162	4999
844.298	5174
844.435	5067
844.571	4976
844.708	5143
844.844	5296
844.98	5353
845.117	5231
845.253	5102
845.389	5102
845.525	5159
845.661	5117
845.798	4995
845.934	5143
846.07	5048
846.206	5132
846.342	5239
846.478	5136
846.614	4980
846.75	4972
846.886	4953
847.022	5132
847.158	5045
847.294	5022
847.429	5098
847.565	5006
847.701	5265
847.837	4873
847.972	4805
848.108	4930
848.244	4949
848.379	4755
848.515	4694
848.65	4702
848.786	4717
848.921	4725
849.057	4870
849.192	4847
849.328	4805
849.463	4824
849.598	4748
849.734	4710
849.869	4656
850.004	4618
850.14	4653
850.275	4637
850.41	4531
850.545	4580
850.68	4569
850.815	4580
850.95	4645
851.085	4873
851.22	4702
851.355	4675
851.49	4607
851.625	4634
851.76	4607
851.895	4546
852.03	4542
852.165	4626
852.299	4752
852.434	4755
852.569	4763
852.703	4740
852.838	4809
852.973	4972
853.107	4873
853.242	4729
853.376	4611
853.511	4561
853.645	4615
853.78	4725
853.914	4630
854.048	4656
854.183	4637
854.317	4706
854.451	4828
854.585	4694
854.72	4565
854.854	4763
854.988	4538
855.122	4599
855.256	4531
855.39	4641
855.524	4786
855.658	4706
855.792	4717
855.926	4683
856.06	4767
856.194	4786
856.327	4683
856.461	4569
856.595	4607
856.729	4611
856.862	4763
856.996	4683
857.13	4729
857.263	4748
857.397	4793
857.53	4622
857.664	4710
857.797	4736
857.931	4748
858.064	4668
858.197	4744
858.331	4641
858.464	4622
858.597	4497
858.731	4653
858.864	4630
858.997	4580
859.13	4630
859.263	4672
859.396	4615
859.529	4607
859.662	4546
859.795	4542
859.928	4607
860.061	4744
860.194	4740
860.327	4588
860.46	4592
860.592	4733
860.725	4763
860.858	4683
860.99	4554
861.123	4489
861.256	4554
861.388	4573
861.521	5280
861.653	4478
861.786	4409
861.918	4440
862.05	4497
862.183	4531
862.315	4569
862.447	4641
862.58	4554
862.712	4409
862.844	4291
862.976	4428
863.108	4428
863.24	4881
863.372	4356
863.504	4424
863.636	4394
863.768	4512
863.9	4443
864.032	4356
864.164	4417
864.296	4443
864.428	4519
864.559	4535
864.691	4554
864.823	4538
864.954	4497
865.086	4538
865.217	4421
865.349	4402
865.48	4432
865.612	4485
865.743	4653
865.875	4417
866.006	4424
866.137	4436
866.269	4455
866.4	4360
866.531	4413
866.662	4383
866.793	4386
866.924	4413
867.055	4481
867.186	4421
867.317	4386
867.448	4367
867.579	4398
867.71	4409
867.841	4329
867.972	4424
868.103	4443
868.233	4421
868.364	4394
868.495	4432
868.625	4664
868.756	4793
868.886	4561
869.017	4592
869.147	4771
869.278	4694
869.408	4691
869.539	4645
869.669	4683
869.799	4607
869.929	4717
870.06	4778
870.19	4911
870.32	4915
870.45	4938
870.58	5025
870.71	5079
870.84	5064
870.97	4946
871.1	4881
871.23	5121
871.36	5113
871.489	5029
871.619	5037
871.749	5071
871.879	5086
872.008	5170
872.138	5010
872.267	4972
872.397	4873
872.526	4831
872.656	4698
872.785	4782
872.915	4938
873.044	4946
873.173	4923
873.303	4923
873.432	4942
873.561	4923
873.69	4824
873.819	4835
873.948	4881
874.077	4793
874.206	4736
874.335	4767
874.464	4870
874.593	5045
874.722	4942
874.851	5075
874.979	5014
875.108	5022
875.237	4877
875.365	4889
875.494	4877
875.623	4991
875.751	4824
875.88	4911
876.008	4957
876.136	5056
876.265	5227
876.393	5334
876.521	5242
876.65	5239
876.778	5147
876.906	5071
877.034	5014
877.162	5052
877.29	5014
877.418	5022
877.546	5045
877.674	5041
877.802	5048
877.93	4991
878.058	4957
878.185	4828
878.313	4930
878.441	4923
878.568	4767
878.696	4858
878.824	4957
878.951	4991
879.079	5136
879.206	5299
879.333	5079
879.461	4953
879.588	5022
879.715	5117
879.842	5162
879.97	4987
880.097	4786
880.224	4767
880.351	4778
880.478	4839
880.605	4820
880.732	4816
880.859	5109
880.986	4923
881.112	4946
881.239	4793
881.366	4634
881.493	4569
881.619	4634
881.746	4611
881.872	4675
881.999	4626
882.125	4691
882.252	4748
882.378	4816
882.505	4946
882.631	4809
882.757	4634
882.883	4717
883.01	4733
883.136	4687
883.262	4675
883.388	4580
883.514	4809
883.64	4946
883.766	4767
883.892	4653
884.018	4736
884.143	4881
884.269	5022
884.395	4626
884.52	4653
884.646	4592
884.772	4577
884.897	4592
885.023	4664
885.148	4778
885.274	4820
885.399	4782
885.524	4668
885.65	4702
885.775	4744
885.9	4698
886.025	4843
886.15	4809
886.275	4710
886.4	4668
886.525	4721
886.65	4710
886.775	4630
886.9	4908
887.025	5018
887.149	4820
887.274	4656
887.399	4538
887.523	4615
887.648	4592
887.773	4577
887.897	4725
888.021	4767
888.146	4691
888.27	4828
888.395	4919
888.519	4816
888.643	4793
888.767	4801
888.891	4649
889.015	4538
889.139	4611
889.263	4596
889.387	4752
889.511	4854
889.635	4771
889.759	4653
889.883	4622
890.006	4763
890.13	4820
890.254	4584
890.377	4626
890.501	4538
890.624	4523
890.748	4573
890.871	4481
890.995	4466
891.118	4383
891.241	4508
891.364	4497
891.488	4618
891.611	4500
891.734	4519
891.857	4584
891.98	4531
892.103	4641
892.226	4577
892.349	4504
892.471	4455
892.594	4546
892.717	4538
892.839	4592
892.962	4588
893.085	4679
893.207	4611
893.33	4447
893.452	4523
893.575	4672
893.697	4580
893.819	4843
893.941	4805
894.064	4767
894.186	4550
894.308	4558
894.43	4664
894.552	4831
894.674	4786
894.796	4641
894.918	4580
895.04	4580
895.161	4717
895.283	4668
895.405	4565
895.526	4611
895.648	4634
895.769	4630
895.891	4687
896.012	4706
896.134	4691
896.255	4675
896.376	4622
896.498	4611
896.619	4668
896.74	4546
896.861	4611
896.982	4873
897.103	5025
897.224	4828
897.345	4748
897.466	4664
897.587	4763
897.708	4778
897.828	4725
897.949	4687
898.07	4535
898.19	4611
898.311	4797
898.431	4653
898.552	4702
898.672	4767
898.792	4786
898.913	4733
899.033	4577
899.153	4481
899.273	4436
899.393	4466
899.513	4504
899.633	4504
899.753	4531
899.873	4519
899.993	4607
900.113	4561
900.232	4558
900.352	4565
900.472	4478
900.591	4383
900.711	4523
900.83	4421
900.95	4611
901.069	4664
901.189	4508
901.308	4348
901.427	4306
901.546	4344
901.665	4485
901.784	4531
901.904	4356
902.023	4333
902.141	4185
902.26	4181
902.379	4291
902.498	4249
902.617	4181
902.735	4356
902.854	4455
902.973	4356
903.091	4249
903.21	4242
903.328	4272
903.446	4280
903.565	4303
903.683	4329
903.801	4253
903.919	4325
904.038	4409
904.156	4310
904.274	4398
904.392	4344
904.51	4424
904.627	4485
904.745	4580
904.863	4645
904.981	4440
905.098	4276
905.216	4375
905.334	4398
905.451	4459
905.569	4466
905.686	4550
905.803	4527
905.921	4386
906.038	4538
906.155	4504
906.272	4379
906.389	4493
906.506	4337
906.623	4390
906.74	4383
906.857	4291
906.974	4360
907.091	4554
907.208	4694
907.324	4569
907.441	4459
907.557	4295
907.674	4348
907.79	4310
907.907	4402
908.023	4485
908.139	4443
908.256	4436
908.372	4436
908.488	4485
908.604	4356
908.72	4314
908.836	4383
908.952	4348
909.068	4443
909.184	4550
909.3	4466
909.415	4558
909.531	4565
909.647	4363
909.762	4379
909.878	4348
909.993	4440
910.108	4432
910.224	4409
910.339	4455
910.454	4394
910.57	4367
910.685	4287
910.8	4653
910.915	4607
911.03	4508
911.145	4322
911.259	4344
911.374	4375
911.489	4295
911.604	4272
911.718	4166
911.833	4223
911.947	4063
912.062	4074
912.176	4249
912.291	4200
912.405	4211
912.519	4417
912.633	4428
912.748	4367
912.862	4325
912.976	4196
913.09	4048
913.204	4181
913.318	4268
913.431	4344
913.545	4367
913.659	4367
913.772	4318
913.886	4238
914	4265
914.113	4386
914.226	4428
914.34	4386
914.453	4249
914.566	4379
914.68	4284
914.793	4303
914.906	4131
915.019	4173
915.132	4116
915.245	4169
915.358	4185
915.47	4234
915.583	4261
915.696	4303
915.809	4417
915.921	4367
916.034	4207
916.146	4234
916.259	4196
916.371	4379
916.483	4360
916.595	4318
916.708	4295
916.82	4348
916.932	4291
917.044	4318
917.156	4303
917.268	4227
917.38	4257
917.491	4223
917.603	4363
917.715	4394
917.826	4466
917.938	4337
918.049	4234
918.161	4356
918.272	4508
918.384	4527
918.495	4478
918.606	4287
918.717	4242
918.828	4325
918.939	4341
919.05	4223
919.161	4310
919.272	4116
919.383	4219
919.494	4417
919.604	4607
919.715	4409
919.826	4341
919.936	4348
920.047	4550
920.157	4497
920.267	4637
920.378	4535
920.488	4497
920.598	4706
920.708	4900
920.818	4759
920.928	4771
921.038	4946
921.148	4896
921.258	4626
921.368	4554
921.477	4436
921.587	4417
921.697	4413
921.806	4531
921.916	4462
922.025	4219
922.134	4223
922.244	4196
922.353	4284
922.462	4097
922.571	4135
922.68	3987
922.789	3972
922.898	4010
923.007	3903
923.116	4109
923.224	4051
923.333	4071
923.442	3968
923.55	3930
923.659	3979
923.767	4051
923.876	3987
923.984	4074
924.092	3968
924.201	4059
924.309	4093
924.417	4116
924.525	4017
924.633	4055
924.741	5025
924.849	3926
924.956	4082
925.064	3949
925.172	3880
925.279	3956
925.387	4002
925.494	4082
925.602	4200
925.709	4158
925.816	4017
925.924	4109
926.031	4162
926.138	4162
926.245	4181
926.352	4051
926.459	4242
926.566	4303
926.673	4131
926.779	4067
926.886	4074
926.993	3956
927.099	3945
927.206	3915
927.312	3949
927.419	4006
927.525	4040
927.631	4067
927.737	3960
927.843	3911
927.95	3789
928.056	3896
928.162	3956
928.267	3991
928.373	4649
928.479	4112
928.585	3869
928.69	3975
928.796	4040
928.901	3918
929.007	3838
929.112	3998
929.218	3922
929.323	3960
929.428	3915
929.533	4112
929.638	3888
929.743	3945
929.848	4002
929.953	3941
930.058	3907
930.163	3781
930.267	3816
930.372	4013
930.477	3793
930.581	4055
930.685	3953
930.79	3774
930.894	3915
930.998	3876
931.103	4048
931.207	3694
931.311	3728
931.415	3667
931.519	3523
931.623	3553
