Data from test_V78500241_2832.txt Node
Date: Fri Mar 25 17:08:41 CST 2022
User: usil
Spectrometer: V785-0024
Trigger mode: 0
Integration Time (sec): 4.000000E-1
Scans to average: 1
Nonlinearity correction enabled: false
Boxcar width: 0
Storing dark spectrum: false
XAxis mode: Wavelengths
Number of Pixels in Spectrum: 1024
>>>>>Begin Spectral Data<<<<<
801.071	7970
801.214	7989
801.356	7887
801.499	7906
801.641	7761
801.783	7833
801.926	8008
802.068	8020
802.211	7993
802.353	8031
802.496	7883
802.638	7852
802.78	7925
802.923	7906
803.065	7917
803.208	7856
803.35	7982
803.492	8168
803.635	8199
803.777	8103
803.919	8092
804.061	8442
804.204	8126
804.346	8039
804.488	7986
804.63	8092
804.773	8130
804.915	8157
805.057	8309
805.199	8164
805.341	8138
805.483	8256
805.626	8191
805.768	8153
805.91	8259
806.052	8248
806.194	8115
806.336	8286
806.478	8008
806.62	8039
806.762	8103
806.904	8259
807.046	8454
807.188	8370
807.33	8351
807.472	8328
807.614	8183
807.756	8157
807.898	8031
808.04	7860
808.182	7898
808.324	7940
808.465	7978
808.607	8119
808.749	8168
808.891	8202
809.033	8351
809.174	8221
809.316	8164
809.458	8035
809.6	7982
809.741	7986
809.883	8035
810.025	8100
810.166	8100
810.308	8046
810.45	8054
810.591	7860
810.733	7799
810.875	7689
811.016	7514
811.158	7457
811.299	7670
811.441	7799
811.582	7700
811.724	7575
811.865	7556
812.007	7582
812.148	7575
812.29	7655
812.431	7723
812.573	7852
812.714	7959
812.855	8214
812.997	8199
813.138	8298
813.279	8195
813.421	8149
813.562	8024
813.703	7928
813.845	7788
813.986	7426
814.127	7236
814.268	7278
814.41	7244
814.551	7141
814.692	7221
814.833	7160
814.974	7099
815.115	7099
815.256	7012
815.397	6943
815.539	6905
815.68	6837
815.821	6776
815.962	6882
816.103	6840
816.244	6726
816.385	6662
816.526	6631
816.666	6509
816.807	6254
816.948	6464
817.089	6532
817.23	6410
817.371	6395
817.512	6391
817.653	6353
817.793	6380
817.934	6429
818.075	6448
818.216	6391
818.356	6418
818.497	6273
818.638	6079
818.778	6182
818.919	6136
819.06	6201
819.2	6319
819.341	6342
819.481	6346
819.622	6521
819.762	6692
819.903	6684
820.043	6642
820.184	6623
820.324	6585
820.465	6715
820.605	6669
820.746	6669
820.886	6525
821.026	6673
821.167	6707
821.307	6791
821.447	6722
821.588	6669
821.728	6604
821.868	6494
822.008	6426
822.149	6365
822.289	6380
822.429	6186
822.569	6091
822.709	6117
822.849	5961
822.99	5912
823.13	5927
823.27	5969
823.41	5805
823.55	5813
823.69	5741
823.83	5775
823.97	5661
824.11	5505
824.25	5516
824.389	5558
824.529	5570
824.669	5558
824.809	5691
824.949	5691
825.089	5630
825.228	5573
825.368	5387
825.508	5326
825.648	5349
825.787	5391
825.927	5383
826.067	5326
826.206	5284
826.346	5406
826.485	5383
826.625	5421
826.765	5524
826.904	5505
827.044	5227
827.183	5170
827.323	5166
827.462	5254
827.601	5178
827.741	5261
827.88	5185
828.02	5128
828.159	5193
828.298	5334
828.437	5379
828.577	5284
828.716	5467
828.855	5292
828.994	5147
829.134	5151
829.273	5227
829.412	5136
829.551	5212
829.69	5098
829.829	5258
829.968	5353
830.107	5208
830.246	5239
830.385	5181
830.524	5109
830.663	5064
830.802	4934
830.941	4896
831.08	4873
831.219	4984
831.357	4991
831.496	5143
831.635	4892
831.774	4850
831.913	4812
832.051	4679
832.19	4759
832.329	4889
832.467	4668
832.606	4611
832.744	4752
832.883	4702
833.022	4729
833.16	4786
833.299	4790
833.437	4835
833.576	4797
833.714	4923
833.852	4870
833.991	4896
834.129	4976
834.267	4885
834.406	4870
834.544	4961
834.682	4991
834.821	4946
834.959	5143
835.097	4991
835.235	5147
835.373	5083
835.511	5113
835.65	5029
835.788	5006
835.926	4923
836.064	4873
836.202	4938
836.34	5162
836.478	5239
836.615	5052
836.753	5246
836.891	5330
837.029	5197
837.167	5174
837.305	5193
837.443	5132
837.58	5090
837.718	5246
837.856	5147
837.993	5143
838.131	5231
838.269	5197
838.406	5254
838.544	5193
838.681	5003
838.819	4976
838.956	4919
839.094	4896
839.231	4987
839.369	5037
839.506	5425
839.643	5254
839.781	5071
839.918	4972
840.055	5079
840.193	5113
840.33	5064
840.467	5117
840.604	5216
840.742	5436
840.879	5067
841.016	5079
841.153	5109
841.29	5368
841.427	5360
841.564	5296
841.701	5330
841.838	5269
841.975	5193
842.112	5254
842.249	5128
842.385	5083
842.522	5315
842.659	5124
842.796	5147
842.933	5193
843.069	5151
843.206	5136
843.343	5269
843.479	5231
843.616	5239
843.752	5010
843.889	4991
844.025	5181
844.162	5018
844.298	5223
844.435	5037
844.571	5064
844.708	5147
844.844	5277
844.98	5315
845.117	5261
845.253	5117
845.389	5136
845.525	5170
845.661	5079
845.798	5045
845.934	5201
846.07	5060
846.206	5220
846.342	5265
846.478	5216
846.614	5006
846.75	4999
846.886	4930
847.022	5151
847.158	4980
847.294	5048
847.429	5102
847.565	5064
847.701	5242
847.837	4877
847.972	4820
848.108	4927
848.244	4904
848.379	4774
848.515	4710
848.65	4698
848.786	4740
848.921	4771
849.057	4866
849.192	4953
849.328	4843
849.463	4847
849.598	4801
849.734	4740
849.869	4675
850.004	4668
850.14	4653
850.275	4592
850.41	4523
850.545	4561
850.68	4592
850.815	4634
850.95	4603
851.085	4839
851.22	4721
851.355	4664
851.49	4641
851.625	4611
851.76	4615
851.895	4531
852.03	4527
852.165	4618
852.299	4729
852.434	4774
852.569	4702
852.703	4797
852.838	4835
852.973	4927
853.107	4934
853.242	4691
853.376	4634
853.511	4561
853.645	4630
853.78	4778
853.914	4660
854.048	4630
854.183	4656
854.317	4675
854.451	4824
854.585	4653
854.72	4630
854.854	4771
854.988	4615
855.122	4637
855.256	4508
855.39	4725
855.524	4816
855.658	4714
855.792	4691
855.926	4725
856.06	4733
856.194	4824
856.327	4710
856.461	4626
856.595	4630
856.729	4615
856.862	4767
856.996	4698
857.13	4748
857.263	4755
857.397	4831
857.53	4634
857.664	4714
857.797	4759
857.931	4759
858.064	4664
858.197	4755
858.331	4660
858.464	4599
858.597	4550
858.731	4607
858.864	4687
858.997	4603
859.13	4611
859.263	4694
859.396	4702
859.529	4573
859.662	4592
859.795	4535
859.928	4641
860.061	4809
860.194	4786
860.327	4561
860.46	4561
860.592	4691
860.725	4687
860.858	4721
860.99	4592
861.123	4527
861.256	4516
861.388	4622
861.521	5326
861.653	4493
861.786	4451
861.918	4451
862.05	4462
862.183	4542
862.315	4580
862.447	4611
862.58	4546
862.712	4440
862.844	4291
862.976	4447
863.108	4451
863.24	4790
863.372	4360
863.504	4455
863.636	4375
863.768	4485
863.9	4443
864.032	4371
864.164	4379
864.296	4478
864.428	4512
864.559	4592
864.691	4558
864.823	4550
864.954	4489
865.086	4535
865.217	4462
865.349	4447
865.48	4428
865.612	4493
865.743	4641
865.875	4470
866.006	4436
866.137	4417
866.269	4470
866.4	4459
866.531	4390
866.662	4356
866.793	4421
866.924	4417
867.055	4485
867.186	4474
867.317	4443
867.448	4402
867.579	4371
867.71	4386
867.841	4348
867.972	4428
868.103	4497
868.233	4485
868.364	4451
868.495	4489
868.625	4691
868.756	4801
868.886	4565
869.017	4615
869.147	4736
869.278	4744
869.408	4698
869.539	4607
869.669	4721
869.799	4698
869.929	4771
870.06	4736
870.19	5025
870.32	4946
870.45	4984
870.58	5018
870.71	5060
870.84	5113
870.97	4919
871.1	4870
871.23	5147
871.36	5174
871.489	5029
871.619	5003
871.749	5067
871.879	5113
872.008	5147
872.138	5064
872.267	4972
872.397	4908
872.526	4793
872.656	4687
872.785	4809
872.915	4942
873.044	4976
873.173	4934
873.303	4965
873.432	4946
873.561	4976
873.69	4885
873.819	4885
873.948	4885
874.077	4831
874.206	4755
874.335	4790
874.464	4953
874.593	5067
874.722	4923
874.851	5159
874.979	5075
875.108	5086
875.237	4968
875.365	4870
875.494	4896
875.623	4930
875.751	4816
875.88	4858
876.008	5025
876.136	5064
876.265	5181
876.393	5345
876.521	5204
876.65	5235
876.778	5117
876.906	5075
877.034	5037
877.162	5052
877.29	4980
877.418	5124
877.546	5048
877.674	5022
877.802	5064
877.93	5006
878.058	4927
878.185	4870
878.313	4915
878.441	4930
878.568	4774
878.696	4904
878.824	4911
878.951	4976
879.079	5174
879.206	5299
879.333	5067
879.461	5022
879.588	5025
879.715	5094
879.842	5227
879.97	4976
880.097	4782
880.224	4786
880.351	4805
880.478	4782
880.605	4812
880.732	4843
880.859	5086
880.986	4889
881.112	4984
881.239	4771
881.366	4668
881.493	4637
881.619	4592
881.746	4618
881.872	4683
881.999	4660
882.125	4717
882.252	4778
882.378	4816
882.505	4949
882.631	4809
882.757	4687
882.883	4706
883.01	4755
883.136	4664
883.262	4630
883.388	4596
883.514	4828
883.64	4889
883.766	4725
883.892	4649
884.018	4710
884.143	4911
884.269	4987
884.395	4691
884.52	4618
884.646	4687
884.772	4577
884.897	4550
885.023	4637
885.148	4763
885.274	4877
885.399	4752
885.524	4729
885.65	4622
885.775	4714
885.9	4717
886.025	4866
886.15	4782
886.275	4687
886.4	4626
886.525	4721
886.65	4702
886.775	4717
886.9	4854
887.025	5029
887.149	4820
887.274	4656
887.399	4592
887.523	4565
887.648	4531
887.773	4580
887.897	4710
888.021	4759
888.146	4656
888.27	4850
888.395	4919
888.519	4797
888.643	4805
888.767	4850
888.891	4679
889.015	4603
889.139	4668
889.263	4611
889.387	4729
889.511	4877
889.635	4771
889.759	4607
889.883	4634
890.006	4721
890.13	4873
890.254	4637
890.377	4649
890.501	4527
890.624	4451
890.748	4603
890.871	4497
890.995	4447
891.118	4386
891.241	4497
891.364	4519
891.488	4660
891.611	4497
891.734	4523
891.857	4573
891.98	4558
892.103	4630
892.226	4584
892.349	4497
892.471	4405
892.594	4470
892.717	4573
892.839	4569
892.962	4573
893.085	4656
893.207	4607
893.33	4451
893.452	4538
893.575	4660
893.697	4630
893.819	4763
893.941	4797
894.064	4736
894.186	4580
894.308	4542
894.43	4679
894.552	4812
894.674	4778
894.796	4569
894.918	4622
895.04	4565
895.161	4679
895.283	4622
895.405	4577
895.526	4626
895.648	4691
895.769	4706
895.891	4653
896.012	4774
896.134	4729
896.255	4641
896.376	4641
896.498	4653
896.619	4675
896.74	4584
896.861	4649
896.982	4908
897.103	5083
897.224	4858
897.345	4767
897.466	4672
897.587	4733
897.708	4881
897.828	4793
897.949	4691
898.07	4569
898.19	4698
898.311	4839
898.431	4679
898.552	4759
898.672	4755
898.792	4786
898.913	4714
899.033	4630
899.153	4500
899.273	4402
899.393	4481
899.513	4546
899.633	4512
899.753	4561
899.873	4489
899.993	4580
900.113	4558
900.232	4573
900.352	4558
900.472	4519
900.591	4504
900.711	4500
900.83	4443
900.95	4630
901.069	4664
901.189	4535
901.308	4367
901.427	4341
901.546	4379
901.665	4489
901.784	4527
901.904	4394
902.023	4299
902.141	4181
902.26	4177
902.379	4322
902.498	4204
902.617	4223
902.735	4383
902.854	4413
902.973	4352
903.091	4204
903.21	4261
903.328	4348
903.446	4272
903.565	4280
903.683	4348
903.801	4284
903.919	4398
904.038	4394
904.156	4341
904.274	4394
904.392	4424
904.51	4436
904.627	4447
904.745	4580
904.863	4618
904.981	4405
905.098	4268
905.216	4333
905.334	4436
905.451	4455
905.569	4428
905.686	4577
905.803	4538
905.921	4436
906.038	4550
906.155	4504
906.272	4375
906.389	4455
906.506	4379
906.623	4390
906.74	4386
906.857	4314
906.974	4367
907.091	4554
907.208	4664
907.324	4630
907.441	4500
907.557	4306
907.674	4341
907.79	4337
907.907	4360
908.023	4546
908.139	4504
908.256	4367
908.372	4451
908.488	4451
908.604	4367
908.72	4348
908.836	4375
908.952	4356
909.068	4470
909.184	4573
909.3	4478
909.415	4580
909.531	4558
909.647	4363
909.762	4421
909.878	4310
909.993	4447
910.108	4383
910.224	4443
910.339	4455
910.454	4424
910.57	4363
910.685	4287
910.8	4664
910.915	4596
911.03	4497
911.145	4356
911.259	4333
911.374	4341
911.489	4257
911.604	4306
911.718	4169
911.833	4249
911.947	4131
912.062	4013
912.176	4242
912.291	4249
912.405	4249
912.519	4459
912.633	4546
912.748	4333
912.862	4360
912.976	4188
913.09	4109
913.204	4135
913.318	4280
913.431	4363
913.545	4386
913.659	4466
913.772	4360
913.886	4257
914	4185
914.113	4371
914.226	4443
914.34	4344
914.453	4295
914.566	4413
914.68	4303
914.793	4333
914.906	4154
915.019	4147
915.132	4093
915.245	4204
915.358	4211
915.47	4284
915.583	4257
915.696	4268
915.809	4447
915.921	4440
916.034	4253
916.146	4261
916.259	4219
916.371	4356
916.483	4405
916.595	4249
916.708	4303
916.82	4318
916.932	4333
917.044	4299
917.156	4306
917.268	4253
917.38	4246
917.491	4261
917.603	4303
917.715	4398
917.826	4443
917.938	4356
918.049	4192
918.161	4413
918.272	4565
918.384	4500
918.495	4432
918.606	4325
918.717	4246
918.828	4325
918.939	4348
919.05	4295
919.161	4341
919.272	4097
919.383	4211
919.494	4470
919.604	4645
919.715	4447
919.826	4371
919.936	4394
920.047	4531
920.157	4470
920.267	4706
920.378	4565
920.488	4538
920.598	4736
920.708	4862
920.818	4774
920.928	4786
921.038	4949
921.148	4900
921.258	4542
921.368	4546
921.477	4550
921.587	4474
921.697	4390
921.806	4508
921.916	4424
922.025	4204
922.134	4253
922.244	4295
922.353	4329
922.462	4200
922.571	4150
922.68	3983
922.789	3968
922.898	4006
923.007	3998
923.116	4086
923.224	4074
923.333	4086
923.442	4002
923.55	4002
923.659	4059
923.767	4109
923.876	3979
923.984	4128
924.092	3949
924.201	4048
924.309	4071
924.417	4143
924.525	4036
924.633	4097
924.741	4900
924.849	3884
924.956	4135
925.064	3960
925.172	3892
925.279	3994
925.387	4036
925.494	4097
925.602	4242
925.709	4211
925.816	4055
925.924	4143
926.031	4211
926.138	4192
926.245	4219
926.352	4090
926.459	4257
926.566	4306
926.673	4090
926.779	4112
926.886	4105
926.993	3972
927.099	3975
927.206	3873
927.312	3934
927.419	4059
927.525	4006
927.631	4090
927.737	3953
927.843	3926
927.95	3838
928.056	3934
928.162	4025
928.267	4082
928.373	4611
928.479	4082
928.585	3911
928.69	4002
928.796	4086
928.901	3994
929.007	3842
929.112	4021
929.218	3991
929.323	3998
929.428	3968
929.533	4078
929.638	3930
929.743	3998
929.848	4044
929.953	4006
930.058	3926
930.163	3808
930.267	3838
930.372	3994
930.477	3759
930.581	4078
930.685	3937
930.79	3819
930.894	3842
930.998	3831
931.103	4002
931.207	3717
931.311	3682
931.415	3694
931.519	3526
931.623	3568
