Data from test_V78500241_1268.txt Node
Date: Fri Mar 25 16:57:49 CST 2022
User: usil
Spectrometer: V785-0024
Trigger mode: 0
Integration Time (sec): 4.000000E-1
Scans to average: 1
Nonlinearity correction enabled: false
Boxcar width: 0
Storing dark spectrum: false
XAxis mode: Wavelengths
Number of Pixels in Spectrum: 1024
>>>>>Begin Spectral Data<<<<<
801.071	7963
801.214	7993
801.356	7890
801.499	7852
801.641	7742
801.783	7841
801.926	7936
802.068	7925
802.211	8005
802.353	7997
802.496	7833
802.638	7902
802.78	8020
802.923	7947
803.065	7898
803.208	7883
803.35	7951
803.492	8031
803.635	8111
803.777	8050
803.919	8119
804.061	8438
804.204	8195
804.346	8103
804.488	8020
804.63	8062
804.773	7989
804.915	8092
805.057	8279
805.199	8183
805.341	8210
805.483	8218
805.626	8180
805.768	8138
805.91	8221
806.052	8191
806.194	8058
806.336	8263
806.478	8073
806.62	7986
806.762	8103
806.904	8328
807.046	8442
807.188	8377
807.33	8298
807.472	8381
807.614	8065
807.756	8119
807.898	7951
808.04	7894
808.182	7906
808.324	7917
808.465	7898
808.607	8138
808.749	8115
808.891	8157
809.033	8252
809.174	8191
809.316	8027
809.458	8043
809.6	8005
809.741	7963
809.883	8046
810.025	8100
810.166	8096
810.308	8039
810.45	8008
810.591	7826
810.733	7746
810.875	7632
811.016	7529
811.158	7537
811.299	7552
811.441	7734
811.582	7715
811.724	7601
811.865	7514
812.007	7525
812.148	7567
812.29	7559
812.431	7696
812.573	7887
812.714	7932
812.855	8134
812.997	8107
813.138	8347
813.279	8214
813.421	8149
813.562	7986
813.703	7837
813.845	7719
813.986	7430
814.127	7247
814.268	7305
814.41	7190
814.551	7171
814.692	7149
814.833	7118
814.974	7084
815.115	7084
815.256	6970
815.397	6932
815.539	6977
815.68	6844
815.821	6764
815.962	6829
816.103	6802
816.244	6768
816.385	6582
816.526	6650
816.666	6437
816.807	6285
816.948	6418
817.089	6452
817.23	6426
817.371	6319
817.512	6376
817.653	6353
817.793	6365
817.934	6391
818.075	6456
818.216	6426
818.356	6353
818.497	6281
818.638	6167
818.778	6110
818.919	6144
819.06	6155
819.2	6315
819.341	6353
819.481	6418
819.622	6521
819.762	6707
819.903	6620
820.043	6589
820.184	6513
820.324	6585
820.465	6681
820.605	6650
820.746	6631
820.886	6445
821.026	6616
821.167	6722
821.307	6738
821.447	6703
821.588	6623
821.728	6525
821.868	6490
822.008	6308
822.149	6365
822.289	6277
822.429	6148
822.569	6041
822.709	6106
822.849	5988
822.99	5855
823.13	5923
823.27	5901
823.41	5726
823.55	5726
823.69	5775
823.83	5813
823.97	5665
824.11	5490
824.25	5436
824.389	5570
824.529	5562
824.669	5558
824.809	5596
824.949	5676
825.089	5600
825.228	5524
825.368	5421
825.508	5353
825.648	5330
825.787	5410
825.927	5383
826.067	5318
826.206	5357
826.346	5334
826.485	5357
826.625	5376
826.765	5509
826.904	5452
827.044	5246
827.183	5223
827.323	5132
827.462	5246
827.601	5132
827.741	5140
827.88	5204
828.02	5052
828.159	5189
828.298	5273
828.437	5345
828.577	5265
828.716	5463
828.855	5280
828.994	5155
829.134	5128
829.273	5178
829.412	5140
829.551	5094
829.69	5121
829.829	5250
829.968	5337
830.107	5216
830.246	5288
830.385	5079
830.524	5140
830.663	5090
830.802	4995
830.941	4911
831.08	4828
831.219	4972
831.357	4938
831.496	5162
831.635	4927
831.774	4809
831.913	4854
832.051	4706
832.19	4687
832.329	4835
832.467	4691
832.606	4630
832.744	4687
832.883	4767
833.022	4679
833.16	4755
833.299	4820
833.437	4816
833.576	4767
833.714	4828
833.852	4828
833.991	4866
834.129	4957
834.267	4896
834.406	4881
834.544	4976
834.682	4999
834.821	4965
834.959	5162
835.097	5010
835.235	5094
835.373	5075
835.511	5071
835.65	5010
835.788	4991
835.926	4885
836.064	4881
836.202	4942
836.34	5159
836.478	5178
836.615	5136
836.753	5197
836.891	5269
837.029	5273
837.167	5181
837.305	5140
837.443	5159
837.58	5105
837.718	5246
837.856	5109
837.993	5162
838.131	5235
838.269	5162
838.406	5269
838.544	5151
838.681	5006
838.819	4968
838.956	4885
839.094	4915
839.231	4961
839.369	5041
839.506	5368
839.643	5277
839.781	5090
839.918	4980
840.055	5128
840.193	5064
840.33	5052
840.467	5151
840.604	5162
840.742	5436
840.879	5109
841.016	5067
841.153	5174
841.29	5364
841.427	5360
841.564	5337
841.701	5318
841.838	5227
841.975	5212
842.112	5212
842.249	5121
842.385	5124
842.522	5357
842.659	5155
842.796	5094
842.933	5159
843.069	5170
843.206	5102
843.343	5296
843.479	5212
843.616	5223
843.752	5022
843.889	5018
844.025	5170
844.162	4999
844.298	5220
844.435	5067
844.571	5041
844.708	5136
844.844	5307
844.98	5307
845.117	5235
845.253	5117
845.389	5105
845.525	5162
845.661	5121
845.798	4976
845.934	5181
846.07	5033
846.206	5208
846.342	5258
846.478	5185
846.614	5071
846.75	4934
846.886	4930
847.022	5083
847.158	4991
847.294	5067
847.429	5117
847.565	5098
847.701	5364
847.837	4828
847.972	4805
848.108	4896
848.244	4881
848.379	4748
848.515	4675
848.65	4710
848.786	4763
848.921	4763
849.057	4862
849.192	4873
849.328	4801
849.463	4828
849.598	4782
849.734	4771
849.869	4672
850.004	4592
850.14	4649
850.275	4599
850.41	4519
850.545	4538
850.68	4622
850.815	4573
850.95	4653
851.085	4839
851.22	4771
851.355	4622
851.49	4584
851.625	4611
851.76	4641
851.895	4546
852.03	4523
852.165	4672
852.299	4733
852.434	4786
852.569	4717
852.703	4759
852.838	4793
852.973	4889
853.107	4870
853.242	4702
853.376	4706
853.511	4538
853.645	4622
853.78	4767
853.914	4725
854.048	4675
854.183	4618
854.317	4725
854.451	4835
854.585	4653
854.72	4668
854.854	4733
854.988	4626
855.122	4607
855.256	4546
855.39	4672
855.524	4740
855.658	4687
855.792	4660
855.926	4736
856.06	4733
856.194	4805
856.327	4637
856.461	4599
856.595	4630
856.729	4588
856.862	4710
856.996	4675
857.13	4767
857.263	4679
857.397	4831
857.53	4592
857.664	4702
857.797	4759
857.931	4733
858.064	4656
858.197	4786
858.331	4645
858.464	4588
858.597	4546
858.731	4618
858.864	4649
858.997	4569
859.13	4630
859.263	4656
859.396	4771
859.529	4596
859.662	4565
859.795	4546
859.928	4672
860.061	4752
860.194	4752
860.327	4569
860.46	4569
860.592	4714
860.725	4660
860.858	4710
860.99	4546
861.123	4523
861.256	4478
861.388	4599
861.521	5318
861.653	4500
861.786	4432
861.918	4390
862.05	4584
862.183	4538
862.315	4630
862.447	4653
862.58	4519
862.712	4363
862.844	4363
862.976	4470
863.108	4440
863.24	4847
863.372	4303
863.504	4386
863.636	4383
863.768	4466
863.9	4436
864.032	4337
864.164	4421
864.296	4481
864.428	4558
864.559	4485
864.691	4542
864.823	4531
864.954	4500
865.086	4481
865.217	4451
865.349	4424
865.48	4402
865.612	4443
865.743	4603
865.875	4466
866.006	4379
866.137	4432
866.269	4489
866.4	4493
866.531	4398
866.662	4383
866.793	4383
866.924	4405
867.055	4485
867.186	4459
867.317	4367
867.448	4356
867.579	4363
867.71	4386
867.841	4371
867.972	4459
868.103	4447
868.233	4417
868.364	4451
868.495	4478
868.625	4634
868.756	4740
868.886	4615
869.017	4592
869.147	4748
869.278	4744
869.408	4675
869.539	4615
869.669	4672
869.799	4611
869.929	4717
870.06	4706
870.19	4934
870.32	4911
870.45	4904
870.58	5075
870.71	5090
870.84	5071
870.97	4904
871.1	4843
871.23	5136
871.36	5102
871.489	4999
871.619	5041
871.749	5086
871.879	5102
872.008	5121
872.138	5037
872.267	4919
872.397	4839
872.526	4793
872.656	4721
872.785	4778
872.915	4949
873.044	5029
873.173	4953
873.303	4927
873.432	4930
873.561	4946
873.69	4866
873.819	4862
873.948	4900
874.077	4824
874.206	4721
874.335	4824
874.464	4949
874.593	5025
874.722	4942
874.851	5086
874.979	5041
875.108	5052
875.237	4923
875.365	4824
875.494	4881
875.623	4972
875.751	4812
875.88	4828
876.008	4984
876.136	5022
876.265	5124
876.393	5299
876.521	5242
876.65	5178
876.778	5113
876.906	5128
877.034	5025
877.162	4995
877.29	4976
877.418	5094
877.546	5025
877.674	5052
877.802	4999
877.93	4995
878.058	4938
878.185	4824
878.313	4930
878.441	4927
878.568	4752
878.696	4850
878.824	4946
878.951	4953
879.079	5105
879.206	5341
879.333	5083
879.461	4953
879.588	5003
879.715	5102
879.842	5227
879.97	5071
880.097	4793
880.224	4725
880.351	4755
880.478	4805
880.605	4778
880.732	4771
880.859	5041
880.986	4870
881.112	4915
881.239	4740
881.366	4683
881.493	4618
881.619	4599
881.746	4649
881.872	4660
881.999	4641
882.125	4672
882.252	4771
882.378	4809
882.505	4930
882.631	4809
882.757	4645
882.883	4729
883.01	4736
883.136	4710
883.262	4588
883.388	4618
883.514	4778
883.64	4904
883.766	4809
883.892	4683
884.018	4672
884.143	4889
884.269	4980
884.395	4649
884.52	4607
884.646	4634
884.772	4592
884.897	4550
885.023	4649
885.148	4748
885.274	4885
885.399	4866
885.524	4740
885.65	4714
885.775	4717
885.9	4733
886.025	4866
886.15	4801
886.275	4736
886.4	4664
886.525	4733
886.65	4694
886.775	4634
886.9	4892
887.025	5041
887.149	4763
887.274	4645
887.399	4565
887.523	4611
887.648	4592
887.773	4569
887.897	4759
888.021	4736
888.146	4748
888.27	4797
888.395	4904
888.519	4793
888.643	4843
888.767	4763
888.891	4649
889.015	4611
889.139	4683
889.263	4584
889.387	4752
889.511	4877
889.635	4816
889.759	4664
889.883	4599
890.006	4733
890.13	4847
890.254	4596
890.377	4736
890.501	4504
890.624	4489
890.748	4607
890.871	4538
890.995	4390
891.118	4371
891.241	4535
891.364	4516
891.488	4580
891.611	4478
891.734	4493
891.857	4615
891.98	4596
892.103	4656
892.226	4569
892.349	4432
892.471	4383
892.594	4538
892.717	4611
892.839	4584
892.962	4573
893.085	4675
893.207	4558
893.33	4447
893.452	4519
893.575	4668
893.697	4546
893.819	4763
893.941	4790
894.064	4752
894.186	4523
894.308	4569
894.43	4771
894.552	4790
894.674	4828
894.796	4550
894.918	4550
895.04	4531
895.161	4660
895.283	4687
895.405	4584
895.526	4596
895.648	4668
895.769	4618
895.891	4714
896.012	4698
896.134	4721
896.255	4596
896.376	4607
896.498	4607
896.619	4679
896.74	4603
896.861	4653
896.982	4930
897.103	5094
897.224	4854
897.345	4763
897.466	4656
897.587	4763
897.708	4843
897.828	4759
897.949	4649
898.07	4508
898.19	4622
898.311	4816
898.431	4664
898.552	4740
898.672	4850
898.792	4774
898.913	4714
899.033	4584
899.153	4512
899.273	4436
899.393	4500
899.513	4451
899.633	4523
899.753	4504
899.873	4538
899.993	4573
900.113	4535
900.232	4577
900.352	4474
900.472	4478
900.591	4394
900.711	4481
900.83	4459
900.95	4573
901.069	4675
901.189	4519
901.308	4341
901.427	4295
901.546	4375
901.665	4443
901.784	4485
901.904	4409
902.023	4322
902.141	4173
902.26	4158
902.379	4291
902.498	4219
902.617	4169
902.735	4352
902.854	4409
902.973	4352
903.091	4173
903.21	4230
903.328	4284
903.446	4272
903.565	4261
903.683	4379
903.801	4261
903.919	4344
904.038	4455
904.156	4325
904.274	4428
904.392	4440
904.51	4440
904.627	4466
904.745	4554
904.863	4626
904.981	4348
905.098	4284
905.216	4341
905.334	4428
905.451	4402
905.569	4405
905.686	4542
905.803	4535
905.921	4390
906.038	4538
906.155	4455
906.272	4363
906.389	4402
906.506	4356
906.623	4398
906.74	4417
906.857	4303
906.974	4398
907.091	4561
907.208	4668
907.324	4569
907.441	4504
907.557	4360
907.674	4386
907.79	4314
907.907	4432
908.023	4470
908.139	4481
908.256	4424
908.372	4455
908.488	4447
908.604	4303
908.72	4352
908.836	4348
908.952	4371
909.068	4402
909.184	4535
909.3	4516
909.415	4580
909.531	4569
909.647	4379
909.762	4352
909.878	4333
909.993	4459
910.108	4394
910.224	4360
910.339	4447
910.454	4398
910.57	4360
910.685	4257
910.8	4622
910.915	4588
911.03	4443
911.145	4306
911.259	4363
911.374	4341
911.489	4276
911.604	4261
911.718	4162
911.833	4207
911.947	4078
912.062	3994
912.176	4238
912.291	4249
912.405	4253
912.519	4436
912.633	4508
912.748	4325
912.862	4318
912.976	4200
913.09	4051
913.204	4169
913.318	4276
913.431	4409
913.545	4394
913.659	4405
913.772	4318
913.886	4196
914	4242
914.113	4352
914.226	4417
914.34	4390
914.453	4207
914.566	4371
914.68	4284
914.793	4291
914.906	4135
915.019	4116
915.132	4090
915.245	4185
915.358	4204
915.47	4242
915.583	4219
915.696	4314
915.809	4363
915.921	4428
916.034	4230
916.146	4223
916.259	4219
916.371	4402
916.483	4394
916.595	4238
916.708	4318
916.82	4261
916.932	4329
917.044	4299
917.156	4348
917.268	4242
917.38	4268
917.491	4299
917.603	4360
917.715	4402
917.826	4402
917.938	4367
918.049	4265
918.161	4447
918.272	4561
918.384	4538
918.495	4413
918.606	4265
918.717	4227
918.828	4348
918.939	4306
919.05	4246
919.161	4295
919.272	4158
919.383	4280
919.494	4462
919.604	4656
919.715	4398
919.826	4352
919.936	4383
920.047	4558
920.157	4481
920.267	4717
920.378	4569
920.488	4531
920.598	4729
920.708	4866
920.818	4767
920.928	4721
921.038	4942
921.148	4949
921.258	4622
921.368	4554
921.477	4558
921.587	4470
921.697	4356
921.806	4512
921.916	4402
922.025	4249
922.134	4238
922.244	4204
922.353	4341
922.462	4177
922.571	4093
922.68	4006
922.789	3972
922.898	4021
923.007	4006
923.116	4090
923.224	4093
923.333	4097
923.442	3975
923.55	3983
923.659	4051
923.767	4112
923.876	4002
923.984	4109
924.092	4002
924.201	4036
924.309	4090
924.417	4124
924.525	4025
924.633	4131
924.741	5048
924.849	3907
924.956	4150
925.064	3979
925.172	3857
925.279	3915
925.387	4040
925.494	4078
925.602	4185
925.709	4173
925.816	4051
925.924	4116
926.031	4207
926.138	4169
926.245	4211
926.352	4059
926.459	4276
926.566	4295
926.673	4128
926.779	4063
926.886	4036
926.993	3937
927.099	3994
927.206	3964
927.312	3930
927.419	4051
927.525	4063
927.631	4055
927.737	3930
927.843	3915
927.95	3846
928.056	3953
928.162	4010
928.267	4082
928.373	4672
928.479	4071
928.585	3880
928.69	4010
928.796	4078
928.901	3991
929.007	3869
929.112	4010
929.218	3987
929.323	3956
929.428	3979
929.533	4078
929.638	3888
929.743	3998
929.848	4032
929.953	3987
930.058	3941
930.163	3808
930.267	3831
930.372	3987
930.477	3823
930.581	4074
930.685	3949
930.79	3819
930.894	3930
930.998	3880
931.103	4044
931.207	3698
931.311	3728
931.415	3652
931.519	3477
931.623	3572
