Data from test_V78500241_1570.txt Node
Date: Fri Mar 25 16:59:55 CST 2022
User: usil
Spectrometer: V785-0024
Trigger mode: 0
Integration Time (sec): 4.000000E-1
Scans to average: 1
Nonlinearity correction enabled: false
Boxcar width: 0
Storing dark spectrum: false
XAxis mode: Wavelengths
Number of Pixels in Spectrum: 1024
>>>>>Begin Spectral Data<<<<<
801.071	8027
801.214	8005
801.356	7909
801.499	7871
801.641	7807
801.783	7833
801.926	7928
802.068	7921
802.211	7993
802.353	8024
802.496	7864
802.638	7879
802.78	7955
802.923	7871
803.065	7906
803.208	7830
803.35	8020
803.492	8058
803.635	8115
803.777	8031
803.919	8176
804.061	8484
804.204	8149
804.346	8062
804.488	8031
804.63	8111
804.773	8020
804.915	8077
805.057	8324
805.199	8176
805.341	8221
805.483	8305
805.626	8126
805.768	8126
805.91	8225
806.052	8210
806.194	8126
806.336	8385
806.478	8134
806.62	8062
806.762	8111
806.904	8347
807.046	8594
807.188	8412
807.33	8290
807.472	8290
807.614	8218
807.756	8180
807.898	7989
808.04	7917
808.182	7951
808.324	7913
808.465	7936
808.607	8172
808.749	8107
808.891	8164
809.033	8336
809.174	8218
809.316	8096
809.458	8142
809.6	8069
809.741	8054
809.883	8088
810.025	8111
810.166	8031
810.308	8027
810.45	8008
810.591	7925
810.733	7715
810.875	7689
811.016	7582
811.158	7533
811.299	7639
811.441	7738
811.582	7685
811.724	7613
811.865	7586
812.007	7567
812.148	7582
812.29	7689
812.431	7776
812.573	7955
812.714	7978
812.855	8164
812.997	8256
813.138	8332
813.279	8172
813.421	8103
813.562	7993
813.703	7860
813.845	7856
813.986	7434
814.127	7339
814.268	7206
814.41	7236
814.551	7202
814.692	7251
814.833	7110
814.974	7213
815.115	7168
815.256	7050
815.397	6935
815.539	6947
815.68	6890
815.821	6802
815.962	6928
816.103	6871
816.244	6764
816.385	6627
816.526	6673
816.666	6570
816.807	6357
816.948	6479
817.089	6502
817.23	6429
817.371	6418
817.512	6414
817.653	6426
817.793	6342
817.934	6422
818.075	6479
818.216	6475
818.356	6414
818.497	6235
818.638	6155
818.778	6117
818.919	6159
819.06	6155
819.2	6414
819.341	6331
819.481	6388
819.622	6559
819.762	6745
819.903	6745
820.043	6627
820.184	6627
820.324	6566
820.465	6696
820.605	6760
820.746	6669
820.886	6544
821.026	6741
821.167	6681
821.307	6791
821.447	6749
821.588	6681
821.728	6578
821.868	6502
822.008	6346
822.149	6418
822.289	6395
822.429	6152
822.569	6133
822.709	6167
822.849	5939
822.99	5904
823.13	5996
823.27	5954
823.41	5805
823.55	5790
823.69	5794
823.83	5836
823.97	5676
824.11	5509
824.25	5535
824.389	5566
824.529	5570
824.669	5600
824.809	5649
824.949	5657
825.089	5691
825.228	5585
825.368	5379
825.508	5345
825.648	5360
825.787	5357
825.927	5357
826.067	5311
826.206	5315
826.346	5410
826.485	5452
826.625	5463
826.765	5581
826.904	5509
827.044	5303
827.183	5189
827.323	5185
827.462	5269
827.601	5147
827.741	5227
827.88	5254
828.02	5155
828.159	5277
828.298	5292
828.437	5334
828.577	5318
828.716	5493
828.855	5311
828.994	5181
829.134	5174
829.273	5181
829.412	5147
829.551	5151
829.69	5208
829.829	5284
829.968	5376
830.107	5273
830.246	5265
830.385	5174
830.524	5193
830.663	5086
830.802	4995
830.941	4900
831.08	4900
831.219	5003
831.357	4968
831.496	5170
831.635	4987
831.774	4877
831.913	4835
832.051	4759
832.19	4778
832.329	4816
832.467	4702
832.606	4649
832.744	4801
832.883	4755
833.022	4733
833.16	4790
833.299	4835
833.437	4858
833.576	4812
833.714	4854
833.852	4911
833.991	4915
834.129	4946
834.267	5014
834.406	4915
834.544	4953
834.682	4980
834.821	4980
834.959	5204
835.097	5003
835.235	5147
835.373	5109
835.511	5102
835.65	5067
835.788	5067
835.926	4892
836.064	4908
836.202	4972
836.34	5128
836.478	5193
836.615	5136
836.753	5212
836.891	5322
837.029	5269
837.167	5273
837.305	5181
837.443	5155
837.58	5121
837.718	5265
837.856	5254
837.993	5178
838.131	5223
838.269	5277
838.406	5235
838.544	5216
838.681	5071
838.819	5014
838.956	4942
839.094	4919
839.231	4976
839.369	5098
839.506	5440
839.643	5265
839.781	5083
839.918	5048
840.055	5170
840.193	5105
840.33	5170
840.467	5143
840.604	5220
840.742	5425
840.879	5124
841.016	5098
841.153	5143
841.29	5391
841.427	5334
841.564	5307
841.701	5402
841.838	5318
841.975	5246
842.112	5284
842.249	5143
842.385	5079
842.522	5341
842.659	5197
842.796	5128
842.933	5223
843.069	5212
843.206	5181
843.343	5277
843.479	5204
843.616	5246
843.752	5006
843.889	5033
844.025	5216
844.162	5079
844.298	5204
844.435	5037
844.571	5071
844.708	5208
844.844	5360
844.98	5330
845.117	5265
845.253	5113
845.389	5090
845.525	5147
845.661	5121
845.798	5075
845.934	5143
846.07	5041
846.206	5223
846.342	5277
846.478	5174
846.614	5064
846.75	4965
846.886	4972
847.022	5166
847.158	5045
847.294	5056
847.429	5155
847.565	5083
847.701	5353
847.837	4892
847.972	4850
848.108	4980
848.244	4972
848.379	4793
848.515	4691
848.65	4710
848.786	4774
848.921	4774
849.057	4972
849.192	4923
849.328	4854
849.463	4862
849.598	4797
849.734	4812
849.869	4698
850.004	4611
850.14	4706
850.275	4664
850.41	4554
850.545	4592
850.68	4637
850.815	4634
850.95	4599
851.085	4904
851.22	4786
851.355	4698
851.49	4637
851.625	4626
851.76	4702
851.895	4577
852.03	4584
852.165	4656
852.299	4710
852.434	4805
852.569	4744
852.703	4778
852.838	4774
852.973	4965
853.107	4908
853.242	4763
853.376	4679
853.511	4550
853.645	4603
853.78	4778
853.914	4691
854.048	4710
854.183	4634
854.317	4702
854.451	4847
854.585	4725
854.72	4641
854.854	4752
854.988	4634
855.122	4664
855.256	4573
855.39	4672
855.524	4748
855.658	4778
855.792	4694
855.926	4740
856.06	4771
856.194	4748
856.327	4687
856.461	4615
856.595	4622
856.729	4637
856.862	4801
856.996	4721
857.13	4763
857.263	4805
857.397	4816
857.53	4679
857.664	4729
857.797	4733
857.931	4790
858.064	4683
858.197	4736
858.331	4622
858.464	4656
858.597	4554
858.731	4630
858.864	4649
858.997	4603
859.13	4618
859.263	4668
859.396	4725
859.529	4626
859.662	4554
859.795	4523
859.928	4637
860.061	4729
860.194	4782
860.327	4664
860.46	4611
860.592	4733
860.725	4702
860.858	4763
860.99	4569
861.123	4497
861.256	4516
861.388	4637
861.521	5242
861.653	4485
861.786	4512
861.918	4466
862.05	4527
862.183	4584
862.315	4561
862.447	4645
862.58	4527
862.712	4443
862.844	4303
862.976	4523
863.108	4474
863.24	4793
863.372	4356
863.504	4417
863.636	4424
863.768	4489
863.9	4428
864.032	4363
864.164	4398
864.296	4481
864.428	4565
864.559	4565
864.691	4504
864.823	4546
864.954	4481
865.086	4497
865.217	4428
865.349	4394
865.48	4455
865.612	4573
865.743	4656
865.875	4466
866.006	4421
866.137	4527
866.269	4493
866.4	4424
866.531	4405
866.662	4459
866.793	4383
866.924	4428
867.055	4497
867.186	4402
867.317	4417
867.448	4409
867.579	4386
867.71	4383
867.841	4413
867.972	4451
868.103	4470
868.233	4466
868.364	4413
868.495	4512
868.625	4679
868.756	4824
868.886	4580
869.017	4641
869.147	4740
869.278	4805
869.408	4656
869.539	4634
869.669	4748
869.799	4710
869.929	4774
870.06	4733
870.19	4934
870.32	4908
870.45	4972
870.58	4972
870.71	5098
870.84	5105
870.97	4961
871.1	4877
871.23	5132
871.36	5162
871.489	5003
871.619	5033
871.749	5086
871.879	5105
872.008	5227
872.138	5060
872.267	4919
872.397	4854
872.526	4793
872.656	4767
872.785	4812
872.915	4987
873.044	4999
873.173	4961
873.303	4984
873.432	4938
873.561	4972
873.69	4866
873.819	4866
873.948	4904
874.077	4820
874.206	4763
874.335	4782
874.464	4854
874.593	5060
874.722	5010
874.851	5155
874.979	5056
875.108	5029
875.237	4938
875.365	4885
875.494	4839
875.623	5010
875.751	4877
875.88	4877
876.008	4927
876.136	5018
876.265	5178
876.393	5349
876.521	5242
876.65	5185
876.778	5181
876.906	5128
877.034	5018
877.162	5067
877.29	5018
877.418	5056
877.546	5086
877.674	5048
877.802	4972
877.93	5003
878.058	4923
878.185	4854
878.313	4934
878.441	4961
878.568	4797
878.696	4877
878.824	4942
878.951	4976
879.079	5109
879.206	5242
879.333	5060
879.461	4999
879.588	5025
879.715	5124
879.842	5231
879.97	4980
880.097	4797
880.224	4744
880.351	4843
880.478	4812
880.605	4824
880.732	4835
880.859	5056
880.986	4915
881.112	4908
881.239	4763
881.366	4664
881.493	4622
881.619	4592
881.746	4634
881.872	4653
881.999	4668
882.125	4687
882.252	4797
882.378	4793
882.505	4961
882.631	4774
882.757	4679
882.883	4771
883.01	4736
883.136	4649
883.262	4577
883.388	4630
883.514	4828
883.64	4877
883.766	4771
883.892	4691
884.018	4733
884.143	4919
884.269	4976
884.395	4698
884.52	4664
884.646	4615
884.772	4569
884.897	4535
885.023	4603
885.148	4793
885.274	4862
885.399	4809
885.524	4736
885.65	4698
885.775	4755
885.9	4683
886.025	4870
886.15	4771
886.275	4687
886.4	4656
886.525	4706
886.65	4691
886.775	4729
886.9	4877
887.025	5079
887.149	4782
887.274	4649
887.399	4554
887.523	4626
887.648	4622
887.773	4603
887.897	4744
888.021	4752
888.146	4672
888.27	4809
888.395	4889
888.519	4809
888.643	4801
888.767	4835
888.891	4668
889.015	4615
889.139	4653
889.263	4596
889.387	4771
889.511	4843
889.635	4847
889.759	4691
889.883	4622
890.006	4752
890.13	4843
890.254	4584
890.377	4721
890.501	4573
890.624	4516
890.748	4649
890.871	4497
890.995	4344
891.118	4424
891.241	4504
891.364	4561
891.488	4634
891.611	4516
891.734	4546
891.857	4660
891.98	4558
892.103	4656
892.226	4584
892.349	4516
892.471	4417
892.594	4561
892.717	4668
892.839	4622
892.962	4592
893.085	4717
893.207	4630
893.33	4497
893.452	4489
893.575	4675
893.697	4603
893.819	4774
893.941	4858
894.064	4755
894.186	4618
894.308	4546
894.43	4759
894.552	4831
894.674	4721
894.796	4550
894.918	4573
895.04	4577
895.161	4698
895.283	4649
895.405	4577
895.526	4634
895.648	4717
895.769	4664
895.891	4706
896.012	4710
896.134	4725
896.255	4637
896.376	4603
896.498	4607
896.619	4706
896.74	4588
896.861	4656
896.982	4835
897.103	5086
897.224	4843
897.345	4714
897.466	4656
897.587	4729
897.708	4828
897.828	4740
897.949	4626
898.07	4561
898.19	4679
898.311	4793
898.431	4694
898.552	4725
898.672	4850
898.792	4839
898.913	4706
899.033	4603
899.153	4470
899.273	4424
899.393	4466
899.513	4516
899.633	4508
899.753	4527
899.873	4527
899.993	4546
900.113	4542
900.232	4607
900.352	4512
900.472	4474
900.591	4428
900.711	4504
900.83	4440
900.95	4653
901.069	4672
901.189	4542
901.308	4413
901.427	4318
901.546	4383
901.665	4481
901.784	4470
901.904	4398
902.023	4276
902.141	4223
902.26	4166
902.379	4261
902.498	4246
902.617	4219
902.735	4383
902.854	4371
902.973	4341
903.091	4204
903.21	4249
903.328	4287
903.446	4268
903.565	4211
903.683	4363
903.801	4265
903.919	4360
904.038	4440
904.156	4306
904.274	4398
904.392	4447
904.51	4436
904.627	4459
904.745	4550
904.863	4573
904.981	4424
905.098	4276
905.216	4405
905.334	4451
905.451	4447
905.569	4398
905.686	4523
905.803	4584
905.921	4440
906.038	4554
906.155	4424
906.272	4379
906.389	4417
906.506	4341
906.623	4360
906.74	4344
906.857	4295
906.974	4375
907.091	4599
907.208	4687
907.324	4603
907.441	4466
907.557	4337
907.674	4348
907.79	4284
907.907	4424
908.023	4512
908.139	4466
908.256	4455
908.372	4493
908.488	4493
908.604	4322
908.72	4318
908.836	4352
908.952	4348
909.068	4421
909.184	4554
909.3	4493
909.415	4558
909.531	4573
909.647	4360
909.762	4367
909.878	4318
909.993	4440
910.108	4417
910.224	4462
910.339	4519
910.454	4386
910.57	4367
910.685	4287
910.8	4645
910.915	4611
911.03	4504
911.145	4291
911.259	4272
911.374	4371
911.489	4261
911.604	4253
911.718	4154
911.833	4200
911.947	4063
912.062	4059
912.176	4185
912.291	4238
912.405	4246
912.519	4493
912.633	4523
912.748	4394
912.862	4329
912.976	4211
913.09	4055
913.204	4185
913.318	4246
913.431	4367
913.545	4375
913.659	4440
913.772	4344
913.886	4265
914	4238
914.113	4303
914.226	4440
914.34	4394
914.453	4219
914.566	4402
914.68	4261
914.793	4306
914.906	4150
915.019	4143
915.132	4078
915.245	4211
915.358	4230
915.47	4261
915.583	4299
915.696	4329
915.809	4413
915.921	4386
916.034	4280
916.146	4227
916.259	4257
916.371	4390
916.483	4383
916.595	4242
916.708	4314
916.82	4299
916.932	4325
917.044	4306
917.156	4314
917.268	4238
917.38	4249
917.491	4261
917.603	4352
917.715	4428
917.826	4443
917.938	4352
918.049	4234
918.161	4344
918.272	4550
918.384	4565
918.495	4383
918.606	4295
918.717	4177
918.828	4325
918.939	4360
919.05	4276
919.161	4329
919.272	4109
919.383	4268
919.494	4432
919.604	4641
919.715	4481
919.826	4371
919.936	4398
920.047	4500
920.157	4470
920.267	4694
920.378	4558
920.488	4481
920.598	4721
920.708	4892
920.818	4797
920.928	4858
921.038	4911
921.148	4854
921.258	4634
921.368	4618
921.477	4489
921.587	4474
921.697	4367
921.806	4527
921.916	4413
922.025	4223
922.134	4238
922.244	4268
922.353	4344
922.462	4162
922.571	4086
922.68	3991
922.789	4010
922.898	4078
923.007	3987
923.116	4109
923.224	4021
923.333	4116
923.442	3987
923.55	3960
923.659	4082
923.767	4128
923.876	4029
923.984	4112
924.092	3964
924.201	4067
924.309	4112
924.417	4086
924.525	4112
924.633	4120
924.741	4873
924.849	3934
924.956	4139
925.064	3956
925.172	3899
925.279	3975
925.387	4017
925.494	4044
925.602	4227
925.709	4147
925.816	4082
925.924	4143
926.031	4230
926.138	4143
926.245	4154
926.352	4063
926.459	4238
926.566	4276
926.673	4135
926.779	4055
926.886	4082
926.993	3949
927.099	3930
927.206	3922
927.312	3915
927.419	4059
927.525	3998
927.631	4093
927.737	3941
927.843	3972
927.95	3857
928.056	3937
928.162	4013
928.267	4006
928.373	4565
928.479	4109
928.585	3857
928.69	4013
928.796	4067
928.901	3930
929.007	3850
929.112	3983
929.218	3960
929.323	3937
929.428	3907
929.533	4078
929.638	3918
929.743	4010
929.848	4029
929.953	4002
930.058	3975
930.163	3755
930.267	3869
930.372	3956
930.477	3842
930.581	4101
930.685	3934
930.79	3831
930.894	3892
930.998	3850
931.103	4013
931.207	3675
931.311	3686
931.415	3671
931.519	3534
931.623	3545
