Data from test_V78500241_2149.txt Node
Date: Fri Mar 25 17:03:56 CST 2022
User: usil
Spectrometer: V785-0024
Trigger mode: 0
Integration Time (sec): 4.000000E-1
Scans to average: 1
Nonlinearity correction enabled: false
Boxcar width: 0
Storing dark spectrum: false
XAxis mode: Wavelengths
Number of Pixels in Spectrum: 1024
>>>>>Begin Spectral Data<<<<<
801.071	8008
801.214	7951
801.356	7826
801.499	7906
801.641	7792
801.783	7871
801.926	7932
802.068	7944
802.211	8084
802.353	8020
802.496	7898
802.638	7826
802.78	7913
802.923	7944
803.065	7879
803.208	7890
803.35	7959
803.492	8092
803.635	8145
803.777	8005
803.919	8142
804.061	8427
804.204	8172
804.346	8069
804.488	7967
804.63	8092
804.773	7986
804.915	8100
805.057	8332
805.199	8161
805.341	8191
805.483	8263
805.626	8183
805.768	8115
805.91	8267
806.052	8233
806.194	8138
806.336	8237
806.478	8157
806.62	8073
806.762	8218
806.904	8240
807.046	8446
807.188	8412
807.33	8309
807.472	8324
807.614	8096
807.756	8115
807.898	8024
808.04	7845
808.182	7932
808.324	7852
808.465	7928
808.607	8100
808.749	8069
808.891	8252
809.033	8328
809.174	8199
809.316	8069
809.458	8115
809.6	7989
809.741	8016
809.883	7951
810.025	8069
810.166	8050
810.308	7993
810.45	8008
810.591	7856
810.733	7708
810.875	7685
811.016	7518
811.158	7464
811.299	7525
811.441	7670
811.582	7670
811.724	7525
811.865	7506
812.007	7586
812.148	7533
812.29	7643
812.431	7788
812.573	7826
812.714	8001
812.855	8100
812.997	8240
813.138	8336
813.279	8149
813.421	8043
813.562	7955
813.703	7830
813.845	7772
813.986	7403
814.127	7278
814.268	7160
814.41	7255
814.551	7213
814.692	7175
814.833	7053
814.974	7095
815.115	7103
815.256	6973
815.397	6894
815.539	6966
815.68	6814
815.821	6772
815.962	6837
816.103	6768
816.244	6669
816.385	6544
816.526	6593
816.666	6513
816.807	6357
816.948	6410
817.089	6452
817.23	6471
817.371	6323
817.512	6376
817.653	6350
817.793	6331
817.934	6327
818.075	6456
818.216	6448
818.356	6384
818.497	6190
818.638	6083
818.778	6175
818.919	6102
819.06	6102
819.2	6289
819.341	6308
819.481	6403
819.622	6509
819.762	6707
819.903	6677
820.043	6582
820.184	6555
820.324	6566
820.465	6741
820.605	6715
820.746	6620
820.886	6540
821.026	6639
821.167	6707
821.307	6779
821.447	6764
821.588	6688
821.728	6627
821.868	6479
822.008	6342
822.149	6380
822.289	6437
822.429	6175
822.569	6117
822.709	6152
822.849	5958
822.99	5923
823.13	5908
823.27	5931
823.41	5809
823.55	5832
823.69	5767
823.83	5790
823.97	5649
824.11	5589
824.25	5581
824.389	5634
824.529	5562
824.669	5516
824.809	5699
824.949	5699
825.089	5699
825.228	5604
825.368	5360
825.508	5364
825.648	5379
825.787	5364
825.927	5372
826.067	5330
826.206	5315
826.346	5360
826.485	5379
826.625	5455
826.765	5573
826.904	5528
827.044	5284
827.183	5231
827.323	5155
827.462	5307
827.601	5254
827.741	5250
827.88	5292
828.02	5147
828.159	5261
828.298	5402
828.437	5379
828.577	5311
828.716	5501
828.855	5376
828.994	5204
829.134	5204
829.273	5277
829.412	5181
829.551	5189
829.69	5239
829.829	5303
829.968	5398
830.107	5288
830.246	5299
830.385	5227
830.524	5159
830.663	5124
830.802	4991
830.941	4976
831.08	4881
831.219	5025
831.357	4991
831.496	5197
831.635	4957
831.774	4885
831.913	4873
832.051	4816
832.19	4812
832.329	4885
832.467	4771
832.606	4664
832.744	4752
832.883	4740
833.022	4752
833.16	4843
833.299	4858
833.437	4919
833.576	4900
833.714	4870
833.852	4957
833.991	4934
834.129	4972
834.267	4976
834.406	4908
834.544	4991
834.682	5010
834.821	5041
834.959	5189
835.097	5014
835.235	5151
835.373	5162
835.511	5124
835.65	5060
835.788	5064
835.926	4942
836.064	4919
836.202	4946
836.34	5166
836.478	5261
836.615	5117
836.753	5261
836.891	5334
837.029	5284
837.167	5280
837.305	5166
837.443	5185
837.58	5090
837.718	5265
837.856	5170
837.993	5159
838.131	5185
838.269	5273
838.406	5258
838.544	5235
838.681	5067
838.819	5033
838.956	4942
839.094	4919
839.231	5006
839.369	5086
839.506	5383
839.643	5242
839.781	5067
839.918	5033
840.055	5109
840.193	5128
840.33	5132
840.467	5162
840.604	5162
840.742	5474
840.879	5098
841.016	5132
841.153	5143
841.29	5414
841.427	5383
841.564	5345
841.701	5368
841.838	5273
841.975	5299
842.112	5311
842.249	5178
842.385	5143
842.522	5417
842.659	5223
842.796	5178
842.933	5208
843.069	5174
843.206	5204
843.343	5330
843.479	5269
843.616	5296
843.752	5018
843.889	5064
844.025	5220
844.162	5048
844.298	5212
844.435	5090
844.571	5086
844.708	5185
844.844	5353
844.98	5391
845.117	5303
845.253	5178
845.389	5083
845.525	5147
845.661	5151
845.798	5075
845.934	5162
846.07	5079
846.206	5250
846.342	5292
846.478	5220
846.614	5064
846.75	4957
846.886	5003
847.022	5136
847.158	5022
847.294	5105
847.429	5132
847.565	5136
847.701	5292
847.837	4892
847.972	4843
848.108	4953
848.244	4980
848.379	4824
848.515	4748
848.65	4733
848.786	4797
848.921	4816
849.057	4900
849.192	4961
849.328	4835
849.463	4927
849.598	4820
849.734	4763
849.869	4714
850.004	4656
850.14	4679
850.275	4622
850.41	4550
850.545	4573
850.68	4683
850.815	4630
850.95	4649
851.085	4881
851.22	4774
851.355	4683
851.49	4653
851.625	4641
851.76	4672
851.895	4611
852.03	4599
852.165	4626
852.299	4744
852.434	4809
852.569	4717
852.703	4828
852.838	4820
852.973	4972
853.107	4923
853.242	4793
853.376	4675
853.511	4573
853.645	4683
853.78	4801
853.914	4740
854.048	4679
854.183	4637
854.317	4668
854.451	4866
854.585	4683
854.72	4668
854.854	4771
854.988	4637
855.122	4664
855.256	4542
855.39	4706
855.524	4843
855.658	4740
855.792	4748
855.926	4683
856.06	4774
856.194	4797
856.327	4744
856.461	4596
856.595	4653
856.729	4668
856.862	4748
856.996	4672
857.13	4736
857.263	4816
857.397	4820
857.53	4694
857.664	4744
857.797	4778
857.931	4862
858.064	4736
858.197	4793
858.331	4717
858.464	4630
858.597	4580
858.731	4630
858.864	4702
858.997	4634
859.13	4649
859.263	4664
859.396	4714
859.529	4626
859.662	4637
859.795	4573
859.928	4641
860.061	4790
860.194	4782
860.327	4630
860.46	4615
860.592	4710
860.725	4725
860.858	4725
860.99	4611
861.123	4558
861.256	4588
861.388	4641
861.521	5368
861.653	4504
861.786	4508
861.918	4455
862.05	4535
862.183	4565
862.315	4626
862.447	4645
862.58	4538
862.712	4424
862.844	4356
862.976	4500
863.108	4455
863.24	4793
863.372	4352
863.504	4451
863.636	4417
863.768	4466
863.9	4447
864.032	4371
864.164	4402
864.296	4531
864.428	4558
864.559	4542
864.691	4512
864.823	4573
864.954	4550
865.086	4500
865.217	4489
865.349	4405
865.48	4459
865.612	4538
865.743	4641
865.875	4535
866.006	4436
866.137	4512
866.269	4459
866.4	4462
866.531	4428
866.662	4398
866.793	4443
866.924	4466
867.055	4519
867.186	4481
867.317	4440
867.448	4371
867.579	4398
867.71	4440
867.841	4348
867.972	4523
868.103	4504
868.233	4455
868.364	4531
868.495	4478
868.625	4672
868.756	4767
868.886	4584
869.017	4634
869.147	4771
869.278	4767
869.408	4664
869.539	4660
869.669	4744
869.799	4687
869.929	4778
870.06	4809
870.19	4946
870.32	4885
870.45	5003
870.58	5014
870.71	5143
870.84	5147
870.97	4938
871.1	4911
871.23	5220
871.36	5212
871.489	5090
871.619	5098
871.749	5079
871.879	5147
872.008	5227
872.138	5067
872.267	5006
872.397	4881
872.526	4805
872.656	4778
872.785	4870
872.915	4984
873.044	5067
873.173	4942
873.303	4995
873.432	4995
873.561	5003
873.69	4854
873.819	4866
873.948	4934
874.077	4839
874.206	4748
874.335	4793
874.464	4904
874.593	5060
874.722	4965
874.851	5109
874.979	5094
875.108	5052
875.237	4965
875.365	4850
875.494	4866
875.623	4991
875.751	4839
875.88	4885
876.008	4976
876.136	5090
876.265	5174
876.393	5326
876.521	5318
876.65	5216
876.778	5174
876.906	5037
877.034	5045
877.162	5041
877.29	5041
877.418	5048
877.546	5086
877.674	5060
877.802	5071
877.93	5018
878.058	4965
878.185	4900
878.313	4942
878.441	4919
878.568	4850
878.696	4900
878.824	4957
878.951	5006
879.079	5098
879.206	5299
879.333	5071
879.461	4980
879.588	5079
879.715	5159
879.842	5277
879.97	5029
880.097	4824
880.224	4782
880.351	4858
880.478	4847
880.605	4850
880.732	4858
880.859	5094
880.986	4892
881.112	4908
881.239	4793
881.366	4656
881.493	4653
881.619	4584
881.746	4653
881.872	4649
881.999	4641
882.125	4683
882.252	4778
882.378	4843
882.505	4968
882.631	4816
882.757	4645
882.883	4729
883.01	4706
883.136	4645
883.262	4607
883.388	4603
883.514	4812
883.64	4843
883.766	4752
883.892	4694
884.018	4698
884.143	4892
884.269	5022
884.395	4687
884.52	4622
884.646	4645
884.772	4599
884.897	4596
885.023	4706
885.148	4778
885.274	4885
885.399	4843
885.524	4752
885.65	4691
885.775	4744
885.9	4714
886.025	4889
886.15	4816
886.275	4714
886.4	4641
886.525	4714
886.65	4740
886.775	4698
886.9	4949
887.025	5056
887.149	4820
887.274	4664
887.399	4569
887.523	4603
887.648	4599
887.773	4554
887.897	4767
888.021	4790
888.146	4664
888.27	4805
888.395	4900
888.519	4824
888.643	4790
888.767	4850
888.891	4691
889.015	4607
889.139	4656
889.263	4611
889.387	4809
889.511	4862
889.635	4771
889.759	4622
889.883	4626
890.006	4786
890.13	4885
890.254	4687
890.377	4706
890.501	4558
890.624	4516
890.748	4611
890.871	4478
890.995	4489
891.118	4386
891.241	4527
891.364	4550
891.488	4641
891.611	4573
891.734	4592
891.857	4523
891.98	4550
892.103	4679
892.226	4592
892.349	4546
892.471	4470
892.594	4580
892.717	4569
892.839	4599
892.962	4592
893.085	4698
893.207	4542
893.33	4440
893.452	4531
893.575	4675
893.697	4618
893.819	4771
893.941	4858
894.064	4759
894.186	4561
894.308	4580
894.43	4714
894.552	4881
894.674	4786
894.796	4538
894.918	4584
895.04	4546
895.161	4733
895.283	4641
895.405	4599
895.526	4634
895.648	4645
895.769	4694
895.891	4698
896.012	4759
896.134	4744
896.255	4664
896.376	4672
896.498	4618
896.619	4710
896.74	4668
896.861	4668
896.982	4934
897.103	5064
897.224	4843
897.345	4725
897.466	4672
897.587	4702
897.708	4866
897.828	4809
897.949	4679
898.07	4554
898.19	4580
898.311	4816
898.431	4694
898.552	4733
898.672	4828
898.792	4839
898.913	4744
899.033	4588
899.153	4519
899.273	4390
899.393	4436
899.513	4516
899.633	4523
899.753	4554
899.873	4523
899.993	4554
900.113	4561
900.232	4596
900.352	4558
900.472	4504
900.591	4394
900.711	4485
900.83	4424
900.95	4603
901.069	4698
901.189	4527
901.308	4375
901.427	4303
901.546	4398
901.665	4500
901.784	4527
901.904	4383
902.023	4306
902.141	4196
902.26	4147
902.379	4291
902.498	4272
902.617	4268
902.735	4413
902.854	4367
902.973	4322
903.091	4188
903.21	4265
903.328	4280
903.446	4276
903.565	4280
903.683	4344
903.801	4306
903.919	4379
904.038	4455
904.156	4318
904.274	4474
904.392	4413
904.51	4421
904.627	4474
904.745	4573
904.863	4645
904.981	4413
905.098	4352
905.216	4348
905.334	4424
905.451	4455
905.569	4493
905.686	4569
905.803	4584
905.921	4428
906.038	4554
906.155	4504
906.272	4421
906.389	4516
906.506	4337
906.623	4375
906.74	4363
906.857	4314
906.974	4398
907.091	4561
907.208	4637
907.324	4538
907.441	4474
907.557	4348
907.674	4344
907.79	4306
907.907	4394
908.023	4497
908.139	4455
908.256	4409
908.372	4504
908.488	4481
908.604	4344
908.72	4306
908.836	4367
908.952	4405
909.068	4409
909.184	4603
909.3	4481
909.415	4546
909.531	4607
909.647	4379
909.762	4344
909.878	4383
909.993	4390
910.108	4481
910.224	4462
910.339	4470
910.454	4413
910.57	4356
910.685	4287
910.8	4664
910.915	4554
911.03	4504
911.145	4325
911.259	4295
911.374	4379
911.489	4287
911.604	4284
911.718	4120
911.833	4207
911.947	4048
912.062	4071
912.176	4207
912.291	4200
912.405	4215
912.519	4508
912.633	4500
912.748	4413
912.862	4318
912.976	4227
913.09	4055
913.204	4181
913.318	4261
913.431	4367
913.545	4341
913.659	4451
913.772	4314
913.886	4242
914	4268
914.113	4383
914.226	4466
914.34	4421
914.453	4211
914.566	4325
914.68	4261
914.793	4344
914.906	4173
915.019	4147
915.132	4063
915.245	4219
915.358	4211
915.47	4230
915.583	4268
915.696	4280
915.809	4390
915.921	4432
916.034	4242
916.146	4242
916.259	4223
916.371	4413
916.483	4383
916.595	4276
916.708	4299
916.82	4284
916.932	4322
917.044	4310
917.156	4333
917.268	4242
917.38	4322
917.491	4257
917.603	4318
917.715	4405
917.826	4436
917.938	4299
918.049	4227
918.161	4409
918.272	4489
918.384	4573
918.495	4470
918.606	4291
918.717	4234
918.828	4341
918.939	4405
919.05	4280
919.161	4306
919.272	4143
919.383	4249
919.494	4424
919.604	4561
919.715	4432
919.826	4325
919.936	4405
920.047	4497
920.157	4447
920.267	4664
920.378	4546
920.488	4535
920.598	4656
920.708	4870
920.818	4679
920.928	4740
921.038	4949
921.148	4927
921.258	4554
921.368	4588
921.477	4489
921.587	4443
921.697	4352
921.806	4550
921.916	4459
922.025	4287
922.134	4272
922.244	4227
922.353	4322
922.462	4150
922.571	4150
922.68	4002
922.789	3994
922.898	4021
923.007	3987
923.116	4063
923.224	4055
923.333	4074
923.442	4002
923.55	3979
923.659	4010
923.767	4112
923.876	4006
923.984	4128
924.092	3983
924.201	4097
924.309	4097
924.417	4116
924.525	4040
924.633	4105
924.741	5018
924.849	3907
924.956	4131
925.064	3975
925.172	3892
925.279	3975
925.387	4063
925.494	4032
925.602	4204
925.709	4162
925.816	4032
925.924	4124
926.031	4200
926.138	4154
926.245	4185
926.352	4090
926.459	4299
926.566	4276
926.673	4158
926.779	4086
926.886	4048
926.993	3975
927.099	3949
927.206	3934
927.312	3979
927.419	4051
927.525	4021
927.631	4048
927.737	4002
927.843	3911
927.95	3857
928.056	3911
928.162	4010
928.267	4093
928.373	4694
928.479	4147
928.585	3869
928.69	4048
928.796	4063
928.901	3972
929.007	3793
929.112	3991
929.218	3945
929.323	3896
929.428	3983
929.533	4082
929.638	3915
929.743	3968
929.848	4040
929.953	3956
930.058	3975
930.163	3762
930.267	3800
930.372	3934
930.477	3812
930.581	4086
930.685	3937
930.79	3823
930.894	3865
930.998	3869
931.103	4044
931.207	3720
931.311	3663
931.415	3679
931.519	3526
931.623	3557
