Data from test_V78500241_503.txt Node
Date: Fri Mar 25 16:52:29 CST 2022
User: usil
Spectrometer: V785-0024
Trigger mode: 0
Integration Time (sec): 4.000000E-1
Scans to average: 1
Nonlinearity correction enabled: false
Boxcar width: 0
Storing dark spectrum: false
XAxis mode: Wavelengths
Number of Pixels in Spectrum: 1024
>>>>>Begin Spectral Data<<<<<
801.071	8073
801.214	7932
801.356	7906
801.499	7940
801.641	7757
801.783	7849
801.926	8096
802.068	8001
802.211	8081
802.353	8043
802.496	7925
802.638	7852
802.78	7974
802.923	7833
803.065	7947
803.208	7837
803.35	7909
803.492	8096
803.635	8187
803.777	8081
803.919	8111
804.061	8396
804.204	8218
804.346	8035
804.488	7928
804.63	8050
804.773	8035
804.915	8081
805.057	8328
805.199	8161
805.341	8252
805.483	8313
805.626	8153
805.768	8077
805.91	8187
806.052	8218
806.194	8092
806.336	8290
806.478	8103
806.62	8092
806.762	8142
806.904	8298
807.046	8457
807.188	8290
807.33	8282
807.472	8324
807.614	8142
807.756	8164
807.898	7989
808.04	7822
808.182	7898
808.324	7921
808.465	7932
808.607	7997
808.749	8024
808.891	8180
809.033	8237
809.174	8214
809.316	8001
809.458	7970
809.6	7982
809.741	8016
809.883	8031
810.025	8149
810.166	8096
810.308	7959
810.45	7967
810.591	7936
810.733	7757
810.875	7685
811.016	7559
811.158	7525
811.299	7613
811.441	7723
811.582	7689
811.724	7548
811.865	7636
812.007	7647
812.148	7605
812.29	7613
812.431	7811
812.573	7883
812.714	8020
812.855	8210
812.997	8279
813.138	8377
813.279	8237
813.421	8199
813.562	7974
813.703	7921
813.845	7864
813.986	7518
814.127	7346
814.268	7305
814.41	7339
814.551	7198
814.692	7240
814.833	7099
814.974	7053
815.115	7137
815.256	7031
815.397	6989
815.539	6977
815.68	6837
815.821	6806
815.962	6878
816.103	6871
816.244	6779
816.385	6646
816.526	6654
816.666	6513
816.807	6365
816.948	6448
817.089	6532
817.23	6437
817.371	6346
817.512	6418
817.653	6346
817.793	6361
817.934	6414
818.075	6429
818.216	6452
818.356	6403
818.497	6247
818.638	6136
818.778	6045
818.919	6133
819.06	6152
819.2	6380
819.341	6319
819.481	6369
819.622	6525
819.762	6665
819.903	6639
820.043	6559
820.184	6601
820.324	6601
820.465	6662
820.605	6654
820.746	6677
820.886	6486
821.026	6662
821.167	6692
821.307	6829
821.447	6776
821.588	6665
821.728	6566
821.868	6502
822.008	6323
822.149	6369
822.289	6384
822.429	6129
822.569	6087
822.709	6140
822.849	5939
822.99	5920
823.13	5908
823.27	5889
823.41	5832
823.55	5783
823.69	5756
823.83	5775
823.97	5665
824.11	5528
824.25	5482
824.389	5611
824.529	5600
824.669	5543
824.809	5672
824.949	5676
825.089	5611
825.228	5551
825.368	5467
825.508	5303
825.648	5353
825.787	5448
825.927	5383
826.067	5345
826.206	5311
826.346	5368
826.485	5433
826.625	5448
826.765	5478
826.904	5471
827.044	5280
827.183	5235
827.323	5136
827.462	5223
827.601	5212
827.741	5197
827.88	5189
828.02	5143
828.159	5227
828.298	5322
828.437	5429
828.577	5299
828.716	5471
828.855	5330
828.994	5174
829.134	5102
829.273	5235
829.412	5155
829.551	5174
829.69	5208
829.829	5231
829.968	5402
830.107	5231
830.246	5341
830.385	5185
830.524	5124
830.663	5067
830.802	4930
830.941	4915
831.08	4858
831.219	5033
831.357	5010
831.496	5204
831.635	4919
831.774	4889
831.913	4873
832.051	4759
832.19	4748
832.329	4828
832.467	4702
832.606	4656
832.744	4748
832.883	4744
833.022	4752
833.16	4786
833.299	4835
833.437	4873
833.576	4816
833.714	4866
833.852	4896
833.991	4858
834.129	4957
834.267	4972
834.406	4896
834.544	4980
834.682	4965
834.821	4987
834.959	5128
835.097	4995
835.235	5235
835.373	5117
835.511	5166
835.65	5033
835.788	5025
835.926	4904
836.064	4930
836.202	4889
836.34	5166
836.478	5284
836.615	5128
836.753	5170
836.891	5334
837.029	5242
837.167	5151
837.305	5178
837.443	5121
837.58	5071
837.718	5231
837.856	5197
837.993	5174
838.131	5265
838.269	5239
838.406	5216
838.544	5189
838.681	5067
838.819	5018
838.956	4896
839.094	4904
839.231	5006
839.369	5102
839.506	5391
839.643	5265
839.781	5056
839.918	5018
840.055	5147
840.193	5083
840.33	5147
840.467	5124
840.604	5159
840.742	5455
840.879	5060
841.016	5041
841.153	5113
841.29	5368
841.427	5337
841.564	5318
841.701	5372
841.838	5292
841.975	5231
842.112	5235
842.249	5162
842.385	5079
842.522	5326
842.659	5166
842.796	5136
842.933	5239
843.069	5193
843.206	5155
843.343	5322
843.479	5261
843.616	5273
843.752	5010
843.889	4999
844.025	5261
844.162	5045
844.298	5220
844.435	5113
844.571	5060
844.708	5227
844.844	5322
844.98	5337
845.117	5280
845.253	5102
845.389	5117
845.525	5166
845.661	5159
845.798	5094
845.934	5128
846.07	5071
846.206	5181
846.342	5273
846.478	5178
846.614	5098
846.75	5014
846.886	4999
847.022	5174
847.158	4987
847.294	5132
847.429	5124
847.565	5083
847.701	5349
847.837	4885
847.972	4839
848.108	4961
848.244	4934
848.379	4786
848.515	4733
848.65	4736
848.786	4725
848.921	4733
849.057	4870
849.192	4885
849.328	4805
849.463	4896
849.598	4824
849.734	4740
849.869	4637
850.004	4630
850.14	4664
850.275	4615
850.41	4596
850.545	4580
850.68	4645
850.815	4660
850.95	4577
851.085	4828
851.22	4752
851.355	4675
851.49	4615
851.625	4630
851.76	4634
851.895	4554
852.03	4550
852.165	4630
852.299	4725
852.434	4752
852.569	4752
852.703	4793
852.838	4866
852.973	4953
853.107	4927
853.242	4755
853.376	4694
853.511	4554
853.645	4668
853.78	4809
853.914	4714
854.048	4668
854.183	4607
854.317	4748
854.451	4858
854.585	4740
854.72	4656
854.854	4759
854.988	4641
855.122	4645
855.256	4531
855.39	4702
855.524	4820
855.658	4721
855.792	4706
855.926	4763
856.06	4725
856.194	4767
856.327	4725
856.461	4687
856.595	4649
856.729	4603
856.862	4744
856.996	4729
857.13	4721
857.263	4721
857.397	4831
857.53	4714
857.664	4733
857.797	4774
857.931	4797
858.064	4645
858.197	4771
858.331	4683
858.464	4626
858.597	4535
858.731	4645
858.864	4668
858.997	4622
859.13	4672
859.263	4752
859.396	4736
859.529	4611
859.662	4542
859.795	4584
859.928	4615
860.061	4748
860.194	4763
860.327	4664
860.46	4538
860.592	4736
860.725	4721
860.858	4755
860.99	4603
861.123	4538
861.256	4512
861.388	4569
861.521	5303
861.653	4470
861.786	4470
861.918	4443
862.05	4489
862.183	4527
862.315	4615
862.447	4717
862.58	4588
862.712	4443
862.844	4360
862.976	4470
863.108	4481
863.24	4797
863.372	4337
863.504	4462
863.636	4440
863.768	4466
863.9	4413
864.032	4348
864.164	4390
864.296	4462
864.428	4535
864.559	4573
864.691	4565
864.823	4538
864.954	4497
865.086	4512
865.217	4512
865.349	4447
865.48	4474
865.612	4497
865.743	4645
865.875	4440
866.006	4459
866.137	4432
866.269	4455
866.4	4421
866.531	4478
866.662	4440
866.793	4409
866.924	4367
867.055	4489
867.186	4447
867.317	4405
867.448	4398
867.579	4348
867.71	4394
867.841	4341
867.972	4470
868.103	4485
868.233	4451
868.364	4462
868.495	4558
868.625	4630
868.756	4763
868.886	4588
869.017	4668
869.147	4725
869.278	4774
869.408	4698
869.539	4649
869.669	4752
869.799	4637
869.929	4721
870.06	4752
870.19	4968
870.32	4919
870.45	4961
870.58	5052
870.71	5071
870.84	5098
870.97	4976
871.1	4930
871.23	5143
871.36	5124
871.489	5022
871.619	5086
871.749	5064
871.879	5102
872.008	5231
872.138	5010
872.267	4972
872.397	4862
872.526	4790
872.656	4744
872.785	4782
872.915	4915
873.044	4999
873.173	4911
873.303	4949
873.432	4976
873.561	4984
873.69	4915
873.819	4824
873.948	4900
874.077	4866
874.206	4809
874.335	4839
874.464	4961
874.593	5067
874.722	4965
874.851	5136
874.979	5052
875.108	5045
875.237	4957
875.365	4923
875.494	4847
875.623	4919
875.751	4870
875.88	4873
876.008	4976
876.136	5045
876.265	5155
876.393	5307
876.521	5269
876.65	5223
876.778	5201
876.906	5067
877.034	5102
877.162	5045
877.29	5041
877.418	5037
877.546	5045
877.674	5045
877.802	5071
877.93	5037
878.058	4911
878.185	4843
878.313	4957
878.441	4938
878.568	4816
878.696	4904
878.824	4953
878.951	5010
879.079	5140
879.206	5242
879.333	5117
879.461	4957
879.588	4999
879.715	5109
879.842	5254
879.97	4949
880.097	4790
880.224	4786
880.351	4782
880.478	4816
880.605	4771
880.732	4809
880.859	5102
880.986	4889
881.112	4900
881.239	4736
881.366	4649
881.493	4645
881.619	4584
881.746	4645
881.872	4649
881.999	4622
882.125	4675
882.252	4812
882.378	4790
882.505	4938
882.631	4809
882.757	4649
882.883	4748
883.01	4717
883.136	4679
883.262	4577
883.388	4618
883.514	4839
883.64	4820
883.766	4759
883.892	4672
884.018	4714
884.143	4862
884.269	4999
884.395	4649
884.52	4577
884.646	4675
884.772	4615
884.897	4580
885.023	4641
885.148	4805
885.274	4858
885.399	4828
885.524	4755
885.65	4698
885.775	4729
885.9	4683
886.025	4911
886.15	4793
886.275	4675
886.4	4668
886.525	4694
886.65	4763
886.775	4683
886.9	4938
887.025	5067
887.149	4793
887.274	4615
887.399	4615
887.523	4577
887.648	4569
887.773	4565
887.897	4793
888.021	4820
888.146	4702
888.27	4816
888.395	4885
888.519	4755
888.643	4797
888.767	4831
888.891	4653
889.015	4577
889.139	4683
889.263	4603
889.387	4774
889.511	4885
889.635	4809
889.759	4649
889.883	4618
890.006	4725
890.13	4816
890.254	4618
890.377	4607
890.501	4542
890.624	4493
890.748	4653
890.871	4535
890.995	4421
891.118	4360
891.241	4508
891.364	4538
891.488	4603
891.611	4542
891.734	4561
891.857	4577
891.98	4569
892.103	4622
892.226	4607
892.349	4500
892.471	4436
892.594	4558
892.717	4554
892.839	4565
892.962	4592
893.085	4672
893.207	4561
893.33	4459
893.452	4527
893.575	4664
893.697	4516
893.819	4797
893.941	4805
894.064	4790
894.186	4565
894.308	4573
894.43	4729
894.552	4847
894.674	4710
894.796	4569
894.918	4584
895.04	4550
895.161	4672
895.283	4641
895.405	4603
895.526	4607
895.648	4668
895.769	4710
895.891	4755
896.012	4714
896.134	4725
896.255	4664
896.376	4653
896.498	4634
896.619	4634
896.74	4630
896.861	4660
896.982	4892
897.103	5117
897.224	4843
897.345	4752
897.466	4694
897.587	4755
897.708	4919
897.828	4820
897.949	4687
898.07	4573
898.19	4637
898.311	4847
898.431	4675
898.552	4721
898.672	4850
898.792	4816
898.913	4721
899.033	4672
899.153	4561
899.273	4413
899.393	4504
899.513	4561
899.633	4531
899.753	4512
899.873	4443
899.993	4577
900.113	4512
900.232	4599
900.352	4538
900.472	4500
900.591	4348
900.711	4481
900.83	4466
900.95	4660
901.069	4694
901.189	4558
901.308	4356
901.427	4322
901.546	4413
901.665	4466
901.784	4546
901.904	4386
902.023	4306
902.141	4227
902.26	4181
902.379	4325
902.498	4253
902.617	4223
902.735	4333
902.854	4337
902.973	4383
903.091	4200
903.21	4215
903.328	4272
903.446	4299
903.565	4265
903.683	4348
903.801	4310
903.919	4409
904.038	4440
904.156	4348
904.274	4440
904.392	4417
904.51	4459
904.627	4459
904.745	4558
904.863	4626
904.981	4417
905.098	4291
905.216	4371
905.334	4424
905.451	4413
905.569	4413
905.686	4592
905.803	4554
905.921	4371
906.038	4569
906.155	4466
906.272	4379
906.389	4478
906.506	4280
906.623	4375
906.74	4402
906.857	4303
906.974	4398
907.091	4531
907.208	4675
907.324	4569
907.441	4478
907.557	4356
907.674	4333
907.79	4325
907.907	4375
908.023	4459
908.139	4459
908.256	4428
908.372	4485
908.488	4516
908.604	4303
908.72	4329
908.836	4390
908.952	4375
909.068	4459
909.184	4573
909.3	4447
909.415	4615
909.531	4584
909.647	4348
909.762	4390
909.878	4367
909.993	4443
910.108	4451
910.224	4417
910.339	4500
910.454	4424
910.57	4371
910.685	4310
910.8	4691
910.915	4664
911.03	4478
911.145	4379
911.259	4295
911.374	4371
911.489	4325
911.604	4284
911.718	4204
911.833	4196
911.947	4086
912.062	4048
912.176	4227
912.291	4257
912.405	4268
912.519	4504
912.633	4519
912.748	4383
912.862	4314
912.976	4200
913.09	4105
913.204	4185
913.318	4257
913.431	4402
913.545	4398
913.659	4466
913.772	4341
913.886	4238
914	4223
914.113	4329
914.226	4424
914.34	4402
914.453	4230
914.566	4455
914.68	4318
914.793	4356
914.906	4215
915.019	4139
915.132	4116
915.245	4185
915.358	4219
915.47	4249
915.583	4246
915.696	4303
915.809	4459
915.921	4417
916.034	4265
916.146	4246
916.259	4196
916.371	4390
916.483	4295
916.595	4215
916.708	4318
916.82	4360
916.932	4310
917.044	4360
917.156	4348
917.268	4268
917.38	4276
917.491	4265
917.603	4341
917.715	4386
917.826	4451
917.938	4348
918.049	4295
918.161	4394
918.272	4542
918.384	4596
918.495	4466
918.606	4306
918.717	4272
918.828	4333
918.939	4398
919.05	4272
919.161	4322
919.272	4135
919.383	4261
919.494	4451
919.604	4611
919.715	4459
919.826	4337
919.936	4379
920.047	4516
920.157	4512
920.267	4733
920.378	4493
920.488	4512
920.598	4736
920.708	4839
920.818	4740
920.928	4717
921.038	4934
921.148	4904
921.258	4626
921.368	4588
921.477	4493
921.587	4481
921.697	4390
921.806	4592
921.916	4481
922.025	4272
922.134	4261
922.244	4253
922.353	4341
922.462	4196
922.571	4128
922.68	4013
922.789	3972
922.898	4063
923.007	3945
923.116	4097
923.224	4074
923.333	4059
923.442	3975
923.55	3975
923.659	3983
923.767	4071
923.876	4006
923.984	4120
924.092	3991
924.201	4086
924.309	4082
924.417	4124
924.525	4074
924.633	4101
924.741	5075
924.849	3899
924.956	4139
925.064	3926
925.172	3899
925.279	3968
925.387	4051
925.494	4048
925.602	4238
925.709	4196
925.816	4097
925.924	4154
926.031	4253
926.138	4173
926.245	4223
926.352	4097
926.459	4276
926.566	4303
926.673	4196
926.779	4097
926.886	4048
926.993	4017
927.099	3975
927.206	3907
927.312	3915
927.419	4055
927.525	4025
927.631	4059
927.737	3975
927.843	3949
927.95	3846
928.056	3972
928.162	3991
928.267	4071
928.373	4706
928.479	4139
928.585	3850
928.69	4006
928.796	4101
928.901	3983
929.007	3865
929.112	3987
929.218	3994
929.323	3949
929.428	3892
929.533	4109
929.638	3926
929.743	3949
929.848	4082
929.953	4010
930.058	3987
930.163	3774
930.267	3838
930.372	4006
930.477	3831
930.581	4048
930.685	3949
930.79	3797
930.894	3873
930.998	3884
931.103	4059
931.207	3701
931.311	3705
931.415	3713
931.519	3523
931.623	3534
