Data from test_V78500241_1671.txt Node
Date: Fri Mar 25 17:00:37 CST 2022
User: usil
Spectrometer: V785-0024
Trigger mode: 0
Integration Time (sec): 4.000000E-1
Scans to average: 1
Nonlinearity correction enabled: false
Boxcar width: 0
Storing dark spectrum: false
XAxis mode: Wavelengths
Number of Pixels in Spectrum: 1024
>>>>>Begin Spectral Data<<<<<
801.071	7997
801.214	7982
801.356	7864
801.499	7833
801.641	7792
801.783	7788
801.926	7921
802.068	7955
802.211	7982
802.353	8001
802.496	7780
802.638	7883
802.78	7917
802.923	7963
803.065	7868
803.208	7875
803.35	7978
803.492	8043
803.635	8149
803.777	8008
803.919	8069
804.061	8461
804.204	8157
804.346	8008
804.488	7978
804.63	8012
804.773	7963
804.915	8191
805.057	8259
805.199	8123
805.341	8244
805.483	8259
805.626	8191
805.768	8115
805.91	8176
806.052	8164
806.194	8077
806.336	8305
806.478	8054
806.62	8077
806.762	8119
806.904	8309
807.046	8461
807.188	8305
807.33	8259
807.472	8294
807.614	8107
807.756	8157
807.898	8043
808.04	7928
808.182	7879
808.324	7818
808.465	7875
808.607	8062
808.749	8065
808.891	8145
809.033	8294
809.174	8301
809.316	8035
809.458	8058
809.6	7970
809.741	8088
809.883	8012
810.025	8138
810.166	8069
810.308	8062
810.45	7993
810.591	7784
810.733	7658
810.875	7620
811.016	7552
811.158	7613
811.299	7620
811.441	7681
811.582	7605
811.724	7601
811.865	7548
812.007	7506
812.148	7601
812.29	7647
812.431	7704
812.573	7849
812.714	7967
812.855	8153
812.997	8233
813.138	8309
813.279	8157
813.421	8046
813.562	7928
813.703	7780
813.845	7750
813.986	7426
814.127	7305
814.268	7122
814.41	7217
814.551	7107
814.692	7194
814.833	7012
814.974	7103
815.115	7107
815.256	6985
815.397	6871
815.539	6920
815.68	6749
815.821	6795
815.962	6878
816.103	6802
816.244	6700
816.385	6650
816.526	6601
816.666	6483
816.807	6334
816.948	6384
817.089	6452
817.23	6448
817.371	6319
817.512	6391
817.653	6441
817.793	6384
817.934	6353
818.075	6452
818.216	6384
818.356	6361
818.497	6254
818.638	6110
818.778	6098
818.919	6167
819.06	6125
819.2	6273
819.341	6296
819.481	6338
819.622	6509
819.762	6719
819.903	6692
820.043	6623
820.184	6536
820.324	6551
820.465	6665
820.605	6688
820.746	6616
820.886	6448
821.026	6654
821.167	6677
821.307	6802
821.447	6753
821.588	6650
821.728	6521
821.868	6464
822.008	6296
822.149	6437
822.289	6319
822.429	6121
822.569	6057
822.709	6095
822.849	5912
822.99	5870
823.13	5961
823.27	5920
823.41	5752
823.55	5726
823.69	5794
823.83	5741
823.97	5657
824.11	5558
824.25	5516
824.389	5577
824.529	5547
824.669	5501
824.809	5573
824.949	5714
825.089	5592
825.228	5444
825.368	5360
825.508	5292
825.648	5318
825.787	5345
825.927	5410
826.067	5303
826.206	5258
826.346	5387
826.485	5345
826.625	5341
826.765	5551
826.904	5444
827.044	5296
827.183	5201
827.323	5098
827.462	5246
827.601	5128
827.741	5189
827.88	5201
828.02	5124
828.159	5265
828.298	5303
828.437	5296
828.577	5254
828.716	5459
828.855	5265
828.994	5128
829.134	5105
829.273	5166
829.412	5128
829.551	5094
829.69	5155
829.829	5239
829.968	5341
830.107	5265
830.246	5284
830.385	5128
830.524	5128
830.663	5079
830.802	4946
830.941	4850
831.08	4858
831.219	4980
831.357	4904
831.496	5155
831.635	4934
831.774	4831
831.913	4828
832.051	4725
832.19	4755
832.329	4797
832.467	4687
832.606	4615
832.744	4691
832.883	4664
833.022	4687
833.16	4805
833.299	4812
833.437	4831
833.576	4774
833.714	4812
833.852	4831
833.991	4847
834.129	4881
834.267	4930
834.406	4911
834.544	4953
834.682	4953
834.821	4934
834.959	5136
835.097	4991
835.235	5155
835.373	5094
835.511	5052
835.65	4987
835.788	5022
835.926	4870
836.064	4828
836.202	4877
836.34	5117
836.478	5235
836.615	5159
836.753	5155
836.891	5250
837.029	5220
837.167	5170
837.305	5143
837.443	5098
837.58	5105
837.718	5269
837.856	5166
837.993	5109
838.131	5181
838.269	5227
838.406	5159
838.544	5143
838.681	5060
838.819	4991
838.956	4862
839.094	4919
839.231	4953
839.369	5075
839.506	5387
839.643	5216
839.781	5041
839.918	5014
840.055	5037
840.193	5064
840.33	5075
840.467	5132
840.604	5140
840.742	5410
840.879	5045
841.016	5109
841.153	5121
841.29	5368
841.427	5277
841.564	5284
841.701	5345
841.838	5280
841.975	5235
842.112	5231
842.249	5086
842.385	5102
842.522	5318
842.659	5117
842.796	5147
842.933	5181
843.069	5162
843.206	5136
843.343	5246
843.479	5181
843.616	5231
843.752	5064
843.889	4946
844.025	5170
844.162	4965
844.298	5162
844.435	5064
844.571	5086
844.708	5208
844.844	5269
844.98	5292
845.117	5239
845.253	5113
845.389	5029
845.525	5136
845.661	5109
845.798	4987
845.934	5105
846.07	5083
846.206	5212
846.342	5254
846.478	5128
846.614	5022
846.75	4957
846.886	4911
847.022	5143
847.158	4953
847.294	5006
847.429	5067
847.565	5075
847.701	5307
847.837	4873
847.972	4755
848.108	4976
848.244	4930
848.379	4759
848.515	4733
848.65	4687
848.786	4717
848.921	4725
849.057	4858
849.192	4919
849.328	4809
849.463	4858
849.598	4744
849.734	4698
849.869	4672
850.004	4626
850.14	4641
850.275	4622
850.41	4508
850.545	4500
850.68	4611
850.815	4599
850.95	4596
851.085	4873
851.22	4752
851.355	4668
851.49	4615
851.625	4634
851.76	4588
851.895	4531
852.03	4554
852.165	4687
852.299	4710
852.434	4774
852.569	4778
852.703	4752
852.838	4835
852.973	4900
853.107	4904
853.242	4759
853.376	4641
853.511	4603
853.645	4675
853.78	4847
853.914	4721
854.048	4698
854.183	4630
854.317	4702
854.451	4870
854.585	4683
854.72	4645
854.854	4839
854.988	4611
855.122	4668
855.256	4569
855.39	4683
855.524	4831
855.658	4748
855.792	4721
855.926	4717
856.06	4774
856.194	4778
856.327	4721
856.461	4641
856.595	4656
856.729	4615
856.862	4793
856.996	4733
857.13	4759
857.263	4790
857.397	4793
857.53	4725
857.664	4733
857.797	4847
857.931	4866
858.064	4649
858.197	4809
858.331	4759
858.464	4607
858.597	4516
858.731	4668
858.864	4683
858.997	4637
859.13	4653
859.263	4664
859.396	4729
859.529	4622
859.662	4565
859.795	4561
859.928	4687
860.061	4786
860.194	4812
860.327	4607
860.46	4607
860.592	4767
860.725	4721
860.858	4771
860.99	4626
861.123	4558
861.256	4580
861.388	4637
861.521	5322
861.653	4542
861.786	4417
861.918	4432
862.05	4577
862.183	4615
862.315	4645
862.447	4702
862.58	4565
862.712	4447
862.844	4341
862.976	4542
863.108	4470
863.24	4801
863.372	4356
863.504	4455
863.636	4436
863.768	4493
863.9	4508
864.032	4398
864.164	4459
864.296	4523
864.428	4565
864.559	4637
864.691	4577
864.823	4542
864.954	4569
865.086	4527
865.217	4478
865.349	4466
865.48	4508
865.612	4550
865.743	4691
865.875	4493
866.006	4493
866.137	4470
866.269	4432
866.4	4489
866.531	4497
866.662	4371
866.793	4451
866.924	4409
867.055	4527
867.186	4447
867.317	4455
867.448	4409
867.579	4432
867.71	4390
867.841	4409
867.972	4538
868.103	4504
868.233	4470
868.364	4500
868.495	4447
868.625	4706
868.756	4759
868.886	4599
869.017	4596
869.147	4805
869.278	4759
869.408	4660
869.539	4687
869.669	4740
869.799	4675
869.929	4763
870.06	4763
870.19	4980
870.32	4968
870.45	4991
870.58	5022
870.71	5121
870.84	5094
870.97	4991
871.1	4873
871.23	5113
871.36	5143
871.489	5025
871.619	5121
871.749	5140
871.879	5185
872.008	5208
872.138	5037
872.267	5006
872.397	4892
872.526	4820
872.656	4790
872.785	4793
872.915	4946
873.044	5109
873.173	4889
873.303	5003
873.432	4976
873.561	4968
873.69	4908
873.819	4870
873.948	4976
874.077	4809
874.206	4782
874.335	4820
874.464	4987
874.593	5079
874.722	4976
874.851	5105
874.979	5056
875.108	5003
875.237	4919
875.365	4854
875.494	4953
875.623	4991
875.751	4850
875.88	4904
876.008	4984
876.136	5033
876.265	5216
876.393	5402
876.521	5242
876.65	5220
876.778	5147
876.906	5098
877.034	5060
877.162	5086
877.29	4984
877.418	5071
877.546	5060
877.674	5136
877.802	5075
877.93	5025
878.058	4995
878.185	4930
878.313	4923
878.441	4987
878.568	4816
878.696	4934
878.824	4938
878.951	5014
879.079	5098
879.206	5303
879.333	5094
879.461	5029
879.588	5006
879.715	5204
879.842	5208
879.97	5048
880.097	4831
880.224	4816
880.351	4801
880.478	4843
880.605	4854
880.732	4812
880.859	5083
880.986	4919
881.112	4919
881.239	4824
881.366	4721
881.493	4630
881.619	4615
881.746	4660
881.872	4641
881.999	4694
882.125	4710
882.252	4774
882.378	4843
882.505	4984
882.631	4835
882.757	4714
882.883	4706
883.01	4748
883.136	4702
883.262	4577
883.388	4645
883.514	4809
883.64	4873
883.766	4816
883.892	4626
884.018	4733
884.143	4889
884.269	5022
884.395	4687
884.52	4675
884.646	4645
884.772	4607
884.897	4592
885.023	4637
885.148	4820
885.274	4896
885.399	4778
885.524	4752
885.65	4675
885.775	4771
885.9	4729
886.025	4881
886.15	4790
886.275	4782
886.4	4702
886.525	4744
886.65	4710
886.775	4691
886.9	4904
887.025	5090
887.149	4835
887.274	4664
887.399	4580
887.523	4622
887.648	4603
887.773	4607
887.897	4793
888.021	4805
888.146	4687
888.27	4843
888.395	4961
888.519	4812
888.643	4812
888.767	4805
888.891	4755
889.015	4607
889.139	4672
889.263	4561
889.387	4740
889.511	4885
889.635	4847
889.759	4683
889.883	4664
890.006	4782
890.13	4896
890.254	4668
890.377	4740
890.501	4607
890.624	4531
890.748	4634
890.871	4523
890.995	4424
891.118	4398
891.241	4493
891.364	4569
891.488	4622
891.611	4538
891.734	4554
891.857	4626
891.98	4577
892.103	4656
892.226	4611
892.349	4561
892.471	4440
892.594	4554
892.717	4607
892.839	4577
892.962	4603
893.085	4714
893.207	4622
893.33	4485
893.452	4550
893.575	4645
893.697	4599
893.819	4847
893.941	4854
894.064	4816
894.186	4660
894.308	4622
894.43	4767
894.552	4839
894.674	4733
894.796	4577
894.918	4618
895.04	4596
895.161	4748
895.283	4694
895.405	4546
895.526	4687
895.648	4634
895.769	4691
895.891	4725
896.012	4729
896.134	4694
896.255	4706
896.376	4618
896.498	4660
896.619	4622
896.74	4634
896.861	4653
896.982	4961
897.103	5143
897.224	4881
897.345	4850
897.466	4672
897.587	4763
897.708	4889
897.828	4793
897.949	4736
898.07	4497
898.19	4645
898.311	4828
898.431	4653
898.552	4717
898.672	4816
898.792	4778
898.913	4736
899.033	4641
899.153	4531
899.273	4462
899.393	4466
899.513	4497
899.633	4523
899.753	4569
899.873	4512
899.993	4573
900.113	4546
900.232	4596
900.352	4584
900.472	4485
900.591	4459
900.711	4508
900.83	4470
900.95	4672
901.069	4721
901.189	4592
901.308	4394
901.427	4306
901.546	4421
901.665	4500
901.784	4474
901.904	4394
902.023	4341
902.141	4188
902.26	4215
902.379	4367
902.498	4287
902.617	4200
902.735	4379
902.854	4383
902.973	4344
903.091	4211
903.21	4249
903.328	4318
903.446	4284
903.565	4314
903.683	4379
903.801	4303
903.919	4409
904.038	4405
904.156	4329
904.274	4459
904.392	4421
904.51	4443
904.627	4440
904.745	4584
904.863	4630
904.981	4421
905.098	4291
905.216	4440
905.334	4474
905.451	4478
905.569	4443
905.686	4546
905.803	4611
905.921	4386
906.038	4546
906.155	4485
906.272	4409
906.389	4489
906.506	4325
906.623	4394
906.74	4394
906.857	4284
906.974	4360
907.091	4596
907.208	4691
907.324	4615
907.441	4550
907.557	4303
907.674	4417
907.79	4356
907.907	4405
908.023	4508
908.139	4424
908.256	4481
908.372	4500
908.488	4459
908.604	4367
908.72	4310
908.836	4371
908.952	4367
909.068	4466
909.184	4546
909.3	4493
909.415	4584
909.531	4599
909.647	4383
909.762	4405
909.878	4356
909.993	4424
910.108	4405
910.224	4417
910.339	4527
910.454	4447
910.57	4383
910.685	4322
910.8	4656
910.915	4592
911.03	4519
911.145	4341
911.259	4295
911.374	4367
911.489	4314
911.604	4291
911.718	4185
911.833	4230
911.947	4120
912.062	4032
912.176	4204
912.291	4230
912.405	4238
912.519	4436
912.633	4504
912.748	4398
912.862	4333
912.976	4242
913.09	4116
913.204	4207
913.318	4261
913.431	4398
913.545	4356
913.659	4402
913.772	4363
913.886	4280
914	4219
914.113	4398
914.226	4447
914.34	4413
914.453	4207
914.566	4421
914.68	4314
914.793	4322
914.906	4154
915.019	4112
915.132	4124
915.245	4173
915.358	4246
915.47	4265
915.583	4257
915.696	4291
915.809	4424
915.921	4432
916.034	4265
916.146	4333
916.259	4242
916.371	4360
916.483	4386
916.595	4242
916.708	4341
916.82	4325
916.932	4318
917.044	4318
917.156	4375
917.268	4261
917.38	4284
917.491	4280
917.603	4386
917.715	4447
917.826	4424
917.938	4371
918.049	4215
918.161	4360
918.272	4558
918.384	4516
918.495	4443
918.606	4276
918.717	4257
918.828	4325
918.939	4413
919.05	4265
919.161	4310
919.272	4139
919.383	4249
919.494	4443
919.604	4607
919.715	4428
919.826	4375
919.936	4398
920.047	4542
920.157	4558
920.267	4759
920.378	4580
920.488	4535
920.598	4786
920.708	4889
920.818	4812
920.928	4790
921.038	5018
921.148	4953
921.258	4630
921.368	4603
921.477	4527
921.587	4519
921.697	4405
921.806	4592
921.916	4474
922.025	4322
922.134	4299
922.244	4230
922.353	4371
922.462	4234
922.571	4143
922.68	4048
922.789	4055
922.898	4074
923.007	4040
923.116	4185
923.224	4097
923.333	4071
923.442	4071
923.55	4044
923.659	4082
923.767	4158
923.876	4044
923.984	4158
924.092	4017
924.201	4147
924.309	4120
924.417	4185
924.525	4048
924.633	4162
924.741	4938
924.849	3975
924.956	4173
925.064	4017
925.172	3922
925.279	3953
925.387	4097
925.494	4101
925.602	4276
925.709	4234
925.816	4086
925.924	4177
926.031	4249
926.138	4147
926.245	4238
926.352	4120
926.459	4276
926.566	4344
926.673	4215
926.779	4112
926.886	4082
926.993	4010
927.099	3972
927.206	3991
927.312	3915
927.419	4101
927.525	4086
927.631	4158
927.737	4025
927.843	3956
927.95	3922
928.056	4029
928.162	4032
928.267	4090
928.373	4649
928.479	4112
928.585	3922
928.69	4082
928.796	4116
928.901	4010
929.007	3880
929.112	4002
929.218	4021
929.323	3991
929.428	4006
929.533	4112
929.638	3964
929.743	3994
929.848	4093
929.953	4086
930.058	3983
930.163	3781
930.267	3873
930.372	4063
930.477	3846
930.581	4147
930.685	3972
930.79	3854
930.894	3934
930.998	3857
931.103	4048
931.207	3766
931.311	3736
931.415	3709
931.519	3515
931.623	3576
