Data from test_V78500241_2756.txt Node
Date: Fri Mar 25 17:08:09 CST 2022
User: usil
Spectrometer: V785-0024
Trigger mode: 0
Integration Time (sec): 4.000000E-1
Scans to average: 1
Nonlinearity correction enabled: false
Boxcar width: 0
Storing dark spectrum: false
XAxis mode: Wavelengths
Number of Pixels in Spectrum: 1024
>>>>>Begin Spectral Data<<<<<
801.071	7974
801.214	8073
801.356	7890
801.499	7868
801.641	7833
801.783	7890
801.926	7967
802.068	7963
802.211	8126
802.353	7989
802.496	7879
802.638	7986
802.78	7898
802.923	7936
803.065	7826
803.208	7947
803.35	7993
803.492	8088
803.635	8191
803.777	8088
803.919	8119
804.061	8476
804.204	8111
804.346	8077
804.488	7940
804.63	8081
804.773	8020
804.915	8142
805.057	8324
805.199	8183
805.341	8233
805.483	8267
805.626	8237
805.768	8103
805.91	8218
806.052	8180
806.194	8088
806.336	8320
806.478	8138
806.62	8008
806.762	8046
806.904	8233
807.046	8495
807.188	8400
807.33	8370
807.472	8385
807.614	8183
807.756	8183
807.898	7982
808.04	7849
808.182	7875
808.324	7887
808.465	7883
808.607	8084
808.749	8187
808.891	8259
809.033	8256
809.174	8237
809.316	8096
809.458	8138
809.6	7967
809.741	8050
809.883	8100
810.025	8180
810.166	8073
810.308	8027
810.45	8031
810.591	7936
810.733	7757
810.875	7632
811.016	7540
811.158	7476
811.299	7616
811.441	7742
811.582	7700
811.724	7609
811.865	7552
812.007	7632
812.148	7643
812.29	7628
812.431	7757
812.573	7902
812.714	7989
812.855	8210
812.997	8164
813.138	8271
813.279	8149
813.421	8111
813.562	7967
813.703	7868
813.845	7837
813.986	7476
814.127	7278
814.268	7247
814.41	7225
814.551	7247
814.692	7149
814.833	7091
814.974	7057
815.115	7122
815.256	6943
815.397	6958
815.539	6939
815.68	6859
815.821	6783
815.962	6943
816.103	6825
816.244	6696
816.385	6631
816.526	6662
816.666	6498
816.807	6304
816.948	6525
817.089	6525
817.23	6426
817.371	6410
817.512	6380
817.653	6460
817.793	6380
817.934	6437
818.075	6521
818.216	6399
818.356	6384
818.497	6224
818.638	6117
818.778	6167
818.919	6136
819.06	6144
819.2	6346
819.341	6300
819.481	6369
819.622	6555
819.762	6722
819.903	6669
820.043	6642
820.184	6635
820.324	6582
820.465	6688
820.605	6669
820.746	6616
820.886	6601
821.026	6700
821.167	6700
821.307	6810
821.447	6779
821.588	6707
821.728	6578
821.868	6506
822.008	6399
822.149	6410
822.289	6414
822.429	6163
822.569	6213
822.709	6216
822.849	5950
822.99	5904
823.13	5897
823.27	5973
823.41	5786
823.55	5863
823.69	5790
823.83	5809
823.97	5688
824.11	5577
824.25	5520
824.389	5577
824.529	5619
824.669	5570
824.809	5676
824.949	5695
825.089	5600
825.228	5558
825.368	5459
825.508	5421
825.648	5353
825.787	5417
825.927	5440
826.067	5318
826.206	5307
826.346	5452
826.485	5471
826.625	5474
826.765	5558
826.904	5509
827.044	5307
827.183	5223
827.323	5178
827.462	5299
827.601	5223
827.741	5181
827.88	5280
828.02	5113
828.159	5265
828.298	5368
828.437	5406
828.577	5391
828.716	5497
828.855	5318
828.994	5204
829.134	5151
829.273	5185
829.412	5170
829.551	5151
829.69	5193
829.829	5273
829.968	5421
830.107	5326
830.246	5307
830.385	5212
830.524	5159
830.663	5067
830.802	5006
830.941	4946
831.08	4900
831.219	4991
831.357	5018
831.496	5170
831.635	4949
831.774	4873
831.913	4949
832.051	4778
832.19	4824
832.329	4942
832.467	4778
832.606	4710
832.744	4733
832.883	4755
833.022	4782
833.16	4828
833.299	4858
833.437	4885
833.576	4858
833.714	4862
833.852	4892
833.991	4915
834.129	4968
834.267	5006
834.406	4915
834.544	5018
834.682	5025
834.821	5025
834.959	5193
835.097	5064
835.235	5170
835.373	5094
835.511	5136
835.65	5094
835.788	5048
835.926	4976
836.064	4930
836.202	4938
836.34	5216
836.478	5265
836.615	5140
836.753	5269
836.891	5345
837.029	5273
837.167	5204
837.305	5220
837.443	5212
837.58	5098
837.718	5299
837.856	5258
837.993	5212
838.131	5296
838.269	5258
838.406	5189
838.544	5189
838.681	5045
838.819	5022
838.956	4911
839.094	4946
839.231	4999
839.369	5178
839.506	5398
839.643	5296
839.781	5052
839.918	5083
840.055	5166
840.193	5113
840.33	5212
840.467	5147
840.604	5193
840.742	5452
840.879	5079
841.016	5151
841.153	5181
841.29	5414
841.427	5353
841.564	5341
841.701	5410
841.838	5334
841.975	5296
842.112	5322
842.249	5170
842.385	5159
842.522	5280
842.659	5254
842.796	5181
842.933	5143
843.069	5181
843.206	5181
843.343	5315
843.479	5277
843.616	5280
843.752	5048
843.889	5041
844.025	5235
844.162	5041
844.298	5239
844.435	5140
844.571	5060
844.708	5216
844.844	5341
844.98	5364
845.117	5326
845.253	5174
845.389	5151
845.525	5239
845.661	5155
845.798	5052
845.934	5162
846.07	5083
846.206	5220
846.342	5315
846.478	5170
846.614	5086
846.75	5003
846.886	4946
847.022	5117
847.158	5056
847.294	5102
847.429	5155
847.565	5109
847.701	5341
847.837	4889
847.972	4862
848.108	5003
848.244	4972
848.379	4782
848.515	4771
848.65	4767
848.786	4782
848.921	4793
849.057	4900
849.192	4927
849.328	4873
849.463	4900
849.598	4809
849.734	4771
849.869	4736
850.004	4694
850.14	4725
850.275	4649
850.41	4527
850.545	4630
850.68	4626
850.815	4668
850.95	4660
851.085	4873
851.22	4816
851.355	4694
851.49	4649
851.625	4683
851.76	4660
851.895	4561
852.03	4535
852.165	4641
852.299	4759
852.434	4801
852.569	4755
852.703	4801
852.838	4885
852.973	4919
853.107	4896
853.242	4740
853.376	4702
853.511	4607
853.645	4672
853.78	4843
853.914	4729
854.048	4649
854.183	4664
854.317	4656
854.451	4858
854.585	4668
854.72	4679
854.854	4828
854.988	4618
855.122	4672
855.256	4550
855.39	4668
855.524	4778
855.658	4744
855.792	4694
855.926	4736
856.06	4771
856.194	4786
856.327	4691
856.461	4596
856.595	4672
856.729	4656
856.862	4763
856.996	4702
857.13	4771
857.263	4805
857.397	4862
857.53	4672
857.664	4725
857.797	4805
857.931	4870
858.064	4706
858.197	4767
858.331	4679
858.464	4653
858.597	4550
858.731	4626
858.864	4683
858.997	4596
859.13	4660
859.263	4714
859.396	4698
859.529	4615
859.662	4584
859.795	4558
859.928	4626
860.061	4736
860.194	4797
860.327	4634
860.46	4550
860.592	4740
860.725	4736
860.858	4721
860.99	4588
861.123	4546
861.256	4531
861.388	4641
861.521	5391
861.653	4542
861.786	4485
861.918	4489
862.05	4546
862.183	4569
862.315	4649
862.447	4672
862.58	4592
862.712	4386
862.844	4356
862.976	4470
863.108	4462
863.24	4831
863.372	4363
863.504	4447
863.636	4421
863.768	4489
863.9	4455
864.032	4360
864.164	4413
864.296	4489
864.428	4550
864.559	4535
864.691	4550
864.823	4523
864.954	4500
865.086	4538
865.217	4508
865.349	4493
865.48	4447
865.612	4531
865.743	4668
865.875	4497
866.006	4470
866.137	4474
866.269	4466
866.4	4497
866.531	4462
866.662	4424
866.793	4363
866.924	4428
867.055	4523
867.186	4466
867.317	4402
867.448	4428
867.579	4432
867.71	4390
867.841	4371
867.972	4489
868.103	4436
868.233	4443
868.364	4478
868.495	4508
868.625	4698
868.756	4736
868.886	4580
869.017	4618
869.147	4828
869.278	4797
869.408	4691
869.539	4744
869.669	4736
869.799	4653
869.929	4809
870.06	4782
870.19	4938
870.32	4946
870.45	4961
870.58	5067
870.71	5132
870.84	5109
870.97	4965
871.1	4942
871.23	5132
871.36	5159
871.489	5037
871.619	5056
871.749	5113
871.879	5151
872.008	5159
872.138	5079
872.267	5010
872.397	4915
872.526	4816
872.656	4702
872.785	4889
872.915	4961
873.044	5090
873.173	4965
873.303	4972
873.432	5006
873.561	5025
873.69	4885
873.819	4892
873.948	4892
874.077	4835
874.206	4805
874.335	4820
874.464	4949
874.593	5090
874.722	4968
874.851	5151
874.979	5102
875.108	5029
875.237	4972
875.365	4915
875.494	4881
875.623	4949
875.751	4839
875.88	4927
876.008	5003
876.136	5060
876.265	5212
876.393	5311
876.521	5223
876.65	5284
876.778	5189
876.906	5159
877.034	5033
877.162	5048
877.29	5014
877.418	5086
877.546	5071
877.674	5102
877.802	5060
877.93	5060
878.058	4968
878.185	4839
878.313	5033
878.441	4942
878.568	4843
878.696	4930
878.824	4968
878.951	5045
879.079	5143
879.206	5273
879.333	5086
879.461	5029
879.588	5037
879.715	5140
879.842	5223
879.97	5075
880.097	4778
880.224	4740
880.351	4835
880.478	4809
880.605	4797
880.732	4816
880.859	5098
880.986	4927
881.112	4965
881.239	4771
881.366	4668
881.493	4641
881.619	4607
881.746	4668
881.872	4637
881.999	4679
882.125	4664
882.252	4752
882.378	4824
882.505	5006
882.631	4805
882.757	4710
882.883	4714
883.01	4725
883.136	4729
883.262	4599
883.388	4649
883.514	4824
883.64	4854
883.766	4820
883.892	4649
884.018	4755
884.143	4881
884.269	5064
884.395	4694
884.52	4668
884.646	4649
884.772	4580
884.897	4550
885.023	4675
885.148	4793
885.274	4870
885.399	4843
885.524	4740
885.65	4729
885.775	4755
885.9	4786
886.025	4877
886.15	4843
886.275	4755
886.4	4626
886.525	4767
886.65	4683
886.775	4714
886.9	4923
887.025	5037
887.149	4771
887.274	4664
887.399	4577
887.523	4626
887.648	4596
887.773	4622
887.897	4771
888.021	4771
888.146	4740
888.27	4828
888.395	4976
888.519	4797
888.643	4790
888.767	4858
888.891	4698
889.015	4599
889.139	4683
889.263	4618
889.387	4816
889.511	4896
889.635	4782
889.759	4645
889.883	4664
890.006	4706
890.13	4843
890.254	4645
890.377	4683
890.501	4584
890.624	4493
890.748	4672
890.871	4535
890.995	4519
891.118	4421
891.241	4535
891.364	4558
891.488	4668
891.611	4474
891.734	4573
891.857	4641
891.98	4554
892.103	4660
892.226	4592
892.349	4558
892.471	4459
892.594	4596
892.717	4607
892.839	4596
892.962	4607
893.085	4679
893.207	4622
893.33	4443
893.452	4550
893.575	4637
893.697	4607
893.819	4755
893.941	4763
894.064	4820
894.186	4618
894.308	4573
894.43	4714
894.552	4816
894.674	4748
894.796	4550
894.918	4603
895.04	4538
895.161	4740
895.283	4679
895.405	4546
895.526	4656
895.648	4717
895.769	4702
895.891	4744
896.012	4691
896.134	4763
896.255	4694
896.376	4649
896.498	4645
896.619	4710
896.74	4649
896.861	4660
896.982	4938
897.103	5090
897.224	4843
897.345	4714
897.466	4710
897.587	4706
897.708	4839
897.828	4809
897.949	4660
898.07	4611
898.19	4641
898.311	4828
898.431	4672
898.552	4725
898.672	4782
898.792	4790
898.913	4736
899.033	4607
899.153	4558
899.273	4417
899.393	4519
899.513	4535
899.633	4512
899.753	4569
899.873	4523
899.993	4561
900.113	4592
900.232	4588
900.352	4554
900.472	4474
900.591	4413
900.711	4508
900.83	4436
900.95	4634
901.069	4717
901.189	4577
901.308	4352
901.427	4333
901.546	4348
901.665	4455
901.784	4512
901.904	4421
902.023	4329
902.141	4207
902.26	4158
902.379	4287
902.498	4272
902.617	4242
902.735	4417
902.854	4405
902.973	4352
903.091	4211
903.21	4242
903.328	4268
903.446	4287
903.565	4303
903.683	4337
903.801	4284
903.919	4413
904.038	4443
904.156	4303
904.274	4440
904.392	4424
904.51	4436
904.627	4440
904.745	4622
904.863	4634
904.981	4341
905.098	4352
905.216	4363
905.334	4455
905.451	4466
905.569	4432
905.686	4577
905.803	4584
905.921	4413
906.038	4542
906.155	4485
906.272	4432
906.389	4497
906.506	4371
906.623	4371
906.74	4398
906.857	4322
906.974	4344
907.091	4546
907.208	4683
907.324	4550
907.441	4489
907.557	4371
907.674	4386
907.79	4276
907.907	4344
908.023	4493
908.139	4497
908.256	4428
908.372	4466
908.488	4443
908.604	4329
908.72	4303
908.836	4421
908.952	4363
909.068	4466
909.184	4569
909.3	4504
909.415	4622
909.531	4554
909.647	4337
909.762	4386
909.878	4386
909.993	4451
910.108	4432
910.224	4383
910.339	4459
910.454	4413
910.57	4405
910.685	4272
910.8	4691
910.915	4599
911.03	4535
911.145	4325
911.259	4333
911.374	4421
911.489	4299
911.604	4246
911.718	4196
911.833	4223
911.947	4082
912.062	4090
912.176	4215
912.291	4219
912.405	4211
912.519	4451
912.633	4508
912.748	4379
912.862	4333
912.976	4234
913.09	4120
913.204	4200
913.318	4284
913.431	4367
913.545	4367
913.659	4432
913.772	4322
913.886	4249
914	4234
914.113	4348
914.226	4440
914.34	4409
914.453	4219
914.566	4402
914.68	4295
914.793	4329
914.906	4204
915.019	4147
915.132	4059
915.245	4173
915.358	4219
915.47	4257
915.583	4265
915.696	4303
915.809	4447
915.921	4424
916.034	4268
916.146	4261
916.259	4211
916.371	4394
916.483	4390
916.595	4246
916.708	4386
916.82	4306
916.932	4310
917.044	4348
917.156	4314
917.268	4242
917.38	4337
917.491	4272
917.603	4383
917.715	4447
917.826	4440
917.938	4337
918.049	4223
918.161	4413
918.272	4527
918.384	4546
918.495	4459
918.606	4337
918.717	4238
918.828	4348
918.939	4360
919.05	4306
919.161	4310
919.272	4154
919.383	4265
919.494	4432
919.604	4588
919.715	4443
919.826	4272
919.936	4424
920.047	4538
920.157	4470
920.267	4740
920.378	4580
920.488	4512
920.598	4755
920.708	4889
920.818	4698
920.928	4752
921.038	4961
921.148	4942
921.258	4637
921.368	4592
921.477	4493
921.587	4497
921.697	4390
921.806	4519
921.916	4405
922.025	4322
922.134	4234
922.244	4215
922.353	4314
922.462	4200
922.571	4147
922.68	4017
922.789	4002
922.898	4040
923.007	3983
923.116	4143
923.224	4040
923.333	4032
923.442	3998
923.55	3975
923.659	4032
923.767	4097
923.876	4010
923.984	4139
924.092	3975
924.201	4074
924.309	4105
924.417	4147
924.525	4048
924.633	4078
924.741	5060
924.849	3926
924.956	4116
925.064	3968
925.172	3922
925.279	3964
925.387	4101
925.494	4082
925.602	4234
925.709	4143
925.816	3994
925.924	4147
926.031	4265
926.138	4204
926.245	4211
926.352	4090
926.459	4246
926.566	4310
926.673	4143
926.779	4082
926.886	4105
926.993	3987
927.099	3934
927.206	3937
927.312	3945
927.419	4036
927.525	4006
927.631	4109
927.737	3975
927.843	3960
927.95	3857
928.056	3941
928.162	3975
928.267	4010
928.373	4691
928.479	4124
928.585	3880
928.69	4032
928.796	4120
928.901	3945
929.007	3873
929.112	3972
929.218	3956
929.323	4006
929.428	3941
929.533	4059
929.638	3880
929.743	3968
929.848	4059
929.953	4013
930.058	3972
930.163	3755
930.267	3838
930.372	4013
930.477	3819
930.581	4124
930.685	3975
930.79	3823
930.894	3918
930.998	3876
931.103	4051
931.207	3694
931.311	3717
931.415	3652
931.519	3515
931.623	3545
