Data from test_V78500241_652.txt Node
Date: Fri Mar 25 16:53:32 CST 2022
User: usil
Spectrometer: V785-0024
Trigger mode: 0
Integration Time (sec): 4.000000E-1
Scans to average: 1
Nonlinearity correction enabled: false
Boxcar width: 0
Storing dark spectrum: false
XAxis mode: Wavelengths
Number of Pixels in Spectrum: 1024
>>>>>Begin Spectral Data<<<<<
801.071	8039
801.214	7963
801.356	7833
801.499	7803
801.641	7833
801.783	7811
801.926	7902
802.068	7967
802.211	8012
802.353	7955
802.496	7898
802.638	7887
802.78	7875
802.923	7852
803.065	7852
803.208	7814
803.35	8024
803.492	8073
803.635	8130
803.777	8077
803.919	8046
804.061	8404
804.204	8073
804.346	8012
804.488	7936
804.63	8043
804.773	8001
804.915	8008
805.057	8279
805.199	8161
805.341	8263
805.483	8317
805.626	8183
805.768	8134
805.91	8267
806.052	8153
806.194	8081
806.336	8282
806.478	8103
806.62	8058
806.762	8138
806.904	8202
807.046	8537
807.188	8294
807.33	8313
807.472	8377
807.614	8168
807.756	8092
807.898	7978
808.04	7849
808.182	7864
808.324	7936
808.465	7902
808.607	8081
808.749	8153
808.891	8248
809.033	8298
809.174	8157
809.316	8092
809.458	8065
809.6	7997
809.741	8016
809.883	8039
810.025	8138
810.166	8073
810.308	8016
810.45	8031
810.591	7894
810.733	7765
810.875	7723
811.016	7632
811.158	7590
811.299	7597
811.441	7761
811.582	7708
811.724	7586
811.865	7510
812.007	7655
812.148	7597
812.29	7624
812.431	7708
812.573	7849
812.714	7967
812.855	8145
812.997	8218
813.138	8317
813.279	8130
813.421	8161
813.562	8043
813.703	7864
813.845	7822
813.986	7540
814.127	7343
814.268	7346
814.41	7247
814.551	7129
814.692	7213
814.833	7069
814.974	7137
815.115	7236
815.256	7042
815.397	6939
815.539	7027
815.68	6787
815.821	6829
815.962	6913
816.103	6772
816.244	6760
816.385	6627
816.526	6635
816.666	6452
816.807	6323
816.948	6471
817.089	6547
817.23	6471
817.371	6361
817.512	6418
817.653	6448
817.793	6422
817.934	6471
818.075	6464
818.216	6414
818.356	6437
818.497	6216
818.638	6110
818.778	6197
818.919	6186
819.06	6117
819.2	6323
819.341	6281
819.481	6414
819.622	6593
819.762	6726
819.903	6673
820.043	6623
820.184	6593
820.324	6589
820.465	6719
820.605	6665
820.746	6669
820.886	6620
821.026	6608
821.167	6715
821.307	6844
821.447	6829
821.588	6673
821.728	6555
821.868	6486
822.008	6372
822.149	6357
822.289	6460
822.429	6133
822.569	6102
822.709	6106
822.849	5923
822.99	5908
823.13	5870
823.27	5939
823.41	5813
823.55	5794
823.69	5794
823.83	5802
823.97	5714
824.11	5490
824.25	5524
824.389	5570
824.529	5554
824.669	5570
824.809	5714
824.949	5699
825.089	5642
825.228	5581
825.368	5425
825.508	5372
825.648	5353
825.787	5334
825.927	5337
826.067	5311
826.206	5334
826.346	5429
826.485	5425
826.625	5436
826.765	5524
826.904	5471
827.044	5269
827.183	5235
827.323	5181
827.462	5265
827.601	5189
827.741	5178
827.88	5212
828.02	5136
828.159	5246
828.298	5296
828.437	5402
828.577	5318
828.716	5448
828.855	5330
828.994	5155
829.134	5170
829.273	5246
829.412	5185
829.551	5189
829.69	5162
829.829	5284
829.968	5353
830.107	5250
830.246	5284
830.385	5151
830.524	5143
830.663	5060
830.802	5006
830.941	4919
831.08	4896
831.219	4968
831.357	5003
831.496	5174
831.635	4961
831.774	4858
831.913	4831
832.051	4778
832.19	4797
832.329	4885
832.467	4710
832.606	4641
832.744	4752
832.883	4736
833.022	4733
833.16	4782
833.299	4820
833.437	4847
833.576	4854
833.714	4824
833.852	4862
833.991	4892
834.129	4968
834.267	4965
834.406	4919
834.544	5006
834.682	4965
834.821	5010
834.959	5178
835.097	4991
835.235	5128
835.373	5159
835.511	5083
835.65	5041
835.788	4965
835.926	4919
836.064	4900
836.202	4930
836.34	5147
836.478	5235
836.615	5140
836.753	5208
836.891	5334
837.029	5303
837.167	5155
837.305	5121
837.443	5124
837.58	5113
837.718	5216
837.856	5223
837.993	5159
838.131	5239
838.269	5212
838.406	5258
838.544	5185
838.681	5022
838.819	4987
838.956	4900
839.094	4919
839.231	4999
839.369	5117
839.506	5414
839.643	5242
839.781	5105
839.918	5052
840.055	5162
840.193	5128
840.33	5140
840.467	5178
840.604	5162
840.742	5452
840.879	5079
841.016	5079
841.153	5090
841.29	5383
841.427	5368
841.564	5318
841.701	5372
841.838	5311
841.975	5212
842.112	5258
842.249	5162
842.385	5113
842.522	5296
842.659	5208
842.796	5151
842.933	5269
843.069	5159
843.206	5128
843.343	5315
843.479	5288
843.616	5269
843.752	5052
843.889	5010
844.025	5239
844.162	5037
844.298	5181
844.435	5136
844.571	5064
844.708	5170
844.844	5322
844.98	5337
845.117	5318
845.253	5170
845.389	5090
845.525	5143
845.661	5181
845.798	5056
845.934	5159
846.07	5064
846.206	5197
846.342	5242
846.478	5178
846.614	5025
846.75	4980
846.886	4991
847.022	5121
847.158	5048
847.294	5083
847.429	5128
847.565	5033
847.701	5303
847.837	4900
847.972	4831
848.108	4991
848.244	4968
848.379	4820
848.515	4774
848.65	4721
848.786	4710
848.921	4797
849.057	4923
849.192	4915
849.328	4870
849.463	4908
849.598	4816
849.734	4801
849.869	4702
850.004	4637
850.14	4687
850.275	4675
850.41	4554
850.545	4599
850.68	4637
850.815	4615
850.95	4622
851.085	4877
851.22	4744
851.355	4672
851.49	4615
851.625	4702
851.76	4630
851.895	4554
852.03	4546
852.165	4626
852.299	4771
852.434	4790
852.569	4767
852.703	4793
852.838	4835
852.973	4949
853.107	4942
853.242	4771
853.376	4717
853.511	4622
853.645	4603
853.78	4793
853.914	4740
854.048	4668
854.183	4698
854.317	4733
854.451	4923
854.585	4679
854.72	4733
854.854	4706
854.988	4577
855.122	4641
855.256	4531
855.39	4626
855.524	4790
855.658	4733
855.792	4744
855.926	4744
856.06	4729
856.194	4778
856.327	4691
856.461	4615
856.595	4656
856.729	4653
856.862	4782
856.996	4687
857.13	4755
857.263	4759
857.397	4812
857.53	4649
857.664	4714
857.797	4771
857.931	4778
858.064	4630
858.197	4744
858.331	4698
858.464	4588
858.597	4569
858.731	4694
858.864	4656
858.997	4596
859.13	4675
859.263	4702
859.396	4660
859.529	4626
859.662	4592
859.795	4584
859.928	4656
860.061	4782
860.194	4763
860.327	4630
860.46	4596
860.592	4740
860.725	4706
860.858	4752
860.99	4611
861.123	4538
861.256	4481
861.388	4603
861.521	5349
861.653	4512
861.786	4470
861.918	4443
862.05	4489
862.183	4615
862.315	4599
862.447	4721
862.58	4577
862.712	4417
862.844	4344
862.976	4459
863.108	4497
863.24	4942
863.372	4363
863.504	4421
863.636	4402
863.768	4535
863.9	4459
864.032	4383
864.164	4436
864.296	4485
864.428	4516
864.559	4558
864.691	4535
864.823	4523
864.954	4504
865.086	4508
865.217	4447
865.349	4390
865.48	4436
865.612	4455
865.743	4721
865.875	4519
866.006	4443
866.137	4447
866.269	4470
866.4	4459
866.531	4409
866.662	4432
866.793	4417
866.924	4455
867.055	4497
867.186	4500
867.317	4466
867.448	4394
867.579	4459
867.71	4405
867.841	4344
867.972	4462
868.103	4500
868.233	4497
868.364	4443
868.495	4516
868.625	4679
868.756	4793
868.886	4580
869.017	4622
869.147	4843
869.278	4759
869.408	4702
869.539	4668
869.669	4679
869.799	4683
869.929	4744
870.06	4797
870.19	4965
870.32	4976
870.45	4908
870.58	5033
870.71	5143
870.84	5094
870.97	4968
871.1	4908
871.23	5166
871.36	5117
871.489	5048
871.619	5067
871.749	5094
871.879	5094
872.008	5178
872.138	5060
872.267	5006
872.397	4889
872.526	4828
872.656	4740
872.785	4763
872.915	4980
873.044	5056
873.173	4930
873.303	5006
873.432	4987
873.561	4957
873.69	4896
873.819	4858
873.948	4953
874.077	4771
874.206	4759
874.335	4877
874.464	4915
874.593	5064
874.722	4984
874.851	5128
874.979	5064
875.108	4968
875.237	4946
875.365	4927
875.494	4927
875.623	4957
875.751	4889
875.88	4881
876.008	4972
876.136	5022
876.265	5261
876.393	5334
876.521	5284
876.65	5250
876.778	5159
876.906	5079
877.034	5045
877.162	5029
877.29	4961
877.418	5037
877.546	5003
877.674	5033
877.802	5102
877.93	5041
878.058	4965
878.185	4870
878.313	4942
878.441	4995
878.568	4809
878.696	4946
878.824	4987
878.951	5003
879.079	5113
879.206	5269
879.333	5105
879.461	5018
879.588	4946
879.715	5117
879.842	5254
879.97	5014
880.097	4774
880.224	4771
880.351	4816
880.478	4828
880.605	4805
880.732	4782
880.859	5079
880.986	4915
881.112	4923
881.239	4782
881.366	4645
881.493	4675
881.619	4592
881.746	4603
881.872	4653
881.999	4702
882.125	4744
882.252	4843
882.378	4873
882.505	5003
882.631	4805
882.757	4679
882.883	4748
883.01	4755
883.136	4672
883.262	4611
883.388	4596
883.514	4843
883.64	4847
883.766	4752
883.892	4675
884.018	4721
884.143	4900
884.269	5056
884.395	4649
884.52	4573
884.646	4698
884.772	4611
884.897	4546
885.023	4630
885.148	4736
885.274	4881
885.399	4797
885.524	4675
885.65	4664
885.775	4752
885.9	4714
886.025	4820
886.15	4786
886.275	4736
886.4	4687
886.525	4698
886.65	4683
886.775	4702
886.9	4919
887.025	5033
887.149	4778
887.274	4679
887.399	4596
887.523	4622
887.648	4546
887.773	4573
887.897	4744
888.021	4866
888.146	4679
888.27	4782
888.395	4911
888.519	4831
888.643	4854
888.767	4824
888.891	4687
889.015	4618
889.139	4630
889.263	4615
889.387	4729
889.511	4870
889.635	4801
889.759	4630
889.883	4630
890.006	4714
890.13	4854
890.254	4603
890.377	4733
890.501	4531
890.624	4474
890.748	4607
890.871	4504
890.995	4417
891.118	4367
891.241	4489
891.364	4546
891.488	4645
891.611	4466
891.734	4546
891.857	4653
891.98	4512
892.103	4641
892.226	4588
892.349	4512
892.471	4447
892.594	4561
892.717	4603
892.839	4538
892.962	4535
893.085	4668
893.207	4622
893.33	4493
893.452	4580
893.575	4649
893.697	4558
893.819	4793
893.941	4831
894.064	4774
894.186	4599
894.308	4592
894.43	4717
894.552	4820
894.674	4782
894.796	4573
894.918	4599
895.04	4615
895.161	4694
895.283	4664
895.405	4596
895.526	4596
895.648	4683
895.769	4675
895.891	4710
896.012	4748
896.134	4721
896.255	4702
896.376	4645
896.498	4607
896.619	4653
896.74	4660
896.861	4634
896.982	4900
897.103	5132
897.224	4812
897.345	4736
897.466	4656
897.587	4767
897.708	4843
897.828	4771
897.949	4691
898.07	4580
898.19	4637
898.311	4835
898.431	4691
898.552	4774
898.672	4812
898.792	4828
898.913	4721
899.033	4630
899.153	4493
899.273	4428
899.393	4485
899.513	4523
899.633	4588
899.753	4546
899.873	4538
899.993	4607
900.113	4592
900.232	4592
900.352	4558
900.472	4497
900.591	4409
900.711	4462
900.83	4413
900.95	4573
901.069	4702
901.189	4493
901.308	4394
901.427	4325
901.546	4344
901.665	4481
901.784	4493
901.904	4417
902.023	4287
902.141	4204
902.26	4177
902.379	4280
902.498	4242
902.617	4192
902.735	4390
902.854	4424
902.973	4383
903.091	4234
903.21	4234
903.328	4337
903.446	4253
903.565	4253
903.683	4367
903.801	4284
903.919	4398
904.038	4440
904.156	4291
904.274	4436
904.392	4424
904.51	4432
904.627	4466
904.745	4577
904.863	4630
904.981	4386
905.098	4310
905.216	4409
905.334	4394
905.451	4459
905.569	4466
905.686	4599
905.803	4599
905.921	4409
906.038	4558
906.155	4493
906.272	4417
906.389	4436
906.506	4363
906.623	4367
906.74	4348
906.857	4280
906.974	4405
907.091	4527
907.208	4672
907.324	4550
907.441	4485
907.557	4390
907.674	4287
907.79	4314
907.907	4318
908.023	4485
908.139	4489
908.256	4402
908.372	4459
908.488	4443
908.604	4314
908.72	4348
908.836	4344
908.952	4432
909.068	4447
909.184	4588
909.3	4504
909.415	4603
909.531	4577
909.647	4367
909.762	4333
909.878	4310
909.993	4402
910.108	4424
910.224	4405
910.339	4447
910.454	4367
910.57	4325
910.685	4257
910.8	4660
910.915	4561
911.03	4466
911.145	4287
911.259	4352
911.374	4360
911.489	4291
911.604	4314
911.718	4207
911.833	4207
911.947	4086
912.062	3983
912.176	4207
912.291	4219
912.405	4261
912.519	4489
912.633	4504
912.748	4318
912.862	4280
912.976	4181
913.09	4082
913.204	4162
913.318	4268
913.431	4322
913.545	4371
913.659	4436
913.772	4367
913.886	4249
914	4246
914.113	4352
914.226	4432
914.34	4440
914.453	4215
914.566	4421
914.68	4333
914.793	4352
914.906	4124
915.019	4204
915.132	4097
915.245	4230
915.358	4158
915.47	4196
915.583	4291
915.696	4314
915.809	4417
915.921	4417
916.034	4287
916.146	4268
916.259	4246
916.371	4405
916.483	4363
916.595	4230
916.708	4299
916.82	4291
916.932	4322
917.044	4306
917.156	4371
917.268	4207
917.38	4257
917.491	4284
917.603	4360
917.715	4398
917.826	4443
917.938	4360
918.049	4215
918.161	4424
918.272	4519
918.384	4554
918.495	4440
918.606	4287
918.717	4242
918.828	4314
918.939	4360
919.05	4287
919.161	4352
919.272	4158
919.383	4257
919.494	4417
919.604	4622
919.715	4424
919.826	4333
919.936	4379
920.047	4554
920.157	4478
920.267	4679
920.378	4580
920.488	4500
920.598	4740
920.708	4862
920.818	4778
920.928	4774
921.038	5018
921.148	4915
921.258	4599
921.368	4603
921.477	4497
921.587	4413
921.697	4386
921.806	4516
921.916	4398
922.025	4314
922.134	4242
922.244	4204
922.353	4367
922.462	4200
922.571	4124
922.68	3998
922.789	4002
922.898	3979
923.007	3983
923.116	4147
923.224	4086
923.333	4090
923.442	4040
923.55	3979
923.659	4010
923.767	4101
923.876	3972
923.984	4105
924.092	3979
924.201	4063
924.309	4131
924.417	4128
924.525	4067
924.633	4097
924.741	5056
924.849	3915
924.956	4128
925.064	3926
925.172	3873
925.279	4002
925.387	4036
925.494	4067
925.602	4223
925.709	4192
925.816	4063
925.924	4154
926.031	4219
926.138	4185
926.245	4188
926.352	4063
926.459	4276
926.566	4310
926.673	4147
926.779	4048
926.886	4078
926.993	3991
927.099	3983
927.206	3896
927.312	3941
927.419	4051
927.525	4067
927.631	4074
927.737	3937
927.843	3922
927.95	3873
928.056	3937
928.162	3975
928.267	4097
928.373	4683
928.479	4177
928.585	3937
928.69	3998
928.796	4086
928.901	3956
929.007	3884
929.112	3979
929.218	3975
929.323	3941
929.428	3918
929.533	4131
929.638	3888
929.743	3998
929.848	4067
929.953	4002
930.058	3918
930.163	3812
930.267	3854
930.372	3934
930.477	3823
930.581	4059
930.685	3953
930.79	3835
930.894	3876
930.998	3850
931.103	4025
931.207	3728
931.311	3701
931.415	3671
931.519	3500
931.623	3557
