Data from test_V78500241_2626.txt Node
Date: Fri Mar 25 17:07:15 CST 2022
User: usil
Spectrometer: V785-0024
Trigger mode: 0
Integration Time (sec): 4.000000E-1
Scans to average: 1
Nonlinearity correction enabled: false
Boxcar width: 0
Storing dark spectrum: false
XAxis mode: Wavelengths
Number of Pixels in Spectrum: 1024
>>>>>Begin Spectral Data<<<<<
801.071	8111
801.214	7989
801.356	7978
801.499	7906
801.641	7772
801.783	7837
801.926	7970
802.068	7944
802.211	8001
802.353	8012
802.496	7883
802.638	7951
802.78	7932
802.923	7993
803.065	7959
803.208	7875
803.35	7982
803.492	8180
803.635	8187
803.777	8062
803.919	8138
804.061	8469
804.204	8218
804.346	8077
804.488	7932
804.63	8123
804.773	8046
804.915	8123
805.057	8377
805.199	8202
805.341	8294
805.483	8286
805.626	8199
805.768	8183
805.91	8218
806.052	8134
806.194	8065
806.336	8355
806.478	8126
806.62	8058
806.762	8103
806.904	8263
807.046	8499
807.188	8404
807.33	8286
807.472	8332
807.614	8153
807.756	8103
807.898	8016
808.04	7936
808.182	7871
808.324	7898
808.465	7932
808.607	8058
808.749	8153
808.891	8225
809.033	8317
809.174	8237
809.316	8134
809.458	8084
809.6	8069
809.741	8027
809.883	8058
810.025	8069
810.166	8111
810.308	8027
810.45	7944
810.591	7925
810.733	7708
810.875	7712
811.016	7548
811.158	7483
811.299	7548
811.441	7772
811.582	7704
811.724	7613
811.865	7559
812.007	7601
812.148	7658
812.29	7647
812.431	7738
812.573	7898
812.714	8027
812.855	8130
812.997	8202
813.138	8343
813.279	8161
813.421	8103
813.562	7997
813.703	7837
813.845	7772
813.986	7491
814.127	7293
814.268	7285
814.41	7274
814.551	7152
814.692	7183
814.833	7133
814.974	7137
815.115	7133
815.256	7042
815.397	6966
815.539	6966
815.68	6856
815.821	6840
815.962	6852
816.103	6837
816.244	6787
816.385	6650
816.526	6677
816.666	6540
816.807	6388
816.948	6506
817.089	6452
817.23	6448
817.371	6338
817.512	6399
817.653	6445
817.793	6365
817.934	6506
818.075	6536
818.216	6494
818.356	6380
818.497	6296
818.638	6144
818.778	6155
818.919	6190
819.06	6175
819.2	6350
819.341	6372
819.481	6384
819.622	6555
819.762	6779
819.903	6696
820.043	6582
820.184	6639
820.324	6658
820.465	6798
820.605	6658
820.746	6696
820.886	6551
821.026	6662
821.167	6757
821.307	6875
821.447	6776
821.588	6677
821.728	6646
821.868	6498
822.008	6376
822.149	6422
822.289	6372
822.429	6178
822.569	6114
822.709	6110
822.849	5980
822.99	5870
823.13	5965
823.27	5973
823.41	5805
823.55	5840
823.69	5802
823.83	5836
823.97	5676
824.11	5532
824.25	5520
824.389	5596
824.529	5604
824.669	5509
824.809	5661
824.949	5665
825.089	5653
825.228	5577
825.368	5444
825.508	5349
825.648	5379
825.787	5391
825.927	5402
826.067	5383
826.206	5357
826.346	5334
826.485	5414
826.625	5341
826.765	5535
826.904	5448
827.044	5235
827.183	5189
827.323	5159
827.462	5258
827.601	5193
827.741	5162
827.88	5193
828.02	5151
828.159	5254
828.298	5311
828.437	5398
828.577	5269
828.716	5547
828.855	5292
828.994	5178
829.134	5178
829.273	5155
829.412	5143
829.551	5132
829.69	5170
829.829	5242
829.968	5299
830.107	5250
830.246	5307
830.385	5197
830.524	5121
830.663	5067
830.802	4968
830.941	4835
831.08	4862
831.219	5003
831.357	4953
831.496	5162
831.635	4923
831.774	4877
831.913	4831
832.051	4763
832.19	4736
832.329	4873
832.467	4679
832.606	4641
832.744	4733
832.883	4721
833.022	4763
833.16	4812
833.299	4850
833.437	4854
833.576	4877
833.714	4858
833.852	4873
833.991	4953
834.129	4976
834.267	4957
834.406	4915
834.544	4980
834.682	5045
834.821	5029
834.959	5208
835.097	4980
835.235	5128
835.373	5098
835.511	5136
835.65	5018
835.788	5075
835.926	4923
836.064	4873
836.202	4991
836.34	5220
836.478	5239
836.615	5143
836.753	5201
836.891	5341
837.029	5299
837.167	5220
837.305	5170
837.443	5197
837.58	5098
837.718	5223
837.856	5181
837.993	5140
838.131	5254
838.269	5269
838.406	5220
838.544	5170
838.681	5014
838.819	5052
838.956	4915
839.094	4915
839.231	5029
839.369	5113
839.506	5482
839.643	5280
839.781	5124
839.918	5056
840.055	5121
840.193	5083
840.33	5102
840.467	5147
840.604	5166
840.742	5444
840.879	5067
841.016	5094
841.153	5147
841.29	5383
841.427	5303
841.564	5330
841.701	5387
841.838	5292
841.975	5303
842.112	5261
842.249	5140
842.385	5109
842.522	5296
842.659	5170
842.796	5151
842.933	5208
843.069	5140
843.206	5212
843.343	5307
843.479	5273
843.616	5208
843.752	5018
843.889	5037
844.025	5178
844.162	4999
844.298	5170
844.435	5094
844.571	4991
844.708	5208
844.844	5315
844.98	5372
845.117	5273
845.253	5147
845.389	5045
845.525	5151
845.661	5170
845.798	5037
845.934	5109
846.07	5052
846.206	5170
846.342	5307
846.478	5155
846.614	5041
846.75	4999
846.886	4927
847.022	5128
847.158	4999
847.294	5102
847.429	5102
847.565	5071
847.701	5376
847.837	4858
847.972	4786
848.108	4965
848.244	4942
848.379	4786
848.515	4763
848.65	4706
848.786	4778
848.921	4824
849.057	4892
849.192	4858
849.328	4828
849.463	4870
849.598	4790
849.734	4778
849.869	4691
850.004	4691
850.14	4679
850.275	4592
850.41	4565
850.545	4573
850.68	4637
850.815	4618
850.95	4611
851.085	4831
851.22	4767
851.355	4694
851.49	4618
851.625	4683
851.76	4672
851.895	4615
852.03	4519
852.165	4664
852.299	4717
852.434	4786
852.569	4744
852.703	4744
852.838	4873
852.973	4930
853.107	4965
853.242	4725
853.376	4706
853.511	4615
853.645	4634
853.78	4820
853.914	4691
854.048	4698
854.183	4630
854.317	4687
854.451	4866
854.585	4698
854.72	4653
854.854	4759
854.988	4607
855.122	4630
855.256	4565
855.39	4645
855.524	4729
855.658	4736
855.792	4668
855.926	4721
856.06	4702
856.194	4805
856.327	4702
856.461	4634
856.595	4607
856.729	4618
856.862	4748
856.996	4698
857.13	4786
857.263	4698
857.397	4816
857.53	4672
857.664	4702
857.797	4748
857.931	4790
858.064	4672
858.197	4782
858.331	4634
858.464	4603
858.597	4516
858.731	4622
858.864	4664
858.997	4599
859.13	4641
859.263	4607
859.396	4672
859.529	4588
859.662	4565
859.795	4561
859.928	4634
860.061	4729
860.194	4812
860.327	4660
860.46	4611
860.592	4702
860.725	4706
860.858	4752
860.99	4573
861.123	4523
861.256	4603
861.388	4653
861.521	5444
861.653	4455
861.786	4455
861.918	4481
862.05	4542
862.183	4580
862.315	4630
862.447	4645
862.58	4580
862.712	4424
862.844	4344
862.976	4436
863.108	4474
863.24	4698
863.372	4386
863.504	4383
863.636	4405
863.768	4500
863.9	4493
864.032	4363
864.164	4379
864.296	4481
864.428	4550
864.559	4558
864.691	4561
864.823	4493
864.954	4455
865.086	4561
865.217	4436
865.349	4405
865.48	4489
865.612	4489
865.743	4618
865.875	4409
866.006	4432
866.137	4474
866.269	4443
866.4	4436
866.531	4421
866.662	4443
866.793	4417
866.924	4394
867.055	4504
867.186	4447
867.317	4428
867.448	4363
867.579	4424
867.71	4409
867.841	4421
867.972	4424
868.103	4455
868.233	4470
868.364	4470
868.495	4512
868.625	4714
868.756	4729
868.886	4580
869.017	4645
869.147	4786
869.278	4782
869.408	4641
869.539	4618
869.669	4755
869.799	4672
869.929	4790
870.06	4744
870.19	4953
870.32	4927
870.45	4961
870.58	5037
870.71	5151
870.84	5121
870.97	4946
871.1	4892
871.23	5113
871.36	5086
871.489	5060
871.619	5109
871.749	5094
871.879	5109
872.008	5128
872.138	5075
872.267	5010
872.397	4877
872.526	4831
872.656	4694
872.785	4767
872.915	4930
873.044	5075
873.173	4938
873.303	4961
873.432	4984
873.561	5033
873.69	4870
873.819	4858
873.948	4889
874.077	4801
874.206	4790
874.335	4763
874.464	4961
874.593	5075
874.722	4976
874.851	5094
874.979	5102
875.108	4972
875.237	4927
875.365	4889
875.494	4934
875.623	4968
875.751	4839
875.88	4881
876.008	4991
876.136	5048
876.265	5227
876.393	5337
876.521	5239
876.65	5239
876.778	5189
876.906	5033
877.034	5037
877.162	5079
877.29	4942
877.418	5041
877.546	5102
877.674	5041
877.802	5018
877.93	4987
878.058	4866
878.185	4904
878.313	4919
878.441	4934
878.568	4828
878.696	4919
878.824	4972
878.951	4972
879.079	5098
879.206	5299
879.333	5060
879.461	4968
879.588	4991
879.715	5121
879.842	5201
879.97	4972
880.097	4771
880.224	4759
880.351	4801
880.478	4873
880.605	4831
880.732	4744
880.859	5113
880.986	4911
881.112	4889
881.239	4778
881.366	4653
881.493	4634
881.619	4596
881.746	4626
881.872	4656
881.999	4603
882.125	4694
882.252	4797
882.378	4797
882.505	4946
882.631	4797
882.757	4714
882.883	4744
883.01	4767
883.136	4675
883.262	4615
883.388	4656
883.514	4816
883.64	4908
883.766	4812
883.892	4702
884.018	4748
884.143	4946
884.269	4946
884.395	4691
884.52	4622
884.646	4668
884.772	4596
884.897	4558
885.023	4618
885.148	4790
885.274	4870
885.399	4831
885.524	4706
885.65	4656
885.775	4755
885.9	4744
886.025	4927
886.15	4782
886.275	4717
886.4	4653
886.525	4706
886.65	4698
886.775	4683
886.9	4896
887.025	5041
887.149	4771
887.274	4653
887.399	4584
887.523	4607
887.648	4580
887.773	4611
887.897	4752
888.021	4812
888.146	4668
888.27	4793
888.395	4919
888.519	4809
888.643	4805
888.767	4850
888.891	4634
889.015	4607
889.139	4622
889.263	4577
889.387	4717
889.511	4854
889.635	4786
889.759	4687
889.883	4668
890.006	4725
890.13	4843
890.254	4577
890.377	4660
890.501	4546
890.624	4561
890.748	4656
890.871	4516
890.995	4417
891.118	4352
891.241	4542
891.364	4580
891.488	4683
891.611	4489
891.734	4535
891.857	4580
891.98	4504
892.103	4615
892.226	4546
892.349	4508
892.471	4424
892.594	4622
892.717	4615
892.839	4599
892.962	4622
893.085	4656
893.207	4588
893.33	4447
893.452	4550
893.575	4691
893.697	4599
893.819	4793
893.941	4858
894.064	4717
894.186	4531
894.308	4599
894.43	4721
894.552	4831
894.674	4725
894.796	4531
894.918	4592
895.04	4603
895.161	4714
895.283	4679
895.405	4561
895.526	4634
895.648	4687
895.769	4763
895.891	4740
896.012	4740
896.134	4733
896.255	4702
896.376	4630
896.498	4596
896.619	4710
896.74	4618
896.861	4626
896.982	4927
897.103	5071
897.224	4831
897.345	4759
897.466	4675
897.587	4698
897.708	4812
897.828	4767
897.949	4645
898.07	4550
898.19	4607
898.311	4805
898.431	4710
898.552	4782
898.672	4778
898.792	4805
898.913	4755
899.033	4584
899.153	4493
899.273	4428
899.393	4466
899.513	4535
899.633	4565
899.753	4519
899.873	4466
899.993	4580
900.113	4508
900.232	4516
900.352	4500
900.472	4512
900.591	4402
900.711	4497
900.83	4459
900.95	4634
901.069	4668
901.189	4538
901.308	4333
901.427	4341
901.546	4379
901.665	4497
901.784	4470
901.904	4329
902.023	4363
902.141	4192
902.26	4196
902.379	4291
902.498	4265
902.617	4276
902.735	4352
902.854	4428
902.973	4386
903.091	4215
903.21	4261
903.328	4295
903.446	4291
903.565	4253
903.683	4333
903.801	4265
903.919	4402
904.038	4417
904.156	4318
904.274	4451
904.392	4394
904.51	4440
904.627	4443
904.745	4630
904.863	4649
904.981	4329
905.098	4318
905.216	4367
905.334	4443
905.451	4436
905.569	4462
905.686	4584
905.803	4531
905.921	4402
906.038	4561
906.155	4451
906.272	4421
906.389	4379
906.506	4375
906.623	4352
906.74	4348
906.857	4303
906.974	4367
907.091	4573
907.208	4679
907.324	4580
907.441	4519
907.557	4375
907.674	4379
907.79	4318
907.907	4379
908.023	4500
908.139	4508
908.256	4405
908.372	4478
908.488	4383
908.604	4322
908.72	4352
908.836	4390
908.952	4337
909.068	4466
909.184	4550
909.3	4489
909.415	4596
909.531	4538
909.647	4352
909.762	4344
909.878	4344
909.993	4447
910.108	4421
910.224	4428
910.339	4440
910.454	4398
910.57	4363
910.685	4306
910.8	4634
910.915	4558
911.03	4516
911.145	4310
911.259	4325
911.374	4348
911.489	4333
911.604	4284
911.718	4147
911.833	4230
911.947	4078
912.062	4059
912.176	4181
912.291	4219
912.405	4253
912.519	4447
912.633	4489
912.748	4348
912.862	4272
912.976	4192
913.09	4101
913.204	4177
913.318	4204
913.431	4356
913.545	4386
913.659	4428
913.772	4333
913.886	4249
914	4234
914.113	4417
914.226	4390
914.34	4379
914.453	4223
914.566	4421
914.68	4299
914.793	4314
914.906	4158
915.019	4128
915.132	4055
915.245	4158
915.358	4188
915.47	4246
915.583	4284
915.696	4284
915.809	4390
915.921	4428
916.034	4276
916.146	4200
916.259	4230
916.371	4344
916.483	4417
916.595	4265
916.708	4306
916.82	4299
916.932	4333
917.044	4299
917.156	4325
917.268	4253
917.38	4295
917.491	4303
917.603	4337
917.715	4436
917.826	4421
917.938	4333
918.049	4257
918.161	4394
918.272	4523
918.384	4519
918.495	4478
918.606	4314
918.717	4261
918.828	4329
918.939	4371
919.05	4234
919.161	4325
919.272	4109
919.383	4188
919.494	4436
919.604	4599
919.715	4451
919.826	4348
919.936	4348
920.047	4535
920.157	4409
920.267	4706
920.378	4596
920.488	4512
920.598	4702
920.708	4889
920.818	4774
920.928	4793
921.038	4942
921.148	4881
921.258	4641
921.368	4538
921.477	4500
921.587	4481
921.697	4394
921.806	4523
921.916	4436
922.025	4227
922.134	4242
922.244	4230
922.353	4375
922.462	4154
922.571	4128
922.68	3991
922.789	3964
922.898	4013
923.007	3994
923.116	4078
923.224	4086
923.333	4063
923.442	3983
923.55	3964
923.659	4025
923.767	4124
923.876	4021
923.984	4143
924.092	3975
924.201	4071
924.309	4139
924.417	4131
924.525	4029
924.633	4097
924.741	5025
924.849	3915
924.956	4116
925.064	3994
925.172	3880
925.279	4002
925.387	4071
925.494	4074
925.602	4196
925.709	4219
925.816	4055
925.924	4109
926.031	4249
926.138	4166
926.245	4219
926.352	4109
926.459	4253
926.566	4306
926.673	4135
926.779	4090
926.886	4032
926.993	3983
927.099	3979
927.206	3926
927.312	3915
927.419	4067
927.525	4013
927.631	4112
927.737	3994
927.843	3899
927.95	3880
928.056	3953
928.162	3998
928.267	4071
928.373	4592
928.479	4086
928.585	3850
928.69	4017
928.796	4093
928.901	3975
929.007	3880
929.112	3983
929.218	3987
929.323	3972
929.428	3945
929.533	4128
929.638	3949
929.743	3998
929.848	4021
929.953	3998
930.058	3945
930.163	3759
930.267	3808
930.372	3937
930.477	3793
930.581	4101
930.685	3937
930.79	3842
930.894	3937
930.998	3880
931.103	4032
931.207	3766
931.311	3698
931.415	3652
931.519	3488
931.623	3564
