Data from test_V78500241_822.txt Node
Date: Fri Mar 25 16:54:43 CST 2022
User: usil
Spectrometer: V785-0024
Trigger mode: 0
Integration Time (sec): 4.000000E-1
Scans to average: 1
Nonlinearity correction enabled: false
Boxcar width: 0
Storing dark spectrum: false
XAxis mode: Wavelengths
Number of Pixels in Spectrum: 1024
>>>>>Begin Spectral Data<<<<<
801.071	8012
801.214	7928
801.356	7917
801.499	7860
801.641	7822
801.783	7776
801.926	8024
802.068	7951
802.211	7913
802.353	7959
802.496	7875
802.638	7894
802.78	7951
802.923	7909
803.065	7925
803.208	7997
803.35	8020
803.492	8119
803.635	8237
803.777	8058
803.919	8157
804.061	8381
804.204	8123
804.346	8084
804.488	7944
804.63	8138
804.773	8046
804.915	8081
805.057	8282
805.199	8164
805.341	8225
805.483	8259
805.626	8218
805.768	8134
805.91	8244
806.052	8225
806.194	8096
806.336	8324
806.478	8096
806.62	8016
806.762	8180
806.904	8298
807.046	8473
807.188	8328
807.33	8328
807.472	8355
807.614	8161
807.756	8142
807.898	7974
808.04	7932
808.182	7909
808.324	7955
808.465	7947
808.607	8115
808.749	8096
808.891	8176
809.033	8286
809.174	8305
809.316	8149
809.458	8115
809.6	7989
809.741	8001
809.883	8058
810.025	8107
810.166	8092
810.308	8062
810.45	8062
810.591	7906
810.733	7772
810.875	7647
811.016	7563
811.158	7544
811.299	7632
811.441	7719
811.582	7651
811.724	7582
811.865	7556
812.007	7575
812.148	7594
812.29	7647
812.431	7757
812.573	7849
812.714	7997
812.855	8092
812.997	8237
813.138	8279
813.279	8199
813.421	8172
813.562	8058
813.703	7906
813.845	7769
813.986	7495
814.127	7308
814.268	7312
814.41	7209
814.551	7145
814.692	7213
814.833	7065
814.974	7133
815.115	7110
815.256	6996
815.397	6962
815.539	6958
815.68	6901
815.821	6825
815.962	6863
816.103	6791
816.244	6745
816.385	6665
816.526	6692
816.666	6525
816.807	6289
816.948	6410
817.089	6521
817.23	6486
817.371	6441
817.512	6388
817.653	6376
817.793	6433
817.934	6342
818.075	6445
818.216	6448
818.356	6426
818.497	6251
818.638	6102
818.778	6117
818.919	6205
819.06	6152
819.2	6357
819.341	6353
819.481	6357
819.622	6525
819.762	6783
819.903	6715
820.043	6627
820.184	6620
820.324	6593
820.465	6734
820.605	6722
820.746	6620
820.886	6559
821.026	6681
821.167	6749
821.307	6806
821.447	6776
821.588	6684
821.728	6498
821.868	6532
822.008	6311
822.149	6384
822.289	6414
822.429	6155
822.569	6110
822.709	6167
822.849	5931
822.99	5866
823.13	5939
823.27	5954
823.41	5847
823.55	5786
823.69	5775
823.83	5840
823.97	5661
824.11	5528
824.25	5509
824.389	5577
824.529	5627
824.669	5535
824.809	5646
824.949	5668
825.089	5634
825.228	5570
825.368	5440
825.508	5376
825.648	5341
825.787	5398
825.927	5448
826.067	5284
826.206	5311
826.346	5452
826.485	5414
826.625	5444
826.765	5554
826.904	5512
827.044	5273
827.183	5201
827.323	5121
827.462	5254
827.601	5212
827.741	5140
827.88	5280
828.02	5109
828.159	5250
828.298	5288
828.437	5402
828.577	5330
828.716	5501
828.855	5368
828.994	5185
829.134	5113
829.273	5212
829.412	5155
829.551	5075
829.69	5204
829.829	5208
829.968	5360
830.107	5315
830.246	5250
830.385	5159
830.524	5151
830.663	5094
830.802	5003
830.941	4919
831.08	4847
831.219	4991
831.357	4999
831.496	5136
831.635	4957
831.774	4854
831.913	4896
832.051	4725
832.19	4744
832.329	4877
832.467	4691
832.606	4672
832.744	4763
832.883	4710
833.022	4740
833.16	4786
833.299	4816
833.437	4850
833.576	4892
833.714	4877
833.852	4942
833.991	4885
834.129	4999
834.267	4991
834.406	4942
834.544	5003
834.682	5010
834.821	5014
834.959	5220
835.097	5003
835.235	5220
835.373	5105
835.511	5083
835.65	5014
835.788	5033
835.926	4892
836.064	4870
836.202	4957
836.34	5220
836.478	5212
836.615	5189
836.753	5193
836.891	5315
837.029	5269
837.167	5254
837.305	5193
837.443	5197
837.58	5109
837.718	5322
837.856	5189
837.993	5155
838.131	5216
838.269	5197
838.406	5204
838.544	5246
838.681	5064
838.819	5052
838.956	4885
839.094	4919
839.231	4984
839.369	5151
839.506	5429
839.643	5269
839.781	5067
839.918	5045
840.055	5117
840.193	5117
840.33	5083
840.467	5178
840.604	5189
840.742	5444
840.879	5086
841.016	5071
841.153	5147
841.29	5322
841.427	5360
841.564	5349
841.701	5334
841.838	5296
841.975	5197
842.112	5261
842.249	5147
842.385	5083
842.522	5357
842.659	5151
842.796	5132
842.933	5212
843.069	5147
843.206	5151
843.343	5299
843.479	5223
843.616	5277
843.752	5071
843.889	5048
844.025	5231
844.162	5029
844.298	5204
844.435	5124
844.571	5090
844.708	5189
844.844	5303
844.98	5326
845.117	5303
845.253	5143
845.389	5083
845.525	5174
845.661	5159
845.798	5048
845.934	5151
846.07	5079
846.206	5174
846.342	5322
846.478	5189
846.614	5064
846.75	4999
846.886	4972
847.022	5136
847.158	5048
847.294	5117
847.429	5067
847.565	5056
847.701	5326
847.837	4870
847.972	4831
848.108	4957
848.244	4927
848.379	4793
848.515	4752
848.65	4763
848.786	4782
848.921	4793
849.057	4889
849.192	4919
849.328	4847
849.463	4812
849.598	4850
849.734	4801
849.869	4702
850.004	4645
850.14	4672
850.275	4592
850.41	4546
850.545	4588
850.68	4615
850.815	4641
850.95	4607
851.085	4858
851.22	4763
851.355	4725
851.49	4626
851.625	4706
851.76	4664
851.895	4584
852.03	4527
852.165	4721
852.299	4721
852.434	4828
852.569	4717
852.703	4786
852.838	4889
852.973	4923
853.107	4946
853.242	4725
853.376	4729
853.511	4569
853.645	4641
853.78	4812
853.914	4714
854.048	4668
854.183	4653
854.317	4736
854.451	4854
854.585	4668
854.72	4618
854.854	4771
854.988	4592
855.122	4630
855.256	4561
855.39	4637
855.524	4752
855.658	4721
855.792	4683
855.926	4736
856.06	4812
856.194	4805
856.327	4668
856.461	4660
856.595	4599
856.729	4626
856.862	4706
856.996	4660
857.13	4698
857.263	4774
857.397	4790
857.53	4634
857.664	4714
857.797	4771
857.931	4763
858.064	4706
858.197	4744
858.331	4698
858.464	4637
858.597	4523
858.731	4649
858.864	4645
858.997	4656
859.13	4691
859.263	4626
859.396	4733
859.529	4542
859.662	4577
859.795	4527
859.928	4615
860.061	4740
860.194	4706
860.327	4626
860.46	4523
860.592	4752
860.725	4714
860.858	4771
860.99	4611
861.123	4531
861.256	4546
861.388	4634
861.521	5292
861.653	4459
861.786	4386
861.918	4466
862.05	4531
862.183	4561
862.315	4577
862.447	4603
862.58	4584
862.712	4417
862.844	4337
862.976	4485
863.108	4478
863.24	4714
863.372	4352
863.504	4413
863.636	4383
863.768	4493
863.9	4447
864.032	4360
864.164	4413
864.296	4459
864.428	4531
864.559	4573
864.691	4550
864.823	4538
864.954	4474
865.086	4478
865.217	4470
865.349	4470
865.48	4459
865.612	4523
865.743	4641
865.875	4474
866.006	4459
866.137	4455
866.269	4531
866.4	4462
866.531	4440
866.662	4424
866.793	4436
866.924	4428
867.055	4462
867.186	4455
867.317	4413
867.448	4409
867.579	4383
867.71	4379
867.841	4375
867.972	4440
868.103	4474
868.233	4459
868.364	4436
868.495	4459
868.625	4717
868.756	4809
868.886	4565
869.017	4637
869.147	4736
869.278	4767
869.408	4668
869.539	4622
869.669	4679
869.799	4618
869.929	4767
870.06	4717
870.19	4968
870.32	4911
870.45	4938
870.58	5045
870.71	5166
870.84	5071
870.97	4953
871.1	4900
871.23	5147
871.36	5166
871.489	5056
871.619	5079
871.749	5048
871.879	5170
872.008	5166
872.138	5029
872.267	5029
872.397	4911
872.526	4828
872.656	4725
872.785	4786
872.915	5025
873.044	4984
873.173	4957
873.303	4972
873.432	4972
873.561	4927
873.69	4877
873.819	4885
873.948	4900
874.077	4843
874.206	4797
874.335	4812
874.464	4911
874.593	5079
874.722	4961
874.851	5086
874.979	5064
875.108	5022
875.237	4930
875.365	4915
875.494	4889
875.623	4991
875.751	4854
875.88	4900
876.008	5033
876.136	5045
876.265	5189
876.393	5277
876.521	5231
876.65	5239
876.778	5159
876.906	5067
877.034	5010
877.162	5071
877.29	4972
877.418	5041
877.546	5010
877.674	5018
877.802	5014
877.93	5003
878.058	4961
878.185	4831
878.313	4911
878.441	4957
878.568	4786
878.696	4900
878.824	4972
878.951	5010
879.079	5086
879.206	5261
879.333	5117
879.461	5014
879.588	5010
879.715	5136
879.842	5220
879.97	4995
880.097	4790
880.224	4782
880.351	4793
880.478	4839
880.605	4843
880.732	4797
880.859	5143
880.986	4927
881.112	4870
881.239	4843
881.366	4630
881.493	4603
881.619	4599
881.746	4656
881.872	4664
881.999	4634
882.125	4687
882.252	4816
882.378	4839
882.505	4968
882.631	4793
882.757	4691
882.883	4736
883.01	4797
883.136	4672
883.262	4607
883.388	4615
883.514	4782
883.64	4824
883.766	4843
883.892	4656
884.018	4752
884.143	4904
884.269	5037
884.395	4710
884.52	4645
884.646	4615
884.772	4531
884.897	4497
885.023	4649
885.148	4793
885.274	4892
885.399	4778
885.524	4668
885.65	4691
885.775	4744
885.9	4710
886.025	4870
886.15	4801
886.275	4778
886.4	4634
886.525	4717
886.65	4645
886.775	4721
886.9	4896
887.025	5056
887.149	4881
887.274	4599
887.399	4588
887.523	4573
887.648	4580
887.773	4561
887.897	4717
888.021	4805
888.146	4687
888.27	4828
888.395	4911
888.519	4793
888.643	4854
888.767	4843
888.891	4649
889.015	4592
889.139	4660
889.263	4577
889.387	4736
889.511	4892
889.635	4824
889.759	4641
889.883	4687
890.006	4752
890.13	4805
890.254	4641
890.377	4668
890.501	4531
890.624	4523
890.748	4660
890.871	4527
890.995	4402
891.118	4375
891.241	4474
891.364	4512
891.488	4634
891.611	4504
891.734	4542
891.857	4622
891.98	4569
892.103	4653
892.226	4573
892.349	4538
892.471	4405
892.594	4546
892.717	4656
892.839	4607
892.962	4580
893.085	4641
893.207	4603
893.33	4459
893.452	4497
893.575	4660
893.697	4550
893.819	4755
893.941	4877
894.064	4763
894.186	4580
894.308	4558
894.43	4725
894.552	4809
894.674	4725
894.796	4584
894.918	4561
895.04	4542
895.161	4630
895.283	4694
895.405	4546
895.526	4592
895.648	4706
895.769	4698
895.891	4729
896.012	4793
896.134	4710
896.255	4622
896.376	4588
896.498	4630
896.619	4683
896.74	4615
896.861	4599
896.982	4866
897.103	5086
897.224	4847
897.345	4733
897.466	4634
897.587	4744
897.708	4873
897.828	4824
897.949	4664
898.07	4607
898.19	4599
898.311	4828
898.431	4634
898.552	4736
898.672	4782
898.792	4847
898.913	4740
899.033	4611
899.153	4508
899.273	4428
899.393	4485
899.513	4531
899.633	4542
899.753	4512
899.873	4478
899.993	4603
900.113	4500
900.232	4584
900.352	4558
900.472	4493
900.591	4402
900.711	4512
900.83	4455
900.95	4607
901.069	4725
901.189	4561
901.308	4344
901.427	4303
901.546	4371
901.665	4443
901.784	4451
901.904	4398
902.023	4257
902.141	4219
902.26	4131
902.379	4295
902.498	4284
902.617	4249
902.735	4344
902.854	4394
902.973	4341
903.091	4227
903.21	4238
903.328	4272
903.446	4265
903.565	4234
903.683	4348
903.801	4257
903.919	4409
904.038	4417
904.156	4310
904.274	4451
904.392	4394
904.51	4383
904.627	4455
904.745	4584
904.863	4615
904.981	4402
905.098	4299
905.216	4379
905.334	4459
905.451	4367
905.569	4440
905.686	4531
905.803	4550
905.921	4383
906.038	4531
906.155	4455
906.272	4390
906.389	4466
906.506	4383
906.623	4352
906.74	4390
906.857	4314
906.974	4344
907.091	4573
907.208	4660
907.324	4592
907.441	4500
907.557	4356
907.674	4394
907.79	4299
907.907	4379
908.023	4519
908.139	4478
908.256	4443
908.372	4459
908.488	4432
908.604	4341
908.72	4291
908.836	4447
908.952	4417
909.068	4451
909.184	4565
909.3	4489
909.415	4565
909.531	4573
909.647	4402
909.762	4337
909.878	4348
909.993	4440
910.108	4394
910.224	4337
910.339	4470
910.454	4360
910.57	4367
910.685	4284
910.8	4611
910.915	4622
911.03	4485
911.145	4352
911.259	4352
911.374	4379
911.489	4318
911.604	4314
911.718	4207
911.833	4188
911.947	4067
912.062	4029
912.176	4169
912.291	4234
912.405	4211
912.519	4504
912.633	4459
912.748	4367
912.862	4299
912.976	4200
913.09	4158
913.204	4154
913.318	4246
913.431	4352
913.545	4383
913.659	4424
913.772	4371
913.886	4192
914	4227
914.113	4405
914.226	4417
914.34	4417
914.453	4196
914.566	4413
914.68	4303
914.793	4318
914.906	4158
915.019	4120
915.132	4128
915.245	4162
915.358	4185
915.47	4257
915.583	4261
915.696	4318
915.809	4398
915.921	4424
916.034	4268
916.146	4261
916.259	4249
916.371	4371
916.483	4333
916.595	4249
916.708	4287
916.82	4337
916.932	4310
917.044	4341
917.156	4303
917.268	4272
917.38	4280
917.491	4234
917.603	4322
917.715	4405
917.826	4504
917.938	4299
918.049	4291
918.161	4375
918.272	4558
918.384	4554
918.495	4470
918.606	4257
918.717	4246
918.828	4280
918.939	4371
919.05	4219
919.161	4310
919.272	4166
919.383	4253
919.494	4462
919.604	4637
919.715	4451
919.826	4344
919.936	4390
920.047	4516
920.157	4474
920.267	4694
920.378	4531
920.488	4497
920.598	4736
920.708	4870
920.818	4759
920.928	4733
921.038	4923
921.148	4877
921.258	4535
921.368	4550
921.477	4508
921.587	4413
921.697	4383
921.806	4508
921.916	4440
922.025	4253
922.134	4223
922.244	4169
922.353	4341
922.462	4116
922.571	4139
922.68	4013
922.789	4006
922.898	4051
923.007	3987
923.116	4082
923.224	4048
923.333	4074
923.442	3983
923.55	3975
923.659	4025
923.767	4109
923.876	3983
923.984	4135
924.092	4006
924.201	4074
924.309	4135
924.417	4112
924.525	4093
924.633	4109
924.741	4900
924.849	3922
924.956	4158
925.064	3945
925.172	3922
925.279	3922
925.387	4055
925.494	4051
925.602	4192
925.709	4181
925.816	4090
925.924	4131
926.031	4166
926.138	4200
926.245	4188
926.352	4090
926.459	4249
926.566	4299
926.673	4131
926.779	4067
926.886	4086
926.993	3964
927.099	3956
927.206	3945
927.312	4017
927.419	4071
927.525	4010
927.631	4105
927.737	4006
927.843	3983
927.95	3857
928.056	3979
928.162	3972
928.267	4055
928.373	4675
928.479	4128
928.585	3850
928.69	4010
928.796	4074
928.901	3892
929.007	3804
929.112	3994
929.218	3945
929.323	3964
929.428	3941
929.533	4124
929.638	3915
929.743	3960
929.848	4021
929.953	4002
930.058	3926
930.163	3766
930.267	3869
930.372	3991
930.477	3778
930.581	4051
930.685	4010
930.79	3774
930.894	3911
930.998	3800
931.103	3991
931.207	3679
931.311	3717
931.415	3671
931.519	3519
931.623	3530
