Data from test_V78500241_373.txt Node
Date: Fri Mar 25 16:51:35 CST 2022
User: usil
Spectrometer: V785-0024
Trigger mode: 0
Integration Time (sec): 4.000000E-1
Scans to average: 1
Nonlinearity correction enabled: false
Boxcar width: 0
Storing dark spectrum: false
XAxis mode: Wavelengths
Number of Pixels in Spectrum: 1024
>>>>>Begin Spectral Data<<<<<
801.071	8084
801.214	8107
801.356	7921
801.499	7928
801.641	7864
801.783	7822
801.926	7993
802.068	7978
802.211	7986
802.353	7967
802.496	7879
802.638	7921
802.78	7947
802.923	7986
803.065	7852
803.208	7890
803.35	7989
803.492	8031
803.635	8123
803.777	8058
803.919	8149
804.061	8492
804.204	8202
804.346	8073
804.488	7928
804.63	8073
804.773	7970
804.915	8084
805.057	8286
805.199	8153
805.341	8263
805.483	8282
805.626	8206
805.768	8027
805.91	8134
806.052	8259
806.194	8172
806.336	8328
806.478	8168
806.62	8183
806.762	8237
806.904	8263
807.046	8522
807.188	8351
807.33	8332
807.472	8324
807.614	8111
807.756	8161
807.898	8043
808.04	7928
808.182	7955
808.324	7917
808.465	7993
808.607	8130
808.749	8176
808.891	8263
809.033	8290
809.174	8210
809.316	8039
809.458	8050
809.6	8008
809.741	8138
809.883	8065
810.025	8077
810.166	8138
810.308	8046
810.45	8024
810.591	7890
810.733	7723
810.875	7662
811.016	7582
811.158	7533
811.299	7712
811.441	7811
811.582	7750
811.724	7677
811.865	7559
812.007	7594
812.148	7632
812.29	7609
812.431	7811
812.573	7928
812.714	8073
812.855	8164
812.997	8191
813.138	8396
813.279	8153
813.421	8153
813.562	8096
813.703	7936
813.845	7792
813.986	7582
814.127	7312
814.268	7255
814.41	7156
814.551	7198
814.692	7221
814.833	7088
814.974	7156
815.115	7126
815.256	6962
815.397	6894
815.539	6970
815.68	6939
815.821	6753
815.962	6928
816.103	6863
816.244	6760
816.385	6677
816.526	6597
816.666	6532
816.807	6319
816.948	6498
817.089	6471
817.23	6414
817.371	6384
817.512	6380
817.653	6448
817.793	6391
817.934	6376
818.075	6525
818.216	6437
818.356	6391
818.497	6266
818.638	6106
818.778	6175
818.919	6167
819.06	6186
819.2	6376
819.341	6407
819.481	6395
819.622	6559
819.762	6814
819.903	6684
820.043	6631
820.184	6574
820.324	6593
820.465	6749
820.605	6673
820.746	6620
820.886	6551
821.026	6711
821.167	6711
821.307	6833
821.447	6791
821.588	6722
821.728	6597
821.868	6498
822.008	6342
822.149	6433
822.289	6403
822.429	6205
822.569	6125
822.709	6144
822.849	5939
822.99	5954
823.13	5965
823.27	5889
823.41	5844
823.55	5817
823.69	5794
823.83	5802
823.97	5699
824.11	5551
824.25	5589
824.389	5573
824.529	5604
824.669	5547
824.809	5608
824.949	5668
825.089	5585
825.228	5509
825.368	5436
825.508	5383
825.648	5326
825.787	5372
825.927	5364
826.067	5318
826.206	5292
826.346	5436
826.485	5417
826.625	5398
826.765	5516
826.904	5528
827.044	5258
827.183	5174
827.323	5094
827.462	5254
827.601	5159
827.741	5220
827.88	5208
828.02	5128
828.159	5254
828.298	5337
828.437	5330
828.577	5322
828.716	5436
828.855	5372
828.994	5246
829.134	5128
829.273	5181
829.412	5140
829.551	5197
829.69	5128
829.829	5277
829.968	5376
830.107	5250
830.246	5307
830.385	5143
830.524	5143
830.663	5060
830.802	5010
830.941	4881
831.08	4858
831.219	4972
831.357	4942
831.496	5162
831.635	4896
831.774	4889
831.913	4862
832.051	4771
832.19	4774
832.329	4854
832.467	4748
832.606	4653
832.744	4706
832.883	4759
833.022	4736
833.16	4778
833.299	4820
833.437	4809
833.576	4854
833.714	4908
833.852	4820
833.991	4900
834.129	5010
834.267	4953
834.406	4908
834.544	4965
834.682	4972
834.821	4972
834.959	5220
835.097	5006
835.235	5170
835.373	5136
835.511	5128
835.65	5037
835.788	5083
835.926	4889
836.064	4835
836.202	4961
836.34	5151
836.478	5239
836.615	5132
836.753	5197
836.891	5292
837.029	5254
837.167	5242
837.305	5181
837.443	5212
837.58	4995
837.718	5280
837.856	5201
837.993	5159
838.131	5273
838.269	5189
838.406	5269
838.544	5223
838.681	5083
838.819	4999
838.956	4919
839.094	4957
839.231	4972
839.369	5132
839.506	5440
839.643	5296
839.781	5018
839.918	5010
840.055	5098
840.193	5128
840.33	5136
840.467	5204
840.604	5193
840.742	5463
840.879	5098
841.016	5105
841.153	5098
841.29	5429
841.427	5288
841.564	5288
841.701	5353
841.838	5227
841.975	5227
842.112	5288
842.249	5132
842.385	5117
842.522	5318
842.659	5143
842.796	5174
842.933	5208
843.069	5181
843.206	5166
843.343	5353
843.479	5250
843.616	5235
843.752	5029
843.889	5003
844.025	5269
844.162	5010
844.298	5220
844.435	5083
844.571	5052
844.708	5201
844.844	5284
844.98	5337
845.117	5280
845.253	5117
845.389	5098
845.525	5166
845.661	5193
845.798	5045
845.934	5128
846.07	5109
846.206	5189
846.342	5292
846.478	5193
846.614	5079
846.75	4980
846.886	4938
847.022	5166
847.158	5075
847.294	5029
847.429	5124
847.565	5071
847.701	5360
847.837	4850
847.972	4774
848.108	4980
848.244	4946
848.379	4774
848.515	4786
848.65	4771
848.786	4797
848.921	4805
849.057	4900
849.192	4870
849.328	4824
849.463	4820
849.598	4812
849.734	4748
849.869	4786
850.004	4626
850.14	4679
850.275	4603
850.41	4523
850.545	4569
850.68	4603
850.815	4618
850.95	4634
851.085	4820
851.22	4736
851.355	4675
851.49	4637
851.625	4573
851.76	4592
851.895	4531
852.03	4542
852.165	4641
852.299	4740
852.434	4786
852.569	4759
852.703	4767
852.838	4885
852.973	4923
853.107	4908
853.242	4733
853.376	4698
853.511	4558
853.645	4611
853.78	4767
853.914	4668
854.048	4710
854.183	4626
854.317	4744
854.451	4870
854.585	4637
854.72	4611
854.854	4759
854.988	4626
855.122	4672
855.256	4500
855.39	4672
855.524	4805
855.658	4744
855.792	4672
855.926	4717
856.06	4748
856.194	4828
856.327	4698
856.461	4664
856.595	4634
856.729	4634
856.862	4733
856.996	4698
857.13	4740
857.263	4752
857.397	4790
857.53	4634
857.664	4733
857.797	4759
857.931	4778
858.064	4675
858.197	4744
858.331	4664
858.464	4630
858.597	4523
858.731	4656
858.864	4691
858.997	4637
859.13	4679
859.263	4717
859.396	4683
859.529	4596
859.662	4618
859.795	4569
859.928	4577
860.061	4774
860.194	4793
860.327	4599
860.46	4546
860.592	4748
860.725	4759
860.858	4698
860.99	4607
861.123	4508
861.256	4519
861.388	4611
861.521	5326
861.653	4470
861.786	4485
861.918	4447
862.05	4577
862.183	4596
862.315	4603
862.447	4672
862.58	4580
862.712	4455
862.844	4360
862.976	4493
863.108	4428
863.24	4774
863.372	4333
863.504	4478
863.636	4417
863.768	4474
863.9	4436
864.032	4417
864.164	4428
864.296	4508
864.428	4565
864.559	4531
864.691	4531
864.823	4535
864.954	4481
865.086	4531
865.217	4421
865.349	4447
865.48	4470
865.612	4485
865.743	4569
865.875	4493
866.006	4424
866.137	4462
866.269	4424
866.4	4504
866.531	4405
866.662	4424
866.793	4405
866.924	4428
867.055	4561
867.186	4440
867.317	4398
867.448	4337
867.579	4428
867.71	4402
867.841	4356
867.972	4481
868.103	4447
868.233	4443
868.364	4508
868.495	4493
868.625	4687
868.756	4793
868.886	4607
869.017	4615
869.147	4763
869.278	4793
869.408	4683
869.539	4660
869.669	4714
869.799	4641
869.929	4790
870.06	4729
870.19	4965
870.32	4968
870.45	4965
870.58	4980
870.71	5105
870.84	5075
870.97	4930
871.1	4854
871.23	5109
871.36	5113
871.489	5022
871.619	5067
871.749	5113
871.879	5113
872.008	5151
872.138	5045
872.267	5018
872.397	4870
872.526	4820
872.656	4755
872.785	4831
872.915	4987
873.044	5048
873.173	4930
873.303	5025
873.432	4938
873.561	4946
873.69	4896
873.819	4885
873.948	4961
874.077	4881
874.206	4771
874.335	4763
874.464	4923
874.593	5079
874.722	4972
874.851	5098
874.979	5041
875.108	5048
875.237	4927
875.365	4911
875.494	4843
875.623	4999
875.751	4839
875.88	4854
876.008	4968
876.136	5056
876.265	5174
876.393	5318
876.521	5239
876.65	5239
876.778	5189
876.906	5075
877.034	5022
877.162	5113
877.29	4999
877.418	5033
877.546	5022
877.674	5056
877.802	5064
877.93	5033
878.058	4919
878.185	4881
878.313	4968
878.441	4972
878.568	4790
878.696	4896
878.824	4999
878.951	4987
879.079	5159
879.206	5311
879.333	5128
879.461	5006
879.588	5006
879.715	5121
879.842	5242
879.97	4968
880.097	4774
880.224	4767
880.351	4786
880.478	4824
880.605	4847
880.732	4786
880.859	5102
880.986	4911
881.112	4908
881.239	4812
881.366	4664
881.493	4653
881.619	4569
881.746	4611
881.872	4637
881.999	4656
882.125	4691
882.252	4809
882.378	4854
882.505	4957
882.631	4850
882.757	4694
882.883	4744
883.01	4748
883.136	4687
883.262	4615
883.388	4626
883.514	4820
883.64	4843
883.766	4778
883.892	4683
884.018	4706
884.143	4885
884.269	5022
884.395	4645
884.52	4626
884.646	4634
884.772	4637
884.897	4603
885.023	4660
885.148	4847
885.274	4873
885.399	4824
885.524	4725
885.65	4706
885.775	4752
885.9	4675
886.025	4870
886.15	4786
886.275	4736
886.4	4656
886.525	4755
886.65	4710
886.775	4748
886.9	4896
887.025	5086
887.149	4820
887.274	4637
887.399	4596
887.523	4622
887.648	4558
887.773	4588
887.897	4744
888.021	4744
888.146	4672
888.27	4889
888.395	4873
888.519	4816
888.643	4812
888.767	4854
888.891	4691
889.015	4634
889.139	4645
889.263	4611
889.387	4778
889.511	4858
889.635	4782
889.759	4702
889.883	4645
890.006	4729
890.13	4839
890.254	4679
890.377	4706
890.501	4565
890.624	4538
890.748	4622
890.871	4493
890.995	4474
891.118	4386
891.241	4512
891.364	4561
891.488	4637
891.611	4542
891.734	4531
891.857	4573
891.98	4599
892.103	4637
892.226	4637
892.349	4550
892.471	4447
892.594	4531
892.717	4634
892.839	4558
892.962	4622
893.085	4641
893.207	4630
893.33	4508
893.452	4493
893.575	4675
893.697	4603
893.819	4763
893.941	4847
894.064	4782
894.186	4637
894.308	4580
894.43	4744
894.552	4782
894.674	4759
894.796	4546
894.918	4584
895.04	4561
895.161	4714
895.283	4679
895.405	4577
895.526	4672
895.648	4706
895.769	4683
895.891	4698
896.012	4736
896.134	4729
896.255	4683
896.376	4660
896.498	4626
896.619	4721
896.74	4599
896.861	4622
896.982	4972
897.103	5113
897.224	4831
897.345	4805
897.466	4672
897.587	4752
897.708	4839
897.828	4763
897.949	4710
898.07	4592
898.19	4622
898.311	4812
898.431	4694
898.552	4782
898.672	4839
898.792	4839
898.913	4733
899.033	4561
899.153	4451
899.273	4413
899.393	4523
899.513	4535
899.633	4558
899.753	4535
899.873	4527
899.993	4580
900.113	4527
900.232	4603
900.352	4527
900.472	4474
900.591	4421
900.711	4504
900.83	4462
900.95	4596
901.069	4656
901.189	4592
901.308	4421
901.427	4306
901.546	4409
901.665	4447
901.784	4531
901.904	4405
902.023	4325
902.141	4166
902.26	4177
902.379	4261
902.498	4211
902.617	4249
902.735	4398
902.854	4417
902.973	4348
903.091	4261
903.21	4227
903.328	4299
903.446	4284
903.565	4246
903.683	4386
903.801	4303
903.919	4421
904.038	4447
904.156	4299
904.274	4394
904.392	4417
904.51	4455
904.627	4455
904.745	4565
904.863	4660
904.981	4371
905.098	4318
905.216	4390
905.334	4417
905.451	4459
905.569	4409
905.686	4527
905.803	4611
905.921	4466
906.038	4588
906.155	4462
906.272	4417
906.389	4497
906.506	4310
906.623	4402
906.74	4413
906.857	4303
906.974	4386
907.091	4500
907.208	4672
907.324	4584
907.441	4497
907.557	4367
907.674	4371
907.79	4348
907.907	4398
908.023	4512
908.139	4508
908.256	4398
908.372	4432
908.488	4478
908.604	4375
908.72	4287
908.836	4390
908.952	4356
909.068	4398
909.184	4599
909.3	4516
909.415	4580
909.531	4599
909.647	4356
909.762	4398
909.878	4367
909.993	4459
910.108	4436
910.224	4375
910.339	4497
910.454	4462
910.57	4375
910.685	4329
910.8	4637
910.915	4622
911.03	4485
911.145	4341
911.259	4337
911.374	4432
911.489	4276
911.604	4246
911.718	4173
911.833	4177
911.947	4063
912.062	4063
912.176	4207
912.291	4211
912.405	4211
912.519	4500
912.633	4508
912.748	4398
912.862	4325
912.976	4207
913.09	4124
913.204	4169
913.318	4215
913.431	4402
913.545	4367
913.659	4417
913.772	4367
913.886	4204
914	4242
914.113	4402
914.226	4451
914.34	4383
914.453	4249
914.566	4436
914.68	4287
914.793	4318
914.906	4124
915.019	4150
915.132	4055
915.245	4192
915.358	4219
915.47	4227
915.583	4272
915.696	4306
915.809	4405
915.921	4451
916.034	4291
916.146	4284
916.259	4211
916.371	4383
916.483	4363
916.595	4223
916.708	4341
916.82	4303
916.932	4310
917.044	4333
917.156	4306
917.268	4215
917.38	4299
917.491	4268
917.603	4371
917.715	4428
917.826	4424
917.938	4337
918.049	4223
918.161	4424
918.272	4519
918.384	4531
918.495	4447
918.606	4291
918.717	4196
918.828	4322
918.939	4394
919.05	4265
919.161	4348
919.272	4139
919.383	4257
919.494	4478
919.604	4656
919.715	4428
919.826	4390
919.936	4402
920.047	4523
920.157	4485
920.267	4694
920.378	4588
920.488	4580
920.598	4801
920.708	4911
920.818	4767
920.928	4767
921.038	4900
921.148	4938
921.258	4599
921.368	4523
921.477	4531
921.587	4390
921.697	4363
921.806	4603
921.916	4390
922.025	4295
922.134	4295
922.244	4207
922.353	4310
922.462	4211
922.571	4139
922.68	4055
922.789	3987
922.898	4074
923.007	4029
923.116	4097
923.224	4074
923.333	4101
923.442	4002
923.55	4040
923.659	4013
923.767	4131
923.876	4036
923.984	4112
924.092	4002
924.201	4071
924.309	4082
924.417	4128
924.525	4040
924.633	4112
924.741	4915
924.849	3892
924.956	4147
925.064	3960
925.172	3911
925.279	3975
925.387	4071
925.494	4029
925.602	4223
925.709	4185
925.816	4017
925.924	4135
926.031	4211
926.138	4173
926.245	4215
926.352	4082
926.459	4249
926.566	4322
926.673	4200
926.779	4051
926.886	4078
926.993	3968
927.099	3964
927.206	3930
927.312	3979
927.419	4055
927.525	3998
927.631	4101
927.737	3956
927.843	3983
927.95	3816
928.056	3937
928.162	4025
928.267	4055
928.373	4687
928.479	4120
928.585	3918
928.69	4002
928.796	4074
928.901	3975
929.007	3869
929.112	4029
929.218	3960
929.323	3953
929.428	3953
929.533	4135
929.638	3918
929.743	3987
929.848	4051
929.953	4025
930.058	3930
930.163	3800
930.267	3823
930.372	4002
930.477	3838
930.581	4097
930.685	3949
930.79	3819
930.894	3937
930.998	3827
931.103	4063
931.207	3675
931.311	3717
931.415	3633
931.519	3492
931.623	3572
