Data from test_V78500241_1553.txt Node
Date: Fri Mar 25 16:59:47 CST 2022
User: usil
Spectrometer: V785-0024
Trigger mode: 0
Integration Time (sec): 4.000000E-1
Scans to average: 1
Nonlinearity correction enabled: false
Boxcar width: 0
Storing dark spectrum: false
XAxis mode: Wavelengths
Number of Pixels in Spectrum: 1024
>>>>>Begin Spectral Data<<<<<
801.071	8027
801.214	8024
801.356	7822
801.499	7818
801.641	7795
801.783	7807
801.926	7928
802.068	7902
802.211	8020
802.353	7993
802.496	7890
802.638	7864
802.78	7940
802.923	7932
803.065	7833
803.208	7902
803.35	7940
803.492	8081
803.635	8172
803.777	7974
803.919	8100
804.061	8332
804.204	8157
804.346	7989
804.488	8027
804.63	8134
804.773	7936
804.915	8027
805.057	8320
805.199	8199
805.341	8202
805.483	8191
805.626	8199
805.768	8050
805.91	8221
806.052	8244
806.194	8092
806.336	8298
806.478	8138
806.62	8069
806.762	8142
806.904	8279
807.046	8469
807.188	8389
807.33	8256
807.472	8282
807.614	8088
807.756	8111
807.898	7890
808.04	7856
808.182	7898
808.324	7887
808.465	7959
808.607	8088
808.749	8153
808.891	8134
809.033	8256
809.174	8195
809.316	8065
809.458	8024
809.6	7951
809.741	7947
809.883	7928
810.025	8081
810.166	8005
810.308	8043
810.45	7974
810.591	7845
810.733	7715
810.875	7597
811.016	7480
811.158	7487
811.299	7571
811.441	7613
811.582	7628
811.724	7559
811.865	7529
812.007	7556
812.148	7605
812.29	7571
812.431	7712
812.573	7807
812.714	7909
812.855	8115
812.997	8164
813.138	8298
813.279	8195
813.421	7993
813.562	7986
813.703	7818
813.845	7731
813.986	7476
814.127	7202
814.268	7190
814.41	7225
814.551	7126
814.692	7251
814.833	7069
814.974	7065
815.115	7031
815.256	6970
815.397	6916
815.539	6928
815.68	6768
815.821	6779
815.962	6878
816.103	6772
816.244	6658
816.385	6551
816.526	6593
816.666	6483
816.807	6350
816.948	6380
817.089	6422
817.23	6391
817.371	6331
817.512	6380
817.653	6376
817.793	6350
817.934	6369
818.075	6426
818.216	6369
818.356	6372
818.497	6224
818.638	6098
818.778	6076
818.919	6106
819.06	6125
819.2	6311
819.341	6300
819.481	6289
819.622	6555
819.762	6715
819.903	6692
820.043	6544
820.184	6555
820.324	6566
820.465	6719
820.605	6707
820.746	6616
820.886	6506
821.026	6631
821.167	6681
821.307	6806
821.447	6757
821.588	6646
821.728	6479
821.868	6479
822.008	6338
822.149	6353
822.289	6361
822.429	6186
822.569	6038
822.709	6117
822.849	5874
822.99	5878
823.13	5912
823.27	5931
823.41	5786
823.55	5767
823.69	5737
823.83	5756
823.97	5657
824.11	5516
824.25	5528
824.389	5512
824.529	5581
824.669	5532
824.809	5596
824.949	5668
825.089	5585
825.228	5520
825.368	5345
825.508	5341
825.648	5303
825.787	5353
825.927	5357
826.067	5326
826.206	5269
826.346	5368
826.485	5436
826.625	5398
826.765	5497
826.904	5467
827.044	5242
827.183	5204
827.323	5121
827.462	5273
827.601	5140
827.741	5159
827.88	5185
828.02	5071
828.159	5212
828.298	5303
828.437	5311
828.577	5242
828.716	5497
828.855	5311
828.994	5132
829.134	5113
829.273	5231
829.412	5086
829.551	5113
829.69	5174
829.829	5220
829.968	5337
830.107	5250
830.246	5204
830.385	5151
830.524	5136
830.663	5048
830.802	4961
830.941	4862
831.08	4854
831.219	4968
831.357	4965
831.496	5098
831.635	4873
831.774	4801
831.913	4786
832.051	4706
832.19	4748
832.329	4847
832.467	4702
832.606	4599
832.744	4725
832.883	4679
833.022	4744
833.16	4740
833.299	4748
833.437	4839
833.576	4843
833.714	4850
833.852	4843
833.991	4885
834.129	4957
834.267	4961
834.406	4881
834.544	4885
834.682	4965
834.821	4968
834.959	5113
835.097	4991
835.235	5117
835.373	5022
835.511	5075
835.65	4995
835.788	5018
835.926	4927
836.064	4816
836.202	4881
836.34	5166
836.478	5181
836.615	5117
836.753	5208
836.891	5299
837.029	5197
837.167	5193
837.305	5170
837.443	5117
837.58	5071
837.718	5197
837.856	5128
837.993	5105
838.131	5239
838.269	5197
838.406	5185
838.544	5201
838.681	5052
838.819	4968
838.956	4870
839.094	4904
839.231	4961
839.369	5064
839.506	5376
839.643	5277
839.781	5045
839.918	5048
840.055	5075
840.193	5052
840.33	5083
840.467	5113
840.604	5143
840.742	5379
840.879	5056
841.016	5079
841.153	5113
841.29	5364
841.427	5337
841.564	5296
841.701	5345
841.838	5242
841.975	5231
842.112	5227
842.249	5189
842.385	5109
842.522	5303
842.659	5140
842.796	5140
842.933	5170
843.069	5132
843.206	5151
843.343	5296
843.479	5265
843.616	5269
843.752	5010
843.889	5006
844.025	5197
844.162	4991
844.298	5193
844.435	5090
844.571	5033
844.708	5166
844.844	5280
844.98	5341
845.117	5311
845.253	5147
845.389	5067
845.525	5155
845.661	5094
845.798	5052
845.934	5098
846.07	5025
846.206	5197
846.342	5231
846.478	5159
846.614	5010
846.75	4972
846.886	4938
847.022	5094
847.158	5037
847.294	5014
847.429	5178
847.565	5067
847.701	5269
847.837	4896
847.972	4831
848.108	4915
848.244	4900
848.379	4744
848.515	4702
848.65	4679
848.786	4721
848.921	4748
849.057	4831
849.192	4911
849.328	4752
849.463	4824
849.598	4782
849.734	4774
849.869	4702
850.004	4580
850.14	4664
850.275	4588
850.41	4546
850.545	4580
850.68	4599
850.815	4626
850.95	4622
851.085	4854
851.22	4763
851.355	4721
851.49	4637
851.625	4634
851.76	4653
851.895	4596
852.03	4500
852.165	4645
852.299	4736
852.434	4759
852.569	4740
852.703	4771
852.838	4870
852.973	4908
853.107	4927
853.242	4675
853.376	4717
853.511	4599
853.645	4618
853.78	4816
853.914	4649
854.048	4702
854.183	4687
854.317	4637
854.451	4801
854.585	4672
854.72	4641
854.854	4752
854.988	4592
855.122	4645
855.256	4504
855.39	4626
855.524	4752
855.658	4740
855.792	4683
855.926	4714
856.06	4733
856.194	4790
856.327	4698
856.461	4584
856.595	4580
856.729	4637
856.862	4755
856.996	4656
857.13	4725
857.263	4729
857.397	4847
857.53	4675
857.664	4691
857.797	4744
857.931	4809
858.064	4653
858.197	4763
858.331	4622
858.464	4615
858.597	4561
858.731	4611
858.864	4656
858.997	4554
859.13	4653
859.263	4668
859.396	4725
859.529	4569
859.662	4519
859.795	4577
859.928	4546
860.061	4763
860.194	4706
860.327	4588
860.46	4561
860.592	4653
860.725	4744
860.858	4683
860.99	4577
861.123	4504
861.256	4512
861.388	4592
861.521	5239
861.653	4485
861.786	4409
861.918	4443
862.05	4462
862.183	4565
862.315	4592
862.447	4710
862.58	4535
862.712	4371
862.844	4303
862.976	4440
863.108	4440
863.24	4717
863.372	4314
863.504	4428
863.636	4432
863.768	4462
863.9	4417
864.032	4291
864.164	4383
864.296	4409
864.428	4508
864.559	4565
864.691	4527
864.823	4497
864.954	4485
865.086	4474
865.217	4405
865.349	4402
865.48	4470
865.612	4462
865.743	4588
865.875	4455
866.006	4413
866.137	4443
866.269	4481
866.4	4451
866.531	4424
866.662	4371
866.793	4390
866.924	4424
867.055	4489
867.186	4451
867.317	4432
867.448	4383
867.579	4348
867.71	4329
867.841	4352
867.972	4462
868.103	4500
868.233	4462
868.364	4405
868.495	4493
868.625	4668
868.756	4721
868.886	4588
869.017	4558
869.147	4725
869.278	4744
869.408	4691
869.539	4611
869.669	4698
869.799	4637
869.929	4729
870.06	4733
870.19	4885
870.32	4927
870.45	4904
870.58	5029
870.71	5033
870.84	5075
870.97	4934
871.1	4957
871.23	5098
871.36	5143
871.489	5025
871.619	5052
871.749	5067
871.879	5124
872.008	5147
872.138	5041
872.267	4968
872.397	4873
872.526	4824
872.656	4675
872.785	4831
872.915	4942
873.044	4991
873.173	4923
873.303	4942
873.432	4919
873.561	4949
873.69	4885
873.819	4904
873.948	4885
874.077	4786
874.206	4736
874.335	4797
874.464	4930
874.593	5018
874.722	4972
874.851	5117
874.979	5113
875.108	4987
875.237	4984
875.365	4877
875.494	4889
875.623	4942
875.751	4820
875.88	4881
876.008	4976
876.136	5037
876.265	5185
876.393	5334
876.521	5189
876.65	5216
876.778	5147
876.906	5037
877.034	5006
877.162	5014
877.29	4995
877.418	5086
877.546	4984
877.674	5033
877.802	5006
877.93	4976
878.058	4949
878.185	4843
878.313	4953
878.441	4938
878.568	4793
878.696	4866
878.824	4927
878.951	5045
879.079	5098
879.206	5254
879.333	5067
879.461	4987
879.588	4949
879.715	5105
879.842	5235
879.97	4991
880.097	4774
880.224	4752
880.351	4850
880.478	4809
880.605	4812
880.732	4839
880.859	5029
880.986	4866
881.112	4908
881.239	4828
881.366	4634
881.493	4626
881.619	4577
881.746	4626
881.872	4683
881.999	4653
882.125	4710
882.252	4793
882.378	4797
882.505	4968
882.631	4786
882.757	4596
882.883	4786
883.01	4698
883.136	4656
883.262	4626
883.388	4599
883.514	4812
883.64	4862
883.766	4771
883.892	4653
884.018	4656
884.143	4835
884.269	4987
884.395	4649
884.52	4577
884.646	4683
884.772	4577
884.897	4558
885.023	4672
885.148	4793
885.274	4873
885.399	4744
885.524	4698
885.65	4710
885.775	4710
885.9	4736
886.025	4809
886.15	4771
886.275	4664
886.4	4637
886.525	4660
886.65	4698
886.775	4660
886.9	4866
887.025	4999
887.149	4755
887.274	4664
887.399	4573
887.523	4607
887.648	4527
887.773	4607
887.897	4752
888.021	4774
888.146	4615
888.27	4809
888.395	4919
888.519	4812
888.643	4805
888.767	4847
888.891	4683
889.015	4603
889.139	4660
889.263	4603
889.387	4767
889.511	4850
889.635	4793
889.759	4637
889.883	4679
890.006	4634
890.13	4774
890.254	4603
890.377	4679
890.501	4542
890.624	4519
890.748	4603
890.871	4527
890.995	4432
891.118	4394
891.241	4516
891.364	4500
891.488	4603
891.611	4436
891.734	4558
891.857	4599
891.98	4542
892.103	4649
892.226	4573
892.349	4561
892.471	4383
892.594	4558
892.717	4611
892.839	4512
892.962	4588
893.085	4649
893.207	4550
893.33	4466
893.452	4527
893.575	4615
893.697	4569
893.819	4767
893.941	4828
894.064	4759
894.186	4554
894.308	4611
894.43	4672
894.552	4805
894.674	4736
894.796	4565
894.918	4603
895.04	4542
895.161	4672
895.283	4653
895.405	4588
895.526	4615
895.648	4733
895.769	4634
895.891	4721
896.012	4725
896.134	4755
896.255	4649
896.376	4660
896.498	4580
896.619	4656
896.74	4569
896.861	4611
896.982	4923
897.103	5075
897.224	4816
897.345	4714
897.466	4649
897.587	4710
897.708	4839
897.828	4774
897.949	4637
898.07	4577
898.19	4611
898.311	4835
898.431	4679
898.552	4698
898.672	4782
898.792	4801
898.913	4725
899.033	4687
899.153	4535
899.273	4421
899.393	4466
899.513	4512
899.633	4519
899.753	4535
899.873	4500
899.993	4565
900.113	4542
900.232	4603
900.352	4538
900.472	4470
900.591	4398
900.711	4478
900.83	4432
900.95	4542
901.069	4706
901.189	4516
901.308	4390
901.427	4310
901.546	4383
901.665	4413
901.784	4489
901.904	4386
902.023	4299
902.141	4173
902.26	4143
902.379	4306
902.498	4246
902.617	4207
902.735	4398
902.854	4421
902.973	4325
903.091	4192
903.21	4207
903.328	4242
903.446	4261
903.565	4238
903.683	4337
903.801	4272
903.919	4337
904.038	4432
904.156	4276
904.274	4455
904.392	4405
904.51	4440
904.627	4451
904.745	4588
904.863	4656
904.981	4440
905.098	4287
905.216	4363
905.334	4409
905.451	4398
905.569	4462
905.686	4550
905.803	4573
905.921	4371
906.038	4497
906.155	4432
906.272	4383
906.389	4455
906.506	4299
906.623	4322
906.74	4383
906.857	4295
906.974	4379
907.091	4535
907.208	4626
907.324	4508
907.441	4500
907.557	4314
907.674	4314
907.79	4299
907.907	4390
908.023	4436
908.139	4443
908.256	4383
908.372	4508
908.488	4383
908.604	4284
908.72	4268
908.836	4386
908.952	4383
909.068	4424
909.184	4538
909.3	4489
909.415	4577
909.531	4550
909.647	4344
909.762	4363
909.878	4310
909.993	4409
910.108	4436
910.224	4375
910.339	4466
910.454	4356
910.57	4322
910.685	4265
910.8	4653
910.915	4550
911.03	4447
911.145	4341
911.259	4299
911.374	4333
911.489	4299
911.604	4265
911.718	4154
911.833	4185
911.947	4101
912.062	4067
912.176	4177
912.291	4249
912.405	4299
912.519	4485
912.633	4466
912.748	4383
912.862	4303
912.976	4211
913.09	4112
913.204	4181
913.318	4238
913.431	4386
913.545	4363
913.659	4462
913.772	4352
913.886	4249
914	4272
914.113	4402
914.226	4409
914.34	4386
914.453	4253
914.566	4417
914.68	4322
914.793	4322
914.906	4166
915.019	4101
915.132	4086
915.245	4204
915.358	4261
915.47	4265
915.583	4299
915.696	4337
915.809	4409
915.921	4462
916.034	4303
916.146	4268
916.259	4246
916.371	4424
916.483	4436
916.595	4303
916.708	4367
916.82	4363
916.932	4348
917.044	4341
917.156	4383
917.268	4268
917.38	4322
917.491	4314
917.603	4379
917.715	4428
917.826	4478
917.938	4379
918.049	4272
918.161	4428
918.272	4558
918.384	4550
918.495	4462
918.606	4291
918.717	4299
918.828	4375
918.939	4428
919.05	4348
919.161	4375
919.272	4154
919.383	4249
919.494	4500
919.604	4649
919.715	4455
919.826	4367
919.936	4405
920.047	4561
920.157	4504
920.267	4816
920.378	4592
920.488	4497
920.598	4778
920.708	4930
920.818	4786
920.928	4778
921.038	4991
921.148	4896
921.258	4672
921.368	4618
921.477	4497
921.587	4523
921.697	4398
921.806	4550
921.916	4478
922.025	4257
922.134	4306
922.244	4257
922.353	4329
922.462	4158
922.571	4158
922.68	4040
922.789	4044
922.898	4067
923.007	4017
923.116	4139
923.224	4093
923.333	4093
923.442	4040
923.55	3987
923.659	4010
923.767	4181
923.876	4013
923.984	4124
924.092	4010
924.201	4143
924.309	4185
924.417	4131
924.525	4105
924.633	4131
924.741	4877
924.849	3903
924.956	4128
925.064	4040
925.172	3945
925.279	3953
925.387	4074
925.494	4067
925.602	4272
925.709	4204
925.816	4097
925.924	4181
926.031	4234
926.138	4219
926.245	4242
926.352	4097
926.459	4291
926.566	4344
926.673	4207
926.779	4120
926.886	4101
926.993	4032
927.099	3983
927.206	3956
927.312	3972
927.419	4063
927.525	4071
927.631	4139
927.737	4006
927.843	3979
927.95	3876
928.056	4006
928.162	4010
928.267	4044
928.373	4592
928.479	4192
928.585	3926
928.69	4021
928.796	4112
928.901	3994
929.007	3857
929.112	4029
929.218	3979
929.323	3994
929.428	3956
929.533	4135
929.638	3953
929.743	4025
929.848	4029
929.953	4021
930.058	3953
930.163	3816
930.267	3884
930.372	3972
930.477	3800
930.581	4090
930.685	3964
930.79	3876
930.894	3918
930.998	3857
931.103	4078
931.207	3778
931.311	3713
931.415	3724
931.519	3530
931.623	3591
