Data from test_V78500241_773.txt Node
Date: Fri Mar 25 16:54:22 CST 2022
User: usil
Spectrometer: V785-0024
Trigger mode: 0
Integration Time (sec): 4.000000E-1
Scans to average: 1
Nonlinearity correction enabled: false
Boxcar width: 0
Storing dark spectrum: false
XAxis mode: Wavelengths
Number of Pixels in Spectrum: 1024
>>>>>Begin Spectral Data<<<<<
801.071	7982
801.214	7955
801.356	7868
801.499	7902
801.641	7776
801.783	7769
801.926	8012
802.068	7921
802.211	7993
802.353	7989
802.496	7871
802.638	7879
802.78	7894
802.923	7860
803.065	7833
803.208	7917
803.35	7951
803.492	8123
803.635	8126
803.777	7951
803.919	8081
804.061	8431
804.204	8092
804.346	7974
804.488	7947
804.63	8092
804.773	8024
804.915	8119
805.057	8237
805.199	8062
805.341	8168
805.483	8271
805.626	8233
805.768	8065
805.91	8218
806.052	8164
806.194	8103
806.336	8237
806.478	8073
806.62	8008
806.762	8107
806.904	8225
807.046	8423
807.188	8320
807.33	8248
807.472	8275
807.614	8191
807.756	8073
807.898	7993
808.04	7849
808.182	7849
808.324	7879
808.465	7875
808.607	8031
808.749	8111
808.891	8130
809.033	8290
809.174	8153
809.316	8043
809.458	8100
809.6	8024
809.741	8088
809.883	7989
810.025	8107
810.166	8073
810.308	8069
810.45	8031
810.591	7814
810.733	7666
810.875	7689
811.016	7567
811.158	7506
811.299	7620
811.441	7704
811.582	7632
811.724	7582
811.865	7499
812.007	7525
812.148	7544
812.29	7582
812.431	7704
812.573	7784
812.714	7967
812.855	8092
812.997	8229
813.138	8290
813.279	8119
813.421	8145
813.562	7993
813.703	7887
813.845	7738
813.986	7426
814.127	7305
814.268	7278
814.41	7118
814.551	7122
814.692	7118
814.833	7015
814.974	7042
815.115	7069
815.256	6966
815.397	6890
815.539	6954
815.68	6844
815.821	6795
815.962	6810
816.103	6825
816.244	6677
816.385	6631
816.526	6658
816.666	6486
816.807	6262
816.948	6372
817.089	6452
817.23	6384
817.371	6369
817.512	6331
817.653	6407
817.793	6399
817.934	6464
818.075	6437
818.216	6357
818.356	6361
818.497	6247
818.638	6079
818.778	6140
818.919	6060
819.06	6136
819.2	6292
819.341	6277
819.481	6289
819.622	6502
819.762	6719
819.903	6719
820.043	6563
820.184	6502
820.324	6528
820.465	6620
820.605	6642
820.746	6570
820.886	6502
821.026	6669
821.167	6658
821.307	6779
821.447	6753
821.588	6662
821.728	6544
821.868	6422
822.008	6270
822.149	6350
822.289	6388
822.429	6144
822.569	6076
822.709	6083
822.849	5901
822.99	5931
823.13	5893
823.27	5923
823.41	5771
823.55	5790
823.69	5756
823.83	5790
823.97	5657
824.11	5509
824.25	5490
824.389	5505
824.529	5547
824.669	5493
824.809	5592
824.949	5649
825.089	5600
825.228	5486
825.368	5410
825.508	5334
825.648	5357
825.787	5387
825.927	5364
826.067	5299
826.206	5288
826.346	5379
826.485	5353
826.625	5402
826.765	5524
826.904	5452
827.044	5239
827.183	5189
827.323	5086
827.462	5208
827.601	5121
827.741	5166
827.88	5193
828.02	5071
828.159	5235
828.298	5273
828.437	5318
828.577	5261
828.716	5459
828.855	5337
828.994	5174
829.134	5166
829.273	5220
829.412	5094
829.551	5124
829.69	5128
829.829	5204
829.968	5326
830.107	5303
830.246	5261
830.385	5113
830.524	5117
830.663	5037
830.802	4972
830.941	4847
831.08	4828
831.219	4953
831.357	4930
831.496	5143
831.635	4942
831.774	4835
831.913	4820
832.051	4698
832.19	4793
832.329	4858
832.467	4683
832.606	4622
832.744	4691
832.883	4736
833.022	4714
833.16	4854
833.299	4873
833.437	4755
833.576	4812
833.714	4889
833.852	4847
833.991	4892
834.129	4953
834.267	4930
834.406	4870
834.544	4946
834.682	5006
834.821	4934
834.959	5136
835.097	4984
835.235	5109
835.373	5079
835.511	5109
835.65	5064
835.788	4999
835.926	4915
836.064	4847
836.202	4904
836.34	5181
836.478	5159
836.615	5117
836.753	5155
836.891	5265
837.029	5235
837.167	5220
837.305	5128
837.443	5170
837.58	5079
837.718	5239
837.856	5185
837.993	5132
838.131	5269
838.269	5223
838.406	5223
838.544	5189
838.681	5052
838.819	5010
838.956	4839
839.094	4862
839.231	4999
839.369	5029
839.506	5364
839.643	5242
839.781	5048
839.918	4972
840.055	5083
840.193	5090
840.33	5098
840.467	5155
840.604	5208
840.742	5410
840.879	5124
841.016	5121
841.153	5124
841.29	5315
841.427	5360
841.564	5299
841.701	5360
841.838	5261
841.975	5265
842.112	5239
842.249	5060
842.385	5121
842.522	5292
842.659	5174
842.796	5136
842.933	5250
843.069	5143
843.206	5216
843.343	5265
843.479	5223
843.616	5258
843.752	5025
843.889	5060
844.025	5178
844.162	4976
844.298	5231
844.435	5048
844.571	5006
844.708	5178
844.844	5315
844.98	5353
845.117	5296
845.253	5067
845.389	5041
845.525	5208
845.661	5140
845.798	5010
845.934	5109
846.07	5048
846.206	5227
846.342	5223
846.478	5136
846.614	5056
846.75	4949
846.886	4942
847.022	5105
847.158	5010
847.294	5083
847.429	5094
847.565	5010
847.701	5277
847.837	4885
847.972	4831
848.108	4942
848.244	4908
848.379	4782
848.515	4748
848.65	4733
848.786	4790
848.921	4793
849.057	4824
849.192	4908
849.328	4774
849.463	4850
849.598	4774
849.734	4774
849.869	4702
850.004	4565
850.14	4668
850.275	4615
850.41	4489
850.545	4527
850.68	4603
850.815	4561
850.95	4611
851.085	4847
851.22	4763
851.355	4656
851.49	4634
851.625	4630
851.76	4622
851.895	4550
852.03	4523
852.165	4694
852.299	4645
852.434	4759
852.569	4733
852.703	4744
852.838	4809
852.973	4892
853.107	4881
853.242	4733
853.376	4687
853.511	4481
853.645	4592
853.78	4824
853.914	4694
854.048	4675
854.183	4656
854.317	4660
854.451	4866
854.585	4622
854.72	4679
854.854	4740
854.988	4618
855.122	4626
855.256	4523
855.39	4649
855.524	4767
855.658	4706
855.792	4694
855.926	4702
856.06	4725
856.194	4790
856.327	4687
856.461	4618
856.595	4649
856.729	4603
856.862	4698
856.996	4672
857.13	4736
857.263	4790
857.397	4820
857.53	4683
857.664	4717
857.797	4729
857.931	4797
858.064	4675
858.197	4721
858.331	4637
858.464	4588
858.597	4493
858.731	4588
858.864	4603
858.997	4554
859.13	4637
859.263	4679
859.396	4725
859.529	4519
859.662	4561
859.795	4523
859.928	4622
860.061	4744
860.194	4763
860.327	4618
860.46	4538
860.592	4721
860.725	4710
860.858	4740
860.99	4618
861.123	4531
861.256	4550
861.388	4649
861.521	5360
861.653	4474
861.786	4405
861.918	4413
862.05	4508
862.183	4538
862.315	4588
862.447	4668
862.58	4546
862.712	4352
862.844	4341
862.976	4466
863.108	4451
863.24	4892
863.372	4310
863.504	4394
863.636	4409
863.768	4497
863.9	4462
864.032	4363
864.164	4447
864.296	4409
864.428	4538
864.559	4558
864.691	4519
864.823	4542
864.954	4462
865.086	4497
865.217	4440
865.349	4443
865.48	4466
865.612	4523
865.743	4615
865.875	4413
866.006	4432
866.137	4485
866.269	4451
866.4	4470
866.531	4451
866.662	4409
866.793	4405
866.924	4383
867.055	4512
867.186	4428
867.317	4360
867.448	4329
867.579	4367
867.71	4363
867.841	4333
867.972	4432
868.103	4493
868.233	4459
868.364	4455
868.495	4489
868.625	4664
868.756	4729
868.886	4535
869.017	4634
869.147	4771
869.278	4797
869.408	4622
869.539	4592
869.669	4683
869.799	4672
869.929	4790
870.06	4782
870.19	4968
870.32	4908
870.45	4919
870.58	5010
870.71	5052
870.84	5045
870.97	4968
871.1	4892
871.23	5102
871.36	5124
871.489	4999
871.619	5075
871.749	5098
871.879	5159
872.008	5189
872.138	5014
872.267	4976
872.397	4809
872.526	4828
872.656	4691
872.785	4786
872.915	4911
873.044	5033
873.173	4911
873.303	4938
873.432	4946
873.561	4987
873.69	4854
873.819	4850
873.948	4908
874.077	4809
874.206	4714
874.335	4786
874.464	4957
874.593	5075
874.722	4919
874.851	5105
874.979	5060
875.108	5014
875.237	4877
875.365	4862
875.494	4858
875.623	4949
875.751	4755
875.88	4881
876.008	4995
876.136	5025
876.265	5193
876.393	5326
876.521	5242
876.65	5178
876.778	5170
876.906	5075
877.034	5064
877.162	5075
877.29	4995
877.418	5052
877.546	5064
877.674	5060
877.802	4995
877.93	4957
878.058	4942
878.185	4850
878.313	4961
878.441	4919
878.568	4786
878.696	4835
878.824	4961
878.951	4968
879.079	5105
879.206	5318
879.333	5064
879.461	4972
879.588	4991
879.715	5128
879.842	5204
879.97	4980
880.097	4805
880.224	4729
880.351	4850
880.478	4862
880.605	4850
880.732	4759
880.859	5060
880.986	4881
881.112	4915
881.239	4771
881.366	4656
881.493	4580
881.619	4622
881.746	4664
881.872	4618
881.999	4664
882.125	4710
882.252	4793
882.378	4801
882.505	4957
882.631	4797
882.757	4672
882.883	4702
883.01	4755
883.136	4714
883.262	4535
883.388	4603
883.514	4824
883.64	4881
883.766	4816
883.892	4660
884.018	4736
884.143	4889
884.269	5025
884.395	4656
884.52	4607
884.646	4603
884.772	4607
884.897	4550
885.023	4675
885.148	4793
885.274	4919
885.399	4816
885.524	4733
885.65	4717
885.775	4748
885.9	4729
886.025	4877
886.15	4778
886.275	4752
886.4	4649
886.525	4687
886.65	4710
886.775	4687
886.9	4847
887.025	4987
887.149	4839
887.274	4641
887.399	4592
887.523	4584
887.648	4592
887.773	4554
887.897	4748
888.021	4767
888.146	4634
888.27	4805
888.395	4885
888.519	4793
888.643	4828
888.767	4843
888.891	4706
889.015	4672
889.139	4660
889.263	4603
889.387	4782
889.511	4854
889.635	4778
889.759	4603
889.883	4649
890.006	4683
890.13	4858
890.254	4603
890.377	4656
890.501	4565
890.624	4474
890.748	4637
890.871	4516
890.995	4459
891.118	4402
891.241	4462
891.364	4573
891.488	4656
891.611	4535
891.734	4527
891.857	4554
891.98	4527
892.103	4580
892.226	4573
892.349	4580
892.471	4409
892.594	4558
892.717	4622
892.839	4584
892.962	4622
893.085	4664
893.207	4588
893.33	4428
893.452	4527
893.575	4660
893.697	4603
893.819	4801
893.941	4862
894.064	4744
894.186	4588
894.308	4577
894.43	4755
894.552	4763
894.674	4755
894.796	4546
894.918	4588
895.04	4565
895.161	4717
895.283	4637
895.405	4584
895.526	4618
895.648	4660
895.769	4664
895.891	4721
896.012	4748
896.134	4702
896.255	4675
896.376	4588
896.498	4584
896.619	4694
896.74	4599
896.861	4645
896.982	4942
897.103	5086
897.224	4812
897.345	4740
897.466	4710
897.587	4736
897.708	4908
897.828	4763
897.949	4679
898.07	4554
898.19	4645
898.311	4816
898.431	4702
898.552	4767
898.672	4866
898.792	4797
898.913	4763
899.033	4649
899.153	4481
899.273	4455
899.393	4478
899.513	4493
899.633	4561
899.753	4546
899.873	4478
899.993	4569
900.113	4516
900.232	4592
900.352	4577
900.472	4504
900.591	4447
900.711	4447
900.83	4455
900.95	4615
901.069	4637
901.189	4577
901.308	4367
901.427	4356
901.546	4337
901.665	4440
901.784	4546
901.904	4363
902.023	4291
902.141	4215
902.26	4154
902.379	4303
902.498	4234
902.617	4257
902.735	4379
902.854	4348
902.973	4306
903.091	4219
903.21	4204
903.328	4299
903.446	4265
903.565	4234
903.683	4314
903.801	4329
903.919	4436
904.038	4398
904.156	4295
904.274	4424
904.392	4390
904.51	4424
904.627	4519
904.745	4584
904.863	4592
904.981	4386
905.098	4284
905.216	4360
905.334	4432
905.451	4386
905.569	4424
905.686	4561
905.803	4493
905.921	4394
906.038	4588
906.155	4485
906.272	4360
906.389	4443
906.506	4367
906.623	4386
906.74	4356
906.857	4295
906.974	4352
907.091	4558
907.208	4668
907.324	4577
907.441	4481
907.557	4341
907.674	4352
907.79	4306
907.907	4405
908.023	4474
908.139	4493
908.256	4379
908.372	4512
908.488	4455
908.604	4348
908.72	4329
908.836	4337
908.952	4348
909.068	4428
909.184	4569
909.3	4447
909.415	4546
909.531	4565
909.647	4363
909.762	4348
909.878	4341
909.993	4436
910.108	4440
910.224	4424
910.339	4478
910.454	4386
910.57	4348
910.685	4325
910.8	4664
910.915	4592
911.03	4447
911.145	4287
911.259	4303
911.374	4360
911.489	4299
911.604	4268
911.718	4181
911.833	4196
911.947	4086
912.062	4029
912.176	4234
912.291	4219
912.405	4268
912.519	4440
912.633	4538
912.748	4318
912.862	4291
912.976	4215
913.09	4101
913.204	4185
913.318	4265
913.431	4371
913.545	4390
913.659	4417
913.772	4398
913.886	4242
914	4249
914.113	4371
914.226	4447
914.34	4417
914.453	4242
914.566	4493
914.68	4344
914.793	4322
914.906	4211
915.019	4116
915.132	4086
915.245	4188
915.358	4211
915.47	4219
915.583	4249
915.696	4272
915.809	4405
915.921	4363
916.034	4265
916.146	4276
916.259	4238
916.371	4394
916.483	4367
916.595	4234
916.708	4360
916.82	4303
916.932	4318
917.044	4318
917.156	4325
917.268	4238
917.38	4333
917.491	4249
917.603	4341
917.715	4367
917.826	4421
917.938	4371
918.049	4249
918.161	4379
918.272	4500
918.384	4531
918.495	4455
918.606	4299
918.717	4185
918.828	4325
918.939	4375
919.05	4234
919.161	4306
919.272	4097
919.383	4257
919.494	4379
919.604	4618
919.715	4394
919.826	4337
919.936	4383
920.047	4516
920.157	4512
920.267	4656
920.378	4550
920.488	4466
920.598	4710
920.708	4862
920.818	4759
920.928	4778
921.038	4938
921.148	4930
921.258	4596
921.368	4569
921.477	4493
921.587	4500
921.697	4344
921.806	4565
921.916	4398
922.025	4234
922.134	4242
922.244	4177
922.353	4291
922.462	4131
922.571	4135
922.68	3994
922.789	3953
922.898	4051
923.007	4036
923.116	4082
923.224	4029
923.333	4048
923.442	4021
923.55	3994
923.659	4010
923.767	4109
923.876	3998
923.984	4112
924.092	3968
924.201	4124
924.309	4078
924.417	4116
924.525	4078
924.633	4120
924.741	4919
924.849	3915
924.956	4158
925.064	3911
925.172	3876
925.279	3960
925.387	4071
925.494	3994
925.602	4211
925.709	4188
925.816	4036
925.924	4078
926.031	4177
926.138	4192
926.245	4211
926.352	4097
926.459	4284
926.566	4287
926.673	4139
926.779	4044
926.886	4055
926.993	4025
927.099	3964
927.206	3964
927.312	3991
927.419	4017
927.525	4044
927.631	4101
927.737	3983
927.843	3953
927.95	3850
928.056	3960
928.162	4029
928.267	4093
928.373	4618
928.479	4101
928.585	3854
928.69	3987
928.796	4036
928.901	3934
929.007	3827
929.112	4021
929.218	3987
929.323	3903
929.428	3960
929.533	4101
929.638	3960
929.743	3964
929.848	4021
929.953	3979
930.058	3922
930.163	3736
930.267	3835
930.372	3979
930.477	3827
930.581	4048
930.685	3937
930.79	3808
930.894	3857
930.998	3842
931.103	4036
931.207	3717
931.311	3656
931.415	3660
931.519	3530
931.623	3561
