Data from test_V78500241_709.txt Node
Date: Fri Mar 25 16:53:55 CST 2022
User: usil
Spectrometer: V785-0024
Trigger mode: 0
Integration Time (sec): 4.000000E-1
Scans to average: 1
Nonlinearity correction enabled: false
Boxcar width: 0
Storing dark spectrum: false
XAxis mode: Wavelengths
Number of Pixels in Spectrum: 1024
>>>>>Begin Spectral Data<<<<<
801.071	7997
801.214	8046
801.356	7940
801.499	7944
801.641	7799
801.783	7868
801.926	8035
802.068	8008
802.211	7997
802.353	7993
802.496	7944
802.638	7894
802.78	7940
802.923	7921
803.065	7902
803.208	7871
803.35	7955
803.492	8244
803.635	8176
803.777	8077
803.919	8065
804.061	8450
804.204	8062
804.346	8073
804.488	7967
804.63	8123
804.773	8050
804.915	8119
805.057	8256
805.199	8161
805.341	8176
805.483	8195
805.626	8275
805.768	8115
805.91	8240
806.052	8161
806.194	8084
806.336	8294
806.478	8107
806.62	8024
806.762	8180
806.904	8267
807.046	8511
807.188	8377
807.33	8336
807.472	8286
807.614	8157
807.756	8073
807.898	7947
808.04	7799
808.182	7871
808.324	7951
808.465	7932
808.607	8035
808.749	8065
808.891	8119
809.033	8275
809.174	8210
809.316	8088
809.458	8119
809.6	8062
809.741	8077
809.883	8050
810.025	8077
810.166	8088
810.308	8046
810.45	7970
810.591	7883
810.733	7738
810.875	7670
811.016	7544
811.158	7499
811.299	7609
811.441	7708
811.582	7674
811.724	7483
811.865	7571
812.007	7609
812.148	7613
812.29	7556
812.431	7708
812.573	7852
812.714	7936
812.855	8145
812.997	8142
813.138	8298
813.279	8180
813.421	8107
813.562	8069
813.703	8027
813.845	7795
813.986	7460
814.127	7263
814.268	7266
814.41	7183
814.551	7183
814.692	7152
814.833	7034
814.974	7038
815.115	7141
815.256	6996
815.397	6981
815.539	6996
815.68	6863
815.821	6829
815.962	6882
816.103	6837
816.244	6703
816.385	6604
816.526	6631
816.666	6528
816.807	6319
816.948	6456
817.089	6441
817.23	6490
817.371	6426
817.512	6399
817.653	6418
817.793	6460
817.934	6437
818.075	6456
818.216	6365
818.356	6372
818.497	6209
818.638	6095
818.778	6175
818.919	6110
819.06	6148
819.2	6308
819.341	6270
819.481	6384
819.622	6544
819.762	6741
819.903	6684
820.043	6555
820.184	6502
820.324	6574
820.465	6642
820.605	6631
820.746	6563
820.886	6532
821.026	6692
821.167	6692
821.307	6837
821.447	6798
821.588	6658
821.728	6532
821.868	6490
822.008	6331
822.149	6346
822.289	6319
822.429	6152
822.569	6129
822.709	6102
822.849	5908
822.99	5901
823.13	5897
823.27	5901
823.41	5794
823.55	5786
823.69	5729
823.83	5737
823.97	5695
824.11	5512
824.25	5516
824.389	5524
824.529	5608
824.669	5493
824.809	5630
824.949	5745
825.089	5672
825.228	5604
825.368	5406
825.508	5330
825.648	5395
825.787	5402
825.927	5364
826.067	5296
826.206	5292
826.346	5383
826.485	5463
826.625	5368
826.765	5539
826.904	5490
827.044	5239
827.183	5166
827.323	5121
827.462	5250
827.601	5178
827.741	5136
827.88	5216
828.02	5071
828.159	5208
828.298	5345
828.437	5425
828.577	5296
828.716	5452
828.855	5360
828.994	5170
829.134	5121
829.273	5201
829.412	5102
829.551	5128
829.69	5189
829.829	5254
829.968	5360
830.107	5220
830.246	5258
830.385	5208
830.524	5136
830.663	5086
830.802	4987
830.941	4934
831.08	4873
831.219	5006
831.357	4968
831.496	5185
831.635	4915
831.774	4858
831.913	4873
832.051	4729
832.19	4763
832.329	4847
832.467	4717
832.606	4603
832.744	4710
832.883	4683
833.022	4725
833.16	4782
833.299	4850
833.437	4790
833.576	4831
833.714	4866
833.852	4877
833.991	4942
834.129	4957
834.267	4930
834.406	4972
834.544	4976
834.682	4953
834.821	4946
834.959	5140
835.097	4999
835.235	5159
835.373	5083
835.511	5147
835.65	5033
835.788	4999
835.926	4934
836.064	4843
836.202	4881
836.34	5151
836.478	5216
836.615	5151
836.753	5185
836.891	5326
837.029	5292
837.167	5181
837.305	5162
837.443	5143
837.58	5090
837.718	5212
837.856	5231
837.993	5117
838.131	5250
838.269	5216
838.406	5181
838.544	5159
838.681	5029
838.819	5014
838.956	4858
839.094	4904
839.231	4953
839.369	5136
839.506	5452
839.643	5284
839.781	5121
839.918	5041
840.055	5064
840.193	5064
840.33	5136
840.467	5185
840.604	5162
840.742	5395
840.879	5037
841.016	5098
841.153	5132
841.29	5334
841.427	5337
841.564	5307
841.701	5379
841.838	5307
841.975	5197
842.112	5315
842.249	5147
842.385	5075
842.522	5322
842.659	5181
842.796	5159
842.933	5204
843.069	5166
843.206	5109
843.343	5288
843.479	5280
843.616	5299
843.752	5014
843.889	5045
844.025	5193
844.162	5006
844.298	5227
844.435	5048
844.571	5003
844.708	5193
844.844	5326
844.98	5379
845.117	5303
845.253	5151
845.389	5052
845.525	5166
845.661	5216
845.798	4991
845.934	5128
846.07	5117
846.206	5201
846.342	5334
846.478	5193
846.614	5014
846.75	5003
846.886	4968
847.022	5094
847.158	5060
847.294	5071
847.429	5083
847.565	5045
847.701	5311
847.837	4809
847.972	4831
848.108	4915
848.244	4904
848.379	4839
848.515	4717
848.65	4698
848.786	4714
848.921	4809
849.057	4908
849.192	4915
849.328	4793
849.463	4873
849.598	4828
849.734	4759
849.869	4752
850.004	4615
850.14	4653
850.275	4599
850.41	4519
850.545	4584
850.68	4622
850.815	4660
850.95	4645
851.085	4816
851.22	4763
851.355	4675
851.49	4672
851.625	4668
851.76	4649
851.895	4596
852.03	4481
852.165	4668
852.299	4755
852.434	4782
852.569	4744
852.703	4778
852.838	4854
852.973	4919
853.107	4930
853.242	4767
853.376	4691
853.511	4565
853.645	4660
853.78	4812
853.914	4679
854.048	4679
854.183	4634
854.317	4744
854.451	4862
854.585	4755
854.72	4706
854.854	4793
854.988	4611
855.122	4714
855.256	4569
855.39	4725
855.524	4801
855.658	4782
855.792	4729
855.926	4748
856.06	4793
856.194	4805
856.327	4691
856.461	4615
856.595	4672
856.729	4675
856.862	4801
856.996	4755
857.13	4782
857.263	4755
857.397	4828
857.53	4668
857.664	4755
857.797	4774
857.931	4797
858.064	4729
858.197	4771
858.331	4691
858.464	4668
858.597	4599
858.731	4706
858.864	4634
858.997	4653
859.13	4736
859.263	4717
859.396	4744
859.529	4645
859.662	4577
859.795	4538
859.928	4672
860.061	4816
860.194	4812
860.327	4649
860.46	4588
860.592	4763
860.725	4725
860.858	4771
860.99	4615
861.123	4535
861.256	4592
861.388	4630
861.521	5425
861.653	4519
861.786	4474
861.918	4504
862.05	4523
862.183	4596
862.315	4588
862.447	4687
862.58	4584
862.712	4459
862.844	4363
862.976	4497
863.108	4504
863.24	4946
863.372	4352
863.504	4436
863.636	4428
863.768	4519
863.9	4440
864.032	4367
864.164	4409
864.296	4512
864.428	4580
864.559	4554
864.691	4546
864.823	4561
864.954	4535
865.086	4569
865.217	4504
865.349	4478
865.48	4535
865.612	4527
865.743	4660
865.875	4512
866.006	4451
866.137	4504
866.269	4489
866.4	4478
866.531	4478
866.662	4405
866.793	4417
866.924	4455
867.055	4508
867.186	4474
867.317	4504
867.448	4451
867.579	4432
867.71	4409
867.841	4371
867.972	4523
868.103	4481
868.233	4489
868.364	4478
868.495	4523
868.625	4649
868.756	4793
868.886	4588
869.017	4672
869.147	4755
869.278	4771
869.408	4702
869.539	4653
869.669	4755
869.799	4714
869.929	4793
870.06	4767
870.19	4965
870.32	4953
870.45	5006
870.58	5025
870.71	5098
870.84	5143
870.97	4976
871.1	4904
871.23	5136
871.36	5140
871.489	5018
871.619	5083
871.749	5170
871.879	5178
872.008	5239
872.138	5109
872.267	5014
872.397	4911
872.526	4866
872.656	4710
872.785	4820
872.915	4976
873.044	5052
873.173	4957
873.303	4938
873.432	4968
873.561	4957
873.69	4904
873.819	4862
873.948	4949
874.077	4885
874.206	4801
874.335	4797
874.464	4953
874.593	5090
874.722	4987
874.851	5128
874.979	5083
875.108	5067
875.237	4930
875.365	4877
875.494	4927
875.623	5025
875.751	4824
875.88	4900
876.008	5037
876.136	5109
876.265	5201
876.393	5318
876.521	5288
876.65	5277
876.778	5223
876.906	5071
877.034	5048
877.162	5113
877.29	5029
877.418	5098
877.546	5045
877.674	5109
877.802	5060
877.93	5067
878.058	4923
878.185	4923
878.313	5006
878.441	4934
878.568	4793
878.696	4911
878.824	4961
878.951	5029
879.079	5174
879.206	5277
879.333	5140
879.461	5048
879.588	5060
879.715	5136
879.842	5242
879.97	4999
880.097	4866
880.224	4740
880.351	4850
880.478	4896
880.605	4873
880.732	4812
880.859	5094
880.986	4911
881.112	4892
881.239	4793
881.366	4668
881.493	4634
881.619	4656
881.746	4660
881.872	4664
881.999	4660
882.125	4752
882.252	4820
882.378	4881
882.505	4984
882.631	4816
882.757	4706
882.883	4763
883.01	4717
883.136	4710
883.262	4611
883.388	4664
883.514	4847
883.64	4877
883.766	4889
883.892	4668
884.018	4733
884.143	4934
884.269	5064
884.395	4683
884.52	4653
884.646	4660
884.772	4573
884.897	4554
885.023	4664
885.148	4782
885.274	4873
885.399	4782
885.524	4752
885.65	4748
885.775	4797
885.9	4710
886.025	4831
886.15	4797
886.275	4729
886.4	4698
886.525	4748
886.65	4733
886.775	4744
886.9	4953
887.025	5105
887.149	4854
887.274	4729
887.399	4565
887.523	4691
887.648	4580
887.773	4611
887.897	4774
888.021	4828
888.146	4694
888.27	4858
888.395	4927
888.519	4820
888.643	4828
888.767	4839
888.891	4706
889.015	4634
889.139	4721
889.263	4645
889.387	4786
889.511	4965
889.635	4774
889.759	4656
889.883	4687
890.006	4717
890.13	4828
890.254	4637
890.377	4714
890.501	4558
890.624	4504
890.748	4717
890.871	4573
890.995	4478
891.118	4413
891.241	4519
891.364	4584
891.488	4687
891.611	4561
891.734	4554
891.857	4603
891.98	4550
892.103	4645
892.226	4611
892.349	4561
892.471	4451
892.594	4580
892.717	4611
892.839	4580
892.962	4664
893.085	4687
893.207	4584
893.33	4451
893.452	4535
893.575	4694
893.697	4607
893.819	4824
893.941	4816
894.064	4782
894.186	4615
894.308	4577
894.43	4752
894.552	4915
894.674	4778
894.796	4603
894.918	4596
895.04	4531
895.161	4748
895.283	4679
895.405	4592
895.526	4641
895.648	4698
895.769	4656
895.891	4710
896.012	4774
896.134	4702
896.255	4721
896.376	4653
896.498	4675
896.619	4729
896.74	4592
896.861	4664
896.982	4938
897.103	5041
897.224	4839
897.345	4809
897.466	4702
897.587	4752
897.708	4881
897.828	4824
897.949	4630
898.07	4546
898.19	4683
898.311	4843
898.431	4664
898.552	4793
898.672	4816
898.792	4831
898.913	4782
899.033	4656
899.153	4527
899.273	4398
899.393	4508
899.513	4554
899.633	4535
899.753	4558
899.873	4512
899.993	4565
900.113	4558
900.232	4615
900.352	4615
900.472	4531
900.591	4379
900.711	4504
900.83	4451
900.95	4618
901.069	4714
901.189	4546
901.308	4383
901.427	4295
901.546	4371
901.665	4512
901.784	4550
901.904	4356
902.023	4325
902.141	4223
902.26	4177
902.379	4272
902.498	4276
902.617	4265
902.735	4424
902.854	4405
902.973	4409
903.091	4215
903.21	4261
903.328	4291
903.446	4268
903.565	4280
903.683	4371
903.801	4287
903.919	4436
904.038	4466
904.156	4402
904.274	4462
904.392	4409
904.51	4455
904.627	4474
904.745	4596
904.863	4637
904.981	4413
905.098	4303
905.216	4348
905.334	4478
905.451	4432
905.569	4459
905.686	4554
905.803	4626
905.921	4432
906.038	4573
906.155	4500
906.272	4421
906.389	4478
906.506	4344
906.623	4379
906.74	4409
906.857	4352
906.974	4485
907.091	4596
907.208	4717
907.324	4622
907.441	4542
907.557	4402
907.674	4299
907.79	4314
907.907	4402
908.023	4493
908.139	4508
908.256	4402
908.372	4500
908.488	4500
908.604	4325
908.72	4341
908.836	4394
908.952	4344
909.068	4424
909.184	4573
909.3	4489
909.415	4535
909.531	4550
909.647	4367
909.762	4386
909.878	4329
909.993	4428
910.108	4398
910.224	4417
910.339	4462
910.454	4375
910.57	4363
910.685	4337
910.8	4691
910.915	4596
911.03	4512
911.145	4318
911.259	4322
911.374	4379
911.489	4341
911.604	4261
911.718	4188
911.833	4230
911.947	4067
912.062	4101
912.176	4192
912.291	4261
912.405	4227
912.519	4504
912.633	4508
912.748	4379
912.862	4379
912.976	4200
913.09	4128
913.204	4181
913.318	4223
913.431	4363
913.545	4398
913.659	4443
913.772	4363
913.886	4253
914	4234
914.113	4379
914.226	4462
914.34	4421
914.453	4257
914.566	4447
914.68	4291
914.793	4367
914.906	4162
915.019	4135
915.132	4109
915.245	4166
915.358	4215
915.47	4234
915.583	4230
915.696	4287
915.809	4428
915.921	4417
916.034	4276
916.146	4303
916.259	4223
916.371	4402
916.483	4348
916.595	4272
916.708	4356
916.82	4383
916.932	4360
917.044	4314
917.156	4333
917.268	4219
917.38	4322
917.491	4310
917.603	4344
917.715	4424
917.826	4417
917.938	4360
918.049	4261
918.161	4409
918.272	4546
918.384	4573
918.495	4485
918.606	4291
918.717	4196
918.828	4325
918.939	4375
919.05	4287
919.161	4375
919.272	4116
919.383	4257
919.494	4440
919.604	4615
919.715	4413
919.826	4348
919.936	4398
920.047	4550
920.157	4485
920.267	4706
920.378	4535
920.488	4538
920.598	4710
920.708	4877
920.818	4752
920.928	4778
921.038	4961
921.148	4911
921.258	4672
921.368	4580
921.477	4470
921.587	4497
921.697	4424
921.806	4542
921.916	4462
922.025	4303
922.134	4272
922.244	4249
922.353	4291
922.462	4219
922.571	4166
922.68	3991
922.789	3979
922.898	4010
923.007	3983
923.116	4124
923.224	4059
923.333	4048
923.442	3983
923.55	4021
923.659	4025
923.767	4158
923.876	4002
923.984	4116
924.092	4025
924.201	4051
924.309	4074
924.417	4128
924.525	3998
924.633	4097
924.741	5041
924.849	3934
924.956	4154
925.064	3998
925.172	3903
925.279	3960
925.387	4078
925.494	4051
925.602	4249
925.709	4169
925.816	4040
925.924	4124
926.031	4257
926.138	4147
926.245	4219
926.352	4109
926.459	4253
926.566	4314
926.673	4196
926.779	4093
926.886	4044
926.993	4017
927.099	3953
927.206	3861
927.312	3960
927.419	4097
927.525	4036
927.631	4093
927.737	3953
927.843	3960
927.95	3861
928.056	3960
928.162	3991
928.267	4086
928.373	4615
928.479	4128
928.585	3899
928.69	4013
928.796	4109
928.901	3994
929.007	3876
929.112	4036
929.218	3949
929.323	3968
929.428	3968
929.533	4143
929.638	3884
929.743	3941
929.848	4074
929.953	4021
930.058	3972
930.163	3755
930.267	3846
930.372	3945
930.477	3812
930.581	4097
930.685	3968
930.79	3838
930.894	3880
930.998	3838
931.103	4055
931.207	3686
931.311	3713
931.415	3728
931.519	3542
931.623	3603
