Data from test_V78500241_86.txt Node
Date: Fri Mar 25 16:49:36 CST 2022
User: usil
Spectrometer: V785-0024
Trigger mode: 0
Integration Time (sec): 4.000000E-1
Scans to average: 1
Nonlinearity correction enabled: false
Boxcar width: 0
Storing dark spectrum: false
XAxis mode: Wavelengths
Number of Pixels in Spectrum: 1024
>>>>>Begin Spectral Data<<<<<
801.071	8107
801.214	8046
801.356	7928
801.499	7883
801.641	7833
801.783	7902
801.926	8027
802.068	7989
802.211	8016
802.353	8088
802.496	7902
802.638	7993
802.78	7967
802.923	7955
803.065	7959
803.208	7841
803.35	7940
803.492	8069
803.635	8145
803.777	7963
803.919	8092
804.061	8362
804.204	8119
804.346	8100
804.488	7936
804.63	8088
804.773	8088
804.915	8130
805.057	8259
805.199	8084
805.341	8218
805.483	8324
805.626	8237
805.768	8123
805.91	8149
806.052	8244
806.194	8107
806.336	8358
806.478	8092
806.62	8153
806.762	8161
806.904	8347
807.046	8465
807.188	8393
807.33	8404
807.472	8393
807.614	8153
807.756	8210
807.898	8043
808.04	7925
808.182	7925
808.324	7898
808.465	7970
808.607	8027
808.749	8142
808.891	8172
809.033	8309
809.174	8221
809.316	8092
809.458	8130
809.6	8001
809.741	8035
809.883	8077
810.025	8145
810.166	8012
810.308	8123
810.45	8096
810.591	7906
810.733	7784
810.875	7677
811.016	7613
811.158	7544
811.299	7605
811.441	7693
811.582	7807
811.724	7613
811.865	7567
812.007	7681
812.148	7666
812.29	7658
812.431	7826
812.573	7940
812.714	7974
812.855	8218
812.997	8320
813.138	8385
813.279	8214
813.421	8138
813.562	8050
813.703	7982
813.845	7734
813.986	7445
814.127	7270
814.268	7244
814.41	7266
814.551	7266
814.692	7293
814.833	7183
814.974	7156
815.115	7213
815.256	7019
815.397	6962
815.539	6947
815.68	6833
815.821	6791
815.962	6875
816.103	6875
816.244	6703
816.385	6662
816.526	6623
816.666	6582
816.807	6338
816.948	6498
817.089	6486
817.23	6509
817.371	6460
817.512	6429
817.653	6403
817.793	6452
817.934	6460
818.075	6479
818.216	6422
818.356	6486
818.497	6365
818.638	6190
818.778	6186
818.919	6194
819.06	6205
819.2	6365
819.341	6357
819.481	6410
819.622	6563
819.762	6795
819.903	6703
820.043	6601
820.184	6688
820.324	6608
820.465	6692
820.605	6681
820.746	6650
820.886	6635
821.026	6711
821.167	6734
821.307	6840
821.447	6772
821.588	6722
821.728	6654
821.868	6566
822.008	6327
822.149	6464
822.289	6391
822.429	6167
822.569	6091
822.709	6133
822.849	5927
822.99	5958
823.13	5973
823.27	5980
823.41	5855
823.55	5764
823.69	5847
823.83	5786
823.97	5733
824.11	5608
824.25	5543
824.389	5608
824.529	5623
824.669	5611
824.809	5703
824.949	5710
825.089	5657
825.228	5535
825.368	5417
825.508	5376
825.648	5372
825.787	5406
825.927	5368
826.067	5330
826.206	5410
826.346	5357
826.485	5440
826.625	5467
826.765	5604
826.904	5497
827.044	5341
827.183	5254
827.323	5189
827.462	5292
827.601	5204
827.741	5216
827.88	5273
828.02	5105
828.159	5261
828.298	5334
828.437	5410
828.577	5277
828.716	5493
828.855	5341
828.994	5250
829.134	5174
829.273	5235
829.412	5159
829.551	5159
829.69	5204
829.829	5273
829.968	5414
830.107	5349
830.246	5357
830.385	5227
830.524	5155
830.663	5159
830.802	5025
830.941	4915
831.08	4896
831.219	4995
831.357	5048
831.496	5208
831.635	4976
831.774	4904
831.913	4854
832.051	4786
832.19	4744
832.329	4896
832.467	4721
832.606	4664
832.744	4733
832.883	4774
833.022	4767
833.16	4793
833.299	4831
833.437	4877
833.576	4881
833.714	4889
833.852	4892
833.991	4915
834.129	4984
834.267	5018
834.406	4942
834.544	4976
834.682	5006
834.821	5022
834.959	5201
835.097	5048
835.235	5170
835.373	5121
835.511	5147
835.65	5071
835.788	5079
835.926	4919
836.064	4927
836.202	4953
836.34	5212
836.478	5265
836.615	5159
836.753	5265
836.891	5318
837.029	5254
837.167	5242
837.305	5178
837.443	5227
837.58	5090
837.718	5288
837.856	5231
837.993	5166
838.131	5220
838.269	5208
838.406	5265
838.544	5216
838.681	5064
838.819	5064
838.956	4987
839.094	4968
839.231	4995
839.369	5102
839.506	5421
839.643	5345
839.781	5102
839.918	5064
840.055	5140
840.193	5143
840.33	5090
840.467	5174
840.604	5201
840.742	5444
840.879	5075
841.016	5147
841.153	5201
841.29	5379
841.427	5353
841.564	5326
841.701	5364
841.838	5280
841.975	5269
842.112	5307
842.249	5124
842.385	5121
842.522	5353
842.659	5201
842.796	5147
842.933	5181
843.069	5170
843.206	5185
843.343	5353
843.479	5223
843.616	5299
843.752	5067
843.889	5041
844.025	5242
844.162	5052
844.298	5284
844.435	5098
844.571	5128
844.708	5235
844.844	5318
844.98	5326
845.117	5284
845.253	5201
845.389	5086
845.525	5220
845.661	5197
845.798	5041
845.934	5151
846.07	5052
846.206	5216
846.342	5307
846.478	5185
846.614	5079
846.75	5060
846.886	4892
847.022	5197
847.158	5067
847.294	5083
847.429	5136
847.565	5090
847.701	5417
847.837	4923
847.972	4843
848.108	4991
848.244	4995
848.379	4835
848.515	4774
848.65	4744
848.786	4748
848.921	4805
849.057	4870
849.192	4968
849.328	4835
849.463	4870
849.598	4828
849.734	4797
849.869	4729
850.004	4672
850.14	4736
850.275	4615
850.41	4512
850.545	4580
850.68	4630
850.815	4626
850.95	4641
851.085	4885
851.22	4771
851.355	4736
851.49	4653
851.625	4630
851.76	4668
851.895	4611
852.03	4565
852.165	4710
852.299	4717
852.434	4771
852.569	4816
852.703	4820
852.838	4892
852.973	4995
853.107	4949
853.242	4744
853.376	4714
853.511	4588
853.645	4645
853.78	4812
853.914	4748
854.048	4702
854.183	4656
854.317	4691
854.451	4862
854.585	4637
854.72	4649
854.854	4729
854.988	4607
855.122	4668
855.256	4546
855.39	4694
855.524	4854
855.658	4748
855.792	4729
855.926	4767
856.06	4805
856.194	4839
856.327	4736
856.461	4656
856.595	4622
856.729	4611
856.862	4805
856.996	4698
857.13	4748
857.263	4771
857.397	4896
857.53	4672
857.664	4767
857.797	4824
857.931	4828
858.064	4729
858.197	4759
858.331	4660
858.464	4679
858.597	4542
858.731	4679
858.864	4694
858.997	4599
859.13	4702
859.263	4660
859.396	4729
859.529	4660
859.662	4607
859.795	4516
859.928	4664
860.061	4782
860.194	4759
860.327	4618
860.46	4588
860.592	4748
860.725	4771
860.858	4744
860.99	4561
861.123	4573
861.256	4519
861.388	4641
861.521	5349
861.653	4474
861.786	4466
861.918	4470
862.05	4607
862.183	4592
862.315	4634
862.447	4668
862.58	4573
862.712	4432
862.844	4360
862.976	4523
863.108	4493
863.24	4892
863.372	4325
863.504	4451
863.636	4428
863.768	4500
863.9	4500
864.032	4405
864.164	4390
864.296	4470
864.428	4519
864.559	4573
864.691	4554
864.823	4569
864.954	4504
865.086	4497
865.217	4474
865.349	4485
865.48	4508
865.612	4512
865.743	4630
865.875	4436
866.006	4409
866.137	4466
866.269	4466
866.4	4481
866.531	4447
866.662	4459
866.793	4428
866.924	4455
867.055	4546
867.186	4455
867.317	4405
867.448	4360
867.579	4402
867.71	4337
867.841	4405
867.972	4478
868.103	4466
868.233	4485
868.364	4455
868.495	4535
868.625	4714
868.756	4752
868.886	4607
869.017	4641
869.147	4805
869.278	4759
869.408	4706
869.539	4698
869.669	4733
869.799	4698
869.929	4790
870.06	4767
870.19	4987
870.32	4968
870.45	4930
870.58	5090
870.71	5083
870.84	5147
870.97	4972
871.1	4889
871.23	5231
871.36	5189
871.489	5060
871.619	5159
871.749	5109
871.879	5147
872.008	5185
872.138	5079
872.267	5010
872.397	4927
872.526	4866
872.656	4759
872.785	4828
872.915	5014
873.044	5109
873.173	4980
873.303	4980
873.432	4987
873.561	4995
873.69	4870
873.819	4877
873.948	4965
874.077	4828
874.206	4740
874.335	4820
874.464	4965
874.593	5079
874.722	4995
874.851	5094
874.979	5067
875.108	5037
875.237	4904
875.365	4889
875.494	4889
875.623	5041
875.751	4858
875.88	4938
876.008	5025
876.136	5098
876.265	5250
876.393	5357
876.521	5288
876.65	5246
876.778	5193
876.906	5140
877.034	5094
877.162	5075
877.29	5010
877.418	5094
877.546	5056
877.674	5079
877.802	5029
877.93	5064
878.058	4968
878.185	4881
878.313	4987
878.441	4961
878.568	4862
878.696	4873
878.824	4946
878.951	5014
879.079	5151
879.206	5303
879.333	5113
879.461	4999
879.588	5029
879.715	5155
879.842	5250
879.97	5037
880.097	4870
880.224	4767
880.351	4797
880.478	4850
880.605	4812
880.732	4820
880.859	5124
880.986	4934
881.112	4972
881.239	4809
881.366	4675
881.493	4645
881.619	4607
881.746	4664
881.872	4683
881.999	4672
882.125	4683
882.252	4805
882.378	4839
882.505	4976
882.631	4805
882.757	4721
882.883	4736
883.01	4767
883.136	4691
883.262	4630
883.388	4626
883.514	4847
883.64	4881
883.766	4782
883.892	4694
884.018	4805
884.143	4915
884.269	5041
884.395	4694
884.52	4660
884.646	4687
884.772	4573
884.897	4573
885.023	4656
885.148	4782
885.274	4900
885.399	4793
885.524	4710
885.65	4691
885.775	4759
885.9	4729
886.025	4850
886.15	4809
886.275	4736
886.4	4710
886.525	4797
886.65	4698
886.775	4691
886.9	4938
887.025	5064
887.149	4812
887.274	4683
887.399	4569
887.523	4596
887.648	4584
887.773	4607
887.897	4820
888.021	4771
888.146	4691
888.27	4786
888.395	4873
888.519	4820
888.643	4862
888.767	4828
888.891	4710
889.015	4679
889.139	4653
889.263	4675
889.387	4790
889.511	4911
889.635	4885
889.759	4702
889.883	4694
890.006	4721
890.13	4824
890.254	4660
890.377	4755
890.501	4546
890.624	4535
890.748	4656
890.871	4558
890.995	4497
891.118	4398
891.241	4546
891.364	4580
891.488	4683
891.611	4527
891.734	4516
891.857	4588
891.98	4607
892.103	4645
892.226	4645
892.349	4542
892.471	4455
892.594	4573
892.717	4580
892.839	4603
892.962	4611
893.085	4687
893.207	4622
893.33	4519
893.452	4558
893.575	4675
893.697	4588
893.819	4812
893.941	4850
894.064	4824
894.186	4622
894.308	4599
894.43	4736
894.552	4881
894.674	4790
894.796	4512
894.918	4618
895.04	4603
895.161	4702
895.283	4653
895.405	4577
895.526	4691
895.648	4672
895.769	4721
895.891	4767
896.012	4759
896.134	4694
896.255	4679
896.376	4729
896.498	4683
896.619	4740
896.74	4634
896.861	4706
896.982	4976
897.103	5143
897.224	4885
897.345	4740
897.466	4683
897.587	4778
897.708	4908
897.828	4774
897.949	4664
898.07	4596
898.19	4672
898.311	4843
898.431	4691
898.552	4717
898.672	4828
898.792	4793
898.913	4759
899.033	4634
899.153	4512
899.273	4455
899.393	4497
899.513	4538
899.633	4535
899.753	4592
899.873	4569
899.993	4626
900.113	4523
900.232	4592
900.352	4554
900.472	4512
900.591	4413
900.711	4512
900.83	4440
900.95	4603
901.069	4702
901.189	4599
901.308	4379
901.427	4390
901.546	4390
901.665	4516
901.784	4546
901.904	4470
902.023	4337
902.141	4223
902.26	4204
902.379	4356
902.498	4276
902.617	4314
902.735	4409
902.854	4386
902.973	4386
903.091	4238
903.21	4261
903.328	4356
903.446	4287
903.565	4257
903.683	4413
903.801	4337
903.919	4421
904.038	4478
904.156	4341
904.274	4516
904.392	4455
904.51	4497
904.627	4504
904.745	4580
904.863	4694
904.981	4421
905.098	4352
905.216	4379
905.334	4443
905.451	4432
905.569	4478
905.686	4588
905.803	4573
905.921	4466
906.038	4569
906.155	4470
906.272	4478
906.389	4493
906.506	4402
906.623	4405
906.74	4344
906.857	4337
906.974	4367
907.091	4584
907.208	4679
907.324	4668
907.441	4512
907.557	4375
907.674	4386
907.79	4348
907.907	4390
908.023	4580
908.139	4527
908.256	4443
908.372	4519
908.488	4504
908.604	4383
908.72	4333
908.836	4394
908.952	4432
909.068	4417
909.184	4618
909.3	4519
909.415	4611
909.531	4580
909.647	4428
909.762	4367
909.878	4379
909.993	4504
910.108	4424
910.224	4440
910.339	4512
910.454	4421
910.57	4363
910.685	4280
910.8	4672
910.915	4622
911.03	4512
911.145	4333
911.259	4341
911.374	4383
911.489	4344
911.604	4303
911.718	4215
911.833	4234
911.947	4109
912.062	4086
912.176	4204
912.291	4261
912.405	4287
912.519	4489
912.633	4573
912.748	4383
912.862	4356
912.976	4272
913.09	4131
913.204	4238
913.318	4303
913.431	4360
913.545	4402
913.659	4466
913.772	4367
913.886	4261
914	4261
914.113	4436
914.226	4428
914.34	4428
914.453	4215
914.566	4466
914.68	4303
914.793	4348
914.906	4185
915.019	4169
915.132	4109
915.245	4257
915.358	4234
915.47	4246
915.583	4303
915.696	4363
915.809	4413
915.921	4466
916.034	4253
916.146	4322
916.259	4238
916.371	4413
916.483	4390
916.595	4310
916.708	4375
916.82	4360
916.932	4363
917.044	4348
917.156	4402
917.268	4211
917.38	4318
917.491	4280
917.603	4375
917.715	4447
917.826	4485
917.938	4329
918.049	4299
918.161	4394
918.272	4573
918.384	4531
918.495	4519
918.606	4306
918.717	4265
918.828	4375
918.939	4405
919.05	4303
919.161	4405
919.272	4173
919.383	4276
919.494	4470
919.604	4637
919.715	4478
919.826	4383
919.936	4375
920.047	4527
920.157	4527
920.267	4710
920.378	4565
920.488	4569
920.598	4694
920.708	4930
920.818	4828
920.928	4774
921.038	4991
921.148	4930
921.258	4645
921.368	4565
921.477	4573
921.587	4497
921.697	4390
921.806	4554
921.916	4462
922.025	4284
922.134	4314
922.244	4268
922.353	4344
922.462	4204
922.571	4154
922.68	4048
922.789	3994
922.898	4090
923.007	4006
923.116	4120
923.224	4063
923.333	4131
923.442	4055
923.55	4017
923.659	4101
923.767	4112
923.876	4002
923.984	4147
924.092	4010
924.201	4105
924.309	4135
924.417	4139
924.525	4101
924.633	4169
924.741	4923
924.849	3918
924.956	4173
925.064	3983
925.172	3960
925.279	3956
925.387	4048
925.494	4078
925.602	4249
925.709	4169
925.816	4078
925.924	4158
926.031	4276
926.138	4188
926.245	4261
926.352	4147
926.459	4284
926.566	4356
926.673	4166
926.779	4109
926.886	4097
926.993	3994
927.099	3922
927.206	3960
927.312	4017
927.419	4116
927.525	4112
927.631	4116
927.737	3975
927.843	3983
927.95	3884
928.056	3998
928.162	4025
928.267	4105
928.373	4615
928.479	4150
928.585	3892
928.69	4048
928.796	4112
928.901	3994
929.007	3896
929.112	4029
929.218	3975
929.323	3968
929.428	3964
929.533	4158
929.638	3941
929.743	3975
929.848	4116
929.953	4036
930.058	3968
930.163	3835
930.267	3850
930.372	4055
930.477	3823
930.581	4093
930.685	3937
930.79	3816
930.894	3949
930.998	3861
931.103	4082
931.207	3736
931.311	3705
931.415	3717
931.519	3500
931.623	3553
