Data from test_V78500241_1888.txt Node
Date: Fri Mar 25 17:02:07 CST 2022
User: usil
Spectrometer: V785-0024
Trigger mode: 0
Integration Time (sec): 4.000000E-1
Scans to average: 1
Nonlinearity correction enabled: false
Boxcar width: 0
Storing dark spectrum: false
XAxis mode: Wavelengths
Number of Pixels in Spectrum: 1024
>>>>>Begin Spectral Data<<<<<
801.071	7967
801.214	8027
801.356	7826
801.499	7856
801.641	7788
801.783	7738
801.926	7928
802.068	7970
802.211	7967
802.353	7959
802.496	7913
802.638	7849
802.78	7906
802.923	7898
803.065	7818
803.208	7883
803.35	7974
803.492	8058
803.635	8134
803.777	8012
803.919	8073
804.061	8385
804.204	8199
804.346	8065
804.488	7947
804.63	8043
804.773	8016
804.915	8050
805.057	8294
805.199	8138
805.341	8145
805.483	8218
805.626	8237
805.768	8065
805.91	8229
806.052	8172
806.194	8084
806.336	8259
806.478	8115
806.62	8012
806.762	8134
806.904	8320
807.046	8492
807.188	8290
807.33	8191
807.472	8271
807.614	8161
807.756	8153
807.898	7902
808.04	7928
808.182	7898
808.324	7917
808.465	7909
808.607	8077
808.749	8054
808.891	8191
809.033	8343
809.174	8206
809.316	8027
809.458	8031
809.6	8050
809.741	8027
809.883	7974
810.025	8043
810.166	7993
810.308	8008
810.45	7925
810.591	7868
810.733	7738
810.875	7704
811.016	7518
811.158	7434
811.299	7597
811.441	7715
811.582	7674
811.724	7605
811.865	7476
812.007	7658
812.148	7502
812.29	7594
812.431	7784
812.573	7860
812.714	7974
812.855	8138
812.997	8214
813.138	8263
813.279	8191
813.421	8020
813.562	7959
813.703	7841
813.845	7674
813.986	7381
814.127	7217
814.268	7164
814.41	7122
814.551	7187
814.692	7232
814.833	7057
814.974	7126
815.115	7099
815.256	6989
815.397	6954
815.539	6996
815.68	6738
815.821	6749
815.962	6856
816.103	6829
816.244	6703
816.385	6639
816.526	6604
816.666	6483
816.807	6331
816.948	6380
817.089	6422
817.23	6418
817.371	6331
817.512	6357
817.653	6353
817.793	6323
817.934	6365
818.075	6513
818.216	6388
818.356	6380
818.497	6304
818.638	6133
818.778	6125
818.919	6106
819.06	6167
819.2	6334
819.341	6273
819.481	6334
819.622	6528
819.762	6715
819.903	6726
820.043	6566
820.184	6570
820.324	6525
820.465	6715
820.605	6642
820.746	6662
820.886	6544
821.026	6608
821.167	6654
821.307	6798
821.447	6791
821.588	6665
821.728	6593
821.868	6426
822.008	6258
822.149	6353
822.289	6350
822.429	6178
822.569	6053
822.709	6057
822.849	5908
822.99	5912
823.13	5889
823.27	5889
823.41	5813
823.55	5790
823.69	5824
823.83	5764
823.97	5630
824.11	5547
824.25	5520
824.389	5501
824.529	5577
824.669	5539
824.809	5596
824.949	5638
825.089	5623
825.228	5532
825.368	5353
825.508	5299
825.648	5318
825.787	5379
825.927	5330
826.067	5265
826.206	5258
826.346	5303
826.485	5372
826.625	5410
826.765	5535
826.904	5539
827.044	5250
827.183	5197
827.323	5102
827.462	5208
827.601	5170
827.741	5170
827.88	5254
828.02	5094
828.159	5201
828.298	5277
828.437	5383
828.577	5288
828.716	5429
828.855	5326
828.994	5166
829.134	5121
829.273	5193
829.412	5132
829.551	5094
829.69	5181
829.829	5231
829.968	5398
830.107	5280
830.246	5292
830.385	5159
830.524	5121
830.663	5006
830.802	4949
830.941	4923
831.08	4862
831.219	4915
831.357	4980
831.496	5140
831.635	4919
831.774	4812
831.913	4854
832.051	4706
832.19	4744
832.329	4881
832.467	4672
832.606	4637
832.744	4729
832.883	4725
833.022	4729
833.16	4793
833.299	4828
833.437	4801
833.576	4786
833.714	4873
833.852	4809
833.991	4896
834.129	4923
834.267	4919
834.406	4847
834.544	4987
834.682	4946
834.821	4949
834.959	5071
835.097	4919
835.235	5121
835.373	5067
835.511	5098
835.65	5006
835.788	5041
835.926	4862
836.064	4873
836.202	4892
836.34	5064
836.478	5212
836.615	5132
836.753	5166
836.891	5250
837.029	5326
837.167	5178
837.305	5147
837.443	5090
837.58	5098
837.718	5227
837.856	5151
837.993	5162
838.131	5208
838.269	5166
838.406	5174
838.544	5166
838.681	5018
838.819	4991
838.956	4858
839.094	4877
839.231	5003
839.369	5037
839.506	5391
839.643	5307
839.781	5006
839.918	4987
840.055	5083
840.193	5014
840.33	5079
840.467	5086
840.604	5140
840.742	5444
840.879	5045
841.016	5075
841.153	5185
841.29	5322
841.427	5337
841.564	5307
841.701	5372
841.838	5246
841.975	5235
842.112	5254
842.249	5113
842.385	5121
842.522	5296
842.659	5128
842.796	5113
842.933	5201
843.069	5204
843.206	5140
843.343	5284
843.479	5299
843.616	5223
843.752	5025
843.889	5048
844.025	5181
844.162	5022
844.298	5227
844.435	5079
844.571	5090
844.708	5136
844.844	5299
844.98	5341
845.117	5288
845.253	5151
845.389	5124
845.525	5151
845.661	5136
845.798	5067
845.934	5193
846.07	5064
846.206	5231
846.342	5292
846.478	5197
846.614	5052
846.75	4995
846.886	4968
847.022	5109
847.158	5045
847.294	5079
847.429	5170
847.565	5136
847.701	5326
847.837	4900
847.972	4797
848.108	4980
848.244	4976
848.379	4835
848.515	4733
848.65	4725
848.786	4786
848.921	4778
849.057	4919
849.192	4930
849.328	4828
849.463	4892
849.598	4877
849.734	4790
849.869	4710
850.004	4675
850.14	4733
850.275	4668
850.41	4558
850.545	4622
850.68	4615
850.815	4706
850.95	4645
851.085	4911
851.22	4771
851.355	4656
851.49	4653
851.625	4668
851.76	4679
851.895	4588
852.03	4565
852.165	4702
852.299	4710
852.434	4812
852.569	4793
852.703	4793
852.838	4866
852.973	4995
853.107	4938
853.242	4767
853.376	4733
853.511	4580
853.645	4626
853.78	4816
853.914	4721
854.048	4664
854.183	4675
854.317	4759
854.451	4862
854.585	4702
854.72	4702
854.854	4790
854.988	4618
855.122	4675
855.256	4527
855.39	4736
855.524	4793
855.658	4740
855.792	4733
855.926	4748
856.06	4793
856.194	4824
856.327	4752
856.461	4672
856.595	4641
856.729	4649
856.862	4752
856.996	4691
857.13	4721
857.263	4858
857.397	4847
857.53	4641
857.664	4755
857.797	4824
857.931	4771
858.064	4691
858.197	4782
858.331	4702
858.464	4618
858.597	4584
858.731	4641
858.864	4649
858.997	4634
859.13	4675
859.263	4626
859.396	4733
859.529	4649
859.662	4603
859.795	4592
859.928	4656
860.061	4801
860.194	4736
860.327	4634
860.46	4603
860.592	4729
860.725	4736
860.858	4771
860.99	4622
861.123	4561
861.256	4554
861.388	4603
861.521	5383
861.653	4531
861.786	4516
861.918	4462
862.05	4596
862.183	4569
862.315	4649
862.447	4664
862.58	4569
862.712	4440
862.844	4344
862.976	4497
863.108	4481
863.24	4911
863.372	4379
863.504	4440
863.636	4443
863.768	4504
863.9	4462
864.032	4402
864.164	4386
864.296	4455
864.428	4546
864.559	4580
864.691	4573
864.823	4500
864.954	4519
865.086	4527
865.217	4447
865.349	4466
865.48	4497
865.612	4531
865.743	4694
865.875	4519
866.006	4436
866.137	4470
866.269	4489
866.4	4481
866.531	4424
866.662	4440
866.793	4474
866.924	4443
867.055	4512
867.186	4470
867.317	4440
867.448	4386
867.579	4432
867.71	4383
867.841	4390
867.972	4485
868.103	4447
868.233	4512
868.364	4432
868.495	4546
868.625	4721
868.756	4782
868.886	4554
869.017	4645
869.147	4809
869.278	4797
869.408	4729
869.539	4687
869.669	4736
869.799	4698
869.929	4812
870.06	4778
870.19	5003
870.32	4949
870.45	4942
870.58	5010
870.71	5109
870.84	5094
870.97	4946
871.1	4942
871.23	5178
871.36	5162
871.489	5018
871.619	5121
871.749	5098
871.879	5174
872.008	5178
872.138	5048
872.267	5006
872.397	4877
872.526	4862
872.656	4733
872.785	4824
872.915	4980
873.044	4999
873.173	4984
873.303	5098
873.432	4938
873.561	5006
873.69	4927
873.819	4911
873.948	4946
874.077	4850
874.206	4793
874.335	4843
874.464	4949
874.593	5105
874.722	5022
874.851	5136
874.979	5041
875.108	5075
875.237	5003
875.365	4904
875.494	4930
875.623	4968
875.751	4866
875.88	4908
876.008	4896
876.136	5094
876.265	5273
876.393	5341
876.521	5292
876.65	5265
876.778	5159
876.906	5124
877.034	5067
877.162	5064
877.29	5006
877.418	5064
877.546	5075
877.674	5083
877.802	5025
877.93	5060
878.058	4953
878.185	4953
878.313	4995
878.441	5025
878.568	4866
878.696	4801
878.824	4995
878.951	5029
879.079	5124
879.206	5292
879.333	5083
879.461	4987
879.588	5029
879.715	5178
879.842	5288
879.97	4980
880.097	4835
880.224	4759
880.351	4786
880.478	4904
880.605	4843
880.732	4805
880.859	5124
880.986	4885
881.112	4961
881.239	4843
881.366	4637
881.493	4618
881.619	4607
881.746	4687
881.872	4634
881.999	4714
882.125	4736
882.252	4809
882.378	4824
882.505	4984
882.631	4809
882.757	4656
882.883	4740
883.01	4740
883.136	4641
883.262	4634
883.388	4653
883.514	4839
883.64	4854
883.766	4805
883.892	4714
884.018	4755
884.143	4877
884.269	5086
884.395	4687
884.52	4675
884.646	4679
884.772	4645
884.897	4596
885.023	4672
885.148	4824
885.274	4854
885.399	4828
885.524	4733
885.65	4733
885.775	4771
885.9	4729
886.025	4892
886.15	4824
886.275	4729
886.4	4702
886.525	4733
886.65	4675
886.775	4679
886.9	4915
887.025	5071
887.149	4839
887.274	4706
887.399	4558
887.523	4588
887.648	4588
887.773	4615
887.897	4801
888.021	4797
888.146	4649
888.27	4847
888.395	4877
888.519	4820
888.643	4843
888.767	4850
888.891	4683
889.015	4584
889.139	4653
889.263	4622
889.387	4748
889.511	4850
889.635	4854
889.759	4641
889.883	4626
890.006	4752
890.13	4892
890.254	4626
890.377	4668
890.501	4561
890.624	4558
890.748	4660
890.871	4516
890.995	4474
891.118	4424
891.241	4588
891.364	4558
891.488	4637
891.611	4500
891.734	4546
891.857	4561
891.98	4599
892.103	4687
892.226	4580
892.349	4535
892.471	4489
892.594	4550
892.717	4645
892.839	4615
892.962	4660
893.085	4694
893.207	4592
893.33	4481
893.452	4523
893.575	4702
893.697	4596
893.819	4805
893.941	4816
894.064	4809
894.186	4577
894.308	4523
894.43	4721
894.552	4835
894.674	4706
894.796	4523
894.918	4634
895.04	4603
895.161	4702
895.283	4679
895.405	4573
895.526	4664
895.648	4668
895.769	4714
895.891	4733
896.012	4714
896.134	4736
896.255	4706
896.376	4599
896.498	4615
896.619	4683
896.74	4653
896.861	4596
896.982	4942
897.103	5086
897.224	4809
897.345	4740
897.466	4706
897.587	4729
897.708	4854
897.828	4812
897.949	4641
898.07	4561
898.19	4668
898.311	4812
898.431	4694
898.552	4740
898.672	4752
898.792	4774
898.913	4793
899.033	4649
899.153	4497
899.273	4436
899.393	4531
899.513	4546
899.633	4580
899.753	4546
899.873	4538
899.993	4622
900.113	4577
900.232	4588
900.352	4573
900.472	4481
900.591	4348
900.711	4489
900.83	4424
900.95	4618
901.069	4740
901.189	4523
901.308	4386
901.427	4325
901.546	4428
901.665	4478
901.784	4542
901.904	4379
902.023	4295
902.141	4238
902.26	4166
902.379	4299
902.498	4196
902.617	4287
902.735	4402
902.854	4436
902.973	4344
903.091	4234
903.21	4246
903.328	4325
903.446	4287
903.565	4291
903.683	4383
903.801	4318
903.919	4417
904.038	4459
904.156	4337
904.274	4455
904.392	4447
904.51	4417
904.627	4538
904.745	4596
904.863	4672
904.981	4413
905.098	4360
905.216	4394
905.334	4470
905.451	4421
905.569	4470
905.686	4573
905.803	4546
905.921	4424
906.038	4561
906.155	4451
906.272	4413
906.389	4478
906.506	4341
906.623	4383
906.74	4398
906.857	4348
906.974	4386
907.091	4565
907.208	4691
907.324	4603
907.441	4508
907.557	4322
907.674	4360
907.79	4333
907.907	4383
908.023	4516
908.139	4474
908.256	4421
908.372	4466
908.488	4504
908.604	4341
908.72	4352
908.836	4329
908.952	4383
909.068	4421
909.184	4615
909.3	4466
909.415	4577
909.531	4565
909.647	4363
909.762	4371
909.878	4325
909.993	4459
910.108	4371
910.224	4390
910.339	4504
910.454	4344
910.57	4371
910.685	4280
910.8	4634
910.915	4599
911.03	4508
911.145	4291
911.259	4375
911.374	4371
911.489	4295
911.604	4272
911.718	4177
911.833	4215
911.947	4101
912.062	4051
912.176	4177
912.291	4215
912.405	4249
912.519	4478
912.633	4478
912.748	4352
912.862	4295
912.976	4196
913.09	4086
913.204	4143
913.318	4265
913.431	4325
913.545	4394
913.659	4489
913.772	4371
913.886	4253
914	4227
914.113	4394
914.226	4432
914.34	4402
914.453	4223
914.566	4462
914.68	4341
914.793	4352
914.906	4162
915.019	4150
915.132	4067
915.245	4200
915.358	4223
915.47	4238
915.583	4322
915.696	4356
915.809	4398
915.921	4421
916.034	4306
916.146	4314
916.259	4215
916.371	4405
916.483	4413
916.595	4284
916.708	4375
916.82	4375
916.932	4310
917.044	4375
917.156	4367
917.268	4303
917.38	4329
917.491	4333
917.603	4417
917.715	4485
917.826	4485
917.938	4325
918.049	4257
918.161	4451
918.272	4565
918.384	4558
918.495	4485
918.606	4280
918.717	4299
918.828	4375
918.939	4394
919.05	4299
919.161	4371
919.272	4169
919.383	4272
919.494	4493
919.604	4687
919.715	4455
919.826	4402
919.936	4470
920.047	4546
920.157	4558
920.267	4771
920.378	4577
920.488	4542
920.598	4736
920.708	4896
920.818	4843
920.928	4805
921.038	5006
921.148	4980
921.258	4691
921.368	4615
921.477	4504
921.587	4489
921.697	4394
921.806	4611
921.916	4451
922.025	4337
922.134	4325
922.244	4265
922.353	4405
922.462	4242
922.571	4135
922.68	4040
922.789	4055
922.898	4059
923.007	4082
923.116	4139
923.224	4112
923.333	4124
923.442	3991
923.55	4021
923.659	4032
923.767	4131
923.876	4017
923.984	4173
924.092	4002
924.201	4105
924.309	4120
924.417	4109
924.525	4101
924.633	4139
924.741	5121
924.849	3983
924.956	4181
925.064	4013
925.172	3926
925.279	3987
925.387	4112
925.494	4124
925.602	4219
925.709	4227
925.816	4071
925.924	4173
926.031	4272
926.138	4223
926.245	4230
926.352	4124
926.459	4272
926.566	4337
926.673	4185
926.779	4150
926.886	4124
926.993	4013
927.099	3968
927.206	4002
927.312	3975
927.419	4097
927.525	4021
927.631	4143
927.737	3994
927.843	3979
927.95	3846
928.056	4017
928.162	4051
928.267	4036
928.373	4569
928.479	4124
928.585	3869
928.69	4071
928.796	4059
928.901	3994
929.007	3911
929.112	4032
929.218	4013
929.323	3972
929.428	3972
929.533	4154
929.638	3949
929.743	3991
929.848	4139
929.953	4040
930.058	3926
930.163	3781
930.267	3861
930.372	3998
930.477	3854
930.581	4124
930.685	3994
930.79	3876
930.894	3926
930.998	3873
931.103	4093
931.207	3736
931.311	3747
931.415	3686
931.519	3549
931.623	3587
