Data from test_V78500241_612.txt Node
Date: Fri Mar 25 16:53:15 CST 2022
User: usil
Spectrometer: V785-0024
Trigger mode: 0
Integration Time (sec): 4.000000E-1
Scans to average: 1
Nonlinearity correction enabled: false
Boxcar width: 0
Storing dark spectrum: false
XAxis mode: Wavelengths
Number of Pixels in Spectrum: 1024
>>>>>Begin Spectral Data<<<<<
801.071	8084
801.214	8107
801.356	7883
801.499	7883
801.641	7841
801.783	7913
801.926	8016
802.068	8024
802.211	7974
802.353	8069
802.496	7913
802.638	7989
802.78	7970
802.923	7982
803.065	7883
803.208	7875
803.35	8005
803.492	8119
803.635	8290
803.777	8100
803.919	8176
804.061	8454
804.204	8157
804.346	8084
804.488	7974
804.63	8123
804.773	8001
804.915	8153
805.057	8313
805.199	8199
805.341	8199
805.483	8328
805.626	8298
805.768	8111
805.91	8263
806.052	8195
806.194	8153
806.336	8343
806.478	8130
806.62	8058
806.762	8176
806.904	8305
807.046	8522
807.188	8332
807.33	8355
807.472	8362
807.614	8202
807.756	8081
807.898	8096
808.04	7898
808.182	7883
808.324	7947
808.465	7890
808.607	8123
808.749	8126
808.891	8237
809.033	8309
809.174	8233
809.316	8043
809.458	8073
809.6	8035
809.741	8046
809.883	8012
810.025	8039
810.166	8123
810.308	8065
810.45	8058
810.591	7978
810.733	7734
810.875	7731
811.016	7525
811.158	7514
811.299	7651
811.441	7807
811.582	7738
811.724	7559
811.865	7559
812.007	7594
812.148	7578
812.29	7639
812.431	7734
812.573	7890
812.714	7997
812.855	8161
812.997	8233
813.138	8381
813.279	8275
813.421	8142
813.562	8020
813.703	7890
813.845	7826
813.986	7514
814.127	7396
814.268	7350
814.41	7236
814.551	7236
814.692	7244
814.833	7027
814.974	7103
815.115	7133
815.256	6981
815.397	7023
815.539	6996
815.68	6818
815.821	6783
815.962	6973
816.103	6882
816.244	6798
816.385	6722
816.526	6604
816.666	6528
816.807	6346
816.948	6410
817.089	6521
817.23	6418
817.371	6380
817.512	6388
817.653	6418
817.793	6410
817.934	6494
818.075	6471
818.216	6460
818.356	6395
818.497	6266
818.638	6136
818.778	6102
818.919	6163
819.06	6197
819.2	6266
819.341	6369
819.481	6388
819.622	6585
819.762	6738
819.903	6707
820.043	6582
820.184	6593
820.324	6570
820.465	6650
820.605	6646
820.746	6604
820.886	6448
821.026	6688
821.167	6677
821.307	6749
821.447	6734
821.588	6608
821.728	6536
821.868	6490
822.008	6292
822.149	6361
822.289	6380
822.429	6129
822.569	6091
822.709	6102
822.849	5939
822.99	5889
823.13	5882
823.27	5958
823.41	5752
823.55	5805
823.69	5794
823.83	5771
823.97	5691
824.11	5573
824.25	5512
824.389	5577
824.529	5596
824.669	5516
824.809	5676
824.949	5710
825.089	5657
825.228	5497
825.368	5429
825.508	5357
825.648	5353
825.787	5440
825.927	5410
826.067	5269
826.206	5315
826.346	5436
826.485	5410
826.625	5421
826.765	5558
826.904	5535
827.044	5261
827.183	5193
827.323	5109
827.462	5265
827.601	5178
827.741	5261
827.88	5223
828.02	5128
828.159	5227
828.298	5326
828.437	5421
828.577	5284
828.716	5478
828.855	5379
828.994	5166
829.134	5151
829.273	5170
829.412	5113
829.551	5132
829.69	5201
829.829	5265
829.968	5417
830.107	5197
830.246	5261
830.385	5185
830.524	5121
830.663	5090
830.802	5003
830.941	4915
831.08	4896
831.219	5037
831.357	4991
831.496	5147
831.635	4961
831.774	4896
831.913	4850
832.051	4729
832.19	4744
832.329	4850
832.467	4706
832.606	4645
832.744	4698
832.883	4767
833.022	4721
833.16	4809
833.299	4820
833.437	4843
833.576	4847
833.714	4862
833.852	4858
833.991	4908
834.129	5025
834.267	4957
834.406	4923
834.544	5025
834.682	4995
834.821	5010
834.959	5174
835.097	4984
835.235	5147
835.373	5105
835.511	5098
835.65	5041
835.788	5018
835.926	4987
836.064	4881
836.202	4923
836.34	5166
836.478	5178
836.615	5086
836.753	5189
836.891	5296
837.029	5239
837.167	5132
837.305	5162
837.443	5143
837.58	5132
837.718	5280
837.856	5201
837.993	5166
838.131	5292
838.269	5185
838.406	5212
838.544	5151
838.681	5048
838.819	5025
838.956	4919
839.094	4915
839.231	5010
839.369	5060
839.506	5368
839.643	5311
839.781	5098
839.918	5052
840.055	5113
840.193	5075
840.33	5124
840.467	5109
840.604	5174
840.742	5433
840.879	5071
841.016	5102
841.153	5140
841.29	5337
841.427	5379
841.564	5296
841.701	5349
841.838	5242
841.975	5288
842.112	5280
842.249	5079
842.385	5124
842.522	5292
842.659	5181
842.796	5128
842.933	5159
843.069	5155
843.206	5162
843.343	5303
843.479	5227
843.616	5246
843.752	5025
843.889	5003
844.025	5261
844.162	5083
844.298	5216
844.435	5060
844.571	5067
844.708	5223
844.844	5269
844.98	5353
845.117	5311
845.253	5166
845.389	5086
845.525	5174
845.661	5201
845.798	5064
845.934	5185
846.07	5056
846.206	5185
846.342	5277
846.478	5151
846.614	5037
846.75	5033
846.886	4976
847.022	5143
847.158	4999
847.294	5113
847.429	5067
847.565	5079
847.701	5376
847.837	4854
847.972	4786
848.108	4930
848.244	4934
848.379	4786
848.515	4683
848.65	4668
848.786	4740
848.921	4771
849.057	4896
849.192	4881
849.328	4820
849.463	4873
849.598	4797
849.734	4797
849.869	4706
850.004	4656
850.14	4622
850.275	4588
850.41	4531
850.545	4615
850.68	4656
850.815	4660
850.95	4637
851.085	4889
851.22	4771
851.355	4706
851.49	4584
851.625	4683
851.76	4656
851.895	4592
852.03	4542
852.165	4603
852.299	4721
852.434	4763
852.569	4729
852.703	4752
852.838	4866
852.973	4911
853.107	4877
853.242	4740
853.376	4672
853.511	4584
853.645	4637
853.78	4828
853.914	4698
854.048	4668
854.183	4607
854.317	4672
854.451	4847
854.585	4679
854.72	4691
854.854	4748
854.988	4603
855.122	4626
855.256	4542
855.39	4645
855.524	4793
855.658	4717
855.792	4660
855.926	4729
856.06	4763
856.194	4824
856.327	4691
856.461	4607
856.595	4626
856.729	4656
856.862	4744
856.996	4641
857.13	4736
857.263	4786
857.397	4812
857.53	4668
857.664	4752
857.797	4740
857.931	4816
858.064	4694
858.197	4702
858.331	4649
858.464	4626
858.597	4535
858.731	4733
858.864	4660
858.997	4615
859.13	4694
859.263	4660
859.396	4706
859.529	4599
859.662	4588
859.795	4538
859.928	4630
860.061	4759
860.194	4744
860.327	4584
860.46	4558
860.592	4733
860.725	4733
860.858	4793
860.99	4558
861.123	4550
861.256	4527
861.388	4653
861.521	5455
861.653	4519
861.786	4462
861.918	4417
862.05	4531
862.183	4535
862.315	4592
862.447	4645
862.58	4558
862.712	4360
862.844	4337
862.976	4493
863.108	4512
863.24	4892
863.372	4314
863.504	4405
863.636	4451
863.768	4519
863.9	4443
864.032	4356
864.164	4413
864.296	4485
864.428	4538
864.559	4519
864.691	4561
864.823	4527
864.954	4485
865.086	4500
865.217	4474
865.349	4390
865.48	4447
865.612	4538
865.743	4626
865.875	4459
866.006	4413
866.137	4451
866.269	4436
866.4	4451
866.531	4402
866.662	4394
866.793	4443
866.924	4413
867.055	4485
867.186	4481
867.317	4417
867.448	4348
867.579	4383
867.71	4409
867.841	4398
867.972	4466
868.103	4440
868.233	4478
868.364	4462
868.495	4508
868.625	4694
868.756	4725
868.886	4497
869.017	4622
869.147	4755
869.278	4790
869.408	4618
869.539	4634
869.669	4691
869.799	4599
869.929	4812
870.06	4744
870.19	4900
870.32	4923
870.45	4934
870.58	5018
870.71	5083
870.84	5075
870.97	4957
871.1	4908
871.23	5159
871.36	5189
871.489	5006
871.619	5064
871.749	5014
871.879	5117
872.008	5124
872.138	5037
872.267	4946
872.397	4877
872.526	4790
872.656	4714
872.785	4782
872.915	4927
873.044	5060
873.173	4946
873.303	4915
873.432	4904
873.561	4953
873.69	4908
873.819	4854
873.948	4930
874.077	4854
874.206	4782
874.335	4786
874.464	4949
874.593	5056
874.722	4946
874.851	5105
874.979	5064
875.108	5014
875.237	4930
875.365	4900
875.494	4877
875.623	4980
875.751	4828
875.88	4892
876.008	4980
876.136	5041
876.265	5212
876.393	5357
876.521	5246
876.65	5189
876.778	5147
876.906	5075
877.034	4980
877.162	5105
877.29	5033
877.418	5102
877.546	4991
877.674	5003
877.802	5025
877.93	5029
878.058	4953
878.185	4915
878.313	4938
878.441	4889
878.568	4793
878.696	4881
878.824	4938
878.951	5014
879.079	5136
879.206	5326
879.333	5113
879.461	4999
879.588	4991
879.715	5105
879.842	5201
879.97	5003
880.097	4752
880.224	4733
880.351	4816
880.478	4797
880.605	4862
880.732	4786
880.859	5109
880.986	4885
881.112	4885
881.239	4774
881.366	4691
881.493	4607
881.619	4603
881.746	4615
881.872	4641
881.999	4679
882.125	4687
882.252	4809
882.378	4793
882.505	4927
882.631	4850
882.757	4653
882.883	4763
883.01	4759
883.136	4637
883.262	4599
883.388	4653
883.514	4774
883.64	4877
883.766	4816
883.892	4641
884.018	4725
884.143	4885
884.269	4961
884.395	4672
884.52	4607
884.646	4687
884.772	4622
884.897	4573
885.023	4675
885.148	4805
885.274	4824
885.399	4755
885.524	4706
885.65	4691
885.775	4721
885.9	4725
886.025	4847
886.15	4786
886.275	4691
886.4	4714
886.525	4736
886.65	4679
886.775	4714
886.9	4908
887.025	5006
887.149	4824
887.274	4660
887.399	4554
887.523	4622
887.648	4592
887.773	4599
887.897	4733
888.021	4816
888.146	4687
888.27	4786
888.395	4873
888.519	4835
888.643	4843
888.767	4828
888.891	4653
889.015	4607
889.139	4714
889.263	4679
889.387	4729
889.511	4881
889.635	4831
889.759	4645
889.883	4649
890.006	4744
890.13	4850
890.254	4622
890.377	4664
890.501	4565
890.624	4538
890.748	4641
890.871	4523
890.995	4428
891.118	4436
891.241	4493
891.364	4497
891.488	4615
891.611	4485
891.734	4512
891.857	4584
891.98	4531
892.103	4687
892.226	4542
892.349	4508
892.471	4443
892.594	4550
892.717	4645
892.839	4550
892.962	4584
893.085	4649
893.207	4645
893.33	4451
893.452	4485
893.575	4679
893.697	4580
893.819	4809
893.941	4828
894.064	4744
894.186	4584
894.308	4599
894.43	4725
894.552	4797
894.674	4736
894.796	4523
894.918	4554
895.04	4542
895.161	4694
895.283	4649
895.405	4531
895.526	4615
895.648	4714
895.769	4706
895.891	4687
896.012	4710
896.134	4740
896.255	4668
896.376	4584
896.498	4622
896.619	4717
896.74	4592
896.861	4649
896.982	4896
897.103	5060
897.224	4790
897.345	4733
897.466	4694
897.587	4721
897.708	4801
897.828	4778
897.949	4710
898.07	4580
898.19	4618
898.311	4850
898.431	4668
898.552	4759
898.672	4847
898.792	4839
898.913	4736
899.033	4588
899.153	4493
899.273	4421
899.393	4497
899.513	4565
899.633	4493
899.753	4573
899.873	4538
899.993	4630
900.113	4580
900.232	4580
900.352	4508
900.472	4527
900.591	4363
900.711	4466
900.83	4455
900.95	4596
901.069	4694
901.189	4550
901.308	4394
901.427	4329
901.546	4360
901.665	4485
901.784	4523
901.904	4390
902.023	4352
902.141	4223
902.26	4154
902.379	4291
902.498	4227
902.617	4207
902.735	4371
902.854	4447
902.973	4352
903.091	4238
903.21	4223
903.328	4322
903.446	4287
903.565	4257
903.683	4360
903.801	4287
903.919	4443
904.038	4466
904.156	4341
904.274	4432
904.392	4402
904.51	4390
904.627	4485
904.745	4577
904.863	4660
904.981	4413
905.098	4276
905.216	4371
905.334	4428
905.451	4462
905.569	4417
905.686	4550
905.803	4580
905.921	4367
906.038	4508
906.155	4500
906.272	4390
906.389	4493
906.506	4371
906.623	4363
906.74	4379
906.857	4295
906.974	4379
907.091	4580
907.208	4683
907.324	4550
907.441	4485
907.557	4299
907.674	4329
907.79	4371
907.907	4413
908.023	4512
908.139	4497
908.256	4451
908.372	4493
908.488	4428
908.604	4314
908.72	4325
908.836	4440
908.952	4371
909.068	4413
909.184	4558
909.3	4470
909.415	4588
909.531	4580
909.647	4398
909.762	4390
909.878	4325
909.993	4455
910.108	4405
910.224	4371
910.339	4523
910.454	4398
910.57	4341
910.685	4299
910.8	4653
910.915	4531
911.03	4500
911.145	4318
911.259	4337
911.374	4360
911.489	4238
911.604	4276
911.718	4169
911.833	4207
911.947	4071
912.062	4006
912.176	4192
912.291	4249
912.405	4227
912.519	4466
912.633	4500
912.748	4421
912.862	4280
912.976	4185
913.09	4116
913.204	4181
913.318	4246
913.431	4352
913.545	4386
913.659	4447
913.772	4360
913.886	4257
914	4223
914.113	4341
914.226	4440
914.34	4379
914.453	4261
914.566	4405
914.68	4310
914.793	4348
914.906	4177
915.019	4131
915.132	4109
915.245	4158
915.358	4227
915.47	4257
915.583	4303
915.696	4337
915.809	4402
915.921	4421
916.034	4261
916.146	4253
916.259	4215
916.371	4379
916.483	4394
916.595	4238
916.708	4413
916.82	4303
916.932	4291
917.044	4386
917.156	4344
917.268	4238
917.38	4314
917.491	4276
917.603	4344
917.715	4413
917.826	4470
917.938	4383
918.049	4249
918.161	4398
918.272	4573
918.384	4497
918.495	4462
918.606	4265
918.717	4261
918.828	4242
918.939	4341
919.05	4223
919.161	4310
919.272	4143
919.383	4261
919.494	4398
919.604	4615
919.715	4451
919.826	4348
919.936	4405
920.047	4497
920.157	4504
920.267	4584
920.378	4561
920.488	4436
920.598	4683
920.708	4877
920.818	4782
920.928	4759
921.038	4934
921.148	4915
921.258	4637
921.368	4599
921.477	4489
921.587	4474
921.697	4348
921.806	4550
921.916	4447
922.025	4265
922.134	4257
922.244	4177
922.353	4306
922.462	4143
922.571	4139
922.68	3998
922.789	4006
922.898	4032
923.007	3975
923.116	4169
923.224	4063
923.333	4063
923.442	3994
923.55	3979
923.659	4021
923.767	4116
923.876	4017
923.984	4139
924.092	3972
924.201	4074
924.309	4086
924.417	4116
924.525	4086
924.633	4101
924.741	5064
924.849	3896
924.956	4147
925.064	4006
925.172	3899
925.279	4006
925.387	4025
925.494	4040
925.602	4204
925.709	4173
925.816	4048
925.924	4109
926.031	4242
926.138	4131
926.245	4211
926.352	4074
926.459	4230
926.566	4291
926.673	4147
926.779	4112
926.886	4063
926.993	3941
927.099	3918
927.206	3994
927.312	3922
927.419	4032
927.525	4021
927.631	4071
927.737	3930
927.843	3903
927.95	3816
928.056	3911
928.162	3994
928.267	4044
928.373	4656
928.479	4097
928.585	3892
928.69	3998
928.796	4048
928.901	3918
929.007	3831
929.112	4006
929.218	3926
929.323	3907
929.428	3945
929.533	4128
929.638	3918
929.743	3949
929.848	4025
929.953	4029
930.058	3968
930.163	3808
930.267	3827
930.372	3953
930.477	3797
930.581	4044
930.685	3941
930.79	3812
930.894	3941
930.998	3842
931.103	3987
931.207	3717
931.311	3679
931.415	3648
931.519	3526
931.623	3568
