Data from test_V78500241_934.txt Node
Date: Fri Mar 25 16:55:29 CST 2022
User: usil
Spectrometer: V785-0024
Trigger mode: 0
Integration Time (sec): 4.000000E-1
Scans to average: 1
Nonlinearity correction enabled: false
Boxcar width: 0
Storing dark spectrum: false
XAxis mode: Wavelengths
Number of Pixels in Spectrum: 1024
>>>>>Begin Spectral Data<<<<<
801.071	8046
801.214	7932
801.356	7871
801.499	7856
801.641	7780
801.783	7852
801.926	7967
802.068	7947
802.211	7944
802.353	7970
802.496	7837
802.638	7868
802.78	7917
802.923	7932
803.065	7890
803.208	7925
803.35	8054
803.492	8119
803.635	8119
803.777	8005
803.919	8096
804.061	8351
804.204	8039
804.346	8069
804.488	7970
804.63	8077
804.773	8069
804.915	8005
805.057	8214
805.199	8100
805.341	8210
805.483	8233
805.626	8176
805.768	8088
805.91	8157
806.052	8092
806.194	8092
806.336	8279
806.478	8073
806.62	8058
806.762	8062
806.904	8290
807.046	8518
807.188	8320
807.33	8317
807.472	8275
807.614	8134
807.756	8180
807.898	8024
808.04	7906
808.182	7951
808.324	7879
808.465	7940
808.607	8035
808.749	8092
808.891	8199
809.033	8195
809.174	8183
809.316	8035
809.458	8012
809.6	7890
809.741	7997
809.883	8043
810.025	8054
810.166	8039
810.308	8096
810.45	8005
810.591	7890
810.733	7731
810.875	7651
811.016	7495
811.158	7499
811.299	7597
811.441	7685
811.582	7651
811.724	7529
811.865	7502
812.007	7514
812.148	7525
812.29	7636
812.431	7693
812.573	7852
812.714	7963
812.855	8172
812.997	8225
813.138	8355
813.279	8149
813.421	8084
813.562	8046
813.703	7818
813.845	7807
813.986	7441
814.127	7270
814.268	7217
814.41	7190
814.551	7050
814.692	7076
814.833	7053
814.974	7080
815.115	7072
815.256	6947
815.397	6909
815.539	6951
815.68	6833
815.821	6787
815.962	6875
816.103	6779
816.244	6688
816.385	6601
816.526	6642
816.666	6452
816.807	6357
816.948	6403
817.089	6414
817.23	6467
817.371	6327
817.512	6399
817.653	6365
817.793	6357
817.934	6369
818.075	6426
818.216	6441
818.356	6452
818.497	6220
818.638	6144
818.778	6125
818.919	6106
819.06	6102
819.2	6258
819.341	6311
819.481	6380
819.622	6475
819.762	6684
819.903	6677
820.043	6597
820.184	6559
820.324	6551
820.465	6692
820.605	6669
820.746	6570
820.886	6509
821.026	6654
821.167	6719
821.307	6795
821.447	6798
821.588	6589
821.728	6528
821.868	6426
822.008	6350
822.149	6361
822.289	6334
822.429	6125
822.569	6106
822.709	6083
822.849	5851
822.99	5916
823.13	5901
823.27	5840
823.41	5775
823.55	5794
823.69	5752
823.83	5760
823.97	5619
824.11	5501
824.25	5524
824.389	5535
824.529	5535
824.669	5440
824.809	5577
824.949	5634
825.089	5611
825.228	5547
825.368	5334
825.508	5353
825.648	5311
825.787	5364
825.927	5330
826.067	5296
826.206	5303
826.346	5391
826.485	5391
826.625	5414
826.765	5512
826.904	5463
827.044	5216
827.183	5128
827.323	5113
827.462	5181
827.601	5136
827.741	5159
827.88	5220
828.02	5151
828.159	5231
828.298	5277
828.437	5345
828.577	5220
828.716	5482
828.855	5265
828.994	5212
829.134	5162
829.273	5208
829.412	5094
829.551	5147
829.69	5166
829.829	5277
829.968	5398
830.107	5303
830.246	5296
830.385	5197
830.524	5181
830.663	5113
830.802	5041
830.941	4984
831.08	4934
831.219	5075
831.357	4957
831.496	5140
831.635	4934
831.774	4885
831.913	4847
832.051	4755
832.19	4809
832.329	4835
832.467	4668
832.606	4622
832.744	4771
832.883	4755
833.022	4771
833.16	4835
833.299	4885
833.437	4843
833.576	4919
833.714	4858
833.852	4900
833.991	4946
834.129	4980
834.267	4953
834.406	4923
834.544	4987
834.682	5018
834.821	5014
834.959	5208
835.097	5060
835.235	5143
835.373	5113
835.511	5124
835.65	5090
835.788	5033
835.926	4915
836.064	4877
836.202	4892
836.34	5155
836.478	5299
836.615	5143
836.753	5242
836.891	5326
837.029	5292
837.167	5246
837.305	5185
837.443	5174
837.58	5079
837.718	5296
837.856	5212
837.993	5162
838.131	5280
838.269	5174
838.406	5246
838.544	5201
838.681	5041
838.819	5052
838.956	4980
839.094	4961
839.231	5086
839.369	5117
839.506	5528
839.643	5284
839.781	5056
839.918	5033
840.055	5090
840.193	5098
840.33	5143
840.467	5170
840.604	5208
840.742	5490
840.879	5117
841.016	5102
841.153	5250
841.29	5455
841.427	5322
841.564	5368
841.701	5357
841.838	5273
841.975	5239
842.112	5345
842.249	5170
842.385	5136
842.522	5383
842.659	5212
842.796	5124
842.933	5235
843.069	5193
843.206	5197
843.343	5345
843.479	5265
843.616	5280
843.752	5113
843.889	5037
844.025	5239
844.162	5037
844.298	5280
844.435	5086
844.571	5090
844.708	5235
844.844	5269
844.98	5292
845.117	5360
845.253	5143
845.389	5060
845.525	5185
845.661	5178
845.798	5086
845.934	5170
846.07	5086
846.206	5235
846.342	5288
846.478	5166
846.614	5079
846.75	4991
846.886	4965
847.022	5109
847.158	5003
847.294	5064
847.429	5060
847.565	5064
847.701	5311
847.837	4877
847.972	4812
848.108	4984
848.244	4927
848.379	4820
848.515	4774
848.65	4752
848.786	4717
848.921	4831
849.057	4858
849.192	4919
849.328	4847
849.463	4885
849.598	4782
849.734	4786
849.869	4736
850.004	4691
850.14	4725
850.275	4637
850.41	4584
850.545	4554
850.68	4618
850.815	4618
850.95	4668
851.085	4873
851.22	4805
851.355	4664
851.49	4660
851.625	4622
851.76	4687
851.895	4561
852.03	4577
852.165	4649
852.299	4744
852.434	4790
852.569	4767
852.703	4763
852.838	4896
852.973	4911
853.107	4930
853.242	4778
853.376	4706
853.511	4618
853.645	4649
853.78	4809
853.914	4717
854.048	4706
854.183	4653
854.317	4733
854.451	4831
854.585	4725
854.72	4641
854.854	4778
854.988	4687
855.122	4683
855.256	4531
855.39	4664
855.524	4786
855.658	4752
855.792	4752
855.926	4744
856.06	4740
856.194	4805
856.327	4721
856.461	4615
856.595	4645
856.729	4645
856.862	4736
856.996	4714
857.13	4736
857.263	4793
857.397	4801
857.53	4721
857.664	4733
857.797	4797
857.931	4809
858.064	4679
858.197	4744
858.331	4634
858.464	4675
858.597	4523
858.731	4599
858.864	4675
858.997	4630
859.13	4679
859.263	4656
859.396	4733
859.529	4653
859.662	4531
859.795	4573
859.928	4664
860.061	4820
860.194	4767
860.327	4653
860.46	4626
860.592	4740
860.725	4717
860.858	4717
860.99	4626
861.123	4523
861.256	4607
861.388	4641
861.521	5178
861.653	4542
861.786	4481
861.918	4481
862.05	4592
862.183	4558
862.315	4596
862.447	4649
862.58	4577
862.712	4390
862.844	4352
862.976	4493
863.108	4459
863.24	4767
863.372	4383
863.504	4478
863.636	4413
863.768	4500
863.9	4402
864.032	4352
864.164	4356
864.296	4440
864.428	4546
864.559	4573
864.691	4535
864.823	4550
864.954	4527
865.086	4523
865.217	4489
865.349	4428
865.48	4474
865.612	4516
865.743	4634
865.875	4485
866.006	4459
866.137	4470
866.269	4455
866.4	4417
866.531	4421
866.662	4409
866.793	4413
866.924	4478
867.055	4489
867.186	4478
867.317	4421
867.448	4417
867.579	4462
867.71	4443
867.841	4383
867.972	4523
868.103	4466
868.233	4497
868.364	4481
868.495	4497
868.625	4679
868.756	4740
868.886	4607
869.017	4618
869.147	4771
869.278	4771
869.408	4656
869.539	4603
869.669	4714
869.799	4694
869.929	4748
870.06	4748
870.19	4961
870.32	4942
870.45	4934
870.58	5018
870.71	5094
870.84	5121
870.97	4934
871.1	4862
871.23	5124
871.36	5147
871.489	5056
871.619	5094
871.749	5079
871.879	5121
872.008	5147
872.138	5109
872.267	4984
872.397	4809
872.526	4835
872.656	4702
872.785	4767
872.915	4972
873.044	5079
873.173	4930
873.303	4991
873.432	4904
873.561	4957
873.69	4919
873.819	4843
873.948	4911
874.077	4877
874.206	4797
874.335	4850
874.464	4946
874.593	5060
874.722	5033
874.851	5086
874.979	5029
875.108	5006
875.237	4934
875.365	4839
875.494	4923
875.623	5037
875.751	4828
875.88	4915
876.008	4984
876.136	5048
876.265	5151
876.393	5318
876.521	5242
876.65	5258
876.778	5128
876.906	5143
877.034	4995
877.162	4995
877.29	4995
877.418	5098
877.546	5018
877.674	4976
877.802	5056
877.93	5052
878.058	4965
878.185	4873
878.313	4957
878.441	4892
878.568	4816
878.696	4870
878.824	5029
878.951	4934
879.079	5193
879.206	5284
879.333	5090
879.461	4953
879.588	5037
879.715	5113
879.842	5242
879.97	5033
880.097	4812
880.224	4763
880.351	4843
880.478	4847
880.605	4820
880.732	4862
880.859	5102
880.986	4942
881.112	4927
881.239	4854
881.366	4668
881.493	4645
881.619	4599
881.746	4653
881.872	4656
881.999	4687
882.125	4702
882.252	4843
882.378	4877
882.505	4965
882.631	4847
882.757	4706
882.883	4755
883.01	4744
883.136	4687
883.262	4615
883.388	4626
883.514	4809
883.64	4877
883.766	4839
883.892	4710
884.018	4721
884.143	4900
884.269	5037
884.395	4706
884.52	4641
884.646	4649
884.772	4573
884.897	4558
885.023	4645
885.148	4801
885.274	4797
885.399	4793
885.524	4733
885.65	4679
885.775	4736
885.9	4668
886.025	4873
886.15	4793
886.275	4790
886.4	4641
886.525	4721
886.65	4660
886.775	4710
886.9	4923
887.025	5010
887.149	4786
887.274	4694
887.399	4626
887.523	4634
887.648	4580
887.773	4584
887.897	4767
888.021	4774
888.146	4653
888.27	4812
888.395	4923
888.519	4805
888.643	4824
888.767	4873
888.891	4694
889.015	4599
889.139	4634
889.263	4603
889.387	4733
889.511	4877
889.635	4790
889.759	4611
889.883	4660
890.006	4691
890.13	4847
890.254	4603
890.377	4702
890.501	4565
890.624	4519
890.748	4672
890.871	4504
890.995	4447
891.118	4390
891.241	4516
891.364	4523
891.488	4637
891.611	4493
891.734	4512
891.857	4607
891.98	4527
892.103	4634
892.226	4573
892.349	4565
892.471	4432
892.594	4561
892.717	4611
892.839	4592
892.962	4615
893.085	4577
893.207	4580
893.33	4478
893.452	4592
893.575	4653
893.697	4618
893.819	4812
893.941	4812
894.064	4790
894.186	4649
894.308	4569
894.43	4725
894.552	4809
894.674	4717
894.796	4573
894.918	4580
895.04	4596
895.161	4706
895.283	4660
895.405	4558
895.526	4618
895.648	4679
895.769	4736
895.891	4752
896.012	4710
896.134	4736
896.255	4634
896.376	4618
896.498	4584
896.619	4611
896.74	4641
896.861	4611
896.982	4877
897.103	5056
897.224	4820
897.345	4759
897.466	4683
897.587	4736
897.708	4862
897.828	4767
897.949	4630
898.07	4550
898.19	4649
898.311	4774
898.431	4626
898.552	4721
898.672	4797
898.792	4786
898.913	4717
899.033	4596
899.153	4531
899.273	4455
899.393	4508
899.513	4478
899.633	4512
899.753	4546
899.873	4485
899.993	4611
900.113	4489
900.232	4569
900.352	4504
900.472	4531
900.591	4398
900.711	4500
900.83	4424
900.95	4622
901.069	4668
901.189	4516
901.308	4360
901.427	4325
901.546	4360
901.665	4402
901.784	4519
901.904	4383
902.023	4325
902.141	4215
902.26	4116
902.379	4306
902.498	4238
902.617	4227
902.735	4394
902.854	4398
902.973	4295
903.091	4207
903.21	4219
903.328	4272
903.446	4276
903.565	4238
903.683	4367
903.801	4291
903.919	4421
904.038	4493
904.156	4348
904.274	4440
904.392	4398
904.51	4470
904.627	4531
904.745	4618
904.863	4660
904.981	4417
905.098	4337
905.216	4360
905.334	4421
905.451	4443
905.569	4447
905.686	4596
905.803	4611
905.921	4447
906.038	4523
906.155	4478
906.272	4402
906.389	4516
906.506	4402
906.623	4417
906.74	4417
906.857	4303
906.974	4413
907.091	4626
907.208	4721
907.324	4596
907.441	4569
907.557	4398
907.674	4379
907.79	4379
907.907	4474
908.023	4512
908.139	4470
908.256	4519
908.372	4531
908.488	4470
908.604	4390
908.72	4375
908.836	4405
908.952	4405
909.068	4443
909.184	4577
909.3	4504
909.415	4603
909.531	4561
909.647	4363
909.762	4375
909.878	4409
909.993	4519
910.108	4440
910.224	4432
910.339	4535
910.454	4443
910.57	4428
910.685	4375
910.8	4755
910.915	4618
911.03	4497
911.145	4337
911.259	4379
911.374	4459
911.489	4322
911.604	4329
911.718	4211
911.833	4230
911.947	4109
912.062	4097
912.176	4238
912.291	4265
912.405	4344
912.519	4481
912.633	4500
912.748	4424
912.862	4352
912.976	4253
913.09	4188
913.204	4223
913.318	4299
913.431	4421
913.545	4417
913.659	4478
913.772	4375
913.886	4299
914	4268
914.113	4432
914.226	4436
914.34	4432
914.453	4253
914.566	4466
914.68	4291
914.793	4386
914.906	4185
915.019	4158
915.132	4105
915.245	4238
915.358	4246
915.47	4238
915.583	4310
915.696	4333
915.809	4493
915.921	4451
916.034	4295
916.146	4314
916.259	4253
916.371	4447
916.483	4386
916.595	4272
916.708	4344
916.82	4367
916.932	4329
917.044	4390
917.156	4375
917.268	4299
917.38	4303
917.491	4272
917.603	4356
917.715	4405
917.826	4519
917.938	4360
918.049	4246
918.161	4409
918.272	4558
918.384	4592
918.495	4451
918.606	4341
918.717	4246
918.828	4344
918.939	4383
919.05	4306
919.161	4394
919.272	4158
919.383	4238
919.494	4504
919.604	4622
919.715	4470
919.826	4386
919.936	4462
920.047	4565
920.157	4504
920.267	4733
920.378	4569
920.488	4577
920.598	4763
920.708	4923
920.818	4767
920.928	4767
921.038	5010
921.148	4934
921.258	4649
921.368	4599
921.477	4519
921.587	4489
921.697	4409
921.806	4573
921.916	4462
922.025	4291
922.134	4314
922.244	4238
922.353	4352
922.462	4196
922.571	4139
922.68	3998
922.789	4010
922.898	4086
923.007	4029
923.116	4105
923.224	4082
923.333	4082
923.442	3972
923.55	3987
923.659	4063
923.767	4166
923.876	4017
923.984	4219
924.092	4010
924.201	4154
924.309	4120
924.417	4147
924.525	4105
924.633	4116
924.741	5140
924.849	3911
924.956	4150
925.064	3975
925.172	3896
925.279	3972
925.387	4093
925.494	4131
925.602	4215
925.709	4211
925.816	4051
925.924	4181
926.031	4310
926.138	4192
926.245	4299
926.352	4169
926.459	4257
926.566	4295
926.673	4192
926.779	4090
926.886	4131
926.993	4013
927.099	4002
927.206	3934
927.312	4002
927.419	4063
927.525	4055
927.631	4101
927.737	3991
927.843	3983
927.95	3926
928.056	3964
928.162	4013
928.267	4090
928.373	4664
928.479	4169
928.585	3930
928.69	4067
928.796	4067
928.901	3998
929.007	3892
929.112	4017
929.218	3983
929.323	3937
929.428	3994
929.533	4071
929.638	3945
929.743	3991
929.848	4074
929.953	4006
930.058	3964
930.163	3823
930.267	3861
930.372	3994
930.477	3899
930.581	4097
930.685	3930
930.79	3838
930.894	3937
930.998	3907
931.103	4059
931.207	3740
931.311	3743
931.415	3724
931.519	3530
931.623	3561
