Data from test_V78500241_518.txt Node
Date: Fri Mar 25 16:52:36 CST 2022
User: usil
Spectrometer: V785-0024
Trigger mode: 0
Integration Time (sec): 4.000000E-1
Scans to average: 1
Nonlinearity correction enabled: false
Boxcar width: 0
Storing dark spectrum: false
XAxis mode: Wavelengths
Number of Pixels in Spectrum: 1024
>>>>>Begin Spectral Data<<<<<
801.071	8039
801.214	7932
801.356	7811
801.499	7837
801.641	7845
801.783	7875
801.926	8046
802.068	8043
802.211	7936
802.353	7993
802.496	7894
802.638	7917
802.78	7841
802.923	7887
803.065	7826
803.208	7822
803.35	7993
803.492	8107
803.635	8077
803.777	8001
803.919	8077
804.061	8389
804.204	8084
804.346	8035
804.488	7944
804.63	8069
804.773	8005
804.915	8024
805.057	8199
805.199	8206
805.341	8275
805.483	8195
805.626	8195
805.768	8039
805.91	8157
806.052	8164
806.194	7997
806.336	8279
806.478	8096
806.62	8024
806.762	8149
806.904	8252
807.046	8385
807.188	8313
807.33	8229
807.472	8320
807.614	8058
807.756	8073
807.898	7902
808.04	7860
808.182	7902
808.324	7909
808.465	7894
808.607	8031
808.749	8084
808.891	8191
809.033	8233
809.174	8183
809.316	8027
809.458	8084
809.6	7989
809.741	8008
809.883	8039
810.025	8024
810.166	8069
810.308	8005
810.45	8005
810.591	7875
810.733	7677
810.875	7685
811.016	7499
811.158	7438
811.299	7624
811.441	7753
811.582	7605
811.724	7556
811.865	7506
812.007	7552
812.148	7590
812.29	7609
812.431	7780
812.573	7894
812.714	8111
812.855	8164
812.997	8252
813.138	8366
813.279	8221
813.421	8107
813.562	8043
813.703	7940
813.845	7788
813.986	7464
814.127	7403
814.268	7331
814.41	7259
814.551	7202
814.692	7152
814.833	7076
814.974	7141
815.115	7194
815.256	7000
815.397	6905
815.539	6985
815.68	6821
815.821	6776
815.962	6833
816.103	6833
816.244	6726
816.385	6589
816.526	6570
816.666	6544
816.807	6350
816.948	6452
817.089	6471
817.23	6407
817.371	6369
817.512	6346
817.653	6414
817.793	6331
817.934	6399
818.075	6414
818.216	6479
818.356	6422
818.497	6262
818.638	6148
818.778	6102
818.919	6087
819.06	6159
819.2	6251
819.341	6254
819.481	6361
819.622	6494
819.762	6730
819.903	6681
820.043	6623
820.184	6551
820.324	6559
820.465	6673
820.605	6646
820.746	6658
820.886	6513
821.026	6658
821.167	6711
821.307	6760
821.447	6692
821.588	6616
821.728	6570
821.868	6418
822.008	6296
822.149	6414
822.289	6369
822.429	6129
822.569	6060
822.709	6136
822.849	5973
822.99	5859
823.13	5866
823.27	5908
823.41	5756
823.55	5771
823.69	5756
823.83	5809
823.97	5676
824.11	5463
824.25	5501
824.389	5535
824.529	5573
824.669	5535
824.809	5611
824.949	5634
825.089	5623
825.228	5581
825.368	5421
825.508	5379
825.648	5318
825.787	5402
825.927	5398
826.067	5326
826.206	5326
826.346	5406
826.485	5372
826.625	5425
826.765	5520
826.904	5402
827.044	5223
827.183	5212
827.323	5102
827.462	5227
827.601	5201
827.741	5242
827.88	5181
828.02	5117
828.159	5181
828.298	5277
828.437	5372
828.577	5254
828.716	5490
828.855	5318
828.994	5170
829.134	5128
829.273	5170
829.412	5197
829.551	5128
829.69	5113
829.829	5250
829.968	5391
830.107	5280
830.246	5284
830.385	5155
830.524	5128
830.663	5079
830.802	4991
830.941	4892
831.08	4900
831.219	4987
831.357	4987
831.496	5147
831.635	4946
831.774	4873
831.913	4839
832.051	4717
832.19	4748
832.329	4843
832.467	4653
832.606	4584
832.744	4660
832.883	4725
833.022	4755
833.16	4805
833.299	4797
833.437	4862
833.576	4828
833.714	4889
833.852	4820
833.991	4866
834.129	4965
834.267	4930
834.406	4915
834.544	4942
834.682	4980
834.821	4961
834.959	5166
835.097	4976
835.235	5136
835.373	5045
835.511	5109
835.65	5048
835.788	5045
835.926	4885
836.064	4843
836.202	4885
836.34	5140
836.478	5197
836.615	5094
836.753	5189
836.891	5299
837.029	5220
837.167	5147
837.305	5174
837.443	5121
837.58	5105
837.718	5242
837.856	5181
837.993	5109
838.131	5239
838.269	5189
838.406	5155
838.544	5185
838.681	5060
838.819	5037
838.956	4900
839.094	4896
839.231	4984
839.369	5067
839.506	5402
839.643	5254
839.781	5056
839.918	5010
840.055	5109
840.193	5102
840.33	5143
840.467	5086
840.604	5223
840.742	5417
840.879	5048
841.016	5098
841.153	5147
841.29	5376
841.427	5318
841.564	5326
841.701	5383
841.838	5246
841.975	5261
842.112	5261
842.249	5170
842.385	5128
842.522	5334
842.659	5136
842.796	5151
842.933	5223
843.069	5147
843.206	5140
843.343	5311
843.479	5250
843.616	5269
843.752	4991
843.889	5010
844.025	5220
844.162	5033
844.298	5258
844.435	5048
844.571	5048
844.708	5216
844.844	5258
844.98	5334
845.117	5258
845.253	5162
845.389	5022
845.525	5162
845.661	5201
845.798	5064
845.934	5174
846.07	5060
846.206	5204
846.342	5280
846.478	5132
846.614	4995
846.75	5022
846.886	4953
847.022	5105
847.158	5045
847.294	5048
847.429	5128
847.565	5048
847.701	5296
847.837	4889
847.972	4786
848.108	4953
848.244	4949
848.379	4755
848.515	4740
848.65	4725
848.786	4774
848.921	4801
849.057	4786
849.192	4870
849.328	4835
849.463	4881
849.598	4763
849.734	4729
849.869	4664
850.004	4649
850.14	4668
850.275	4622
850.41	4470
850.545	4535
850.68	4573
850.815	4599
850.95	4630
851.085	4850
851.22	4706
851.355	4664
851.49	4664
851.625	4622
851.76	4672
851.895	4516
852.03	4580
852.165	4618
852.299	4744
852.434	4786
852.569	4778
852.703	4733
852.838	4839
852.973	4930
853.107	4904
853.242	4755
853.376	4702
853.511	4573
853.645	4660
853.78	4812
853.914	4717
854.048	4656
854.183	4626
854.317	4702
854.451	4866
854.585	4687
854.72	4634
854.854	4755
854.988	4592
855.122	4637
855.256	4504
855.39	4694
855.524	4782
855.658	4675
855.792	4668
855.926	4698
856.06	4744
856.194	4778
856.327	4691
856.461	4603
856.595	4550
856.729	4637
856.862	4733
856.996	4656
857.13	4721
857.263	4740
857.397	4828
857.53	4653
857.664	4729
857.797	4748
857.931	4782
858.064	4729
858.197	4714
858.331	4618
858.464	4656
858.597	4516
858.731	4641
858.864	4615
858.997	4584
859.13	4679
859.263	4660
859.396	4744
859.529	4538
859.662	4569
859.795	4542
859.928	4653
860.061	4740
860.194	4797
860.327	4641
860.46	4573
860.592	4694
860.725	4691
860.858	4717
860.99	4599
861.123	4527
861.256	4519
861.388	4584
861.521	5395
861.653	4516
861.786	4459
861.918	4474
862.05	4481
862.183	4596
862.315	4622
862.447	4687
862.58	4569
862.712	4386
862.844	4367
862.976	4535
863.108	4440
863.24	4892
863.372	4329
863.504	4417
863.636	4440
863.768	4455
863.9	4405
864.032	4379
864.164	4421
864.296	4478
864.428	4542
864.559	4523
864.691	4523
864.823	4550
864.954	4489
865.086	4508
865.217	4443
865.349	4424
865.48	4462
865.612	4447
865.743	4626
865.875	4424
866.006	4394
866.137	4474
866.269	4455
866.4	4447
866.531	4432
866.662	4371
866.793	4409
866.924	4440
867.055	4462
867.186	4436
867.317	4386
867.448	4356
867.579	4409
867.71	4440
867.841	4379
867.972	4413
868.103	4500
868.233	4428
868.364	4466
868.495	4531
868.625	4630
868.756	4755
868.886	4580
869.017	4691
869.147	4763
869.278	4748
869.408	4687
869.539	4653
869.669	4744
869.799	4687
869.929	4767
870.06	4740
870.19	4927
870.32	4892
870.45	4957
870.58	4995
870.71	5086
870.84	5079
870.97	4949
871.1	4858
871.23	5143
871.36	5151
871.489	5033
871.619	5029
871.749	5079
871.879	5128
872.008	5174
872.138	5010
872.267	4965
872.397	4885
872.526	4805
872.656	4801
872.785	4828
872.915	4946
873.044	5098
873.173	4919
873.303	4991
873.432	4919
873.561	4934
873.69	4892
873.819	4889
873.948	4923
874.077	4847
874.206	4782
874.335	4778
874.464	4927
874.593	5052
874.722	4980
874.851	5105
874.979	5067
875.108	4987
875.237	4885
875.365	4847
875.494	4862
875.623	4968
875.751	4824
875.88	4885
876.008	5025
876.136	5041
876.265	5193
876.393	5292
876.521	5269
876.65	5242
876.778	5162
876.906	5098
877.034	5060
877.162	5056
877.29	5014
877.418	5075
877.546	5083
877.674	5052
877.802	4984
877.93	5014
878.058	4995
878.185	4854
878.313	4927
878.441	4984
878.568	4763
878.696	4847
878.824	5010
878.951	4991
879.079	5124
879.206	5296
879.333	5098
879.461	4949
879.588	5006
879.715	5128
879.842	5174
879.97	5006
880.097	4748
880.224	4740
880.351	4828
880.478	4862
880.605	4793
880.732	4771
880.859	5083
880.986	4942
881.112	4877
881.239	4721
881.366	4694
881.493	4615
881.619	4592
881.746	4672
881.872	4637
881.999	4702
882.125	4714
882.252	4812
882.378	4839
882.505	4957
882.631	4816
882.757	4672
882.883	4729
883.01	4672
883.136	4679
883.262	4622
883.388	4675
883.514	4828
883.64	4850
883.766	4797
883.892	4717
884.018	4759
884.143	4915
884.269	5033
884.395	4683
884.52	4664
884.646	4637
884.772	4596
884.897	4569
885.023	4672
885.148	4744
885.274	4870
885.399	4790
885.524	4733
885.65	4660
885.775	4717
885.9	4664
886.025	4858
886.15	4850
886.275	4706
886.4	4603
886.525	4717
886.65	4660
886.775	4679
886.9	4877
887.025	5022
887.149	4820
887.274	4615
887.399	4565
887.523	4599
887.648	4554
887.773	4607
887.897	4740
888.021	4774
888.146	4641
888.27	4828
888.395	4919
888.519	4843
888.643	4786
888.767	4812
888.891	4717
889.015	4615
889.139	4637
889.263	4626
889.387	4736
889.511	4858
889.635	4812
889.759	4645
889.883	4668
890.006	4771
890.13	4805
890.254	4618
890.377	4687
890.501	4554
890.624	4535
890.748	4660
890.871	4558
890.995	4402
891.118	4375
891.241	4493
891.364	4535
891.488	4645
891.611	4493
891.734	4573
891.857	4538
891.98	4550
892.103	4660
892.226	4577
892.349	4535
892.471	4413
892.594	4580
892.717	4527
892.839	4584
892.962	4573
893.085	4656
893.207	4615
893.33	4447
893.452	4523
893.575	4664
893.697	4561
893.819	4812
893.941	4801
894.064	4812
894.186	4565
894.308	4584
894.43	4755
894.552	4805
894.674	4748
894.796	4550
894.918	4535
895.04	4599
895.161	4656
895.283	4641
895.405	4573
895.526	4645
895.648	4683
895.769	4660
895.891	4683
896.012	4694
896.134	4793
896.255	4683
896.376	4653
896.498	4630
896.619	4668
896.74	4596
896.861	4607
896.982	4961
897.103	5071
897.224	4915
897.345	4782
897.466	4687
897.587	4774
897.708	4843
897.828	4752
897.949	4691
898.07	4565
898.19	4645
898.311	4847
898.431	4675
898.552	4744
898.672	4824
898.792	4892
898.913	4771
899.033	4580
899.153	4462
899.273	4432
899.393	4535
899.513	4542
899.633	4508
899.753	4561
899.873	4462
899.993	4592
900.113	4546
900.232	4588
900.352	4550
900.472	4512
900.591	4390
900.711	4493
900.83	4455
900.95	4637
901.069	4683
901.189	4512
901.308	4360
901.427	4303
901.546	4363
901.665	4481
901.784	4500
901.904	4417
902.023	4363
902.141	4207
902.26	4181
902.379	4295
902.498	4207
902.617	4249
902.735	4371
902.854	4398
902.973	4360
903.091	4223
903.21	4215
903.328	4280
903.446	4253
903.565	4272
903.683	4322
903.801	4322
903.919	4402
904.038	4432
904.156	4318
904.274	4443
904.392	4413
904.51	4424
904.627	4459
904.745	4519
904.863	4645
904.981	4337
905.098	4348
905.216	4379
905.334	4402
905.451	4428
905.569	4440
905.686	4565
905.803	4607
905.921	4462
906.038	4546
906.155	4500
906.272	4413
906.389	4436
906.506	4398
906.623	4405
906.74	4428
906.857	4291
906.974	4371
907.091	4546
907.208	4668
907.324	4607
907.441	4516
907.557	4344
907.674	4367
907.79	4344
907.907	4424
908.023	4512
908.139	4447
908.256	4459
908.372	4447
908.488	4428
908.604	4394
908.72	4341
908.836	4402
908.952	4386
909.068	4386
909.184	4596
909.3	4470
909.415	4580
909.531	4527
909.647	4348
909.762	4360
909.878	4352
909.993	4402
910.108	4424
910.224	4390
910.339	4497
910.454	4409
910.57	4371
910.685	4310
910.8	4645
910.915	4588
911.03	4470
911.145	4333
911.259	4348
911.374	4394
911.489	4299
911.604	4310
911.718	4192
911.833	4158
911.947	4112
912.062	4067
912.176	4223
912.291	4242
912.405	4227
912.519	4440
912.633	4462
912.748	4386
912.862	4280
912.976	4196
913.09	4116
913.204	4166
913.318	4261
913.431	4363
913.545	4386
913.659	4462
913.772	4360
913.886	4234
914	4261
914.113	4363
914.226	4383
914.34	4402
914.453	4249
914.566	4447
914.68	4291
914.793	4287
914.906	4166
915.019	4120
915.132	4051
915.245	4139
915.358	4242
915.47	4215
915.583	4272
915.696	4337
915.809	4413
915.921	4386
916.034	4268
916.146	4249
916.259	4242
916.371	4352
916.483	4352
916.595	4261
916.708	4322
916.82	4287
916.932	4379
917.044	4314
917.156	4344
917.268	4242
917.38	4299
917.491	4287
917.603	4329
917.715	4440
917.826	4470
917.938	4352
918.049	4219
918.161	4386
918.272	4542
918.384	4512
918.495	4459
918.606	4306
918.717	4219
918.828	4360
918.939	4352
919.05	4280
919.161	4344
919.272	4158
919.383	4261
919.494	4455
919.604	4599
919.715	4443
919.826	4379
919.936	4386
920.047	4504
920.157	4489
920.267	4691
920.378	4546
920.488	4462
920.598	4698
920.708	4835
920.818	4725
920.928	4744
921.038	4938
921.148	4908
921.258	4641
921.368	4558
921.477	4508
921.587	4481
921.697	4352
921.806	4519
921.916	4405
922.025	4268
922.134	4246
922.244	4177
922.353	4322
922.462	4181
922.571	4101
922.68	4006
922.789	3945
922.898	4010
923.007	3979
923.116	4105
923.224	4071
923.333	4074
923.442	3998
923.55	4036
923.659	3991
923.767	4097
923.876	4055
923.984	4135
924.092	3964
924.201	4093
924.309	4086
924.417	4101
924.525	4025
924.633	4071
924.741	4991
924.849	3869
924.956	4139
925.064	3941
925.172	3899
925.279	3983
925.387	4032
925.494	4032
925.602	4238
925.709	4200
925.816	4059
925.924	4135
926.031	4219
926.138	4139
926.245	4211
926.352	4063
926.459	4280
926.566	4299
926.673	4162
926.779	4086
926.886	4051
926.993	3991
927.099	3956
927.206	3975
927.312	3934
927.419	4093
927.525	4006
927.631	4086
927.737	3956
927.843	3987
927.95	3861
928.056	3991
928.162	4025
928.267	4025
928.373	4706
928.479	4116
928.585	3857
928.69	4040
928.796	4067
928.901	3991
929.007	3785
929.112	3987
929.218	3960
929.323	3960
929.428	3934
929.533	4105
929.638	3949
929.743	3956
929.848	4059
929.953	4010
930.058	3896
930.163	3812
930.267	3800
930.372	3968
930.477	3808
930.581	4059
930.685	3953
930.79	3819
930.894	3903
930.998	3899
931.103	4071
931.207	3717
931.311	3694
931.415	3698
931.519	3564
931.623	3534
