Data from test_V78500241_2259.txt Node
Date: Fri Mar 25 17:04:42 CST 2022
User: usil
Spectrometer: V785-0024
Trigger mode: 0
Integration Time (sec): 4.000000E-1
Scans to average: 1
Nonlinearity correction enabled: false
Boxcar width: 0
Storing dark spectrum: false
XAxis mode: Wavelengths
Number of Pixels in Spectrum: 1024
>>>>>Begin Spectral Data<<<<<
801.071	7997
801.214	7989
801.356	7841
801.499	7898
801.641	7837
801.783	7814
801.926	8016
802.068	7879
802.211	7913
802.353	8005
802.496	7849
802.638	7856
802.78	7940
802.923	7925
803.065	7913
803.208	7921
803.35	8020
803.492	8073
803.635	8153
803.777	8069
803.919	8149
804.061	8442
804.204	8153
804.346	8107
804.488	8008
804.63	8084
804.773	7978
804.915	8130
805.057	8240
805.199	8218
805.341	8202
805.483	8240
805.626	8153
805.768	8138
805.91	8210
806.052	8202
806.194	8149
806.336	8309
806.478	8126
806.62	8096
806.762	8149
806.904	8298
807.046	8423
807.188	8347
807.33	8240
807.472	8332
807.614	8145
807.756	8218
807.898	7974
808.04	7917
808.182	7917
808.324	7879
808.465	7932
808.607	8046
808.749	8073
808.891	8225
809.033	8339
809.174	8187
809.316	8157
809.458	8111
809.6	8001
809.741	8027
809.883	7936
810.025	8138
810.166	8100
810.308	7936
810.45	8008
810.591	7826
810.733	7712
810.875	7681
811.016	7476
811.158	7430
811.299	7544
811.441	7708
811.582	7765
811.724	7647
811.865	7559
812.007	7605
812.148	7620
812.29	7616
812.431	7742
812.573	7921
812.714	7925
812.855	8111
812.997	8206
813.138	8317
813.279	8195
813.421	8058
813.562	7963
813.703	7894
813.845	7708
813.986	7335
814.127	7259
814.268	7209
814.41	7209
814.551	7168
814.692	7160
814.833	7053
814.974	7072
815.115	7080
815.256	7015
815.397	6966
815.539	6909
815.68	6791
815.821	6783
815.962	6798
816.103	6798
816.244	6791
816.385	6658
816.526	6551
816.666	6456
816.807	6308
816.948	6414
817.089	6502
817.23	6441
817.371	6407
817.512	6361
817.653	6395
817.793	6315
817.934	6410
818.075	6452
818.216	6471
818.356	6399
818.497	6285
818.638	6213
818.778	6190
818.919	6136
819.06	6201
819.2	6327
819.341	6338
819.481	6395
819.622	6490
819.762	6719
819.903	6684
820.043	6639
820.184	6559
820.324	6578
820.465	6722
820.605	6669
820.746	6658
820.886	6475
821.026	6612
821.167	6692
821.307	6825
821.447	6776
821.588	6726
821.728	6525
821.868	6506
822.008	6376
822.149	6331
822.289	6361
822.429	6144
822.569	6114
822.709	6064
822.849	5935
822.99	5904
823.13	5878
823.27	5923
823.41	5802
823.55	5824
823.69	5748
823.83	5809
823.97	5615
824.11	5585
824.25	5452
824.389	5615
824.529	5547
824.669	5493
824.809	5619
824.949	5611
825.089	5573
825.228	5554
825.368	5402
825.508	5368
825.648	5357
825.787	5395
825.927	5326
826.067	5299
826.206	5284
826.346	5387
826.485	5421
826.625	5398
826.765	5535
826.904	5505
827.044	5242
827.183	5216
827.323	5090
827.462	5201
827.601	5170
827.741	5181
827.88	5220
828.02	5136
828.159	5246
828.298	5330
828.437	5360
828.577	5269
828.716	5528
828.855	5315
828.994	5181
829.134	5060
829.273	5185
829.412	5105
829.551	5121
829.69	5136
829.829	5231
829.968	5387
830.107	5273
830.246	5299
830.385	5181
830.524	5166
830.663	5048
830.802	4957
830.941	4877
831.08	4911
831.219	4972
831.357	4987
831.496	5132
831.635	4915
831.774	4881
831.913	4839
832.051	4710
832.19	4725
832.329	4824
832.467	4691
832.606	4630
832.744	4733
832.883	4679
833.022	4687
833.16	4809
833.299	4850
833.437	4801
833.576	4790
833.714	4854
833.852	4843
833.991	4877
834.129	4976
834.267	4900
834.406	4934
834.544	4953
834.682	4934
834.821	4927
834.959	5147
835.097	5014
835.235	5117
835.373	5086
835.511	5086
835.65	5018
835.788	5041
835.926	4896
836.064	4843
836.202	4965
836.34	5204
836.478	5242
836.615	5181
836.753	5166
836.891	5258
837.029	5212
837.167	5204
837.305	5128
837.443	5174
837.58	5094
837.718	5261
837.856	5124
837.993	5132
838.131	5246
838.269	5189
838.406	5170
838.544	5208
838.681	4984
838.819	4991
838.956	4885
839.094	4889
839.231	4927
839.369	5098
839.506	5402
839.643	5265
839.781	5086
839.918	5037
840.055	5113
840.193	5064
840.33	5109
840.467	5124
840.604	5181
840.742	5425
840.879	5060
841.016	5113
841.153	5147
841.29	5376
841.427	5341
841.564	5330
841.701	5383
841.838	5265
841.975	5201
842.112	5349
842.249	5132
842.385	5086
842.522	5303
842.659	5166
842.796	5151
842.933	5178
843.069	5201
843.206	5151
843.343	5284
843.479	5277
843.616	5265
843.752	5048
843.889	4965
844.025	5208
844.162	4980
844.298	5227
844.435	5022
844.571	5037
844.708	5189
844.844	5258
844.98	5341
845.117	5318
845.253	5151
845.389	5117
845.525	5155
845.661	5159
845.798	4999
845.934	5121
846.07	5029
846.206	5201
846.342	5303
846.478	5155
846.614	5037
846.75	4927
846.886	4877
847.022	5102
847.158	5010
847.294	5109
847.429	5113
847.565	5064
847.701	5315
847.837	4850
847.972	4767
848.108	4946
848.244	4934
848.379	4744
848.515	4740
848.65	4698
848.786	4721
848.921	4812
849.057	4805
849.192	4892
849.328	4797
849.463	4831
849.598	4809
849.734	4790
849.869	4687
850.004	4630
850.14	4660
850.275	4618
850.41	4523
850.545	4584
850.68	4592
850.815	4561
850.95	4653
851.085	4847
851.22	4714
851.355	4645
851.49	4592
851.625	4649
851.76	4603
851.895	4538
852.03	4523
852.165	4649
852.299	4729
852.434	4790
852.569	4752
852.703	4748
852.838	4816
852.973	4908
853.107	4915
853.242	4702
853.376	4656
853.511	4546
853.645	4592
853.78	4797
853.914	4717
854.048	4679
854.183	4687
854.317	4672
854.451	4797
854.585	4698
854.72	4626
854.854	4748
854.988	4580
855.122	4683
855.256	4535
855.39	4641
855.524	4763
855.658	4736
855.792	4725
855.926	4714
856.06	4752
856.194	4805
856.327	4653
856.461	4607
856.595	4618
856.729	4588
856.862	4828
856.996	4656
857.13	4740
857.263	4710
857.397	4748
857.53	4653
857.664	4694
857.797	4717
857.931	4790
858.064	4702
858.197	4714
858.331	4645
858.464	4603
858.597	4542
858.731	4596
858.864	4660
858.997	4592
859.13	4618
859.263	4637
859.396	4653
859.529	4573
859.662	4592
859.795	4538
859.928	4607
860.061	4702
860.194	4774
860.327	4561
860.46	4580
860.592	4714
860.725	4653
860.858	4702
860.99	4561
861.123	4512
861.256	4531
861.388	4607
861.521	5277
861.653	4485
861.786	4443
861.918	4440
862.05	4500
862.183	4512
862.315	4584
862.447	4683
862.58	4542
862.712	4390
862.844	4318
862.976	4466
863.108	4432
863.24	4870
863.372	4329
863.504	4459
863.636	4413
863.768	4409
863.9	4459
864.032	4394
864.164	4424
864.296	4459
864.428	4542
864.559	4531
864.691	4554
864.823	4493
864.954	4455
865.086	4516
865.217	4485
865.349	4447
865.48	4470
865.612	4516
865.743	4641
865.875	4455
866.006	4409
866.137	4459
866.269	4424
866.4	4447
866.531	4375
866.662	4394
866.793	4383
866.924	4409
867.055	4485
867.186	4447
867.317	4417
867.448	4360
867.579	4379
867.71	4363
867.841	4325
867.972	4481
868.103	4470
868.233	4485
868.364	4398
868.495	4443
868.625	4645
868.756	4736
868.886	4542
869.017	4618
869.147	4767
869.278	4733
869.408	4660
869.539	4611
869.669	4706
869.799	4618
869.929	4759
870.06	4763
870.19	4900
870.32	4896
870.45	4889
870.58	4995
870.71	5079
870.84	5102
870.97	4923
871.1	4892
871.23	5121
871.36	5064
871.489	4980
871.619	5045
871.749	5094
871.879	5113
872.008	5151
872.138	5014
872.267	4968
872.397	4847
872.526	4809
872.656	4691
872.785	4809
872.915	4923
873.044	5056
873.173	4938
873.303	4980
873.432	4908
873.561	4965
873.69	4870
873.819	4843
873.948	4866
874.077	4782
874.206	4691
874.335	4767
874.464	4923
874.593	5060
874.722	4980
874.851	5105
874.979	5083
875.108	4976
875.237	4835
875.365	4885
875.494	4843
875.623	4946
875.751	4812
875.88	4873
876.008	4923
876.136	4991
876.265	5174
876.393	5311
876.521	5273
876.65	5212
876.778	5162
876.906	5079
877.034	5014
877.162	5022
877.29	4999
877.418	5014
877.546	5033
877.674	5014
877.802	5048
877.93	5041
878.058	4923
878.185	4873
878.313	4961
878.441	4892
878.568	4835
878.696	4854
878.824	4987
878.951	5010
879.079	5121
879.206	5212
879.333	5094
879.461	4965
879.588	4984
879.715	5121
879.842	5204
879.97	4987
880.097	4771
880.224	4733
880.351	4759
880.478	4835
880.605	4809
880.732	4759
880.859	5090
880.986	4885
881.112	4904
881.239	4790
881.366	4683
881.493	4615
881.619	4580
881.746	4660
881.872	4630
881.999	4630
882.125	4698
882.252	4790
882.378	4835
882.505	4980
882.631	4790
882.757	4691
882.883	4683
883.01	4752
883.136	4664
883.262	4577
883.388	4599
883.514	4805
883.64	4843
883.766	4771
883.892	4649
884.018	4630
884.143	4889
884.269	4965
884.395	4698
884.52	4630
884.646	4649
884.772	4580
884.897	4538
885.023	4649
885.148	4763
885.274	4854
885.399	4828
885.524	4706
885.65	4641
885.775	4744
885.9	4664
886.025	4828
886.15	4793
886.275	4717
886.4	4660
886.525	4687
886.65	4668
886.775	4649
886.9	4900
887.025	4995
887.149	4805
887.274	4641
887.399	4573
887.523	4550
887.648	4535
887.773	4554
887.897	4740
888.021	4778
888.146	4637
888.27	4809
888.395	4843
888.519	4797
888.643	4854
888.767	4850
888.891	4656
889.015	4607
889.139	4637
889.263	4535
889.387	4744
889.511	4900
889.635	4786
889.759	4679
889.883	4626
890.006	4733
890.13	4835
890.254	4637
890.377	4691
890.501	4577
890.624	4542
890.748	4656
890.871	4516
890.995	4455
891.118	4428
891.241	4516
891.364	4561
891.488	4637
891.611	4489
891.734	4615
891.857	4607
891.98	4588
892.103	4615
892.226	4603
892.349	4519
892.471	4432
892.594	4569
892.717	4622
892.839	4561
892.962	4569
893.085	4653
893.207	4622
893.33	4485
893.452	4554
893.575	4698
893.697	4611
893.819	4774
893.941	4881
894.064	4801
894.186	4596
894.308	4607
894.43	4733
894.552	4854
894.674	4809
894.796	4558
894.918	4622
895.04	4603
895.161	4752
895.283	4702
895.405	4630
895.526	4691
895.648	4706
895.769	4675
895.891	4694
896.012	4725
896.134	4736
896.255	4683
896.376	4630
896.498	4630
896.619	4721
896.74	4615
896.861	4717
896.982	4930
897.103	5136
897.224	4877
897.345	4752
897.466	4683
897.587	4763
897.708	4881
897.828	4816
897.949	4771
898.07	4603
898.19	4622
898.311	4870
898.431	4714
898.552	4850
898.672	4873
898.792	4793
898.913	4752
899.033	4672
899.153	4561
899.273	4447
899.393	4542
899.513	4489
899.633	4565
899.753	4561
899.873	4538
899.993	4637
900.113	4569
900.232	4641
900.352	4569
900.472	4504
900.591	4466
900.711	4569
900.83	4462
900.95	4626
901.069	4675
901.189	4611
901.308	4379
901.427	4337
901.546	4424
901.665	4493
901.784	4500
901.904	4402
902.023	4344
902.141	4230
902.26	4192
902.379	4322
902.498	4223
902.617	4215
902.735	4405
902.854	4390
902.973	4390
903.091	4219
903.21	4246
903.328	4329
903.446	4280
903.565	4246
903.683	4386
903.801	4333
903.919	4447
904.038	4432
904.156	4306
904.274	4500
904.392	4424
904.51	4459
904.627	4470
904.745	4565
904.863	4653
904.981	4428
905.098	4333
905.216	4409
905.334	4485
905.451	4504
905.569	4466
905.686	4615
905.803	4626
905.921	4440
906.038	4588
906.155	4527
906.272	4432
906.389	4508
906.506	4363
906.623	4421
906.74	4405
906.857	4371
906.974	4405
907.091	4569
907.208	4721
907.324	4603
907.441	4519
907.557	4333
907.674	4386
907.79	4306
907.907	4409
908.023	4519
908.139	4470
908.256	4443
908.372	4542
908.488	4504
908.604	4367
908.72	4344
908.836	4386
908.952	4390
909.068	4440
909.184	4546
909.3	4500
909.415	4580
909.531	4531
909.647	4379
909.762	4405
909.878	4371
909.993	4447
910.108	4421
910.224	4455
910.339	4519
910.454	4440
910.57	4405
910.685	4295
910.8	4645
910.915	4618
911.03	4523
911.145	4371
911.259	4314
911.374	4360
911.489	4280
911.604	4276
911.718	4223
911.833	4181
911.947	4090
912.062	4021
912.176	4223
912.291	4261
912.405	4280
912.519	4527
912.633	4527
912.748	4394
912.862	4318
912.976	4238
913.09	4154
913.204	4181
913.318	4268
913.431	4379
913.545	4367
913.659	4519
913.772	4348
913.886	4314
914	4268
914.113	4424
914.226	4436
914.34	4413
914.453	4268
914.566	4413
914.68	4371
914.793	4356
914.906	4181
915.019	4207
915.132	4090
915.245	4207
915.358	4253
915.47	4242
915.583	4261
915.696	4341
915.809	4440
915.921	4440
916.034	4314
916.146	4276
916.259	4253
916.371	4402
916.483	4383
916.595	4291
916.708	4333
916.82	4333
916.932	4371
917.044	4363
917.156	4386
917.268	4303
917.38	4291
917.491	4325
917.603	4348
917.715	4459
917.826	4440
917.938	4405
918.049	4276
918.161	4409
918.272	4577
918.384	4580
918.495	4436
918.606	4367
918.717	4310
918.828	4348
918.939	4363
919.05	4295
919.161	4329
919.272	4143
919.383	4246
919.494	4443
919.604	4603
919.715	4443
919.826	4360
919.936	4421
920.047	4599
920.157	4523
920.267	4725
920.378	4558
920.488	4558
920.598	4740
920.708	4885
920.818	4790
920.928	4778
921.038	4953
921.148	4946
921.258	4645
921.368	4580
921.477	4558
921.587	4504
921.697	4386
921.806	4561
921.916	4462
922.025	4265
922.134	4333
922.244	4238
922.353	4386
922.462	4207
922.571	4116
922.68	4029
922.789	3994
922.898	4040
923.007	3983
923.116	4093
923.224	4086
923.333	4071
923.442	4032
923.55	4002
923.659	3994
923.767	4120
923.876	4029
923.984	4135
924.092	4044
924.201	4071
924.309	4101
924.417	4131
924.525	4074
924.633	4112
924.741	5064
924.849	3930
924.956	4173
925.064	3975
925.172	3934
925.279	3972
925.387	4078
925.494	4078
925.602	4211
925.709	4177
925.816	4074
925.924	4177
926.031	4265
926.138	4204
926.245	4253
926.352	4101
926.459	4230
926.566	4310
926.673	4173
926.779	4109
926.886	4090
926.993	3991
927.099	3979
927.206	3956
927.312	3975
927.419	4067
927.525	4097
927.631	4173
927.737	4002
927.843	3979
927.95	3899
928.056	3983
928.162	3991
928.267	4074
928.373	4691
928.479	4147
928.585	3892
928.69	4074
928.796	4093
928.901	3975
929.007	3865
929.112	4017
929.218	3987
929.323	3899
929.428	4006
929.533	4120
929.638	3903
929.743	3979
929.848	4067
929.953	3983
930.058	3937
930.163	3759
930.267	3835
930.372	4040
930.477	3793
930.581	4086
930.685	3953
930.79	3869
930.894	3918
930.998	3888
931.103	4078
931.207	3720
931.311	3686
931.415	3709
931.519	3500
931.623	3564
