Data from test_V78500241_2831.txt Node
Date: Fri Mar 25 17:08:41 CST 2022
User: usil
Spectrometer: V785-0024
Trigger mode: 0
Integration Time (sec): 4.000000E-1
Scans to average: 1
Nonlinearity correction enabled: false
Boxcar width: 0
Storing dark spectrum: false
XAxis mode: Wavelengths
Number of Pixels in Spectrum: 1024
>>>>>Begin Spectral Data<<<<<
801.071	8043
801.214	8035
801.356	7868
801.499	7864
801.641	7856
801.783	7868
801.926	8035
802.068	7955
802.211	7993
802.353	8077
802.496	7932
802.638	7883
802.78	8001
802.923	7986
803.065	7906
803.208	7955
803.35	8027
803.492	8035
803.635	8225
803.777	8111
803.919	8119
804.061	8492
804.204	8142
804.346	8039
804.488	7928
804.63	8092
804.773	8058
804.915	8123
805.057	8336
805.199	8103
805.341	8267
805.483	8317
805.626	8240
805.768	8119
805.91	8195
806.052	8164
806.194	8180
806.336	8332
806.478	8191
806.62	8103
806.762	8161
806.904	8256
807.046	8457
807.188	8377
807.33	8355
807.472	8370
807.614	8157
807.756	8195
807.898	7993
808.04	7909
808.182	7913
808.324	7883
808.465	7947
808.607	8130
808.749	8210
808.891	8221
809.033	8336
809.174	8145
809.316	8111
809.458	8077
809.6	7974
809.741	8073
809.883	8084
810.025	8153
810.166	8119
810.308	8027
810.45	8035
810.591	7921
810.733	7776
810.875	7616
811.016	7586
811.158	7499
811.299	7647
811.441	7734
811.582	7723
811.724	7597
811.865	7548
812.007	7571
812.148	7632
812.29	7666
812.431	7761
812.573	7887
812.714	8043
812.855	8256
812.997	8244
813.138	8328
813.279	8206
813.421	8130
813.562	8001
813.703	7944
813.845	7746
813.986	7468
814.127	7301
814.268	7263
814.41	7221
814.551	7171
814.692	7168
814.833	7038
814.974	7122
815.115	7129
815.256	7012
815.397	6996
815.539	6970
815.68	6863
815.821	6757
815.962	6878
816.103	6878
816.244	6764
816.385	6612
816.526	6639
816.666	6475
816.807	6323
816.948	6437
817.089	6506
817.23	6452
817.371	6388
817.512	6418
817.653	6376
817.793	6369
817.934	6475
818.075	6517
818.216	6475
818.356	6448
818.497	6285
818.638	6175
818.778	6182
818.919	6163
819.06	6155
819.2	6342
819.341	6292
819.481	6388
819.622	6532
819.762	6753
819.903	6673
820.043	6616
820.184	6631
820.324	6654
820.465	6726
820.605	6741
820.746	6681
820.886	6566
821.026	6684
821.167	6715
821.307	6802
821.447	6753
821.588	6665
821.728	6627
821.868	6513
822.008	6338
822.149	6380
822.289	6376
822.429	6182
822.569	6133
822.709	6148
822.849	5977
822.99	5973
823.13	5935
823.27	5920
823.41	5794
823.55	5821
823.69	5756
823.83	5760
823.97	5649
824.11	5566
824.25	5509
824.389	5558
824.529	5615
824.669	5505
824.809	5646
824.949	5668
825.089	5611
825.228	5585
825.368	5372
825.508	5368
825.648	5376
825.787	5414
825.927	5410
826.067	5284
826.206	5307
826.346	5421
826.485	5391
826.625	5448
826.765	5562
826.904	5520
827.044	5277
827.183	5231
827.323	5128
827.462	5341
827.601	5162
827.741	5185
827.88	5223
828.02	5121
828.159	5292
828.298	5284
828.437	5353
828.577	5258
828.716	5497
828.855	5368
828.994	5189
829.134	5170
829.273	5174
829.412	5147
829.551	5098
829.69	5174
829.829	5239
829.968	5360
830.107	5288
830.246	5364
830.385	5212
830.524	5143
830.663	5113
830.802	4999
830.941	4850
831.08	4923
831.219	4930
831.357	4980
831.496	5185
831.635	4904
831.774	4885
831.913	4816
832.051	4744
832.19	4687
832.329	4816
832.467	4664
832.606	4588
832.744	4733
832.883	4740
833.022	4774
833.16	4812
833.299	4774
833.437	4850
833.576	4866
833.714	4828
833.852	4873
833.991	4885
834.129	4915
834.267	4957
834.406	4885
834.544	4961
834.682	4946
834.821	4953
834.959	5170
835.097	4968
835.235	5159
835.373	5037
835.511	5094
835.65	5029
835.788	5033
835.926	4942
836.064	4839
836.202	4908
836.34	5162
836.478	5246
836.615	5151
836.753	5223
836.891	5311
837.029	5307
837.167	5166
837.305	5136
837.443	5094
837.58	5094
837.718	5277
837.856	5212
837.993	5143
838.131	5254
838.269	5307
838.406	5162
838.544	5174
838.681	5048
838.819	5033
838.956	4843
839.094	4904
839.231	4965
839.369	5075
839.506	5406
839.643	5277
839.781	5075
839.918	4984
840.055	5193
840.193	5086
840.33	5086
840.467	5132
840.604	5197
840.742	5448
840.879	5086
841.016	5105
841.153	5181
841.29	5357
841.427	5334
841.564	5315
841.701	5372
841.838	5269
841.975	5265
842.112	5254
842.249	5140
842.385	5109
842.522	5364
842.659	5223
842.796	5197
842.933	5174
843.069	5208
843.206	5170
843.343	5357
843.479	5261
843.616	5246
843.752	5075
843.889	4999
844.025	5227
844.162	5003
844.298	5170
844.435	5113
844.571	5037
844.708	5174
844.844	5299
844.98	5353
845.117	5303
845.253	5166
845.389	5151
845.525	5170
845.661	5136
845.798	5056
845.934	5117
846.07	5018
846.206	5204
846.342	5265
846.478	5212
846.614	5018
846.75	4987
846.886	4949
847.022	5159
847.158	5045
847.294	5025
847.429	5121
847.565	5029
847.701	5307
847.837	4850
847.972	4782
848.108	4934
848.244	4923
848.379	4782
848.515	4736
848.65	4748
848.786	4782
848.921	4729
849.057	4854
849.192	4873
849.328	4816
849.463	4862
849.598	4748
849.734	4721
849.869	4717
850.004	4615
850.14	4645
850.275	4664
850.41	4523
850.545	4538
850.68	4584
850.815	4599
850.95	4656
851.085	4820
851.22	4740
851.355	4694
851.49	4675
851.625	4615
851.76	4626
851.895	4523
852.03	4558
852.165	4656
852.299	4740
852.434	4774
852.569	4778
852.703	4763
852.838	4786
852.973	4930
853.107	4900
853.242	4675
853.376	4622
853.511	4527
853.645	4584
853.78	4835
853.914	4694
854.048	4634
854.183	4645
854.317	4725
854.451	4900
854.585	4691
854.72	4618
854.854	4725
854.988	4603
855.122	4641
855.256	4516
855.39	4607
855.524	4752
855.658	4668
855.792	4717
855.926	4736
856.06	4729
856.194	4805
856.327	4729
856.461	4569
856.595	4611
856.729	4630
856.862	4774
856.996	4694
857.13	4698
857.263	4778
857.397	4778
857.53	4649
857.664	4698
857.797	4740
857.931	4763
858.064	4694
858.197	4675
858.331	4653
858.464	4592
858.597	4542
858.731	4660
858.864	4656
858.997	4637
859.13	4691
859.263	4683
859.396	4672
859.529	4611
859.662	4565
859.795	4538
859.928	4653
860.061	4763
860.194	4782
860.327	4577
860.46	4573
860.592	4668
860.725	4698
860.858	4698
860.99	4565
861.123	4508
861.256	4550
861.388	4588
861.521	5296
861.653	4451
861.786	4443
861.918	4493
862.05	4504
862.183	4561
862.315	4641
862.447	4668
862.58	4531
862.712	4394
862.844	4325
862.976	4481
863.108	4481
863.24	4778
863.372	4371
863.504	4432
863.636	4371
863.768	4466
863.9	4440
864.032	4295
864.164	4462
864.296	4478
864.428	4542
864.559	4512
864.691	4519
864.823	4485
864.954	4504
865.086	4516
865.217	4440
865.349	4428
865.48	4462
865.612	4478
865.743	4649
865.875	4443
866.006	4383
866.137	4459
866.269	4478
866.4	4424
866.531	4440
866.662	4352
866.793	4436
866.924	4443
867.055	4481
867.186	4443
867.317	4436
867.448	4379
867.579	4363
867.71	4379
867.841	4409
867.972	4459
868.103	4542
868.233	4447
868.364	4432
868.495	4493
868.625	4702
868.756	4752
868.886	4550
869.017	4607
869.147	4801
869.278	4767
869.408	4603
869.539	4618
869.669	4710
869.799	4660
869.929	4809
870.06	4740
870.19	4942
870.32	4934
870.45	4942
870.58	5014
870.71	5090
870.84	5090
870.97	4980
871.1	4866
871.23	5174
871.36	5143
871.489	5048
871.619	5079
871.749	5124
871.879	5166
872.008	5166
872.138	5052
872.267	4976
872.397	4866
872.526	4774
872.656	4744
872.785	4824
872.915	4946
873.044	5048
873.173	4923
873.303	4949
873.432	4972
873.561	4968
873.69	4904
873.819	4870
873.948	4892
874.077	4771
874.206	4778
874.335	4763
874.464	4930
874.593	5014
874.722	4980
874.851	5083
874.979	5083
875.108	5071
875.237	4949
875.365	4870
875.494	4877
875.623	4984
875.751	4812
875.88	4934
876.008	4987
876.136	5060
876.265	5212
876.393	5406
876.521	5288
876.65	5216
876.778	5136
876.906	5060
877.034	5025
877.162	5006
877.29	5014
877.418	5079
877.546	5060
877.674	5033
877.802	5037
877.93	4991
878.058	4949
878.185	4881
878.313	4942
878.441	4961
878.568	4797
878.696	4854
878.824	4953
878.951	4980
879.079	5155
879.206	5296
879.333	5121
879.461	4961
879.588	5010
879.715	5117
879.842	5201
879.97	4995
880.097	4809
880.224	4767
880.351	4782
880.478	4839
880.605	4793
880.732	4828
880.859	5048
880.986	4866
881.112	4896
881.239	4759
881.366	4729
881.493	4645
881.619	4580
881.746	4622
881.872	4611
881.999	4664
882.125	4687
882.252	4790
882.378	4831
882.505	4980
882.631	4793
882.757	4687
882.883	4710
883.01	4687
883.136	4615
883.262	4588
883.388	4573
883.514	4812
883.64	4866
883.766	4774
883.892	4649
884.018	4759
884.143	4915
884.269	5014
884.395	4675
884.52	4607
884.646	4683
884.772	4531
884.897	4542
885.023	4668
885.148	4763
885.274	4873
885.399	4740
885.524	4782
885.65	4702
885.775	4698
885.9	4687
886.025	4904
886.15	4797
886.275	4694
886.4	4645
886.525	4744
886.65	4694
886.775	4694
886.9	4911
887.025	5037
887.149	4843
887.274	4664
887.399	4634
887.523	4603
887.648	4615
887.773	4577
887.897	4752
888.021	4805
888.146	4691
888.27	4812
888.395	4930
888.519	4820
888.643	4809
888.767	4862
888.891	4645
889.015	4637
889.139	4691
889.263	4607
889.387	4679
889.511	4854
889.635	4812
889.759	4668
889.883	4615
890.006	4710
890.13	4824
890.254	4649
890.377	4615
890.501	4542
890.624	4546
890.748	4660
890.871	4504
890.995	4421
891.118	4383
891.241	4523
891.364	4478
891.488	4626
891.611	4519
891.734	4535
891.857	4577
891.98	4569
892.103	4672
892.226	4611
892.349	4500
892.471	4462
892.594	4558
892.717	4618
892.839	4588
892.962	4542
893.085	4618
893.207	4546
893.33	4470
893.452	4512
893.575	4649
893.697	4596
893.819	4831
893.941	4843
894.064	4755
894.186	4615
894.308	4573
894.43	4748
894.552	4816
894.674	4778
894.796	4607
894.918	4645
895.04	4607
895.161	4698
895.283	4668
895.405	4592
895.526	4694
895.648	4683
895.769	4710
895.891	4687
896.012	4714
896.134	4748
896.255	4710
896.376	4637
896.498	4672
896.619	4675
896.74	4615
896.861	4630
896.982	4858
897.103	5060
897.224	4873
897.345	4793
897.466	4672
897.587	4721
897.708	4835
897.828	4771
897.949	4672
898.07	4546
898.19	4611
898.311	4812
898.431	4698
898.552	4748
898.672	4816
898.792	4828
898.913	4752
899.033	4634
899.153	4519
899.273	4474
899.393	4512
899.513	4535
899.633	4523
899.753	4592
899.873	4523
899.993	4584
900.113	4508
900.232	4565
900.352	4554
900.472	4504
900.591	4390
900.711	4523
900.83	4367
900.95	4611
901.069	4736
901.189	4500
901.308	4341
901.427	4337
901.546	4352
901.665	4489
901.784	4497
901.904	4344
902.023	4352
902.141	4204
902.26	4131
902.379	4325
902.498	4238
902.617	4234
902.735	4405
902.854	4383
902.973	4386
903.091	4185
903.21	4261
903.328	4272
903.446	4287
903.565	4227
903.683	4322
903.801	4261
903.919	4402
904.038	4402
904.156	4333
904.274	4455
904.392	4341
904.51	4398
904.627	4481
904.745	4569
904.863	4622
904.981	4375
905.098	4291
905.216	4375
905.334	4405
905.451	4405
905.569	4474
905.686	4618
905.803	4554
905.921	4409
906.038	4519
906.155	4493
906.272	4405
906.389	4500
906.506	4344
906.623	4329
906.74	4386
906.857	4318
906.974	4386
907.091	4580
907.208	4668
907.324	4554
907.441	4443
907.557	4337
907.674	4360
907.79	4325
907.907	4310
908.023	4432
908.139	4485
908.256	4466
908.372	4535
908.488	4451
908.604	4352
908.72	4303
908.836	4344
908.952	4390
909.068	4436
909.184	4527
909.3	4478
909.415	4535
909.531	4561
909.647	4394
909.762	4363
909.878	4348
909.993	4436
910.108	4417
910.224	4402
910.339	4493
910.454	4348
910.57	4348
910.685	4284
910.8	4664
910.915	4554
911.03	4466
911.145	4306
911.259	4341
911.374	4341
911.489	4249
911.604	4272
911.718	4116
911.833	4196
911.947	4051
912.062	4002
912.176	4204
912.291	4215
912.405	4246
912.519	4428
912.633	4531
912.748	4356
912.862	4295
912.976	4215
913.09	4071
913.204	4181
913.318	4268
913.431	4337
913.545	4367
913.659	4409
913.772	4379
913.886	4238
914	4265
914.113	4367
914.226	4413
914.34	4356
914.453	4227
914.566	4421
914.68	4318
914.793	4333
914.906	4097
915.019	4097
915.132	4071
915.245	4166
915.358	4227
915.47	4261
915.583	4291
915.696	4322
915.809	4409
915.921	4379
916.034	4238
916.146	4215
916.259	4185
916.371	4371
916.483	4329
916.595	4291
916.708	4333
916.82	4303
916.932	4337
917.044	4325
917.156	4295
917.268	4249
917.38	4227
917.491	4265
917.603	4360
917.715	4413
917.826	4417
917.938	4337
918.049	4234
918.161	4424
918.272	4519
918.384	4500
918.495	4478
918.606	4322
918.717	4230
918.828	4360
918.939	4337
919.05	4211
919.161	4375
919.272	4105
919.383	4257
919.494	4489
919.604	4683
919.715	4466
919.826	4371
919.936	4405
920.047	4527
920.157	4493
920.267	4691
920.378	4493
920.488	4497
920.598	4725
920.708	4847
920.818	4782
920.928	4755
921.038	4934
921.148	4889
921.258	4630
921.368	4573
921.477	4497
921.587	4474
921.697	4363
921.806	4554
921.916	4443
922.025	4284
922.134	4303
922.244	4215
922.353	4295
922.462	4154
922.571	4097
922.68	4013
922.789	3994
922.898	4074
923.007	4017
923.116	4067
923.224	4109
923.333	4059
923.442	4013
923.55	3975
923.659	4025
923.767	4063
923.876	4021
923.984	4131
924.092	3949
924.201	4051
924.309	4078
924.417	4173
924.525	4067
924.633	4105
924.741	4908
924.849	3907
924.956	4162
925.064	3926
925.172	3930
925.279	3968
925.387	4116
925.494	4063
925.602	4169
925.709	4154
925.816	4025
925.924	4124
926.031	4234
926.138	4177
926.245	4185
926.352	4078
926.459	4287
926.566	4242
926.673	4150
926.779	4082
926.886	4097
926.993	3979
927.099	3926
927.206	3907
927.312	3934
927.419	4044
927.525	4002
927.631	4131
927.737	3979
927.843	3960
927.95	3835
928.056	3991
928.162	3983
928.267	4055
928.373	4565
928.479	4082
928.585	3941
928.69	4051
928.796	4044
928.901	3960
929.007	3835
929.112	4006
929.218	4002
929.323	3956
929.428	3930
929.533	4116
929.638	3953
929.743	3979
929.848	4055
929.953	4006
930.058	3949
930.163	3770
930.267	3846
930.372	4029
930.477	3888
930.581	4074
930.685	3956
930.79	3831
930.894	3911
930.998	3846
931.103	4013
931.207	3770
931.311	3663
931.415	3705
931.519	3549
931.623	3584
