Data from test_V78500241_1413.txt Node
Date: Fri Mar 25 16:58:49 CST 2022
User: usil
Spectrometer: V785-0024
Trigger mode: 0
Integration Time (sec): 4.000000E-1
Scans to average: 1
Nonlinearity correction enabled: false
Boxcar width: 0
Storing dark spectrum: false
XAxis mode: Wavelengths
Number of Pixels in Spectrum: 1024
>>>>>Begin Spectral Data<<<<<
801.071	8027
801.214	8058
801.356	7837
801.499	7845
801.641	7765
801.783	7814
801.926	7947
802.068	8008
802.211	8001
802.353	8008
802.496	7849
802.638	7845
802.78	7970
802.923	7940
803.065	7909
803.208	7883
803.35	7993
803.492	8073
803.635	8206
803.777	8073
803.919	8100
804.061	8457
804.204	8183
804.346	8043
804.488	7944
804.63	8084
804.773	8039
804.915	8138
805.057	8294
805.199	8111
805.341	8229
805.483	8294
805.626	8180
805.768	8153
805.91	8210
806.052	8210
806.194	8046
806.336	8275
806.478	8088
806.62	8043
806.762	8138
806.904	8320
807.046	8465
807.188	8336
807.33	8294
807.472	8332
807.614	8180
807.756	8172
807.898	8027
808.04	7947
808.182	7841
808.324	7890
808.465	7925
808.607	8073
808.749	8054
808.891	8206
809.033	8317
809.174	8229
809.316	8043
809.458	8039
809.6	7974
809.741	8046
809.883	7989
810.025	8088
810.166	7993
810.308	8035
810.45	7963
810.591	7811
810.733	7734
810.875	7677
811.016	7510
811.158	7552
811.299	7620
811.441	7674
811.582	7632
811.724	7590
811.865	7514
812.007	7662
812.148	7601
812.29	7655
812.431	7742
812.573	7925
812.714	7997
812.855	8126
812.997	8229
813.138	8305
813.279	8183
813.421	8153
813.562	8020
813.703	7799
813.845	7704
813.986	7460
814.127	7240
814.268	7198
814.41	7122
814.551	7137
814.692	7202
814.833	7065
814.974	7023
815.115	7031
815.256	6977
815.397	6935
815.539	6966
815.68	6791
815.821	6818
815.962	6821
816.103	6783
816.244	6639
816.385	6604
816.526	6532
816.666	6551
816.807	6365
816.948	6418
817.089	6483
817.23	6391
817.371	6418
817.512	6300
817.653	6357
817.793	6350
817.934	6426
818.075	6422
818.216	6448
818.356	6365
818.497	6296
818.638	6083
818.778	6186
818.919	6136
819.06	6175
819.2	6369
819.341	6315
819.481	6361
819.622	6479
819.762	6768
819.903	6700
820.043	6589
820.184	6601
820.324	6589
820.465	6688
820.605	6722
820.746	6612
820.886	6521
821.026	6642
821.167	6696
821.307	6810
821.447	6719
821.588	6658
821.728	6585
821.868	6460
822.008	6323
822.149	6391
822.289	6346
822.429	6171
822.569	6110
822.709	6087
822.849	5916
822.99	5984
823.13	5885
823.27	5961
823.41	5832
823.55	5802
823.69	5756
823.83	5794
823.97	5665
824.11	5501
824.25	5486
824.389	5516
824.529	5558
824.669	5535
824.809	5653
824.949	5665
825.089	5615
825.228	5611
825.368	5360
825.508	5349
825.648	5398
825.787	5326
825.927	5345
826.067	5299
826.206	5284
826.346	5391
826.485	5440
826.625	5429
826.765	5490
826.904	5455
827.044	5201
827.183	5201
827.323	5136
827.462	5181
827.601	5143
827.741	5197
827.88	5216
828.02	5094
828.159	5239
828.298	5265
828.437	5353
828.577	5288
828.716	5474
828.855	5311
828.994	5170
829.134	5124
829.273	5197
829.412	5124
829.551	5132
829.69	5117
829.829	5201
829.968	5360
830.107	5273
830.246	5288
830.385	5147
830.524	5151
830.663	5098
830.802	4938
830.941	4877
831.08	4877
831.219	4987
831.357	4980
831.496	5140
831.635	4942
831.774	4870
831.913	4858
832.051	4721
832.19	4733
832.329	4828
832.467	4653
832.606	4596
832.744	4721
832.883	4664
833.022	4710
833.16	4786
833.299	4850
833.437	4809
833.576	4801
833.714	4866
833.852	4835
833.991	4877
834.129	4968
834.267	4911
834.406	4908
834.544	4972
834.682	4949
834.821	4953
834.959	5105
835.097	4965
835.235	5113
835.373	5075
835.511	5109
835.65	5052
835.788	5037
835.926	4870
836.064	4881
836.202	4946
836.34	5216
836.478	5242
836.615	5159
836.753	5178
836.891	5231
837.029	5223
837.167	5170
837.305	5197
837.443	5121
837.58	5102
837.718	5273
837.856	5208
837.993	5098
838.131	5193
838.269	5269
838.406	5162
838.544	5147
838.681	5025
838.819	4976
838.956	4904
839.094	4919
839.231	4995
839.369	5071
839.506	5398
839.643	5303
839.781	5056
839.918	5018
840.055	5117
840.193	5117
840.33	5140
840.467	5151
840.604	5147
840.742	5421
840.879	5064
841.016	5003
841.153	5166
841.29	5337
841.427	5273
841.564	5307
841.701	5318
841.838	5280
841.975	5166
842.112	5235
842.249	5136
842.385	5086
842.522	5322
842.659	5193
842.796	5162
842.933	5185
843.069	5181
843.206	5140
843.343	5265
843.479	5212
843.616	5231
843.752	5006
843.889	4991
844.025	5273
844.162	5041
844.298	5181
844.435	5045
844.571	5067
844.708	5193
844.844	5280
844.98	5307
845.117	5288
845.253	5128
845.389	5071
845.525	5124
845.661	5159
845.798	5094
845.934	5128
846.07	5060
846.206	5132
846.342	5223
846.478	5166
846.614	5014
846.75	4938
846.886	4946
847.022	5105
847.158	5025
847.294	5037
847.429	5075
847.565	5025
847.701	5303
847.837	4843
847.972	4797
848.108	4961
848.244	4915
848.379	4763
848.515	4752
848.65	4763
848.786	4767
848.921	4736
849.057	4847
849.192	4923
849.328	4843
849.463	4793
849.598	4805
849.734	4744
849.869	4675
850.004	4653
850.14	4702
850.275	4603
850.41	4538
850.545	4599
850.68	4573
850.815	4641
850.95	4641
851.085	4850
851.22	4744
851.355	4687
851.49	4622
851.625	4641
851.76	4626
851.895	4531
852.03	4538
852.165	4664
852.299	4691
852.434	4763
852.569	4721
852.703	4755
852.838	4786
852.973	4919
853.107	4889
853.242	4733
853.376	4641
853.511	4580
853.645	4641
853.78	4782
853.914	4679
854.048	4691
854.183	4656
854.317	4672
854.451	4790
854.585	4664
854.72	4599
854.854	4759
854.988	4577
855.122	4607
855.256	4474
855.39	4618
855.524	4778
855.658	4717
855.792	4710
855.926	4675
856.06	4740
856.194	4809
856.327	4641
856.461	4622
856.595	4626
856.729	4615
856.862	4774
856.996	4691
857.13	4782
857.263	4755
857.397	4782
857.53	4634
857.664	4687
857.797	4805
857.931	4755
858.064	4634
858.197	4744
858.331	4645
858.464	4634
858.597	4558
858.731	4687
858.864	4656
858.997	4615
859.13	4641
859.263	4656
859.396	4717
859.529	4542
859.662	4561
859.795	4504
859.928	4675
860.061	4771
860.194	4816
860.327	4603
860.46	4592
860.592	4702
860.725	4748
860.858	4694
860.99	4531
861.123	4516
861.256	4508
861.388	4615
861.521	5364
861.653	4489
861.786	4443
861.918	4485
862.05	4489
862.183	4508
862.315	4603
862.447	4672
862.58	4542
862.712	4390
862.844	4314
862.976	4432
863.108	4440
863.24	4862
863.372	4318
863.504	4398
863.636	4371
863.768	4481
863.9	4424
864.032	4360
864.164	4360
864.296	4455
864.428	4577
864.559	4554
864.691	4531
864.823	4527
864.954	4466
865.086	4474
865.217	4474
865.349	4478
865.48	4478
865.612	4474
865.743	4637
865.875	4474
866.006	4409
866.137	4428
866.269	4466
866.4	4451
866.531	4443
866.662	4398
866.793	4363
866.924	4417
867.055	4478
867.186	4459
867.317	4413
867.448	4344
867.579	4383
867.71	4371
867.841	4329
867.972	4493
868.103	4451
868.233	4352
868.364	4409
868.495	4466
868.625	4653
868.756	4778
868.886	4550
869.017	4603
869.147	4805
869.278	4710
869.408	4660
869.539	4603
869.669	4668
869.799	4698
869.929	4748
870.06	4698
870.19	4995
870.32	4877
870.45	4949
870.58	5022
870.71	5045
870.84	5098
870.97	4934
871.1	4911
871.23	5132
871.36	5140
871.489	5033
871.619	5079
871.749	5094
871.879	5128
872.008	5094
872.138	5022
872.267	4953
872.397	4908
872.526	4812
872.656	4683
872.785	4782
872.915	4957
873.044	5014
873.173	4923
873.303	4900
873.432	4923
873.561	4892
873.69	4847
873.819	4824
873.948	4968
874.077	4831
874.206	4763
874.335	4839
874.464	4915
874.593	5014
874.722	4946
874.851	5067
874.979	5083
875.108	5010
875.237	4900
875.365	4919
875.494	4915
875.623	4984
875.751	4805
875.88	4850
876.008	4987
876.136	5045
876.265	5181
876.393	5330
876.521	5250
876.65	5181
876.778	5136
876.906	5079
877.034	4965
877.162	5045
877.29	5014
877.418	5064
877.546	4999
877.674	5064
877.802	5045
877.93	5003
878.058	4919
878.185	4854
878.313	4972
878.441	4942
878.568	4809
878.696	4866
878.824	4900
878.951	4980
879.079	5094
879.206	5292
879.333	5094
879.461	4972
879.588	5006
879.715	5117
879.842	5212
879.97	4984
880.097	4812
880.224	4771
880.351	4767
880.478	4809
880.605	4759
880.732	4778
880.859	5075
880.986	4877
881.112	4889
881.239	4793
881.366	4664
881.493	4577
881.619	4569
881.746	4626
881.872	4634
881.999	4641
882.125	4649
882.252	4793
882.378	4835
882.505	4919
882.631	4812
882.757	4596
882.883	4729
883.01	4683
883.136	4645
883.262	4538
883.388	4626
883.514	4786
883.64	4870
883.766	4744
883.892	4645
884.018	4664
884.143	4911
884.269	5006
884.395	4702
884.52	4660
884.646	4641
884.772	4569
884.897	4554
885.023	4649
885.148	4774
885.274	4843
885.399	4801
885.524	4706
885.65	4672
885.775	4744
885.9	4725
886.025	4873
886.15	4801
886.275	4729
886.4	4622
886.525	4660
886.65	4679
886.775	4649
886.9	4889
887.025	5010
887.149	4847
887.274	4660
887.399	4599
887.523	4607
887.648	4538
887.773	4565
887.897	4820
888.021	4801
888.146	4611
888.27	4763
888.395	4892
888.519	4805
888.643	4839
888.767	4839
888.891	4714
889.015	4580
889.139	4645
889.263	4573
889.387	4717
889.511	4896
889.635	4812
889.759	4607
889.883	4599
890.006	4710
890.13	4831
890.254	4615
890.377	4637
890.501	4554
890.624	4550
890.748	4592
890.871	4546
890.995	4459
891.118	4383
891.241	4470
891.364	4497
891.488	4634
891.611	4489
891.734	4519
891.857	4588
891.98	4535
892.103	4641
892.226	4603
892.349	4485
892.471	4409
892.594	4527
892.717	4626
892.839	4565
892.962	4561
893.085	4668
893.207	4622
893.33	4485
893.452	4466
893.575	4660
893.697	4554
893.819	4797
893.941	4858
894.064	4763
894.186	4531
894.308	4527
894.43	4717
894.552	4816
894.674	4748
894.796	4561
894.918	4577
895.04	4512
895.161	4660
895.283	4645
895.405	4573
895.526	4596
895.648	4725
895.769	4664
895.891	4710
896.012	4721
896.134	4694
896.255	4634
896.376	4634
896.498	4626
896.619	4672
896.74	4645
896.861	4618
896.982	4854
897.103	5094
897.224	4793
897.345	4725
897.466	4656
897.587	4668
897.708	4873
897.828	4771
897.949	4630
898.07	4588
898.19	4603
898.311	4805
898.431	4649
898.552	4729
898.672	4759
898.792	4786
898.913	4706
899.033	4603
899.153	4493
899.273	4424
899.393	4531
899.513	4462
899.633	4485
899.753	4558
899.873	4538
899.993	4580
900.113	4474
900.232	4554
900.352	4535
900.472	4447
900.591	4379
900.711	4485
900.83	4413
900.95	4611
901.069	4660
901.189	4546
901.308	4341
901.427	4284
901.546	4344
901.665	4451
901.784	4504
901.904	4341
902.023	4322
902.141	4162
902.26	4150
902.379	4280
902.498	4246
902.617	4223
902.735	4363
902.854	4390
902.973	4356
903.091	4234
903.21	4238
903.328	4261
903.446	4295
903.565	4242
903.683	4337
903.801	4303
903.919	4356
904.038	4402
904.156	4284
904.274	4413
904.392	4383
904.51	4386
904.627	4447
904.745	4569
904.863	4634
904.981	4409
905.098	4291
905.216	4424
905.334	4402
905.451	4356
905.569	4432
905.686	4542
905.803	4622
905.921	4402
906.038	4516
906.155	4466
906.272	4405
906.389	4466
906.506	4352
906.623	4348
906.74	4386
906.857	4318
906.974	4337
907.091	4569
907.208	4675
907.324	4656
907.441	4478
907.557	4329
907.674	4287
907.79	4276
907.907	4402
908.023	4481
908.139	4497
908.256	4413
908.372	4443
908.488	4451
908.604	4367
908.72	4322
908.836	4363
908.952	4344
909.068	4436
909.184	4599
909.3	4466
909.415	4565
909.531	4519
909.647	4383
909.762	4299
909.878	4333
909.993	4421
910.108	4386
910.224	4402
910.339	4481
910.454	4390
910.57	4352
910.685	4310
910.8	4626
910.915	4580
911.03	4459
911.145	4322
911.259	4261
911.374	4398
911.489	4272
911.604	4287
911.718	4177
911.833	4196
911.947	4071
912.062	4025
912.176	4204
912.291	4268
912.405	4249
912.519	4478
912.633	4485
912.748	4367
912.862	4295
912.976	4215
913.09	4086
913.204	4192
913.318	4223
913.431	4318
913.545	4379
913.659	4402
913.772	4337
913.886	4261
914	4223
914.113	4394
914.226	4443
914.34	4386
914.453	4246
914.566	4417
914.68	4284
914.793	4337
914.906	4143
915.019	4135
915.132	4139
915.245	4173
915.358	4177
915.47	4272
915.583	4284
915.696	4284
915.809	4386
915.921	4421
916.034	4276
916.146	4223
916.259	4192
916.371	4383
916.483	4375
916.595	4261
916.708	4356
916.82	4337
916.932	4379
917.044	4291
917.156	4348
917.268	4223
917.38	4322
917.491	4276
917.603	4314
917.715	4413
917.826	4383
917.938	4325
918.049	4299
918.161	4402
918.272	4531
918.384	4538
918.495	4436
918.606	4318
918.717	4223
918.828	4291
918.939	4379
919.05	4253
919.161	4306
919.272	4143
919.383	4272
919.494	4428
919.604	4596
919.715	4466
919.826	4379
919.936	4375
920.047	4519
920.157	4485
920.267	4694
920.378	4474
920.488	4478
920.598	4725
920.708	4831
920.818	4774
920.928	4759
921.038	4961
921.148	4877
921.258	4618
921.368	4550
921.477	4462
921.587	4447
921.697	4341
921.806	4554
921.916	4417
922.025	4265
922.134	4268
922.244	4200
922.353	4329
922.462	4181
922.571	4120
922.68	4013
922.789	3949
922.898	4051
923.007	4021
923.116	4051
923.224	4036
923.333	4063
923.442	3975
923.55	3956
923.659	4036
923.767	4086
923.876	4040
923.984	4128
924.092	3975
924.201	4017
924.309	4032
924.417	4112
924.525	4032
924.633	4150
924.741	5052
924.849	3926
924.956	4120
925.064	3953
925.172	3911
925.279	3964
925.387	4036
925.494	4078
925.602	4223
925.709	4181
925.816	4040
925.924	4124
926.031	4249
926.138	4150
926.245	4204
926.352	4093
926.459	4223
926.566	4299
926.673	4120
926.779	4059
926.886	4109
926.993	3987
927.099	3968
927.206	3903
927.312	3979
927.419	4082
927.525	3991
927.631	4059
927.737	3941
927.843	3911
927.95	3800
928.056	3930
928.162	3964
928.267	4055
928.373	4634
928.479	4112
928.585	3884
928.69	4002
928.796	4082
928.901	3964
929.007	3827
929.112	3991
929.218	3956
929.323	3987
929.428	3930
929.533	4112
929.638	3911
929.743	3918
929.848	4051
929.953	3983
930.058	3903
930.163	3778
930.267	3831
930.372	3941
930.477	3842
930.581	4071
930.685	3907
930.79	3819
930.894	3873
930.998	3846
931.103	4040
931.207	3713
931.311	3751
931.415	3641
931.519	3492
931.623	3549
