Data from test_V78500241_2320.txt Node
Date: Fri Mar 25 17:05:08 CST 2022
User: usil
Spectrometer: V785-0024
Trigger mode: 0
Integration Time (sec): 4.000000E-1
Scans to average: 1
Nonlinearity correction enabled: false
Boxcar width: 0
Storing dark spectrum: false
XAxis mode: Wavelengths
Number of Pixels in Spectrum: 1024
>>>>>Begin Spectral Data<<<<<
801.071	8039
801.214	8005
801.356	7906
801.499	7852
801.641	7818
801.783	7875
801.926	7967
802.068	7944
802.211	8020
802.353	8054
802.496	7814
802.638	7928
802.78	7894
802.923	7909
803.065	7856
803.208	7818
803.35	8043
803.492	8050
803.635	8191
803.777	8073
803.919	8107
804.061	8431
804.204	8195
804.346	8100
804.488	7936
804.63	8050
804.773	8035
804.915	8119
805.057	8305
805.199	8119
805.341	8214
805.483	8202
805.626	8221
805.768	8088
805.91	8187
806.052	8202
806.194	8096
806.336	8328
806.478	8126
806.62	8088
806.762	8111
806.904	8282
807.046	8438
807.188	8362
807.33	8324
807.472	8389
807.614	8237
807.756	8153
807.898	8054
808.04	7890
808.182	7906
808.324	7883
808.465	7890
808.607	8020
808.749	8142
808.891	8210
809.033	8343
809.174	8210
809.316	8043
809.458	8107
809.6	7993
809.741	8020
809.883	8077
810.025	8058
810.166	8069
810.308	8073
810.45	8050
810.591	7890
810.733	7742
810.875	7681
811.016	7525
811.158	7525
811.299	7575
811.441	7666
811.582	7662
811.724	7586
811.865	7544
812.007	7620
812.148	7567
812.29	7537
812.431	7742
812.573	7803
812.714	7978
812.855	8157
812.997	8206
813.138	8267
813.279	8142
813.421	8084
813.562	7947
813.703	7788
813.845	7712
813.986	7415
814.127	7236
814.268	7274
814.41	7278
814.551	7164
814.692	7213
814.833	7061
814.974	7084
815.115	7133
815.256	6947
815.397	6935
815.539	6882
815.68	6726
815.821	6825
815.962	6867
816.103	6840
816.244	6715
816.385	6631
816.526	6639
816.666	6513
816.807	6380
816.948	6464
817.089	6448
817.23	6475
817.371	6403
817.512	6369
817.653	6369
817.793	6319
817.934	6407
818.075	6486
818.216	6479
818.356	6452
818.497	6213
818.638	6167
818.778	6190
818.919	6136
819.06	6182
819.2	6357
819.341	6296
819.481	6414
819.622	6563
819.762	6726
819.903	6665
820.043	6646
820.184	6585
820.324	6620
820.465	6760
820.605	6669
820.746	6684
820.886	6574
821.026	6715
821.167	6749
821.307	6825
821.447	6844
821.588	6726
821.728	6662
821.868	6540
822.008	6342
822.149	6372
822.289	6433
822.429	6163
822.569	6144
822.709	6205
822.849	5942
822.99	5912
823.13	5992
823.27	5969
823.41	5771
823.55	5851
823.69	5866
823.83	5745
823.97	5733
824.11	5543
824.25	5516
824.389	5581
824.529	5608
824.669	5570
824.809	5668
824.949	5703
825.089	5680
825.228	5638
825.368	5459
825.508	5357
825.648	5406
825.787	5425
825.927	5391
826.067	5337
826.206	5357
826.346	5398
826.485	5402
826.625	5452
826.765	5581
826.904	5490
827.044	5265
827.183	5273
827.323	5159
827.462	5311
827.601	5277
827.741	5254
827.88	5246
828.02	5201
828.159	5201
828.298	5334
828.437	5429
828.577	5315
828.716	5512
828.855	5398
828.994	5231
829.134	5174
829.273	5235
829.412	5147
829.551	5204
829.69	5143
829.829	5292
829.968	5452
830.107	5337
830.246	5357
830.385	5181
830.524	5189
830.663	5170
830.802	5014
830.941	4915
831.08	4915
831.219	5079
831.357	5022
831.496	5231
831.635	5006
831.774	4927
831.913	4831
832.051	4755
832.19	4774
832.329	4824
832.467	4717
832.606	4664
832.744	4763
832.883	4755
833.022	4736
833.16	4805
833.299	4870
833.437	4843
833.576	4831
833.714	4854
833.852	4946
833.991	4900
834.129	4987
834.267	4984
834.406	4915
834.544	5014
834.682	4995
834.821	5010
834.959	5185
835.097	5079
835.235	5143
835.373	5113
835.511	5155
835.65	5041
835.788	5025
835.926	4934
836.064	4904
836.202	4949
836.34	5208
836.478	5307
836.615	5185
836.753	5227
836.891	5326
837.029	5273
837.167	5189
837.305	5189
837.443	5143
837.58	5098
837.718	5307
837.856	5204
837.993	5193
838.131	5269
838.269	5193
838.406	5258
838.544	5216
838.681	5124
838.819	5056
838.956	4900
839.094	4930
839.231	5025
839.369	5075
839.506	5417
839.643	5303
839.781	5083
839.918	4991
840.055	5132
840.193	5098
840.33	5128
840.467	5143
840.604	5208
840.742	5410
840.879	5124
841.016	5098
841.153	5181
841.29	5429
841.427	5387
841.564	5326
841.701	5379
841.838	5284
841.975	5258
842.112	5330
842.249	5155
842.385	5143
842.522	5307
842.659	5204
842.796	5189
842.933	5174
843.069	5181
843.206	5166
843.343	5345
843.479	5322
843.616	5288
843.752	5025
843.889	5022
844.025	5284
844.162	5048
844.298	5250
844.435	5143
844.571	5075
844.708	5231
844.844	5292
844.98	5383
845.117	5357
845.253	5201
845.389	5083
845.525	5185
845.661	5166
845.798	5045
845.934	5155
846.07	5056
846.206	5193
846.342	5296
846.478	5212
846.614	5083
846.75	4972
846.886	4972
847.022	5143
847.158	5060
847.294	5083
847.429	5079
847.565	5041
847.701	5322
847.837	4850
847.972	4862
848.108	4980
848.244	4957
848.379	4816
848.515	4736
848.65	4752
848.786	4771
848.921	4763
849.057	4908
849.192	4915
849.328	4816
849.463	4911
849.598	4835
849.734	4782
849.869	4748
850.004	4668
850.14	4706
850.275	4649
850.41	4565
850.545	4618
850.68	4660
850.815	4649
850.95	4687
851.085	4870
851.22	4820
851.355	4668
851.49	4634
851.625	4630
851.76	4679
851.895	4558
852.03	4558
852.165	4694
852.299	4687
852.434	4797
852.569	4824
852.703	4805
852.838	4839
852.973	4942
853.107	4911
853.242	4763
853.376	4653
853.511	4546
853.645	4656
853.78	4828
853.914	4683
854.048	4710
854.183	4679
854.317	4748
854.451	4896
854.585	4710
854.72	4634
854.854	4843
854.988	4607
855.122	4645
855.256	4546
855.39	4660
855.524	4835
855.658	4759
855.792	4740
855.926	4771
856.06	4805
856.194	4866
856.327	4656
856.461	4645
856.595	4664
856.729	4626
856.862	4812
856.996	4717
857.13	4740
857.263	4740
857.397	4820
857.53	4698
857.664	4740
857.797	4763
857.931	4790
858.064	4698
858.197	4755
858.331	4710
858.464	4641
858.597	4558
858.731	4672
858.864	4660
858.997	4561
859.13	4729
859.263	4687
859.396	4721
859.529	4615
859.662	4577
859.795	4531
859.928	4664
860.061	4771
860.194	4824
860.327	4618
860.46	4565
860.592	4755
860.725	4714
860.858	4717
860.99	4573
861.123	4504
861.256	4550
861.388	4641
861.521	5349
861.653	4512
861.786	4470
861.918	4527
862.05	4565
862.183	4550
862.315	4611
862.447	4702
862.58	4573
862.712	4402
862.844	4379
862.976	4478
863.108	4500
863.24	4900
863.372	4363
863.504	4447
863.636	4428
863.768	4497
863.9	4493
864.032	4363
864.164	4428
864.296	4478
864.428	4580
864.559	4558
864.691	4588
864.823	4584
864.954	4485
865.086	4519
865.217	4466
865.349	4432
865.48	4493
865.612	4538
865.743	4618
865.875	4500
866.006	4466
866.137	4497
866.269	4504
866.4	4462
866.531	4478
866.662	4440
866.793	4424
866.924	4470
867.055	4493
867.186	4489
867.317	4466
867.448	4413
867.579	4417
867.71	4417
867.841	4424
867.972	4493
868.103	4500
868.233	4470
868.364	4466
868.495	4519
868.625	4710
868.756	4786
868.886	4558
869.017	4672
869.147	4763
869.278	4797
869.408	4618
869.539	4653
869.669	4694
869.799	4694
869.929	4736
870.06	4740
870.19	4946
870.32	4915
870.45	4934
870.58	5025
870.71	5105
870.84	5151
870.97	4908
871.1	4915
871.23	5143
871.36	5140
871.489	5033
871.619	5113
871.749	5136
871.879	5102
872.008	5170
872.138	5022
872.267	4995
872.397	4858
872.526	4831
872.656	4744
872.785	4801
872.915	4942
873.044	5083
873.173	4980
873.303	4995
873.432	4949
873.561	4972
873.69	4930
873.819	4927
873.948	4987
874.077	4850
874.206	4771
874.335	4839
874.464	4934
874.593	5083
874.722	4987
874.851	5121
874.979	5056
875.108	5071
875.237	4915
875.365	4949
875.494	4968
875.623	4976
875.751	4839
875.88	4923
876.008	5022
876.136	5048
876.265	5250
876.393	5353
876.521	5273
876.65	5269
876.778	5181
876.906	5109
877.034	5048
877.162	5010
877.29	4976
877.418	5075
877.546	5079
877.674	5083
877.802	5037
877.93	4972
878.058	4980
878.185	4911
878.313	4999
878.441	5010
878.568	4793
878.696	4889
878.824	4976
878.951	4987
879.079	5181
879.206	5372
879.333	5094
879.461	5033
879.588	5037
879.715	5181
879.842	5269
879.97	5045
880.097	4767
880.224	4793
880.351	4831
880.478	4820
880.605	4850
880.732	4809
880.859	5056
880.986	4934
881.112	4862
881.239	4809
881.366	4714
881.493	4618
881.619	4649
881.746	4664
881.872	4630
881.999	4656
882.125	4675
882.252	4850
882.378	4862
882.505	4984
882.631	4847
882.757	4706
882.883	4736
883.01	4763
883.136	4694
883.262	4649
883.388	4649
883.514	4835
883.64	4915
883.766	4755
883.892	4702
884.018	4771
884.143	4858
884.269	5033
884.395	4698
884.52	4645
884.646	4694
884.772	4618
884.897	4561
885.023	4675
885.148	4801
885.274	4866
885.399	4870
885.524	4763
885.65	4721
885.775	4740
885.9	4748
886.025	4877
886.15	4820
886.275	4736
886.4	4672
886.525	4717
886.65	4672
886.775	4721
886.9	4892
887.025	5041
887.149	4835
887.274	4660
887.399	4645
887.523	4618
887.648	4599
887.773	4588
887.897	4790
888.021	4835
888.146	4698
888.27	4801
888.395	4904
888.519	4828
888.643	4767
888.767	4843
888.891	4702
889.015	4668
889.139	4710
889.263	4607
889.387	4786
889.511	4862
889.635	4809
889.759	4649
889.883	4618
890.006	4774
890.13	4866
890.254	4630
890.377	4675
890.501	4527
890.624	4508
890.748	4622
890.871	4478
890.995	4436
891.118	4394
891.241	4531
891.364	4527
891.488	4630
891.611	4523
891.734	4519
891.857	4558
891.98	4580
892.103	4668
892.226	4546
892.349	4527
892.471	4478
892.594	4542
892.717	4584
892.839	4561
892.962	4592
893.085	4675
893.207	4618
893.33	4466
893.452	4546
893.575	4626
893.697	4599
893.819	4812
893.941	4866
894.064	4850
894.186	4577
894.308	4561
894.43	4736
894.552	4820
894.674	4710
894.796	4561
894.918	4588
895.04	4592
895.161	4733
895.283	4714
895.405	4550
895.526	4683
895.648	4729
895.769	4755
895.891	4698
896.012	4740
896.134	4683
896.255	4683
896.376	4653
896.498	4634
896.619	4664
896.74	4630
896.861	4710
896.982	4911
897.103	5037
897.224	4824
897.345	4733
897.466	4641
897.587	4740
897.708	4847
897.828	4744
897.949	4687
898.07	4569
898.19	4626
898.311	4839
898.431	4668
898.552	4714
898.672	4805
898.792	4774
898.913	4736
899.033	4656
899.153	4535
899.273	4443
899.393	4542
899.513	4558
899.633	4565
899.753	4565
899.873	4493
899.993	4603
900.113	4531
900.232	4588
900.352	4542
900.472	4500
900.591	4443
900.711	4512
900.83	4436
900.95	4596
901.069	4687
901.189	4561
901.308	4421
901.427	4314
901.546	4383
901.665	4512
901.784	4531
901.904	4363
902.023	4367
902.141	4219
902.26	4207
902.379	4352
902.498	4257
902.617	4280
902.735	4371
902.854	4440
902.973	4375
903.091	4192
903.21	4249
903.328	4299
903.446	4249
903.565	4299
903.683	4379
903.801	4325
903.919	4466
904.038	4424
904.156	4322
904.274	4424
904.392	4325
904.51	4447
904.627	4417
904.745	4535
904.863	4660
904.981	4402
905.098	4356
905.216	4352
905.334	4421
905.451	4421
905.569	4481
905.686	4554
905.803	4592
905.921	4447
906.038	4516
906.155	4512
906.272	4451
906.389	4447
906.506	4333
906.623	4394
906.74	4363
906.857	4314
906.974	4379
907.091	4546
907.208	4672
907.324	4611
907.441	4493
907.557	4379
907.674	4344
907.79	4352
907.907	4409
908.023	4497
908.139	4516
908.256	4466
908.372	4424
908.488	4443
908.604	4341
908.72	4367
908.836	4394
908.952	4405
909.068	4440
909.184	4569
909.3	4455
909.415	4592
909.531	4596
909.647	4344
909.762	4375
909.878	4367
909.993	4440
910.108	4440
910.224	4440
910.339	4481
910.454	4394
910.57	4360
910.685	4306
910.8	4664
910.915	4588
911.03	4497
911.145	4363
911.259	4272
911.374	4386
911.489	4303
911.604	4306
911.718	4166
911.833	4238
911.947	4105
912.062	4021
912.176	4196
912.291	4253
912.405	4238
912.519	4440
912.633	4481
912.748	4367
912.862	4337
912.976	4185
913.09	4078
913.204	4188
913.318	4242
913.431	4367
913.545	4341
913.659	4421
913.772	4402
913.886	4234
914	4219
914.113	4360
914.226	4409
914.34	4379
914.453	4215
914.566	4424
914.68	4329
914.793	4333
914.906	4166
915.019	4078
915.132	4109
915.245	4185
915.358	4173
915.47	4204
915.583	4249
915.696	4318
915.809	4455
915.921	4459
916.034	4280
916.146	4268
916.259	4223
916.371	4379
916.483	4337
916.595	4223
916.708	4314
916.82	4318
916.932	4310
917.044	4344
917.156	4337
917.268	4299
917.38	4310
917.491	4280
917.603	4352
917.715	4390
917.826	4417
917.938	4352
918.049	4219
918.161	4424
918.272	4546
918.384	4546
918.495	4459
918.606	4284
918.717	4219
918.828	4352
918.939	4360
919.05	4295
919.161	4360
919.272	4124
919.383	4227
919.494	4466
919.604	4630
919.715	4405
919.826	4371
919.936	4413
920.047	4523
920.157	4504
920.267	4752
920.378	4504
920.488	4512
920.598	4740
920.708	4908
920.818	4778
920.928	4790
921.038	4949
921.148	4881
921.258	4660
921.368	4554
921.477	4546
921.587	4459
921.697	4367
921.806	4508
921.916	4424
922.025	4280
922.134	4295
922.244	4253
922.353	4337
922.462	4173
922.571	4120
922.68	4032
922.789	3964
922.898	3991
923.007	4036
923.116	4101
923.224	4105
923.333	4071
923.442	4006
923.55	3972
923.659	4006
923.767	4078
923.876	3998
923.984	4109
924.092	3998
924.201	4093
924.309	4093
924.417	4112
924.525	4071
924.633	4067
924.741	5037
924.849	3884
924.956	4071
925.064	3968
925.172	3937
925.279	3934
925.387	4067
925.494	4090
925.602	4188
925.709	4162
925.816	4036
925.924	4082
926.031	4276
926.138	4192
926.245	4230
926.352	4086
926.459	4268
926.566	4299
926.673	4150
926.779	4097
926.886	4029
926.993	3975
927.099	3998
927.206	3922
927.312	3930
927.419	4086
927.525	4040
927.631	4059
927.737	3983
927.843	3987
927.95	3838
928.056	3975
928.162	3983
928.267	4059
928.373	4740
928.479	4124
928.585	3888
928.69	4010
928.796	4074
928.901	3930
929.007	3850
929.112	3994
929.218	3987
929.323	3903
929.428	4002
929.533	4105
929.638	3934
929.743	3918
929.848	4040
929.953	4013
930.058	3838
930.163	3808
930.267	3819
930.372	3979
930.477	3808
930.581	4078
930.685	3907
930.79	3800
930.894	3846
930.998	3854
931.103	4040
931.207	3667
931.311	3694
931.415	3644
931.519	3523
931.623	3545
