Data from test_V78500241_1948.txt Node
Date: Fri Mar 25 17:02:32 CST 2022
User: usil
Spectrometer: V785-0024
Trigger mode: 0
Integration Time (sec): 4.000000E-1
Scans to average: 1
Nonlinearity correction enabled: false
Boxcar width: 0
Storing dark spectrum: false
XAxis mode: Wavelengths
Number of Pixels in Spectrum: 1024
>>>>>Begin Spectral Data<<<<<
801.071	7986
801.214	8092
801.356	7833
801.499	7860
801.641	7765
801.783	7803
801.926	7967
802.068	7959
802.211	8005
802.353	8050
802.496	7898
802.638	7868
802.78	7833
802.923	8005
803.065	7822
803.208	7841
803.35	7955
803.492	8084
803.635	8142
803.777	7955
803.919	8126
804.061	8457
804.204	8225
804.346	8046
804.488	8008
804.63	8084
804.773	8046
804.915	8065
805.057	8267
805.199	8157
805.341	8180
805.483	8366
805.626	8248
805.768	8145
805.91	8187
806.052	8237
806.194	8077
806.336	8286
806.478	8218
806.62	8020
806.762	8195
806.904	8286
807.046	8480
807.188	8415
807.33	8328
807.472	8328
807.614	8214
807.756	8126
807.898	8046
808.04	7902
808.182	7887
808.324	7936
808.465	7883
808.607	8088
808.749	8134
808.891	8225
809.033	8324
809.174	8199
809.316	8100
809.458	8157
809.6	8008
809.741	8039
809.883	8008
810.025	8123
810.166	8035
810.308	7989
810.45	7967
810.591	7795
810.733	7734
810.875	7693
811.016	7575
811.158	7480
811.299	7544
811.441	7655
811.582	7731
811.724	7533
811.865	7457
812.007	7590
812.148	7601
812.29	7605
812.431	7776
812.573	7849
812.714	7970
812.855	8210
812.997	8202
813.138	8336
813.279	8164
813.421	8130
813.562	7978
813.703	7841
813.845	7765
813.986	7419
814.127	7236
814.268	7198
814.41	7179
814.551	7179
814.692	7206
814.833	7114
814.974	7133
815.115	7114
815.256	7031
815.397	6935
815.539	6939
815.68	6882
815.821	6783
815.962	6844
816.103	6806
816.244	6688
816.385	6582
816.526	6551
816.666	6467
816.807	6304
816.948	6445
817.089	6456
817.23	6399
817.371	6327
817.512	6403
817.653	6464
817.793	6338
817.934	6445
818.075	6433
818.216	6426
818.356	6467
818.497	6258
818.638	6121
818.778	6133
818.919	6133
819.06	6167
819.2	6273
819.341	6361
819.481	6365
819.622	6532
819.762	6715
819.903	6696
820.043	6563
820.184	6509
820.324	6547
820.465	6715
820.605	6646
820.746	6635
820.886	6441
821.026	6623
821.167	6738
821.307	6802
821.447	6795
821.588	6677
821.728	6620
821.868	6502
822.008	6334
822.149	6388
822.289	6334
822.429	6106
822.569	6171
822.709	6068
822.849	5958
822.99	5904
823.13	5908
823.27	5908
823.41	5767
823.55	5764
823.69	5748
823.83	5813
823.97	5672
824.11	5554
824.25	5547
824.389	5570
824.529	5573
824.669	5528
824.809	5680
824.949	5642
825.089	5611
825.228	5512
825.368	5421
825.508	5334
825.648	5349
825.787	5398
825.927	5364
826.067	5261
826.206	5322
826.346	5364
826.485	5421
826.625	5383
826.765	5570
826.904	5467
827.044	5265
827.183	5204
827.323	5151
827.462	5223
827.601	5212
827.741	5181
827.88	5201
828.02	5102
828.159	5269
828.298	5303
828.437	5364
828.577	5269
828.716	5444
828.855	5296
828.994	5132
829.134	5124
829.273	5197
829.412	5086
829.551	5181
829.69	5136
829.829	5254
829.968	5353
830.107	5292
830.246	5269
830.385	5174
830.524	5136
830.663	5022
830.802	5006
830.941	4892
831.08	4892
831.219	4968
831.357	5041
831.496	5201
831.635	4919
831.774	4858
831.913	4835
832.051	4706
832.19	4809
832.329	4797
832.467	4672
832.606	4618
832.744	4736
832.883	4824
833.022	4706
833.16	4752
833.299	4774
833.437	4816
833.576	4816
833.714	4843
833.852	4896
833.991	4900
834.129	4972
834.267	4900
834.406	4965
834.544	4957
834.682	4991
834.821	4999
834.959	5178
835.097	4995
835.235	5121
835.373	5067
835.511	5086
835.65	4995
835.788	5029
835.926	4843
836.064	4942
836.202	4858
836.34	5159
836.478	5189
836.615	5090
836.753	5166
836.891	5284
837.029	5246
837.167	5220
837.305	5178
837.443	5197
837.58	5079
837.718	5216
837.856	5174
837.993	5136
838.131	5242
838.269	5197
838.406	5197
838.544	5181
838.681	5045
838.819	4995
838.956	4927
839.094	4854
839.231	5006
839.369	5083
839.506	5436
839.643	5246
839.781	5045
839.918	5022
840.055	5064
840.193	5086
840.33	5166
840.467	5147
840.604	5162
840.742	5402
840.879	5048
841.016	5067
841.153	5132
841.29	5372
841.427	5334
841.564	5341
841.701	5368
841.838	5292
841.975	5258
842.112	5288
842.249	5155
842.385	5090
842.522	5311
842.659	5185
842.796	5170
842.933	5174
843.069	5140
843.206	5094
843.343	5337
843.479	5223
843.616	5246
843.752	5010
843.889	5022
844.025	5212
844.162	4957
844.298	5223
844.435	5090
844.571	5025
844.708	5223
844.844	5334
844.98	5349
845.117	5284
845.253	5140
845.389	5090
845.525	5155
845.661	5178
845.798	5022
845.934	5132
846.07	5033
846.206	5193
846.342	5345
846.478	5185
846.614	5003
846.75	4953
846.886	4961
847.022	5174
847.158	4987
847.294	5048
847.429	5102
847.565	5060
847.701	5311
847.837	4889
847.972	4843
848.108	4934
848.244	4938
848.379	4771
848.515	4755
848.65	4717
848.786	4740
848.921	4748
849.057	4831
849.192	4866
849.328	4812
849.463	4835
849.598	4729
849.734	4812
849.869	4664
850.004	4649
850.14	4641
850.275	4630
850.41	4523
850.545	4546
850.68	4599
850.815	4584
850.95	4637
851.085	4812
851.22	4740
851.355	4675
851.49	4554
851.625	4622
851.76	4599
851.895	4550
852.03	4546
852.165	4634
852.299	4691
852.434	4767
852.569	4702
852.703	4778
852.838	4870
852.973	4892
853.107	4934
853.242	4736
853.376	4645
853.511	4527
853.645	4580
853.78	4793
853.914	4675
854.048	4702
854.183	4618
854.317	4656
854.451	4889
854.585	4668
854.72	4603
854.854	4759
854.988	4618
855.122	4622
855.256	4516
855.39	4687
855.524	4797
855.658	4694
855.792	4683
855.926	4714
856.06	4774
856.194	4847
856.327	4702
856.461	4618
856.595	4630
856.729	4626
856.862	4706
856.996	4721
857.13	4702
857.263	4767
857.397	4801
857.53	4653
857.664	4752
857.797	4748
857.931	4820
858.064	4714
858.197	4706
858.331	4607
858.464	4580
858.597	4573
858.731	4656
858.864	4630
858.997	4653
859.13	4649
859.263	4630
859.396	4687
859.529	4580
859.662	4546
859.795	4535
859.928	4645
860.061	4714
860.194	4748
860.327	4630
860.46	4523
860.592	4702
860.725	4698
860.858	4729
860.99	4573
861.123	4550
861.256	4504
861.388	4596
861.521	5311
861.653	4512
861.786	4470
861.918	4459
862.05	4554
862.183	4584
862.315	4599
862.447	4664
862.58	4527
862.712	4428
862.844	4352
862.976	4523
863.108	4451
863.24	4801
863.372	4318
863.504	4428
863.636	4386
863.768	4481
863.9	4409
864.032	4344
864.164	4432
864.296	4470
864.428	4531
864.559	4538
864.691	4546
864.823	4535
864.954	4516
865.086	4508
865.217	4478
865.349	4421
865.48	4447
865.612	4519
865.743	4592
865.875	4451
866.006	4440
866.137	4451
866.269	4451
866.4	4421
866.531	4436
866.662	4409
866.793	4371
866.924	4417
867.055	4493
867.186	4417
867.317	4440
867.448	4386
867.579	4405
867.71	4360
867.841	4367
867.972	4428
868.103	4417
868.233	4470
868.364	4497
868.495	4489
868.625	4668
868.756	4812
868.886	4573
869.017	4649
869.147	4748
869.278	4733
869.408	4679
869.539	4649
869.669	4740
869.799	4653
869.929	4733
870.06	4744
870.19	4927
870.32	4927
870.45	4900
870.58	4991
870.71	5048
870.84	5064
870.97	4927
871.1	4873
871.23	5170
871.36	5132
871.489	5014
871.619	5018
871.749	5090
871.879	5132
872.008	5132
872.138	5006
872.267	4972
872.397	4839
872.526	4809
872.656	4679
872.785	4828
872.915	4942
873.044	4968
873.173	4927
873.303	4995
873.432	4995
873.561	4980
873.69	4828
873.819	4843
873.948	4908
874.077	4843
874.206	4698
874.335	4805
874.464	4900
874.593	5056
874.722	4911
874.851	5090
874.979	5033
875.108	5064
875.237	4881
875.365	4889
875.494	4934
875.623	4942
875.751	4820
875.88	4900
876.008	4968
876.136	5041
876.265	5220
876.393	5303
876.521	5239
876.65	5185
876.778	5185
876.906	5079
877.034	5052
877.162	5037
877.29	4984
877.418	5109
877.546	5048
877.674	5025
877.802	5052
877.93	5006
878.058	4908
878.185	4904
878.313	4915
878.441	4900
878.568	4835
878.696	4847
878.824	4911
878.951	4991
879.079	5109
879.206	5288
879.333	5105
879.461	4999
879.588	5018
879.715	5098
879.842	5261
879.97	5018
880.097	4816
880.224	4717
880.351	4774
880.478	4812
880.605	4831
880.732	4771
880.859	5094
880.986	4881
881.112	4858
881.239	4717
881.366	4694
881.493	4634
881.619	4592
881.746	4626
881.872	4634
881.999	4634
882.125	4679
882.252	4793
882.378	4843
882.505	4927
882.631	4759
882.757	4679
882.883	4702
883.01	4717
883.136	4656
883.262	4611
883.388	4630
883.514	4778
883.64	4854
883.766	4797
883.892	4702
884.018	4698
884.143	4900
884.269	4942
884.395	4649
884.52	4618
884.646	4649
884.772	4546
884.897	4554
885.023	4656
885.148	4759
885.274	4877
885.399	4797
885.524	4634
885.65	4645
885.775	4721
885.9	4683
886.025	4854
886.15	4774
886.275	4721
886.4	4626
886.525	4744
886.65	4664
886.775	4752
886.9	4877
887.025	5048
887.149	4824
887.274	4626
887.399	4622
887.523	4599
887.648	4558
887.773	4611
887.897	4774
888.021	4786
888.146	4656
888.27	4797
888.395	4881
888.519	4801
888.643	4816
888.767	4862
888.891	4607
889.015	4626
889.139	4668
889.263	4569
889.387	4752
889.511	4854
889.635	4752
889.759	4660
889.883	4603
890.006	4733
890.13	4862
890.254	4630
890.377	4645
890.501	4580
890.624	4497
890.748	4603
890.871	4451
890.995	4451
891.118	4432
891.241	4523
891.364	4546
891.488	4580
891.611	4478
891.734	4500
891.857	4588
891.98	4546
892.103	4607
892.226	4618
892.349	4508
892.471	4436
892.594	4527
892.717	4611
892.839	4569
892.962	4592
893.085	4603
893.207	4599
893.33	4466
893.452	4519
893.575	4675
893.697	4580
893.819	4824
893.941	4790
894.064	4778
894.186	4588
894.308	4592
894.43	4660
894.552	4870
894.674	4748
894.796	4542
894.918	4592
895.04	4569
895.161	4721
895.283	4656
895.405	4577
895.526	4584
895.648	4683
895.769	4653
895.891	4721
896.012	4729
896.134	4668
896.255	4645
896.376	4615
896.498	4577
896.619	4702
896.74	4622
896.861	4584
896.982	4946
897.103	5056
897.224	4805
897.345	4714
897.466	4691
897.587	4717
897.708	4843
897.828	4801
897.949	4725
898.07	4531
898.19	4653
898.311	4816
898.431	4653
898.552	4740
898.672	4805
898.792	4744
898.913	4729
899.033	4611
899.153	4474
899.273	4478
899.393	4428
899.513	4527
899.633	4519
899.753	4542
899.873	4485
899.993	4584
900.113	4497
900.232	4554
900.352	4523
900.472	4504
900.591	4443
900.711	4508
900.83	4409
900.95	4569
901.069	4714
901.189	4577
901.308	4367
901.427	4341
901.546	4390
901.665	4516
901.784	4436
901.904	4356
902.023	4341
902.141	4204
902.26	4204
902.379	4295
902.498	4253
902.617	4188
902.735	4337
902.854	4394
902.973	4402
903.091	4219
903.21	4173
903.328	4314
903.446	4295
903.565	4265
903.683	4367
903.801	4242
903.919	4413
904.038	4402
904.156	4303
904.274	4424
904.392	4375
904.51	4405
904.627	4436
904.745	4561
904.863	4630
904.981	4360
905.098	4280
905.216	4360
905.334	4417
905.451	4428
905.569	4367
905.686	4565
905.803	4542
905.921	4371
906.038	4523
906.155	4516
906.272	4398
906.389	4424
906.506	4405
906.623	4333
906.74	4390
906.857	4265
906.974	4348
907.091	4527
907.208	4634
907.324	4622
907.441	4462
907.557	4318
907.674	4314
907.79	4306
907.907	4356
908.023	4409
908.139	4436
908.256	4428
908.372	4466
908.488	4481
908.604	4337
908.72	4325
908.836	4356
908.952	4325
909.068	4413
909.184	4500
909.3	4512
909.415	4584
909.531	4558
909.647	4337
909.762	4379
909.878	4329
909.993	4394
910.108	4413
910.224	4432
910.339	4481
910.454	4383
910.57	4337
910.685	4322
910.8	4611
910.915	4626
911.03	4481
911.145	4314
911.259	4341
911.374	4371
911.489	4322
911.604	4276
911.718	4181
911.833	4204
911.947	4063
912.062	4051
912.176	4223
912.291	4234
912.405	4268
912.519	4470
912.633	4538
912.748	4329
912.862	4287
912.976	4223
913.09	4093
913.204	4204
913.318	4215
913.431	4348
913.545	4360
913.659	4440
913.772	4352
913.886	4253
914	4227
914.113	4405
914.226	4474
914.34	4398
914.453	4227
914.566	4367
914.68	4329
914.793	4333
914.906	4143
915.019	4154
915.132	4090
915.245	4166
915.358	4162
915.47	4196
915.583	4230
915.696	4280
915.809	4394
915.921	4428
916.034	4272
916.146	4303
916.259	4238
916.371	4363
916.483	4394
916.595	4211
916.708	4325
916.82	4291
916.932	4337
917.044	4306
917.156	4383
917.268	4268
917.38	4299
917.491	4287
917.603	4348
917.715	4409
917.826	4447
917.938	4360
918.049	4276
918.161	4341
918.272	4493
918.384	4550
918.495	4443
918.606	4322
918.717	4291
918.828	4310
918.939	4363
919.05	4287
919.161	4341
919.272	4116
919.383	4230
919.494	4451
919.604	4588
919.715	4424
919.826	4333
919.936	4421
920.047	4550
920.157	4447
920.267	4679
920.378	4531
920.488	4531
920.598	4790
920.708	4839
920.818	4733
920.928	4782
921.038	4938
921.148	4927
921.258	4664
921.368	4618
921.477	4455
921.587	4405
921.697	4386
921.806	4561
921.916	4470
922.025	4253
922.134	4238
922.244	4261
922.353	4310
922.462	4169
922.571	4135
922.68	4025
922.789	3945
922.898	4021
923.007	3968
923.116	4131
923.224	4048
923.333	4067
923.442	4006
923.55	3983
923.659	4010
923.767	4109
923.876	4006
923.984	4093
924.092	3926
924.201	4109
924.309	4101
924.417	4147
924.525	4032
924.633	4116
924.741	5014
924.849	3911
924.956	4162
925.064	3991
925.172	3884
925.279	3953
925.387	4040
925.494	4078
925.602	4200
925.709	4188
925.816	4059
925.924	4059
926.031	4211
926.138	4215
926.245	4207
926.352	4082
926.459	4253
926.566	4303
926.673	4116
926.779	4067
926.886	4067
926.993	3987
927.099	3941
927.206	3934
927.312	3907
927.419	4032
927.525	4032
927.631	4078
927.737	3979
927.843	3937
927.95	3816
928.056	3972
928.162	3991
928.267	4032
928.373	4546
928.479	4135
928.585	3880
928.69	4044
928.796	4059
928.901	3953
929.007	3835
929.112	3983
929.218	3991
929.323	3949
929.428	3941
929.533	4147
929.638	3899
929.743	3968
929.848	4097
929.953	3998
930.058	3956
930.163	3774
930.267	3831
930.372	3975
930.477	3800
930.581	4124
930.685	3949
930.79	3766
930.894	3876
930.998	3846
931.103	4067
931.207	3736
931.311	3701
931.415	3679
931.519	3515
931.623	3523
