Data from test_V78500241_1695.txt Node
Date: Fri Mar 25 17:00:47 CST 2022
User: usil
Spectrometer: V785-0024
Trigger mode: 0
Integration Time (sec): 4.000000E-1
Scans to average: 1
Nonlinearity correction enabled: false
Boxcar width: 0
Storing dark spectrum: false
XAxis mode: Wavelengths
Number of Pixels in Spectrum: 1024
>>>>>Begin Spectral Data<<<<<
801.071	8001
801.214	7955
801.356	7868
801.499	7830
801.641	7772
801.783	7830
801.926	7970
802.068	7925
802.211	7951
802.353	8035
802.496	7909
802.638	7879
802.78	7890
802.923	7921
803.065	7830
803.208	7906
803.35	7921
803.492	8088
803.635	8119
803.777	7997
803.919	8130
804.061	8396
804.204	8195
804.346	8054
804.488	7982
804.63	8008
804.773	8027
804.915	8050
805.057	8309
805.199	8164
805.341	8168
805.483	8240
805.626	8164
805.768	8054
805.91	8176
806.052	8199
806.194	8100
806.336	8317
806.478	8005
806.62	8024
806.762	8039
806.904	8229
807.046	8431
807.188	8423
807.33	8358
807.472	8313
807.614	8134
807.756	8126
807.898	7944
808.04	7860
808.182	7913
808.324	7841
808.465	7967
808.607	8088
808.749	8153
808.891	8221
809.033	8290
809.174	8206
809.316	8069
809.458	8050
809.6	7993
809.741	8020
809.883	8031
810.025	8164
810.166	8119
810.308	8031
810.45	7944
810.591	7811
810.733	7700
810.875	7677
811.016	7556
811.158	7525
811.299	7571
811.441	7708
811.582	7613
811.724	7575
811.865	7518
812.007	7575
812.148	7605
812.29	7605
812.431	7738
812.573	7890
812.714	7982
812.855	8084
812.997	8240
813.138	8263
813.279	8221
813.421	8107
813.562	7898
813.703	7799
813.845	7712
813.986	7441
814.127	7171
814.268	7217
814.41	7202
814.551	7152
814.692	7228
814.833	7129
814.974	7171
815.115	7171
815.256	6989
815.397	6928
815.539	6935
815.68	6791
815.821	6749
815.962	6757
816.103	6745
816.244	6757
816.385	6654
816.526	6585
816.666	6448
816.807	6296
816.948	6384
817.089	6483
817.23	6388
817.371	6376
817.512	6384
817.653	6331
817.793	6357
817.934	6403
818.075	6384
818.216	6414
818.356	6346
818.497	6216
818.638	6152
818.778	6159
818.919	6121
819.06	6144
819.2	6277
819.341	6323
819.481	6327
819.622	6540
819.762	6738
819.903	6719
820.043	6601
820.184	6555
820.324	6585
820.465	6684
820.605	6722
820.746	6612
820.886	6475
821.026	6669
821.167	6715
821.307	6787
821.447	6749
821.588	6604
821.728	6532
821.868	6494
822.008	6315
822.149	6372
822.289	6403
822.429	6148
822.569	6034
822.709	6129
822.849	5897
822.99	5946
823.13	5893
823.27	5904
823.41	5824
823.55	5786
823.69	5737
823.83	5752
823.97	5707
824.11	5551
824.25	5509
824.389	5551
824.529	5596
824.669	5509
824.809	5672
824.949	5630
825.089	5589
825.228	5516
825.368	5368
825.508	5318
825.648	5303
825.787	5372
825.927	5383
826.067	5284
826.206	5277
826.346	5326
826.485	5349
826.625	5379
826.765	5486
826.904	5471
827.044	5220
827.183	5201
827.323	5166
827.462	5212
827.601	5197
827.741	5208
827.88	5197
828.02	5102
828.159	5174
828.298	5303
828.437	5353
828.577	5284
828.716	5471
828.855	5284
828.994	5151
829.134	5086
829.273	5178
829.412	5170
829.551	5121
829.69	5132
829.829	5246
829.968	5383
830.107	5239
830.246	5273
830.385	5121
830.524	5105
830.663	5075
830.802	4972
830.941	4843
831.08	4835
831.219	4984
831.357	4896
831.496	5155
831.635	4896
831.774	4793
831.913	4831
832.051	4740
832.19	4710
832.329	4835
832.467	4710
832.606	4615
832.744	4736
832.883	4706
833.022	4687
833.16	4752
833.299	4797
833.437	4812
833.576	4828
833.714	4824
833.852	4812
833.991	4854
834.129	4942
834.267	4930
834.406	4858
834.544	4930
834.682	4953
834.821	4957
834.959	5147
835.097	5003
835.235	5147
835.373	5094
835.511	5098
835.65	4995
835.788	5018
835.926	4908
836.064	4870
836.202	4972
836.34	5121
836.478	5231
836.615	5121
836.753	5239
836.891	5337
837.029	5208
837.167	5201
837.305	5102
837.443	5185
837.58	5064
837.718	5258
837.856	5185
837.993	5166
838.131	5220
838.269	5250
838.406	5208
838.544	5159
838.681	4987
838.819	5014
838.956	4862
839.094	4896
839.231	4930
839.369	5079
839.506	5417
839.643	5239
839.781	4995
839.918	5033
840.055	5090
840.193	5090
840.33	5117
840.467	5132
840.604	5166
840.742	5417
840.879	5071
841.016	5079
841.153	5193
841.29	5395
841.427	5357
841.564	5292
841.701	5360
841.838	5235
841.975	5216
842.112	5250
842.249	5098
842.385	5105
842.522	5334
842.659	5170
842.796	5075
842.933	5250
843.069	5140
843.206	5162
843.343	5326
843.479	5223
843.616	5322
843.752	5045
843.889	4987
844.025	5189
844.162	4957
844.298	5151
844.435	5094
844.571	5071
844.708	5223
844.844	5318
844.98	5376
845.117	5280
845.253	5147
845.389	5090
845.525	5117
845.661	5117
845.798	5037
845.934	5117
846.07	5071
846.206	5170
846.342	5288
846.478	5109
846.614	5045
846.75	4953
846.886	4949
847.022	5113
847.158	5048
847.294	5037
847.429	5090
847.565	5022
847.701	5322
847.837	4820
847.972	4805
848.108	4953
848.244	4911
848.379	4763
848.515	4721
848.65	4733
848.786	4683
848.921	4771
849.057	4828
849.192	4919
849.328	4839
849.463	4839
849.598	4797
849.734	4793
849.869	4675
850.004	4615
850.14	4637
850.275	4603
850.41	4519
850.545	4596
850.68	4607
850.815	4645
850.95	4641
851.085	4824
851.22	4714
851.355	4630
851.49	4687
851.625	4637
851.76	4630
851.895	4584
852.03	4516
852.165	4664
852.299	4714
852.434	4793
852.569	4755
852.703	4797
852.838	4835
852.973	4930
853.107	4934
853.242	4725
853.376	4675
853.511	4508
853.645	4573
853.78	4816
853.914	4645
854.048	4668
854.183	4637
854.317	4698
854.451	4847
854.585	4641
854.72	4611
854.854	4755
854.988	4615
855.122	4653
855.256	4493
855.39	4645
855.524	4782
855.658	4691
855.792	4675
855.926	4694
856.06	4733
856.194	4797
856.327	4653
856.461	4615
856.595	4622
856.729	4626
856.862	4752
856.996	4683
857.13	4672
857.263	4763
857.397	4752
857.53	4645
857.664	4717
857.797	4767
857.931	4786
858.064	4641
858.197	4755
858.331	4622
858.464	4660
858.597	4558
858.731	4584
858.864	4607
858.997	4622
859.13	4618
859.263	4660
859.396	4702
859.529	4588
859.662	4565
859.795	4535
859.928	4599
860.061	4710
860.194	4793
860.327	4599
860.46	4535
860.592	4668
860.725	4679
860.858	4744
860.99	4611
861.123	4527
861.256	4512
861.388	4618
861.521	5223
861.653	4512
861.786	4409
861.918	4466
862.05	4493
862.183	4596
862.315	4603
862.447	4637
862.58	4516
862.712	4375
862.844	4325
862.976	4489
863.108	4417
863.24	4889
863.372	4344
863.504	4428
863.636	4344
863.768	4470
863.9	4455
864.032	4352
864.164	4402
864.296	4493
864.428	4523
864.559	4584
864.691	4531
864.823	4542
864.954	4489
865.086	4535
865.217	4470
865.349	4413
865.48	4459
865.612	4443
865.743	4569
865.875	4485
866.006	4386
866.137	4470
866.269	4432
866.4	4424
866.531	4390
866.662	4367
866.793	4383
866.924	4413
867.055	4493
867.186	4440
867.317	4386
867.448	4360
867.579	4421
867.71	4322
867.841	4337
867.972	4413
868.103	4443
868.233	4424
868.364	4459
868.495	4424
868.625	4626
868.756	4763
868.886	4596
869.017	4569
869.147	4733
869.278	4744
869.408	4679
869.539	4641
869.669	4653
869.799	4679
869.929	4729
870.06	4714
870.19	4987
870.32	4938
870.45	4881
870.58	4976
870.71	5094
870.84	5067
870.97	4949
871.1	4927
871.23	5155
871.36	5094
871.489	4976
871.619	5079
871.749	5067
871.879	5162
872.008	5155
872.138	5083
872.267	4957
872.397	4831
872.526	4835
872.656	4740
872.785	4767
872.915	4961
873.044	5010
873.173	4915
873.303	5018
873.432	4957
873.561	4919
873.69	4877
873.819	4911
873.948	4885
874.077	4847
874.206	4759
874.335	4793
874.464	4927
874.593	5033
874.722	4961
874.851	5075
874.979	5014
875.108	5025
875.237	4908
875.365	4850
875.494	4881
875.623	4991
875.751	4771
875.88	4900
876.008	4957
876.136	5003
876.265	5220
876.393	5311
876.521	5212
876.65	5212
876.778	5143
876.906	5045
877.034	4987
877.162	5041
877.29	5010
877.418	5071
877.546	5018
877.674	5075
877.802	5052
877.93	4980
878.058	4972
878.185	4870
878.313	4953
878.441	4938
878.568	4809
878.696	4873
878.824	4904
878.951	4976
879.079	5117
879.206	5254
879.333	5105
879.461	4949
879.588	4972
879.715	5121
879.842	5242
879.97	4968
880.097	4774
880.224	4721
880.351	4755
880.478	4831
880.605	4812
880.732	4763
880.859	5041
880.986	4873
881.112	4873
881.239	4801
881.366	4645
881.493	4577
881.619	4535
881.746	4641
881.872	4615
881.999	4649
882.125	4691
882.252	4714
882.378	4816
882.505	4957
882.631	4797
882.757	4626
882.883	4698
883.01	4729
883.136	4630
883.262	4588
883.388	4588
883.514	4774
883.64	4843
883.766	4774
883.892	4702
884.018	4698
884.143	4828
884.269	5003
884.395	4653
884.52	4626
884.646	4626
884.772	4599
884.897	4596
885.023	4656
885.148	4786
885.274	4881
885.399	4793
885.524	4694
885.65	4668
885.775	4729
885.9	4736
886.025	4843
886.15	4797
886.275	4717
886.4	4683
886.525	4733
886.65	4653
886.775	4675
886.9	4870
887.025	5010
887.149	4782
887.274	4683
887.399	4599
887.523	4592
887.648	4588
887.773	4558
887.897	4763
888.021	4774
888.146	4691
888.27	4870
888.395	4896
888.519	4820
888.643	4805
888.767	4797
888.891	4668
889.015	4580
889.139	4626
889.263	4584
889.387	4744
889.511	4858
889.635	4805
889.759	4592
889.883	4649
890.006	4717
890.13	4820
890.254	4634
890.377	4660
890.501	4596
890.624	4561
890.748	4641
890.871	4493
890.995	4398
891.118	4337
891.241	4485
891.364	4546
891.488	4607
891.611	4489
891.734	4596
891.857	4626
891.98	4546
892.103	4596
892.226	4561
892.349	4516
892.471	4440
892.594	4512
892.717	4596
892.839	4565
892.962	4637
893.085	4691
893.207	4641
893.33	4413
893.452	4504
893.575	4630
893.697	4580
893.819	4767
893.941	4805
894.064	4759
894.186	4573
894.308	4542
894.43	4736
894.552	4824
894.674	4729
894.796	4542
894.918	4603
895.04	4561
895.161	4679
895.283	4694
895.405	4588
895.526	4622
895.648	4691
895.769	4668
895.891	4729
896.012	4748
896.134	4683
896.255	4641
896.376	4603
896.498	4611
896.619	4664
896.74	4615
896.861	4588
896.982	4908
897.103	5090
897.224	4809
897.345	4691
897.466	4675
897.587	4714
897.708	4824
897.828	4725
897.949	4645
898.07	4584
898.19	4649
898.311	4790
898.431	4580
898.552	4733
898.672	4805
898.792	4805
898.913	4759
899.033	4630
899.153	4493
899.273	4436
899.393	4466
899.513	4519
899.633	4527
899.753	4527
899.873	4481
899.993	4615
900.113	4519
900.232	4565
900.352	4500
900.472	4500
900.591	4428
900.711	4470
900.83	4417
900.95	4588
901.069	4691
901.189	4531
901.308	4360
901.427	4280
901.546	4341
901.665	4447
901.784	4504
901.904	4386
902.023	4310
902.141	4227
902.26	4196
902.379	4276
902.498	4242
902.617	4234
902.735	4371
902.854	4375
902.973	4402
903.091	4238
903.21	4242
903.328	4306
903.446	4242
903.565	4280
903.683	4348
903.801	4280
903.919	4394
904.038	4428
904.156	4276
904.274	4394
904.392	4386
904.51	4386
904.627	4474
904.745	4558
904.863	4679
904.981	4409
905.098	4295
905.216	4371
905.334	4405
905.451	4462
905.569	4443
905.686	4573
905.803	4577
905.921	4413
906.038	4565
906.155	4459
906.272	4367
906.389	4447
906.506	4344
906.623	4383
906.74	4394
906.857	4295
906.974	4360
907.091	4599
907.208	4622
907.324	4569
907.441	4493
907.557	4337
907.674	4348
907.79	4314
907.907	4402
908.023	4470
908.139	4462
908.256	4432
908.372	4466
908.488	4440
908.604	4352
908.72	4299
908.836	4360
908.952	4390
909.068	4440
909.184	4603
909.3	4485
909.415	4580
909.531	4512
909.647	4284
909.762	4360
909.878	4367
909.993	4398
910.108	4409
910.224	4398
910.339	4493
910.454	4405
910.57	4329
910.685	4341
910.8	4630
910.915	4588
911.03	4500
911.145	4322
911.259	4333
911.374	4318
911.489	4295
911.604	4272
911.718	4128
911.833	4192
911.947	4048
912.062	4055
912.176	4223
912.291	4234
912.405	4280
912.519	4405
912.633	4542
912.748	4348
912.862	4268
912.976	4181
913.09	4105
913.204	4188
913.318	4211
913.431	4375
913.545	4333
913.659	4428
913.772	4333
913.886	4284
914	4219
914.113	4344
914.226	4455
914.34	4398
914.453	4223
914.566	4432
914.68	4306
914.793	4363
914.906	4207
915.019	4131
915.132	4071
915.245	4173
915.358	4238
915.47	4227
915.583	4280
915.696	4314
915.809	4398
915.921	4428
916.034	4215
916.146	4227
916.259	4196
916.371	4363
916.483	4333
916.595	4204
916.708	4314
916.82	4329
916.932	4341
917.044	4291
917.156	4333
917.268	4238
917.38	4306
917.491	4246
917.603	4325
917.715	4405
917.826	4451
917.938	4310
918.049	4261
918.161	4341
918.272	4538
918.384	4516
918.495	4489
918.606	4337
918.717	4234
918.828	4360
918.939	4386
919.05	4268
919.161	4287
919.272	4135
919.383	4238
919.494	4413
919.604	4622
919.715	4443
919.826	4379
919.936	4375
920.047	4497
920.157	4485
920.267	4725
920.378	4550
920.488	4493
920.598	4721
920.708	4885
920.818	4748
920.928	4729
921.038	4930
921.148	4870
921.258	4588
921.368	4550
921.477	4462
921.587	4462
921.697	4371
921.806	4535
921.916	4402
922.025	4234
922.134	4223
922.244	4227
922.353	4314
922.462	4147
922.571	4131
922.68	4017
922.789	3956
922.898	4032
923.007	3994
923.116	4082
923.224	4032
923.333	4082
923.442	3983
923.55	3968
923.659	4017
923.767	4090
923.876	3968
923.984	4082
924.092	4010
924.201	4120
924.309	4086
924.417	4105
924.525	4059
924.633	4105
924.741	4873
924.849	3880
924.956	4109
925.064	3922
925.172	3880
925.279	3968
925.387	4059
925.494	4021
925.602	4185
925.709	4173
925.816	4017
925.924	4154
926.031	4238
926.138	4143
926.245	4192
926.352	4074
926.459	4246
926.566	4318
926.673	4143
926.779	4078
926.886	4078
926.993	3979
927.099	3972
927.206	3945
927.312	3941
927.419	4051
927.525	3998
927.631	4105
927.737	3960
927.843	3949
927.95	3865
928.056	3911
928.162	3972
928.267	4044
928.373	4599
928.479	4143
928.585	3915
928.69	4021
928.796	4093
928.901	3934
929.007	3808
929.112	3991
929.218	3975
929.323	3964
929.428	3911
929.533	4097
929.638	3892
929.743	3964
929.848	4017
929.953	3987
930.058	3899
930.163	3759
930.267	3827
930.372	3979
930.477	3823
930.581	4074
930.685	3915
930.79	3823
930.894	3861
930.998	3850
931.103	3972
931.207	3751
931.311	3656
931.415	3671
931.519	3481
931.623	3576
