Data from test_V78500241_935.txt Node
Date: Fri Mar 25 16:55:30 CST 2022
User: usil
Spectrometer: V785-0024
Trigger mode: 0
Integration Time (sec): 4.000000E-1
Scans to average: 1
Nonlinearity correction enabled: false
Boxcar width: 0
Storing dark spectrum: false
XAxis mode: Wavelengths
Number of Pixels in Spectrum: 1024
>>>>>Begin Spectral Data<<<<<
801.071	8119
801.214	8054
801.356	7909
801.499	7932
801.641	7852
801.783	7833
801.926	8001
802.068	7913
802.211	8008
802.353	7982
802.496	7833
802.638	7811
802.78	7928
802.923	7932
803.065	7879
803.208	7932
803.35	8001
803.492	8149
803.635	8172
803.777	8035
803.919	8145
804.061	8526
804.204	8172
804.346	8039
804.488	7921
804.63	8073
804.773	8012
804.915	8168
805.057	8267
805.199	8256
805.341	8294
805.483	8237
805.626	8252
805.768	8107
805.91	8237
806.052	8225
806.194	8115
806.336	8343
806.478	8134
806.62	8073
806.762	8107
806.904	8267
807.046	8473
807.188	8381
807.33	8267
807.472	8343
807.614	8180
807.756	8077
807.898	7993
808.04	7890
808.182	7974
808.324	7959
808.465	7944
808.607	8069
808.749	8191
808.891	8172
809.033	8271
809.174	8279
809.316	8020
809.458	8054
809.6	7940
809.741	8020
809.883	8050
810.025	8096
810.166	8065
810.308	8039
810.45	8050
810.591	7883
810.733	7769
810.875	7689
811.016	7537
811.158	7483
811.299	7605
811.441	7704
811.582	7689
811.724	7571
811.865	7575
812.007	7582
812.148	7578
812.29	7624
812.431	7704
812.573	7928
812.714	8012
812.855	8069
812.997	8248
813.138	8229
813.279	8187
813.421	8103
813.562	8027
813.703	7833
813.845	7811
813.986	7533
814.127	7308
814.268	7259
814.41	7183
814.551	7152
814.692	7225
814.833	7046
814.974	7110
815.115	7091
815.256	6958
815.397	6981
815.539	6932
815.68	6894
815.821	6768
815.962	6894
816.103	6821
816.244	6734
816.385	6650
816.526	6669
816.666	6483
816.807	6285
816.948	6448
817.089	6467
817.23	6418
817.371	6429
817.512	6422
817.653	6395
817.793	6376
817.934	6372
818.075	6448
818.216	6433
818.356	6346
818.497	6213
818.638	6091
818.778	6163
818.919	6068
819.06	6171
819.2	6334
819.341	6338
819.481	6346
819.622	6452
819.762	6787
819.903	6684
820.043	6620
820.184	6601
820.324	6623
820.465	6665
820.605	6650
820.746	6597
820.886	6551
821.026	6677
821.167	6711
821.307	6833
821.447	6779
821.588	6658
821.728	6593
821.868	6502
822.008	6395
822.149	6346
822.289	6319
822.429	6133
822.569	6034
822.709	6133
822.849	5908
822.99	5889
823.13	5916
823.27	5897
823.41	5802
823.55	5710
823.69	5756
823.83	5805
823.97	5722
824.11	5551
824.25	5490
824.389	5516
824.529	5566
824.669	5543
824.809	5649
824.949	5623
825.089	5581
825.228	5585
825.368	5379
825.508	5337
825.648	5322
825.787	5353
825.927	5376
826.067	5349
826.206	5273
826.346	5353
826.485	5410
826.625	5436
826.765	5516
826.904	5490
827.044	5227
827.183	5162
827.323	5105
827.462	5250
827.601	5143
827.741	5147
827.88	5239
828.02	5094
828.159	5235
828.298	5299
828.437	5368
828.577	5265
828.716	5414
828.855	5345
828.994	5155
829.134	5124
829.273	5197
829.412	5181
829.551	5136
829.69	5166
829.829	5258
829.968	5341
830.107	5246
830.246	5280
830.385	5246
830.524	5174
830.663	5060
830.802	4900
830.941	4942
831.08	4881
831.219	5006
831.357	4999
831.496	5147
831.635	4934
831.774	4900
831.913	4835
832.051	4748
832.19	4771
832.329	4896
832.467	4668
832.606	4603
832.744	4744
832.883	4729
833.022	4744
833.16	4759
833.299	4793
833.437	4839
833.576	4790
833.714	4839
833.852	4877
833.991	4911
834.129	4911
834.267	4991
834.406	4877
834.544	4972
834.682	4980
834.821	4965
834.959	5140
835.097	4965
835.235	5174
835.373	5105
835.511	5121
835.65	4980
835.788	5052
835.926	4915
836.064	4820
836.202	4923
836.34	5170
836.478	5220
836.615	5128
836.753	5193
836.891	5254
837.029	5292
837.167	5235
837.305	5147
837.443	5170
837.58	5086
837.718	5242
837.856	5174
837.993	5121
838.131	5216
838.269	5185
838.406	5166
838.544	5181
838.681	5029
838.819	4987
838.956	4911
839.094	4873
839.231	5022
839.369	5067
839.506	5429
839.643	5242
839.781	5048
839.918	5025
840.055	5094
840.193	5094
840.33	5124
840.467	5136
840.604	5189
840.742	5474
840.879	5102
841.016	5067
841.153	5147
841.29	5349
841.427	5349
841.564	5303
841.701	5334
841.838	5250
841.975	5216
842.112	5246
842.249	5151
842.385	5155
842.522	5303
842.659	5178
842.796	5113
842.933	5204
843.069	5132
843.206	5162
843.343	5265
843.479	5254
843.616	5242
843.752	4953
843.889	4987
844.025	5204
844.162	5003
844.298	5197
844.435	5067
844.571	5029
844.708	5216
844.844	5299
844.98	5277
845.117	5265
845.253	5155
845.389	5029
845.525	5140
845.661	5128
845.798	5010
845.934	5143
846.07	5052
846.206	5151
846.342	5296
846.478	5265
846.614	5006
846.75	4934
846.886	4889
847.022	5117
847.158	5018
847.294	5102
847.429	5086
847.565	5029
847.701	5318
847.837	4812
847.972	4831
848.108	4927
848.244	4911
848.379	4820
848.515	4733
848.65	4729
848.786	4721
848.921	4752
849.057	4889
849.192	4854
849.328	4839
849.463	4870
849.598	4790
849.734	4755
849.869	4664
850.004	4649
850.14	4660
850.275	4634
850.41	4561
850.545	4561
850.68	4607
850.815	4641
850.95	4645
851.085	4839
851.22	4748
851.355	4672
851.49	4649
851.625	4622
851.76	4634
851.895	4554
852.03	4497
852.165	4630
852.299	4736
852.434	4786
852.569	4733
852.703	4725
852.838	4805
852.973	4889
853.107	4889
853.242	4763
853.376	4653
853.511	4531
853.645	4596
853.78	4812
853.914	4698
854.048	4679
854.183	4691
854.317	4664
854.451	4824
854.585	4702
854.72	4664
854.854	4752
854.988	4592
855.122	4630
855.256	4523
855.39	4660
855.524	4748
855.658	4748
855.792	4668
855.926	4721
856.06	4714
856.194	4755
856.327	4649
856.461	4573
856.595	4607
856.729	4656
856.862	4786
856.996	4675
857.13	4725
857.263	4763
857.397	4839
857.53	4630
857.664	4649
857.797	4778
857.931	4752
858.064	4645
858.197	4740
858.331	4641
858.464	4645
858.597	4478
858.731	4618
858.864	4622
858.997	4542
859.13	4649
859.263	4645
859.396	4672
859.529	4592
859.662	4546
859.795	4554
859.928	4569
860.061	4767
860.194	4767
860.327	4618
860.46	4565
860.592	4698
860.725	4752
860.858	4736
860.99	4546
861.123	4497
861.256	4550
861.388	4580
861.521	5181
861.653	4424
861.786	4424
861.918	4451
862.05	4493
862.183	4615
862.315	4565
862.447	4664
862.58	4554
862.712	4440
862.844	4371
862.976	4500
863.108	4443
863.24	4797
863.372	4318
863.504	4440
863.636	4356
863.768	4489
863.9	4451
864.032	4329
864.164	4413
864.296	4516
864.428	4546
864.559	4573
864.691	4497
864.823	4523
864.954	4443
865.086	4455
865.217	4470
865.349	4409
865.48	4440
865.612	4424
865.743	4607
865.875	4497
866.006	4413
866.137	4443
866.269	4447
866.4	4405
866.531	4402
866.662	4409
866.793	4390
866.924	4436
867.055	4474
867.186	4440
867.317	4409
867.448	4367
867.579	4356
867.71	4363
867.841	4348
867.972	4485
868.103	4443
868.233	4455
868.364	4421
868.495	4493
868.625	4660
868.756	4733
868.886	4584
869.017	4603
869.147	4740
869.278	4733
869.408	4672
869.539	4645
869.669	4710
869.799	4637
869.929	4740
870.06	4702
870.19	4908
870.32	4908
870.45	4938
870.58	5003
870.71	5098
870.84	5094
870.97	4942
871.1	4873
871.23	5159
871.36	5098
871.489	4995
871.619	5045
871.749	5079
871.879	5098
872.008	5136
872.138	5064
872.267	4965
872.397	4797
872.526	4793
872.656	4691
872.785	4812
872.915	4961
873.044	4999
873.173	4968
873.303	4949
873.432	4942
873.561	4904
873.69	4831
873.819	4850
873.948	4900
874.077	4805
874.206	4717
874.335	4778
874.464	4953
874.593	5064
874.722	4908
874.851	5121
874.979	5029
875.108	5010
875.237	4946
875.365	4835
875.494	4839
875.623	4965
875.751	4782
875.88	4862
876.008	4942
876.136	5018
876.265	5143
876.393	5322
876.521	5162
876.65	5181
876.778	5143
876.906	5064
877.034	5029
877.162	5079
877.29	4980
877.418	5014
877.546	5022
877.674	5083
877.802	5003
877.93	4984
878.058	4896
878.185	4854
878.313	4946
878.441	4896
878.568	4839
878.696	4831
878.824	4927
878.951	4972
879.079	5136
879.206	5261
879.333	5086
879.461	4972
879.588	4930
879.715	5094
879.842	5258
879.97	5022
880.097	4820
880.224	4733
880.351	4774
880.478	4824
880.605	4752
880.732	4812
880.859	5113
880.986	4885
881.112	4854
881.239	4763
881.366	4698
881.493	4580
881.619	4592
881.746	4653
881.872	4618
881.999	4637
882.125	4683
882.252	4793
882.378	4786
882.505	4896
882.631	4778
882.757	4618
882.883	4714
883.01	4687
883.136	4607
883.262	4626
883.388	4588
883.514	4820
883.64	4812
883.766	4801
883.892	4656
884.018	4668
884.143	4904
884.269	5037
884.395	4668
884.52	4645
884.646	4599
884.772	4584
884.897	4542
885.023	4691
885.148	4748
885.274	4862
885.399	4847
885.524	4710
885.65	4714
885.775	4710
885.9	4729
886.025	4900
886.15	4801
886.275	4706
886.4	4622
886.525	4702
886.65	4668
886.775	4675
886.9	4900
887.025	5029
887.149	4778
887.274	4656
887.399	4611
887.523	4569
887.648	4592
887.773	4584
887.897	4740
888.021	4809
888.146	4698
888.27	4835
888.395	4854
888.519	4782
888.643	4812
888.767	4812
888.891	4634
889.015	4675
889.139	4615
889.263	4599
889.387	4786
889.511	4862
889.635	4767
889.759	4622
889.883	4592
890.006	4733
890.13	4831
890.254	4596
890.377	4656
890.501	4516
890.624	4470
890.748	4615
890.871	4459
890.995	4390
891.118	4352
891.241	4516
891.364	4538
891.488	4721
891.611	4489
891.734	4519
891.857	4577
891.98	4546
892.103	4637
892.226	4599
892.349	4497
892.471	4383
892.594	4538
892.717	4618
892.839	4573
892.962	4558
893.085	4656
893.207	4580
893.33	4447
893.452	4512
893.575	4599
893.697	4592
893.819	4774
893.941	4854
894.064	4759
894.186	4584
894.308	4573
894.43	4744
894.552	4805
894.674	4744
894.796	4550
894.918	4607
895.04	4538
895.161	4706
895.283	4626
895.405	4615
895.526	4668
895.648	4656
895.769	4710
895.891	4668
896.012	4714
896.134	4729
896.255	4698
896.376	4607
896.498	4531
896.619	4702
896.74	4569
896.861	4634
896.982	4946
897.103	5098
897.224	4744
897.345	4721
897.466	4649
897.587	4725
897.708	4873
897.828	4828
897.949	4645
898.07	4554
898.19	4584
898.311	4820
898.431	4649
898.552	4698
898.672	4805
898.792	4797
898.913	4740
899.033	4618
899.153	4485
899.273	4428
899.393	4459
899.513	4489
899.633	4531
899.753	4523
899.873	4497
899.993	4569
900.113	4489
900.232	4550
900.352	4504
900.472	4478
900.591	4409
900.711	4459
900.83	4421
900.95	4603
901.069	4660
901.189	4542
901.308	4394
901.427	4291
901.546	4383
901.665	4474
901.784	4455
901.904	4386
902.023	4265
902.141	4196
902.26	4128
902.379	4299
902.498	4227
902.617	4204
902.735	4371
902.854	4383
902.973	4318
903.091	4196
903.21	4268
903.328	4276
903.446	4272
903.565	4253
903.683	4325
903.801	4257
903.919	4447
904.038	4409
904.156	4333
904.274	4428
904.392	4356
904.51	4367
904.627	4440
904.745	4580
904.863	4618
904.981	4375
905.098	4306
905.216	4356
905.334	4386
905.451	4375
905.569	4432
905.686	4489
905.803	4615
905.921	4390
906.038	4565
906.155	4462
906.272	4394
906.389	4440
906.506	4360
906.623	4341
906.74	4356
906.857	4291
906.974	4356
907.091	4588
907.208	4649
907.324	4565
907.441	4500
907.557	4306
907.674	4329
907.79	4306
907.907	4375
908.023	4489
908.139	4462
908.256	4398
908.372	4428
908.488	4424
908.604	4314
908.72	4303
908.836	4329
908.952	4356
909.068	4356
909.184	4565
909.3	4436
909.415	4565
909.531	4535
909.647	4314
909.762	4371
909.878	4344
909.993	4455
910.108	4421
910.224	4424
910.339	4500
910.454	4386
910.57	4386
910.685	4310
910.8	4615
910.915	4588
911.03	4512
911.145	4329
911.259	4295
911.374	4402
911.489	4299
911.604	4295
911.718	4166
911.833	4173
911.947	4093
912.062	4044
912.176	4196
912.291	4276
912.405	4215
912.519	4436
912.633	4474
912.748	4318
912.862	4325
912.976	4154
913.09	4086
913.204	4128
913.318	4249
913.431	4337
913.545	4344
913.659	4481
913.772	4329
913.886	4249
914	4211
914.113	4360
914.226	4413
914.34	4398
914.453	4204
914.566	4394
914.68	4333
914.793	4322
914.906	4131
915.019	4116
915.132	4086
915.245	4181
915.358	4204
915.47	4211
915.583	4310
915.696	4261
915.809	4379
915.921	4398
916.034	4242
916.146	4261
916.259	4253
916.371	4386
916.483	4383
916.595	4185
916.708	4265
916.82	4310
916.932	4329
917.044	4299
917.156	4363
917.268	4200
917.38	4280
917.491	4295
917.603	4360
917.715	4402
917.826	4440
917.938	4314
918.049	4257
918.161	4360
918.272	4485
918.384	4531
918.495	4421
918.606	4303
918.717	4261
918.828	4325
918.939	4333
919.05	4303
919.161	4348
919.272	4143
919.383	4177
919.494	4451
919.604	4596
919.715	4440
919.826	4314
919.936	4432
920.047	4474
920.157	4470
920.267	4675
920.378	4538
920.488	4535
920.598	4694
920.708	4919
920.818	4755
920.928	4763
921.038	4915
921.148	4915
921.258	4630
921.368	4573
921.477	4466
921.587	4424
921.697	4356
921.806	4584
921.916	4424
922.025	4314
922.134	4223
922.244	4219
922.353	4299
922.462	4135
922.571	4112
922.68	4029
922.789	3953
922.898	4029
923.007	3975
923.116	4120
923.224	4040
923.333	4090
923.442	3987
923.55	4006
923.659	3987
923.767	4078
923.876	3983
923.984	4109
924.092	3964
924.201	4086
924.309	4097
924.417	4131
924.525	4051
924.633	4116
924.741	5060
924.849	3865
924.956	4120
925.064	3994
925.172	3896
925.279	3899
925.387	4044
925.494	4063
925.602	4215
925.709	4215
925.816	4051
925.924	4105
926.031	4181
926.138	4177
926.245	4181
926.352	4120
926.459	4188
926.566	4367
926.673	4166
926.779	4105
926.886	4074
926.993	3937
927.099	3949
927.206	3926
927.312	3987
927.419	4059
927.525	4025
927.631	4078
927.737	3937
927.843	3949
927.95	3819
928.056	3941
928.162	4017
928.267	4036
928.373	4702
928.479	4173
928.585	3903
928.69	4017
928.796	4059
928.901	3991
929.007	3865
929.112	3968
929.218	4010
929.323	3945
929.428	3918
929.533	4105
929.638	3926
929.743	3937
929.848	4032
929.953	3934
930.058	3915
930.163	3755
930.267	3850
930.372	3975
930.477	3819
930.581	4093
930.685	3960
930.79	3812
930.894	3873
930.998	3842
931.103	4029
931.207	3698
931.311	3679
931.415	3644
931.519	3530
931.623	3488
