Data from test_V78500241_332.txt Node
Date: Fri Mar 25 16:51:18 CST 2022
User: usil
Spectrometer: V785-0024
Trigger mode: 0
Integration Time (sec): 4.000000E-1
Scans to average: 1
Nonlinearity correction enabled: false
Boxcar width: 0
Storing dark spectrum: false
XAxis mode: Wavelengths
Number of Pixels in Spectrum: 1024
>>>>>Begin Spectral Data<<<<<
801.071	8043
801.214	7974
801.356	7898
801.499	7902
801.641	7841
801.783	7887
801.926	8065
802.068	7906
802.211	8020
802.353	8035
802.496	7940
802.638	7978
802.78	7993
802.923	7978
803.065	7883
803.208	7913
803.35	7963
803.492	8050
803.635	8119
803.777	7947
803.919	8107
804.061	8480
804.204	8206
804.346	8073
804.488	7974
804.63	8100
804.773	8016
804.915	8088
805.057	8317
805.199	8142
805.341	8229
805.483	8248
805.626	8138
805.768	8153
805.91	8214
806.052	8214
806.194	8096
806.336	8252
806.478	8130
806.62	8092
806.762	8176
806.904	8267
807.046	8434
807.188	8328
807.33	8267
807.472	8301
807.614	8145
807.756	8195
807.898	7967
808.04	7894
808.182	7902
808.324	7913
808.465	7967
808.607	8081
808.749	8126
808.891	8168
809.033	8351
809.174	8206
809.316	8054
809.458	8024
809.6	8001
809.741	8054
809.883	8016
810.025	8199
810.166	8161
810.308	8065
810.45	8008
810.591	7925
810.733	7734
810.875	7715
811.016	7502
811.158	7514
811.299	7689
811.441	7811
811.582	7719
811.724	7616
811.865	7556
812.007	7677
812.148	7655
812.29	7567
812.431	7769
812.573	7906
812.714	8001
812.855	8073
812.997	8202
813.138	8362
813.279	8187
813.421	8081
813.562	8043
813.703	7833
813.845	7784
813.986	7502
814.127	7312
814.268	7251
814.41	7228
814.551	7126
814.692	7198
814.833	7088
814.974	7091
815.115	7122
815.256	6966
815.397	6897
815.539	6951
815.68	6802
815.821	6802
815.962	6840
816.103	6848
816.244	6738
816.385	6684
816.526	6681
816.666	6540
816.807	6357
816.948	6486
817.089	6521
817.23	6479
817.371	6452
817.512	6376
817.653	6464
817.793	6353
817.934	6456
818.075	6422
818.216	6494
818.356	6407
818.497	6224
818.638	6106
818.778	6121
818.919	6205
819.06	6171
819.2	6319
819.341	6319
819.481	6353
819.622	6494
819.762	6768
819.903	6692
820.043	6642
820.184	6570
820.324	6547
820.465	6696
820.605	6631
820.746	6639
820.886	6498
821.026	6681
821.167	6760
821.307	6837
821.447	6810
821.588	6642
821.728	6551
821.868	6544
822.008	6334
822.149	6327
822.289	6357
822.429	6167
822.569	6106
822.709	6148
822.849	5950
822.99	5935
823.13	5901
823.27	5923
823.41	5802
823.55	5779
823.69	5790
823.83	5779
823.97	5703
824.11	5524
824.25	5558
824.389	5532
824.529	5627
824.669	5551
824.809	5646
824.949	5630
825.089	5577
825.228	5562
825.368	5402
825.508	5391
825.648	5334
825.787	5395
825.927	5357
826.067	5326
826.206	5265
826.346	5398
826.485	5440
826.625	5395
826.765	5516
826.904	5436
827.044	5269
827.183	5204
827.323	5174
827.462	5258
827.601	5170
827.741	5212
827.88	5155
828.02	5132
828.159	5254
828.298	5322
828.437	5391
828.577	5360
828.716	5501
828.855	5357
828.994	5201
829.134	5159
829.273	5216
829.412	5170
829.551	5102
829.69	5159
829.829	5250
829.968	5395
830.107	5284
830.246	5303
830.385	5185
830.524	5102
830.663	5090
830.802	4946
830.941	4885
831.08	4850
831.219	4999
831.357	4938
831.496	5166
831.635	4976
831.774	4877
831.913	4858
832.051	4759
832.19	4824
832.329	4820
832.467	4691
832.606	4634
832.744	4691
832.883	4755
833.022	4740
833.16	4793
833.299	4850
833.437	4828
833.576	4870
833.714	4828
833.852	4801
833.991	4877
834.129	4965
834.267	4957
834.406	4873
834.544	5014
834.682	4999
834.821	4915
834.959	5212
835.097	4999
835.235	5102
835.373	5067
835.511	5094
835.65	4984
835.788	5029
835.926	4892
836.064	4873
836.202	4957
836.34	5193
836.478	5216
836.615	5143
836.753	5223
836.891	5273
837.029	5239
837.167	5208
837.305	5189
837.443	5166
837.58	5109
837.718	5204
837.856	5185
837.993	5140
838.131	5250
838.269	5216
838.406	5178
838.544	5166
838.681	5067
838.819	5033
838.956	4923
839.094	4892
839.231	5010
839.369	5056
839.506	5387
839.643	5242
839.781	5045
839.918	5014
840.055	5105
840.193	5067
840.33	5121
840.467	5197
840.604	5181
840.742	5459
840.879	5075
841.016	5105
841.153	5113
841.29	5395
841.427	5353
841.564	5322
841.701	5337
841.838	5311
841.975	5250
842.112	5284
842.249	5147
842.385	5143
842.522	5368
842.659	5147
842.796	5174
842.933	5254
843.069	5174
843.206	5151
843.343	5261
843.479	5288
843.616	5261
843.752	5041
843.889	4980
844.025	5227
844.162	5052
844.298	5166
844.435	5086
844.571	5045
844.708	5174
844.844	5292
844.98	5376
845.117	5201
845.253	5102
845.389	5090
845.525	5208
845.661	5143
845.798	5067
845.934	5143
846.07	5045
846.206	5204
846.342	5296
846.478	5220
846.614	5048
846.75	4972
846.886	4972
847.022	5128
847.158	4999
847.294	5048
847.429	5079
847.565	5079
847.701	5353
847.837	4862
847.972	4820
848.108	4949
848.244	4930
848.379	4805
848.515	4691
848.65	4736
848.786	4771
848.921	4763
849.057	4908
849.192	4896
849.328	4850
849.463	4858
849.598	4793
849.734	4740
849.869	4698
850.004	4637
850.14	4641
850.275	4603
850.41	4558
850.545	4565
850.68	4607
850.815	4618
850.95	4637
851.085	4862
851.22	4759
851.355	4721
851.49	4607
851.625	4645
851.76	4675
851.895	4546
852.03	4546
852.165	4691
852.299	4694
852.434	4801
852.569	4759
852.703	4786
852.838	4809
852.973	4957
853.107	4934
853.242	4778
853.376	4691
853.511	4531
853.645	4634
853.78	4854
853.914	4733
854.048	4637
854.183	4691
854.317	4702
854.451	4850
854.585	4668
854.72	4634
854.854	4778
854.988	4615
855.122	4656
855.256	4516
855.39	4717
855.524	4774
855.658	4721
855.792	4668
855.926	4752
856.06	4771
856.194	4809
856.327	4653
856.461	4596
856.595	4603
856.729	4641
856.862	4778
856.996	4698
857.13	4698
857.263	4755
857.397	4793
857.53	4645
857.664	4740
857.797	4748
857.931	4778
858.064	4698
858.197	4805
858.331	4637
858.464	4603
858.597	4561
858.731	4626
858.864	4656
858.997	4596
859.13	4668
859.263	4733
859.396	4725
859.529	4558
859.662	4592
859.795	4523
859.928	4653
860.061	4759
860.194	4790
860.327	4577
860.46	4577
860.592	4672
860.725	4736
860.858	4736
860.99	4558
861.123	4569
861.256	4523
861.388	4649
861.521	5341
861.653	4538
861.786	4398
861.918	4466
862.05	4516
862.183	4577
862.315	4596
862.447	4675
862.58	4523
862.712	4371
862.844	4325
862.976	4489
863.108	4516
863.24	4797
863.372	4329
863.504	4443
863.636	4424
863.768	4478
863.9	4432
864.032	4379
864.164	4443
864.296	4500
864.428	4554
864.559	4573
864.691	4497
864.823	4542
864.954	4489
865.086	4512
865.217	4447
865.349	4424
865.48	4447
865.612	4474
865.743	4622
865.875	4519
866.006	4413
866.137	4474
866.269	4421
866.4	4466
866.531	4375
866.662	4447
866.793	4413
866.924	4424
867.055	4546
867.186	4508
867.317	4443
867.448	4390
867.579	4413
867.71	4409
867.841	4367
867.972	4512
868.103	4459
868.233	4478
868.364	4466
868.495	4481
868.625	4672
868.756	4763
868.886	4622
869.017	4626
869.147	4778
869.278	4801
869.408	4637
869.539	4733
869.669	4710
869.799	4687
869.929	4786
870.06	4744
870.19	4938
870.32	4881
870.45	4961
870.58	4999
870.71	5105
870.84	5105
870.97	4953
871.1	4881
871.23	5166
871.36	5143
871.489	5010
871.619	5075
871.749	5083
871.879	5143
872.008	5174
872.138	4999
872.267	5006
872.397	4843
872.526	4797
872.656	4744
872.785	4820
872.915	4953
873.044	5037
873.173	4934
873.303	4968
873.432	4965
873.561	4957
873.69	4873
873.819	4919
873.948	4938
874.077	4820
874.206	4767
874.335	4812
874.464	4976
874.593	5045
874.722	4999
874.851	5029
874.979	5071
875.108	5037
875.237	4953
875.365	4877
875.494	4866
875.623	4984
875.751	4824
875.88	4900
876.008	4949
876.136	5071
876.265	5185
876.393	5326
876.521	5254
876.65	5239
876.778	5193
876.906	5098
877.034	5064
877.162	5075
877.29	4976
877.418	5075
877.546	5037
877.674	5083
877.802	5048
877.93	5052
878.058	4896
878.185	4835
878.313	4968
878.441	4934
878.568	4835
878.696	4862
878.824	4968
878.951	4984
879.079	5098
879.206	5296
879.333	5090
879.461	5018
879.588	4953
879.715	5155
879.842	5231
879.97	5052
880.097	4805
880.224	4748
880.351	4778
880.478	4892
880.605	4801
880.732	4793
880.859	5128
880.986	4946
881.112	4908
881.239	4759
881.366	4691
881.493	4641
881.619	4588
881.746	4679
881.872	4672
881.999	4679
882.125	4778
882.252	4786
882.378	4866
882.505	4965
882.631	4740
882.757	4656
882.883	4744
883.01	4752
883.136	4622
883.262	4607
883.388	4599
883.514	4816
883.64	4870
883.766	4793
883.892	4660
884.018	4698
884.143	4870
884.269	5033
884.395	4721
884.52	4603
884.646	4660
884.772	4535
884.897	4561
885.023	4668
885.148	4759
885.274	4873
885.399	4847
885.524	4771
885.65	4717
885.775	4778
885.9	4729
886.025	4850
886.15	4763
886.275	4714
886.4	4698
886.525	4698
886.65	4710
886.775	4683
886.9	4915
887.025	5014
887.149	4786
887.274	4698
887.399	4615
887.523	4596
887.648	4618
887.773	4599
887.897	4786
888.021	4839
888.146	4759
888.27	4854
888.395	4904
888.519	4763
888.643	4774
888.767	4858
888.891	4679
889.015	4618
889.139	4664
889.263	4630
889.387	4714
889.511	4850
889.635	4809
889.759	4584
889.883	4675
890.006	4740
890.13	4820
890.254	4618
890.377	4675
890.501	4527
890.624	4527
890.748	4683
890.871	4531
890.995	4466
891.118	4356
891.241	4523
891.364	4550
891.488	4660
891.611	4519
891.734	4599
891.857	4607
891.98	4535
892.103	4656
892.226	4634
892.349	4508
892.471	4428
892.594	4561
892.717	4584
892.839	4577
892.962	4611
893.085	4664
893.207	4656
893.33	4432
893.452	4497
893.575	4717
893.697	4569
893.819	4812
893.941	4797
894.064	4767
894.186	4596
894.308	4596
894.43	4702
894.552	4809
894.674	4778
894.796	4599
894.918	4634
895.04	4516
895.161	4687
895.283	4645
895.405	4565
895.526	4637
895.648	4694
895.769	4687
895.891	4748
896.012	4725
896.134	4717
896.255	4694
896.376	4626
896.498	4569
896.619	4717
896.74	4618
896.861	4626
896.982	4843
897.103	5052
897.224	4835
897.345	4752
897.466	4653
897.587	4706
897.708	4881
897.828	4771
897.949	4683
898.07	4561
898.19	4672
898.311	4831
898.431	4630
898.552	4759
898.672	4847
898.792	4816
898.913	4755
899.033	4641
899.153	4508
899.273	4405
899.393	4519
899.513	4550
899.633	4561
899.753	4542
899.873	4519
899.993	4531
900.113	4535
900.232	4558
900.352	4508
900.472	4531
900.591	4383
900.711	4523
900.83	4481
900.95	4622
901.069	4691
901.189	4554
901.308	4363
901.427	4356
901.546	4367
901.665	4428
901.784	4519
901.904	4367
902.023	4318
902.141	4215
902.26	4162
902.379	4306
902.498	4242
902.617	4230
902.735	4394
902.854	4447
902.973	4348
903.091	4188
903.21	4246
903.328	4337
903.446	4310
903.565	4284
903.683	4341
903.801	4291
903.919	4470
904.038	4447
904.156	4287
904.274	4455
904.392	4436
904.51	4451
904.627	4481
904.745	4618
904.863	4622
904.981	4405
905.098	4284
905.216	4352
905.334	4470
905.451	4417
905.569	4432
905.686	4565
905.803	4580
905.921	4390
906.038	4519
906.155	4485
906.272	4394
906.389	4489
906.506	4356
906.623	4383
906.74	4352
906.857	4310
906.974	4409
907.091	4554
907.208	4679
907.324	4603
907.441	4508
907.557	4348
907.674	4371
907.79	4329
907.907	4379
908.023	4459
908.139	4523
908.256	4432
908.372	4478
908.488	4451
908.604	4383
908.72	4318
908.836	4371
908.952	4394
909.068	4421
909.184	4596
909.3	4523
909.415	4611
909.531	4569
909.647	4356
909.762	4344
909.878	4379
909.993	4474
910.108	4428
910.224	4356
910.339	4531
910.454	4421
910.57	4394
910.685	4329
910.8	4634
910.915	4561
911.03	4504
911.145	4344
911.259	4341
911.374	4383
911.489	4348
911.604	4280
911.718	4196
911.833	4207
911.947	4116
912.062	4017
912.176	4223
912.291	4249
912.405	4227
912.519	4493
912.633	4531
912.748	4348
912.862	4287
912.976	4227
913.09	4097
913.204	4150
913.318	4268
913.431	4375
913.545	4386
913.659	4455
913.772	4398
913.886	4227
914	4257
914.113	4394
914.226	4424
914.34	4394
914.453	4219
914.566	4462
914.68	4341
914.793	4344
914.906	4169
915.019	4166
915.132	4097
915.245	4154
915.358	4249
915.47	4261
915.583	4253
915.696	4276
915.809	4402
915.921	4421
916.034	4287
916.146	4268
916.259	4246
916.371	4341
916.483	4367
916.595	4234
916.708	4284
916.82	4310
916.932	4306
917.044	4394
917.156	4329
917.268	4268
917.38	4291
917.491	4265
917.603	4337
917.715	4390
917.826	4417
917.938	4363
918.049	4257
918.161	4379
918.272	4542
918.384	4558
918.495	4409
918.606	4303
918.717	4257
918.828	4329
918.939	4402
919.05	4265
919.161	4303
919.272	4166
919.383	4169
919.494	4436
919.604	4603
919.715	4447
919.826	4348
919.936	4413
920.047	4527
920.157	4531
920.267	4687
920.378	4489
920.488	4485
920.598	4706
920.708	4850
920.818	4774
920.928	4759
921.038	4934
921.148	4930
921.258	4611
921.368	4535
921.477	4504
921.587	4493
921.697	4363
921.806	4558
921.916	4428
922.025	4268
922.134	4303
922.244	4253
922.353	4322
922.462	4150
922.571	4116
922.68	4002
922.789	4002
922.898	4063
923.007	3960
923.116	4101
923.224	4074
923.333	4067
923.442	3994
923.55	4021
923.659	4029
923.767	4101
923.876	4048
923.984	4078
924.092	3934
924.201	4124
924.309	4051
924.417	4147
924.525	4055
924.633	4139
924.741	4850
924.849	3960
924.956	4166
925.064	3983
925.172	3930
925.279	3964
925.387	4097
925.494	4040
925.602	4200
925.709	4177
925.816	4017
925.924	4120
926.031	4253
926.138	4181
926.245	4204
926.352	4071
926.459	4246
926.566	4299
926.673	4196
926.779	4101
926.886	4120
926.993	3979
927.099	3953
927.206	3975
927.312	3937
927.419	4090
927.525	4078
927.631	4109
927.737	3945
927.843	3876
927.95	3838
928.056	3972
928.162	3994
928.267	4059
928.373	4588
928.479	4112
928.585	3869
928.69	4017
928.796	4090
928.901	3972
929.007	3812
929.112	4002
929.218	3949
929.323	3922
929.428	3907
929.533	4063
929.638	3888
929.743	3972
929.848	4006
929.953	4002
930.058	3949
930.163	3812
930.267	3838
930.372	4017
930.477	3819
930.581	4093
930.685	3983
930.79	3812
930.894	3903
930.998	3869
931.103	4063
931.207	3686
931.311	3720
931.415	3660
931.519	3572
931.623	3564
