Data from test_V78500241_1722.txt Node
Date: Fri Mar 25 17:00:58 CST 2022
User: usil
Spectrometer: V785-0024
Trigger mode: 0
Integration Time (sec): 4.000000E-1
Scans to average: 1
Nonlinearity correction enabled: false
Boxcar width: 0
Storing dark spectrum: false
XAxis mode: Wavelengths
Number of Pixels in Spectrum: 1024
>>>>>Begin Spectral Data<<<<<
801.071	7978
801.214	7967
801.356	7871
801.499	7799
801.641	7799
801.783	7822
801.926	7963
802.068	7921
802.211	7947
802.353	7967
802.496	7898
802.638	7868
802.78	7837
802.923	7955
803.065	7883
803.208	7898
803.35	7970
803.492	8039
803.635	8157
803.777	7993
803.919	8096
804.061	8347
804.204	8103
804.346	8145
804.488	7963
804.63	8031
804.773	8024
804.915	8046
805.057	8237
805.199	8119
805.341	8187
805.483	8267
805.626	8229
805.768	8092
805.91	8191
806.052	8210
806.194	8103
806.336	8320
806.478	8073
806.62	8081
806.762	8130
806.904	8294
807.046	8503
807.188	8271
807.33	8301
807.472	8332
807.614	8195
807.756	8157
807.898	8020
808.04	7887
808.182	7909
808.324	7879
808.465	7917
808.607	8062
808.749	8046
808.891	8214
809.033	8339
809.174	8164
809.316	8077
809.458	8077
809.6	8016
809.741	7997
809.883	8058
810.025	8145
810.166	8103
810.308	7993
810.45	7982
810.591	7780
810.733	7696
810.875	7597
811.016	7491
811.158	7510
811.299	7571
811.441	7674
811.582	7700
811.724	7651
811.865	7563
812.007	7506
812.148	7521
812.29	7662
812.431	7708
812.573	7833
812.714	7955
812.855	8149
812.997	8134
813.138	8294
813.279	8145
813.421	8134
813.562	7947
813.703	7753
813.845	7784
813.986	7445
814.127	7190
814.268	7217
814.41	7236
814.551	7175
814.692	7217
814.833	7110
814.974	7118
815.115	7072
815.256	7023
815.397	6962
815.539	6954
815.68	6745
815.821	6795
815.962	6886
816.103	6825
816.244	6673
816.385	6540
816.526	6502
816.666	6483
816.807	6285
816.948	6467
817.089	6445
817.23	6422
817.371	6391
817.512	6327
817.653	6369
817.793	6311
817.934	6376
818.075	6456
818.216	6441
818.356	6414
818.497	6296
818.638	6148
818.778	6106
818.919	6178
819.06	6140
819.2	6327
819.341	6338
819.481	6365
819.622	6566
819.762	6681
819.903	6715
820.043	6570
820.184	6547
820.324	6585
820.465	6719
820.605	6631
820.746	6662
820.886	6445
821.026	6620
821.167	6654
821.307	6768
821.447	6749
821.588	6692
821.728	6585
821.868	6460
822.008	6361
822.149	6372
822.289	6296
822.429	6110
822.569	6121
822.709	6087
822.849	5920
822.99	5885
823.13	5946
823.27	5920
823.41	5748
823.55	5748
823.69	5802
823.83	5745
823.97	5653
824.11	5554
824.25	5528
824.389	5562
824.529	5551
824.669	5570
824.809	5634
824.949	5634
825.089	5604
825.228	5596
825.368	5387
825.508	5364
825.648	5360
825.787	5364
825.927	5379
826.067	5299
826.206	5269
826.346	5452
826.485	5357
826.625	5334
826.765	5501
826.904	5486
827.044	5277
827.183	5178
827.323	5159
827.462	5208
827.601	5147
827.741	5147
827.88	5220
828.02	5121
828.159	5216
828.298	5277
828.437	5357
828.577	5288
828.716	5467
828.855	5296
828.994	5143
829.134	5151
829.273	5208
829.412	5113
829.551	5136
829.69	5159
829.829	5227
829.968	5322
830.107	5204
830.246	5212
830.385	5140
830.524	5147
830.663	5018
830.802	5006
830.941	4824
831.08	4873
831.219	5014
831.357	4934
831.496	5151
831.635	4923
831.774	4831
831.913	4824
832.051	4714
832.19	4733
832.329	4835
832.467	4706
832.606	4599
832.744	4702
832.883	4729
833.022	4717
833.16	4755
833.299	4801
833.437	4805
833.576	4839
833.714	4862
833.852	4889
833.991	4885
834.129	4946
834.267	4938
834.406	4904
834.544	4976
834.682	4987
834.821	4957
834.959	5113
835.097	4930
835.235	5151
835.373	5048
835.511	5094
835.65	4995
835.788	5018
835.926	4839
836.064	4862
836.202	4976
836.34	5197
836.478	5250
836.615	5113
836.753	5212
836.891	5349
837.029	5299
837.167	5242
837.305	5166
837.443	5170
837.58	5045
837.718	5250
837.856	5178
837.993	5166
838.131	5265
838.269	5216
838.406	5181
838.544	5185
838.681	5045
838.819	5045
838.956	4862
839.094	4946
839.231	4946
839.369	5022
839.506	5444
839.643	5239
839.781	5041
839.918	4984
840.055	5071
840.193	5067
840.33	5067
840.467	5143
840.604	5117
840.742	5436
840.879	5124
841.016	5136
841.153	5117
841.29	5357
841.427	5311
841.564	5299
841.701	5334
841.838	5261
841.975	5235
842.112	5258
842.249	5155
842.385	5098
842.522	5322
842.659	5143
842.796	5140
842.933	5147
843.069	5185
843.206	5162
843.343	5307
843.479	5250
843.616	5250
843.752	5067
843.889	4999
844.025	5162
844.162	4999
844.298	5166
844.435	5083
844.571	5006
844.708	5204
844.844	5311
844.98	5299
845.117	5318
845.253	5083
845.389	5083
845.525	5113
845.661	5155
845.798	5045
845.934	5117
846.07	4999
846.206	5239
846.342	5284
846.478	5208
846.614	4972
846.75	4984
846.886	4949
847.022	5121
847.158	5022
847.294	5079
847.429	5132
847.565	5037
847.701	5326
847.837	4866
847.972	4786
848.108	4980
848.244	4934
848.379	4740
848.515	4755
848.65	4714
848.786	4702
848.921	4755
849.057	4896
849.192	4877
849.328	4797
849.463	4889
849.598	4790
849.734	4706
849.869	4698
850.004	4634
850.14	4664
850.275	4584
850.41	4531
850.545	4538
850.68	4615
850.815	4592
850.95	4630
851.085	4824
851.22	4725
851.355	4634
851.49	4603
851.625	4626
851.76	4622
851.895	4569
852.03	4550
852.165	4679
852.299	4740
852.434	4744
852.569	4698
852.703	4725
852.838	4839
852.973	4972
853.107	4904
853.242	4717
853.376	4656
853.511	4462
853.645	4618
853.78	4797
853.914	4687
854.048	4675
854.183	4596
854.317	4694
854.451	4831
854.585	4683
854.72	4618
854.854	4691
854.988	4577
855.122	4645
855.256	4573
855.39	4687
855.524	4774
855.658	4725
855.792	4714
855.926	4714
856.06	4797
856.194	4793
856.327	4710
856.461	4592
856.595	4577
856.729	4637
856.862	4744
856.996	4672
857.13	4679
857.263	4820
857.397	4805
857.53	4668
857.664	4725
857.797	4694
857.931	4782
858.064	4694
858.197	4755
858.331	4675
858.464	4649
858.597	4478
858.731	4622
858.864	4607
858.997	4641
859.13	4645
859.263	4679
859.396	4641
859.529	4550
859.662	4584
859.795	4466
859.928	4584
860.061	4725
860.194	4748
860.327	4603
860.46	4577
860.592	4683
860.725	4740
860.858	4736
860.99	4573
861.123	4542
861.256	4546
861.388	4592
861.521	5197
861.653	4470
861.786	4447
861.918	4455
862.05	4535
862.183	4561
862.315	4577
862.447	4630
862.58	4569
862.712	4398
862.844	4337
862.976	4504
863.108	4500
863.24	4873
863.372	4303
863.504	4402
863.636	4398
863.768	4459
863.9	4443
864.032	4344
864.164	4379
864.296	4447
864.428	4558
864.559	4519
864.691	4527
864.823	4497
864.954	4451
865.086	4493
865.217	4447
865.349	4405
865.48	4436
865.612	4508
865.743	4630
865.875	4447
866.006	4470
866.137	4466
866.269	4424
866.4	4428
866.531	4455
866.662	4379
866.793	4398
866.924	4440
867.055	4500
867.186	4447
867.317	4402
867.448	4337
867.579	4424
867.71	4394
867.841	4337
867.972	4409
868.103	4481
868.233	4428
868.364	4455
868.495	4447
868.625	4714
868.756	4816
868.886	4584
869.017	4573
869.147	4771
869.278	4782
869.408	4653
869.539	4649
869.669	4710
869.799	4618
869.929	4736
870.06	4740
870.19	4965
870.32	4889
870.45	4847
870.58	5003
870.71	5113
870.84	5052
870.97	4976
871.1	4934
871.23	5090
871.36	5117
871.489	5014
871.619	5079
871.749	5102
871.879	5105
872.008	5201
872.138	5052
872.267	4984
872.397	4862
872.526	4835
872.656	4744
872.785	4782
872.915	4972
873.044	5056
873.173	4892
873.303	4953
873.432	5018
873.561	4957
873.69	4870
873.819	4862
873.948	4843
874.077	4774
874.206	4752
874.335	4774
874.464	4915
874.593	5048
874.722	4942
874.851	5102
874.979	5022
875.108	5037
875.237	4896
875.365	4908
875.494	4885
875.623	4972
875.751	4828
875.88	4858
876.008	4934
876.136	5037
876.265	5155
876.393	5326
876.521	5273
876.65	5231
876.778	5155
876.906	5033
877.034	5041
877.162	4991
877.29	5014
877.418	5075
877.546	5033
877.674	5037
877.802	5037
877.93	5041
878.058	4908
878.185	4892
878.313	4911
878.441	4984
878.568	4820
878.696	4873
878.824	4961
878.951	4980
879.079	5162
879.206	5254
879.333	5136
879.461	4968
879.588	4991
879.715	5079
879.842	5170
879.97	5014
880.097	4774
880.224	4744
880.351	4824
880.478	4824
880.605	4752
880.732	4778
880.859	5121
880.986	4904
881.112	4900
881.239	4748
881.366	4660
881.493	4573
881.619	4573
881.746	4698
881.872	4622
881.999	4656
882.125	4668
882.252	4725
882.378	4843
882.505	4980
882.631	4820
882.757	4634
882.883	4725
883.01	4748
883.136	4675
883.262	4618
883.388	4641
883.514	4778
883.64	4866
883.766	4767
883.892	4660
884.018	4729
884.143	4896
884.269	5037
884.395	4706
884.52	4611
884.646	4618
884.772	4531
884.897	4565
885.023	4637
885.148	4782
885.274	4831
885.399	4767
885.524	4675
885.65	4691
885.775	4767
885.9	4740
886.025	4881
886.15	4763
886.275	4729
886.4	4637
886.525	4733
886.65	4725
886.775	4675
886.9	4908
887.025	5029
887.149	4774
887.274	4637
887.399	4573
887.523	4580
887.648	4531
887.773	4584
887.897	4774
888.021	4763
888.146	4702
888.27	4767
888.395	4892
888.519	4767
888.643	4771
888.767	4847
888.891	4672
889.015	4596
889.139	4656
889.263	4607
889.387	4793
889.511	4862
889.635	4786
889.759	4668
889.883	4649
890.006	4702
890.13	4843
890.254	4584
890.377	4626
890.501	4478
890.624	4504
890.748	4611
890.871	4508
890.995	4394
891.118	4405
891.241	4500
891.364	4569
891.488	4558
891.611	4516
891.734	4554
891.857	4588
891.98	4561
892.103	4607
892.226	4618
892.349	4512
892.471	4447
892.594	4596
892.717	4550
892.839	4523
892.962	4630
893.085	4637
893.207	4565
893.33	4424
893.452	4500
893.575	4634
893.697	4531
893.819	4801
893.941	4870
894.064	4774
894.186	4599
894.308	4546
894.43	4714
894.552	4805
894.674	4698
894.796	4550
894.918	4607
895.04	4561
895.161	4706
895.283	4687
895.405	4596
895.526	4664
895.648	4679
895.769	4675
895.891	4736
896.012	4767
896.134	4702
896.255	4649
896.376	4603
896.498	4550
896.619	4668
896.74	4565
896.861	4649
896.982	4881
897.103	5010
897.224	4790
897.345	4717
897.466	4626
897.587	4717
897.708	4805
897.828	4809
897.949	4649
898.07	4550
898.19	4660
898.311	4839
898.431	4672
898.552	4725
898.672	4831
898.792	4820
898.913	4714
899.033	4622
899.153	4493
899.273	4436
899.393	4459
899.513	4470
899.633	4531
899.753	4580
899.873	4470
899.993	4603
900.113	4535
900.232	4542
900.352	4519
900.472	4497
900.591	4424
900.711	4500
900.83	4462
900.95	4580
901.069	4694
901.189	4538
901.308	4329
901.427	4295
901.546	4424
901.665	4485
901.784	4523
901.904	4348
902.023	4280
902.141	4238
902.26	4219
902.379	4322
902.498	4227
902.617	4207
902.735	4390
902.854	4432
902.973	4379
903.091	4204
903.21	4230
903.328	4352
903.446	4261
903.565	4284
903.683	4310
903.801	4295
903.919	4352
904.038	4375
904.156	4291
904.274	4413
904.392	4375
904.51	4413
904.627	4481
904.745	4550
904.863	4611
904.981	4405
905.098	4272
905.216	4360
905.334	4436
905.451	4455
905.569	4447
905.686	4523
905.803	4558
905.921	4379
906.038	4546
906.155	4497
906.272	4390
906.389	4478
906.506	4333
906.623	4386
906.74	4394
906.857	4314
906.974	4356
907.091	4596
907.208	4660
907.324	4580
907.441	4519
907.557	4341
907.674	4356
907.79	4329
907.907	4329
908.023	4466
908.139	4417
908.256	4440
908.372	4474
908.488	4462
908.604	4367
908.72	4303
908.836	4398
908.952	4363
909.068	4421
909.184	4573
909.3	4478
909.415	4573
909.531	4523
909.647	4367
909.762	4341
909.878	4314
909.993	4413
910.108	4405
910.224	4443
910.339	4470
910.454	4443
910.57	4383
910.685	4352
910.8	4660
910.915	4554
911.03	4466
911.145	4367
911.259	4306
911.374	4348
911.489	4287
911.604	4295
911.718	4135
911.833	4211
911.947	4082
912.062	4044
912.176	4158
912.291	4230
912.405	4227
912.519	4485
912.633	4516
912.748	4337
912.862	4322
912.976	4219
913.09	4090
913.204	4139
913.318	4230
913.431	4322
913.545	4383
913.659	4390
913.772	4348
913.886	4295
914	4219
914.113	4383
914.226	4440
914.34	4390
914.453	4253
914.566	4402
914.68	4318
914.793	4306
914.906	4162
915.019	4173
915.132	4093
915.245	4154
915.358	4227
915.47	4280
915.583	4257
915.696	4253
915.809	4436
915.921	4413
916.034	4234
916.146	4261
916.259	4223
916.371	4341
916.483	4356
916.595	4227
916.708	4299
916.82	4265
916.932	4322
917.044	4333
917.156	4310
917.268	4227
917.38	4265
917.491	4234
917.603	4337
917.715	4394
917.826	4386
917.938	4375
918.049	4185
918.161	4379
918.272	4554
918.384	4512
918.495	4383
918.606	4276
918.717	4238
918.828	4314
918.939	4375
919.05	4257
919.161	4299
919.272	4131
919.383	4265
919.494	4478
919.604	4660
919.715	4428
919.826	4322
919.936	4394
920.047	4565
920.157	4478
920.267	4717
920.378	4516
920.488	4508
920.598	4702
920.708	4854
920.818	4752
920.928	4752
921.038	4995
921.148	4919
921.258	4649
921.368	4569
921.477	4455
921.587	4478
921.697	4402
921.806	4523
921.916	4421
922.025	4249
922.134	4268
922.244	4246
922.353	4318
922.462	4207
922.571	4093
922.68	4029
922.789	4013
922.898	4029
923.007	4051
923.116	4055
923.224	4029
923.333	4063
923.442	3998
923.55	3964
923.659	3991
923.767	4128
923.876	4006
923.984	4139
924.092	3975
924.201	4120
924.309	4093
924.417	4082
924.525	4101
924.633	4082
924.741	4908
924.849	3907
924.956	4128
925.064	3930
925.172	3888
925.279	3991
925.387	4029
925.494	4048
925.602	4211
925.709	4173
925.816	4112
925.924	4166
926.031	4253
926.138	4131
926.245	4238
926.352	4128
926.459	4242
926.566	4265
926.673	4150
926.779	4078
926.886	4086
926.993	3964
927.099	3964
927.206	3972
927.312	3918
927.419	4040
927.525	4021
927.631	4101
927.737	3964
927.843	3949
927.95	3865
928.056	3922
928.162	3956
928.267	4021
928.373	4698
928.479	4135
928.585	3884
928.69	3991
928.796	4082
928.901	3968
929.007	3865
929.112	3998
929.218	3953
929.323	4002
929.428	3960
929.533	4139
929.638	3899
929.743	3979
929.848	4010
929.953	4017
930.058	3972
930.163	3781
930.267	3846
930.372	3918
930.477	3831
930.581	4097
930.685	3956
930.79	3823
930.894	3896
930.998	3835
931.103	4013
931.207	3698
931.311	3724
931.415	3663
931.519	3534
931.623	3572
