Data from test_V78500241_1664.txt Node
Date: Fri Mar 25 17:00:34 CST 2022
User: usil
Spectrometer: V785-0024
Trigger mode: 0
Integration Time (sec): 4.000000E-1
Scans to average: 1
Nonlinearity correction enabled: false
Boxcar width: 0
Storing dark spectrum: false
XAxis mode: Wavelengths
Number of Pixels in Spectrum: 1024
>>>>>Begin Spectral Data<<<<<
801.071	7974
801.214	7986
801.356	7913
801.499	7887
801.641	7814
801.783	7845
801.926	7894
802.068	7928
802.211	7940
802.353	7959
802.496	7826
802.638	7890
802.78	7917
802.923	7883
803.065	7765
803.208	7833
803.35	7928
803.492	8046
803.635	8172
803.777	7974
803.919	8065
804.061	8476
804.204	8191
804.346	8024
804.488	7936
804.63	8024
804.773	8031
804.915	8035
805.057	8309
805.199	8172
805.341	8229
805.483	8275
805.626	8202
805.768	8123
805.91	8195
806.052	8191
806.194	8115
806.336	8271
806.478	8096
806.62	8035
806.762	8092
806.904	8339
807.046	8499
807.188	8343
807.33	8256
807.472	8301
807.614	8149
807.756	8107
807.898	7963
808.04	7875
808.182	7936
808.324	7845
808.465	7909
808.607	8046
808.749	8149
808.891	8138
809.033	8267
809.174	8286
809.316	8024
809.458	8058
809.6	7978
809.741	8016
809.883	8081
810.025	8123
810.166	8107
810.308	8069
810.45	8050
810.591	7772
810.733	7677
810.875	7681
811.016	7563
811.158	7502
811.299	7544
811.441	7712
811.582	7639
811.724	7594
811.865	7533
812.007	7578
812.148	7575
812.29	7639
812.431	7731
812.573	7860
812.714	7921
812.855	8172
812.997	8199
813.138	8275
813.279	8195
813.421	8115
813.562	7974
813.703	7788
813.845	7712
813.986	7407
814.127	7251
814.268	7236
814.41	7190
814.551	7160
814.692	7259
814.833	7080
814.974	7069
815.115	7114
815.256	6996
815.397	6905
815.539	6939
815.68	6821
815.821	6757
815.962	6840
816.103	6776
816.244	6665
816.385	6623
816.526	6589
816.666	6490
816.807	6289
816.948	6414
817.089	6433
817.23	6456
817.371	6399
817.512	6361
817.653	6426
817.793	6342
817.934	6410
818.075	6441
818.216	6445
818.356	6369
818.497	6235
818.638	6098
818.778	6140
818.919	6034
819.06	6148
819.2	6346
819.341	6315
819.481	6327
819.622	6490
819.762	6669
819.903	6760
820.043	6593
820.184	6578
820.324	6589
820.465	6654
820.605	6635
820.746	6684
820.886	6475
821.026	6673
821.167	6639
821.307	6810
821.447	6696
821.588	6608
821.728	6525
821.868	6429
822.008	6289
822.149	6384
822.289	6338
822.429	6163
822.569	6053
822.709	6144
822.849	5912
822.99	5931
823.13	5912
823.27	5923
823.41	5805
823.55	5779
823.69	5748
823.83	5756
823.97	5661
824.11	5577
824.25	5512
824.389	5581
824.529	5581
824.669	5501
824.809	5668
824.949	5623
825.089	5581
825.228	5554
825.368	5360
825.508	5364
825.648	5273
825.787	5379
825.927	5391
826.067	5296
826.206	5337
826.346	5334
826.485	5387
826.625	5372
826.765	5539
826.904	5440
827.044	5223
827.183	5242
827.323	5136
827.462	5212
827.601	5155
827.741	5197
827.88	5239
828.02	5143
828.159	5242
828.298	5296
828.437	5391
828.577	5265
828.716	5524
828.855	5288
828.994	5147
829.134	5140
829.273	5189
829.412	5151
829.551	5166
829.69	5220
829.829	5280
829.968	5387
830.107	5307
830.246	5315
830.385	5227
830.524	5140
830.663	5067
830.802	4984
830.941	4908
831.08	4930
831.219	4980
831.357	4995
831.496	5197
831.635	4987
831.774	4908
831.913	4892
832.051	4752
832.19	4790
832.329	4915
832.467	4755
832.606	4675
832.744	4763
832.883	4767
833.022	4771
833.16	4866
833.299	4850
833.437	4866
833.576	4900
833.714	4850
833.852	4896
833.991	4908
834.129	4995
834.267	4949
834.406	4949
834.544	5025
834.682	5025
834.821	5006
834.959	5216
835.097	4999
835.235	5174
835.373	5098
835.511	5140
835.65	5079
835.788	5071
835.926	4908
836.064	4877
836.202	4953
836.34	5174
836.478	5235
836.615	5166
836.753	5181
836.891	5395
837.029	5288
837.167	5242
837.305	5162
837.443	5136
837.58	5102
837.718	5231
837.856	5220
837.993	5181
838.131	5231
838.269	5296
838.406	5201
838.544	5235
838.681	5060
838.819	5083
838.956	4911
839.094	4934
839.231	5025
839.369	5105
839.506	5379
839.643	5311
839.781	5117
839.918	5041
840.055	5117
840.193	5083
840.33	5151
840.467	5162
840.604	5185
840.742	5436
840.879	5143
841.016	5166
841.153	5147
841.29	5383
841.427	5307
841.564	5296
841.701	5368
841.838	5315
841.975	5280
842.112	5296
842.249	5155
842.385	5064
842.522	5337
842.659	5136
842.796	5212
842.933	5261
843.069	5132
843.206	5208
843.343	5318
843.479	5296
843.616	5345
843.752	5064
843.889	5037
844.025	5250
844.162	4987
844.298	5254
844.435	5113
844.571	5086
844.708	5235
844.844	5334
844.98	5364
845.117	5315
845.253	5166
845.389	5174
845.525	5162
845.661	5201
845.798	5086
845.934	5193
846.07	5056
846.206	5216
846.342	5284
846.478	5193
846.614	5045
846.75	4991
846.886	4934
847.022	5124
847.158	5029
847.294	5117
847.429	5109
847.565	5105
847.701	5311
847.837	4885
847.972	4843
848.108	5033
848.244	4946
848.379	4835
848.515	4744
848.65	4714
848.786	4771
848.921	4843
849.057	4881
849.192	4896
849.328	4908
849.463	4854
849.598	4839
849.734	4801
849.869	4691
850.004	4611
850.14	4679
850.275	4649
850.41	4558
850.545	4588
850.68	4615
850.815	4660
850.95	4687
851.085	4877
851.22	4767
851.355	4714
851.49	4664
851.625	4618
851.76	4653
851.895	4573
852.03	4550
852.165	4668
852.299	4801
852.434	4763
852.569	4759
852.703	4752
852.838	4820
852.973	5041
853.107	4938
853.242	4778
853.376	4744
853.511	4550
853.645	4641
853.78	4862
853.914	4691
854.048	4660
854.183	4668
854.317	4733
854.451	4873
854.585	4675
854.72	4675
854.854	4831
854.988	4626
855.122	4641
855.256	4565
855.39	4668
855.524	4847
855.658	4717
855.792	4755
855.926	4736
856.06	4733
856.194	4809
856.327	4668
856.461	4641
856.595	4607
856.729	4634
856.862	4786
856.996	4717
857.13	4774
857.263	4831
857.397	4824
857.53	4634
857.664	4725
857.797	4767
857.931	4858
858.064	4736
858.197	4767
858.331	4675
858.464	4649
858.597	4554
858.731	4668
858.864	4656
858.997	4603
859.13	4672
859.263	4691
859.396	4687
859.529	4664
859.662	4592
859.795	4550
859.928	4668
860.061	4805
860.194	4748
860.327	4596
860.46	4626
860.592	4755
860.725	4683
860.858	4736
860.99	4618
861.123	4519
861.256	4607
861.388	4615
861.521	5337
861.653	4577
861.786	4462
861.918	4474
862.05	4573
862.183	4580
862.315	4607
862.447	4714
862.58	4561
862.712	4375
862.844	4348
862.976	4504
863.108	4519
863.24	4759
863.372	4363
863.504	4417
863.636	4455
863.768	4489
863.9	4447
864.032	4356
864.164	4451
864.296	4493
864.428	4531
864.559	4611
864.691	4542
864.823	4478
864.954	4481
865.086	4538
865.217	4440
865.349	4432
865.48	4497
865.612	4523
865.743	4645
865.875	4451
866.006	4421
866.137	4516
866.269	4459
866.4	4485
866.531	4474
866.662	4428
866.793	4424
866.924	4432
867.055	4523
867.186	4459
867.317	4485
867.448	4402
867.579	4394
867.71	4413
867.841	4371
867.972	4478
868.103	4504
868.233	4470
868.364	4481
868.495	4504
868.625	4679
868.756	4767
868.886	4603
869.017	4637
869.147	4729
869.278	4797
869.408	4634
869.539	4672
869.669	4767
869.799	4706
869.929	4801
870.06	4721
870.19	4938
870.32	4942
870.45	4953
870.58	5014
870.71	5140
870.84	5140
870.97	4957
871.1	4858
871.23	5151
871.36	5151
871.489	5086
871.619	5048
871.749	5064
871.879	5094
872.008	5178
872.138	5075
872.267	5022
872.397	4873
872.526	4824
872.656	4812
872.785	4824
872.915	4980
873.044	5048
873.173	4919
873.303	4953
873.432	4968
873.561	4949
873.69	4949
873.819	4873
873.948	4934
874.077	4812
874.206	4790
874.335	4831
874.464	4968
874.593	5086
874.722	4938
874.851	5109
874.979	5045
875.108	5079
875.237	4927
875.365	4892
875.494	4923
875.623	5010
875.751	4839
875.88	4904
876.008	5003
876.136	5029
876.265	5265
876.393	5372
876.521	5227
876.65	5174
876.778	5178
876.906	5075
877.034	5060
877.162	5067
877.29	4987
877.418	5079
877.546	5056
877.674	5048
877.802	4999
877.93	5006
878.058	5010
878.185	4850
878.313	4957
878.441	4946
878.568	4778
878.696	4870
878.824	5006
878.951	5006
879.079	5143
879.206	5242
879.333	5143
879.461	5006
879.588	5029
879.715	5140
879.842	5254
879.97	5014
880.097	4824
880.224	4835
880.351	4824
880.478	4850
880.605	4820
880.732	4824
880.859	5079
880.986	4972
881.112	4938
881.239	4805
881.366	4706
881.493	4622
881.619	4653
881.746	4641
881.872	4672
881.999	4656
882.125	4717
882.252	4801
882.378	4828
882.505	4984
882.631	4812
882.757	4702
882.883	4721
883.01	4714
883.136	4683
883.262	4607
883.388	4622
883.514	4782
883.64	4870
883.766	4816
883.892	4641
884.018	4729
884.143	4923
884.269	5067
884.395	4675
884.52	4637
884.646	4626
884.772	4645
884.897	4603
885.023	4675
885.148	4812
885.274	4843
885.399	4805
885.524	4752
885.65	4721
885.775	4710
885.9	4752
886.025	4889
886.15	4759
886.275	4691
886.4	4672
886.525	4759
886.65	4691
886.775	4714
886.9	4930
887.025	5071
887.149	4828
887.274	4687
887.399	4641
887.523	4691
887.648	4584
887.773	4573
887.897	4740
888.021	4782
888.146	4653
888.27	4866
888.395	4915
888.519	4816
888.643	4850
888.767	4885
888.891	4706
889.015	4611
889.139	4664
889.263	4603
889.387	4774
889.511	4911
889.635	4763
889.759	4679
889.883	4679
890.006	4736
890.13	4889
890.254	4615
890.377	4645
890.501	4493
890.624	4550
890.748	4630
890.871	4531
890.995	4398
891.118	4417
891.241	4573
891.364	4535
891.488	4626
891.611	4489
891.734	4554
891.857	4618
891.98	4577
892.103	4660
892.226	4573
892.349	4565
892.471	4440
892.594	4527
892.717	4634
892.839	4584
892.962	4607
893.085	4675
893.207	4550
893.33	4462
893.452	4546
893.575	4679
893.697	4615
893.819	4782
893.941	4858
894.064	4805
894.186	4653
894.308	4542
894.43	4733
894.552	4771
894.674	4797
894.796	4554
894.918	4573
895.04	4580
895.161	4725
895.283	4649
895.405	4565
895.526	4649
895.648	4672
895.769	4668
895.891	4694
896.012	4748
896.134	4744
896.255	4691
896.376	4691
896.498	4615
896.619	4698
896.74	4626
896.861	4630
896.982	4934
897.103	5045
897.224	4854
897.345	4736
897.466	4641
897.587	4717
897.708	4797
897.828	4782
897.949	4740
898.07	4569
898.19	4622
898.311	4862
898.431	4653
898.552	4755
898.672	4805
898.792	4797
898.913	4786
899.033	4611
899.153	4519
899.273	4455
899.393	4508
899.513	4508
899.633	4512
899.753	4535
899.873	4535
899.993	4550
900.113	4512
900.232	4588
900.352	4497
900.472	4470
900.591	4421
900.711	4481
900.83	4443
900.95	4611
901.069	4771
901.189	4550
901.308	4363
901.427	4314
901.546	4417
901.665	4470
901.784	4558
901.904	4402
902.023	4329
902.141	4192
902.26	4200
902.379	4303
902.498	4253
902.617	4219
902.735	4386
902.854	4379
902.973	4356
903.091	4204
903.21	4188
903.328	4310
903.446	4238
903.565	4238
903.683	4344
903.801	4280
903.919	4379
904.038	4421
904.156	4291
904.274	4398
904.392	4390
904.51	4428
904.627	4466
904.745	4569
904.863	4660
904.981	4455
905.098	4310
905.216	4386
905.334	4409
905.451	4447
905.569	4443
905.686	4538
905.803	4546
905.921	4390
906.038	4558
906.155	4504
906.272	4398
906.389	4474
906.506	4348
906.623	4356
906.74	4375
906.857	4299
906.974	4390
907.091	4584
907.208	4691
907.324	4607
907.441	4512
907.557	4352
907.674	4375
907.79	4299
907.907	4390
908.023	4459
908.139	4455
908.256	4440
908.372	4462
908.488	4516
908.604	4337
908.72	4306
908.836	4394
908.952	4371
909.068	4424
909.184	4607
909.3	4493
909.415	4599
909.531	4554
909.647	4291
909.762	4443
909.878	4383
909.993	4443
910.108	4390
910.224	4383
910.339	4493
910.454	4409
910.57	4428
910.685	4314
910.8	4649
910.915	4554
911.03	4455
911.145	4367
911.259	4325
911.374	4383
911.489	4291
911.604	4287
911.718	4143
911.833	4200
911.947	4105
912.062	4021
912.176	4272
912.291	4246
912.405	4230
912.519	4493
912.633	4485
912.748	4363
912.862	4291
912.976	4215
913.09	4158
913.204	4181
913.318	4268
913.431	4367
913.545	4379
913.659	4466
913.772	4390
913.886	4230
914	4192
914.113	4314
914.226	4447
914.34	4383
914.453	4230
914.566	4432
914.68	4303
914.793	4352
914.906	4188
915.019	4112
915.132	4086
915.245	4215
915.358	4200
915.47	4249
915.583	4310
915.696	4280
915.809	4405
915.921	4462
916.034	4291
916.146	4249
916.259	4200
916.371	4329
916.483	4337
916.595	4249
916.708	4325
916.82	4341
916.932	4333
917.044	4329
917.156	4310
917.268	4227
917.38	4276
917.491	4295
917.603	4329
917.715	4440
917.826	4417
917.938	4367
918.049	4249
918.161	4348
918.272	4516
918.384	4535
918.495	4436
918.606	4280
918.717	4242
918.828	4322
918.939	4367
919.05	4257
919.161	4348
919.272	4097
919.383	4249
919.494	4459
919.604	4679
919.715	4409
919.826	4371
919.936	4402
920.047	4519
920.157	4489
920.267	4683
920.378	4519
920.488	4493
920.598	4710
920.708	4908
920.818	4790
920.928	4748
921.038	4949
921.148	4911
921.258	4599
921.368	4542
921.477	4428
921.587	4493
921.697	4341
921.806	4542
921.916	4440
922.025	4234
922.134	4261
922.244	4215
922.353	4325
922.462	4192
922.571	4147
922.68	3994
922.789	3994
922.898	4013
923.007	3975
923.116	4055
923.224	4116
923.333	4082
923.442	3998
923.55	4002
923.659	4032
923.767	4063
923.876	3994
923.984	4090
924.092	3953
924.201	4105
924.309	4071
924.417	4116
924.525	4040
924.633	4082
924.741	4877
924.849	3876
924.956	4150
925.064	3972
925.172	3922
925.279	3960
925.387	4071
925.494	4010
925.602	4204
925.709	4207
925.816	4071
925.924	4109
926.031	4185
926.138	4169
926.245	4196
926.352	4067
926.459	4257
926.566	4322
926.673	4196
926.779	4044
926.886	4021
926.993	3991
927.099	3964
927.206	3960
927.312	3968
927.419	4048
927.525	4021
927.631	4067
927.737	3975
927.843	3968
927.95	3842
928.056	3941
928.162	3975
928.267	4036
928.373	4577
928.479	4124
928.585	3861
928.69	4059
928.796	4032
928.901	3998
929.007	3869
929.112	4010
929.218	3949
929.323	3918
929.428	3930
929.533	4120
929.638	3915
929.743	3968
929.848	4051
929.953	4044
930.058	3926
930.163	3770
930.267	3835
930.372	3926
930.477	3804
930.581	4097
930.685	3937
930.79	3789
930.894	3915
930.998	3816
931.103	4067
931.207	3709
931.311	3713
931.415	3671
931.519	3580
931.623	3599
