Data from test_V78500241_1233.txt Node
Date: Fri Mar 25 16:57:34 CST 2022
User: usil
Spectrometer: V785-0024
Trigger mode: 0
Integration Time (sec): 4.000000E-1
Scans to average: 1
Nonlinearity correction enabled: false
Boxcar width: 0
Storing dark spectrum: false
XAxis mode: Wavelengths
Number of Pixels in Spectrum: 1024
>>>>>Begin Spectral Data<<<<<
801.071	8069
801.214	8039
801.356	7856
801.499	7852
801.641	7807
801.783	7833
801.926	7917
802.068	7993
802.211	7986
802.353	7963
802.496	7890
802.638	7951
802.78	7936
802.923	7902
803.065	7963
803.208	7921
803.35	8039
803.492	8119
803.635	8134
803.777	8043
803.919	8195
804.061	8469
804.204	8248
804.346	8081
804.488	8001
804.63	8111
804.773	8050
804.915	8142
805.057	8252
805.199	8142
805.341	8214
805.483	8279
805.626	8206
805.768	8134
805.91	8229
806.052	8206
806.194	8115
806.336	8237
806.478	8111
806.62	8065
806.762	8153
806.904	8317
807.046	8511
807.188	8339
807.33	8282
807.472	8320
807.614	8161
807.756	8161
807.898	7959
808.04	7951
808.182	7959
808.324	7925
808.465	7978
808.607	8062
808.749	8092
808.891	8218
809.033	8248
809.174	8138
809.316	8005
809.458	8043
809.6	8027
809.741	8043
809.883	8069
810.025	8123
810.166	8062
810.308	8069
810.45	7989
810.591	7875
810.733	7734
810.875	7628
811.016	7407
811.158	7506
811.299	7563
811.441	7696
811.582	7677
811.724	7586
811.865	7521
812.007	7578
812.148	7662
812.29	7651
812.431	7784
812.573	7860
812.714	8005
812.855	8092
812.997	8164
813.138	8339
813.279	8225
813.421	8142
813.562	7955
813.703	7845
813.845	7765
813.986	7426
814.127	7259
814.268	7194
814.41	7206
814.551	7194
814.692	7209
814.833	7053
814.974	7031
815.115	7118
815.256	6920
815.397	6913
815.539	6939
815.68	6840
815.821	6757
815.962	6837
816.103	6837
816.244	6688
816.385	6623
816.526	6654
816.666	6464
816.807	6292
816.948	6414
817.089	6437
817.23	6486
817.371	6414
817.512	6426
817.653	6456
817.793	6319
817.934	6414
818.075	6494
818.216	6403
818.356	6456
818.497	6300
818.638	6106
818.778	6114
818.919	6163
819.06	6194
819.2	6346
819.341	6319
819.481	6395
819.622	6544
819.762	6757
819.903	6734
820.043	6585
820.184	6623
820.324	6642
820.465	6662
820.605	6669
820.746	6642
820.886	6528
821.026	6662
821.167	6646
821.307	6730
821.447	6730
821.588	6646
821.728	6601
821.868	6506
822.008	6331
822.149	6410
822.289	6365
822.429	6197
822.569	6098
822.709	6076
822.849	5863
822.99	5866
823.13	5935
823.27	5935
823.41	5805
823.55	5775
823.69	5821
823.83	5817
823.97	5661
824.11	5509
824.25	5516
824.389	5604
824.529	5585
824.669	5524
824.809	5623
824.949	5665
825.089	5623
825.228	5566
825.368	5410
825.508	5357
825.648	5345
825.787	5410
825.927	5387
826.067	5341
826.206	5391
826.346	5299
826.485	5391
826.625	5463
826.765	5558
826.904	5509
827.044	5277
827.183	5220
827.323	5113
827.462	5273
827.601	5197
827.741	5136
827.88	5250
828.02	5056
828.159	5223
828.298	5269
828.437	5353
828.577	5284
828.716	5497
828.855	5337
828.994	5189
829.134	5181
829.273	5140
829.412	5102
829.551	5128
829.69	5189
829.829	5216
829.968	5376
830.107	5269
830.246	5303
830.385	5136
830.524	5121
830.663	5086
830.802	4984
830.941	4812
831.08	4889
831.219	4965
831.357	4965
831.496	5159
831.635	4927
831.774	4812
831.913	4843
832.051	4725
832.19	4831
832.329	4862
832.467	4714
832.606	4618
832.744	4717
832.883	4698
833.022	4733
833.16	4786
833.299	4809
833.437	4801
833.576	4839
833.714	4835
833.852	4881
833.991	4930
834.129	4961
834.267	4930
834.406	4938
834.544	4995
834.682	4957
834.821	4942
834.959	5113
835.097	4972
835.235	5083
835.373	5113
835.511	5067
835.65	5033
835.788	5022
835.926	4915
836.064	4854
836.202	4927
836.34	5151
836.478	5181
836.615	5105
836.753	5204
836.891	5330
837.029	5258
837.167	5223
837.305	5140
837.443	5170
837.58	5048
837.718	5254
837.856	5216
837.993	5109
838.131	5208
838.269	5220
838.406	5181
838.544	5136
838.681	5052
838.819	4976
838.956	4862
839.094	4889
839.231	4953
839.369	5136
839.506	5421
839.643	5273
839.781	5029
839.918	5052
840.055	5155
840.193	5128
840.33	5086
840.467	5140
840.604	5132
840.742	5383
840.879	5006
841.016	5064
841.153	5201
841.29	5398
841.427	5357
841.564	5273
841.701	5337
841.838	5307
841.975	5178
842.112	5216
842.249	5147
842.385	5048
842.522	5330
842.659	5113
842.796	5109
842.933	5197
843.069	5117
843.206	5128
843.343	5307
843.479	5227
843.616	5242
843.752	5006
843.889	4976
844.025	5216
844.162	5025
844.298	5223
844.435	5045
844.571	5048
844.708	5239
844.844	5326
844.98	5337
845.117	5273
845.253	5117
845.389	5121
845.525	5117
845.661	5128
845.798	5029
845.934	5162
846.07	5037
846.206	5197
846.342	5288
846.478	5117
846.614	5010
846.75	4961
846.886	4938
847.022	5102
847.158	5064
847.294	5045
847.429	5037
847.565	5052
847.701	5330
847.837	4850
847.972	4812
848.108	4980
848.244	4930
848.379	4801
848.515	4736
848.65	4687
848.786	4736
848.921	4778
849.057	4824
849.192	4877
849.328	4812
849.463	4782
849.598	4820
849.734	4820
849.869	4717
850.004	4641
850.14	4645
850.275	4596
850.41	4497
850.545	4546
850.68	4618
850.815	4596
850.95	4611
851.085	4809
851.22	4717
851.355	4710
851.49	4607
851.625	4615
851.76	4641
851.895	4554
852.03	4531
852.165	4599
852.299	4683
852.434	4733
852.569	4698
852.703	4763
852.838	4782
852.973	4911
853.107	4927
853.242	4710
853.376	4656
853.511	4531
853.645	4596
853.78	4759
853.914	4725
854.048	4645
854.183	4618
854.317	4679
854.451	4847
854.585	4706
854.72	4611
854.854	4725
854.988	4615
855.122	4645
855.256	4546
855.39	4622
855.524	4778
855.658	4706
855.792	4668
855.926	4618
856.06	4759
856.194	4812
856.327	4615
856.461	4653
856.595	4584
856.729	4683
856.862	4694
856.996	4706
857.13	4763
857.263	4714
857.397	4771
857.53	4698
857.664	4729
857.797	4748
857.931	4755
858.064	4721
858.197	4797
858.331	4611
858.464	4599
858.597	4485
858.731	4618
858.864	4611
858.997	4592
859.13	4660
859.263	4645
859.396	4675
859.529	4607
859.662	4577
859.795	4599
859.928	4649
860.061	4702
860.194	4774
860.327	4577
860.46	4558
860.592	4714
860.725	4740
860.858	4691
860.99	4569
861.123	4512
861.256	4538
861.388	4588
861.521	5299
861.653	4462
861.786	4466
861.918	4428
862.05	4535
862.183	4538
862.315	4626
862.447	4668
862.58	4561
862.712	4428
862.844	4299
862.976	4424
863.108	4443
863.24	4881
863.372	4295
863.504	4394
863.636	4432
863.768	4470
863.9	4478
864.032	4375
864.164	4424
864.296	4478
864.428	4516
864.559	4527
864.691	4577
864.823	4531
864.954	4489
865.086	4527
865.217	4447
865.349	4421
865.48	4459
865.612	4478
865.743	4630
865.875	4459
866.006	4455
866.137	4436
866.269	4413
866.4	4436
866.531	4413
866.662	4341
866.793	4383
866.924	4421
867.055	4455
867.186	4428
867.317	4436
867.448	4409
867.579	4383
867.71	4402
867.841	4325
867.972	4481
868.103	4466
868.233	4421
868.364	4421
868.495	4485
868.625	4626
868.756	4729
868.886	4577
869.017	4603
869.147	4782
869.278	4763
869.408	4645
869.539	4645
869.669	4641
869.799	4649
869.929	4740
870.06	4710
870.19	4942
870.32	4908
870.45	4911
870.58	4987
870.71	5056
870.84	5098
870.97	4904
871.1	4885
871.23	5140
871.36	5079
871.489	5037
871.619	5102
871.749	5041
871.879	5117
872.008	5147
872.138	5045
872.267	4953
872.397	4854
872.526	4835
872.656	4725
872.785	4824
872.915	4927
873.044	5052
873.173	4930
873.303	4957
873.432	4965
873.561	4961
873.69	4881
873.819	4870
873.948	4930
874.077	4771
874.206	4759
874.335	4801
874.464	4927
874.593	5094
874.722	4927
874.851	5143
874.979	5075
875.108	5056
875.237	4965
875.365	4866
875.494	4858
875.623	4953
875.751	4793
875.88	4854
876.008	4972
876.136	5048
876.265	5212
876.393	5318
876.521	5242
876.65	5277
876.778	5098
876.906	5090
877.034	5010
877.162	5037
877.29	4984
877.418	5037
877.546	5033
877.674	5090
877.802	5033
877.93	5018
878.058	4896
878.185	4885
878.313	4942
878.441	4900
878.568	4786
878.696	4843
878.824	4984
878.951	5029
879.079	5094
879.206	5246
879.333	5094
879.461	4934
879.588	5025
879.715	5124
879.842	5181
879.97	4957
880.097	4820
880.224	4774
880.351	4782
880.478	4797
880.605	4759
880.732	4752
880.859	5041
880.986	4824
881.112	4885
881.239	4797
881.366	4702
881.493	4599
881.619	4561
881.746	4637
881.872	4645
881.999	4649
882.125	4702
882.252	4767
882.378	4790
882.505	4957
882.631	4831
882.757	4641
882.883	4702
883.01	4725
883.136	4637
883.262	4611
883.388	4637
883.514	4786
883.64	4843
883.766	4778
883.892	4653
884.018	4702
884.143	4877
884.269	5064
884.395	4664
884.52	4615
884.646	4622
884.772	4611
884.897	4569
885.023	4630
885.148	4809
885.274	4812
885.399	4755
885.524	4736
885.65	4668
885.775	4733
885.9	4733
886.025	4873
886.15	4797
886.275	4714
886.4	4634
886.525	4725
886.65	4691
886.775	4714
886.9	4911
887.025	5003
887.149	4782
887.274	4630
887.399	4538
887.523	4607
887.648	4584
887.773	4531
887.897	4774
888.021	4752
888.146	4691
888.27	4877
888.395	4873
888.519	4782
888.643	4774
888.767	4828
888.891	4675
889.015	4611
889.139	4668
889.263	4584
889.387	4679
889.511	4847
889.635	4782
889.759	4592
889.883	4710
890.006	4771
890.13	4797
890.254	4607
890.377	4664
890.501	4580
890.624	4493
890.748	4611
890.871	4481
890.995	4462
891.118	4325
891.241	4504
891.364	4489
891.488	4641
891.611	4474
891.734	4561
891.857	4577
891.98	4542
892.103	4649
892.226	4580
892.349	4493
892.471	4417
892.594	4519
892.717	4561
892.839	4561
892.962	4603
893.085	4630
893.207	4584
893.33	4394
893.452	4535
893.575	4630
893.697	4588
893.819	4778
893.941	4850
894.064	4790
894.186	4554
894.308	4546
894.43	4740
894.552	4771
894.674	4721
894.796	4542
894.918	4584
895.04	4588
895.161	4698
895.283	4641
895.405	4508
895.526	4645
895.648	4599
895.769	4668
895.891	4714
896.012	4679
896.134	4656
896.255	4714
896.376	4618
896.498	4622
896.619	4691
896.74	4596
896.861	4618
896.982	4919
897.103	5086
897.224	4797
897.345	4717
897.466	4645
897.587	4675
897.708	4854
897.828	4740
897.949	4618
898.07	4622
898.19	4618
898.311	4805
898.431	4634
898.552	4706
898.672	4828
898.792	4759
898.913	4702
899.033	4592
899.153	4512
899.273	4443
899.393	4504
899.513	4546
899.633	4508
899.753	4489
899.873	4451
899.993	4603
900.113	4512
900.232	4588
900.352	4558
900.472	4466
900.591	4432
900.711	4447
900.83	4432
900.95	4588
901.069	4656
901.189	4519
901.308	4352
901.427	4295
901.546	4348
901.665	4512
901.784	4535
901.904	4383
902.023	4318
902.141	4238
902.26	4192
902.379	4291
902.498	4238
902.617	4230
902.735	4348
902.854	4413
902.973	4360
903.091	4242
903.21	4249
903.328	4276
903.446	4257
903.565	4219
903.683	4363
903.801	4268
903.919	4379
904.038	4390
904.156	4261
904.274	4409
904.392	4428
904.51	4432
904.627	4493
904.745	4538
904.863	4630
904.981	4409
905.098	4322
905.216	4371
905.334	4451
905.451	4363
905.569	4459
905.686	4550
905.803	4592
905.921	4360
906.038	4523
906.155	4489
906.272	4394
906.389	4440
906.506	4333
906.623	4409
906.74	4375
906.857	4318
906.974	4348
907.091	4512
907.208	4653
907.324	4573
907.441	4531
907.557	4352
907.674	4367
907.79	4295
907.907	4405
908.023	4432
908.139	4443
908.256	4443
908.372	4436
908.488	4436
908.604	4352
908.72	4310
908.836	4337
908.952	4462
909.068	4413
909.184	4538
909.3	4436
909.415	4580
909.531	4531
909.647	4352
909.762	4299
909.878	4333
909.993	4375
910.108	4424
910.224	4379
910.339	4424
910.454	4375
910.57	4306
910.685	4291
910.8	4645
910.915	4538
911.03	4443
911.145	4299
911.259	4303
911.374	4360
911.489	4329
911.604	4242
911.718	4135
911.833	4154
911.947	4051
912.062	3998
912.176	4169
912.291	4200
912.405	4257
912.519	4459
912.633	4493
912.748	4367
912.862	4341
912.976	4177
913.09	4078
913.204	4215
913.318	4272
913.431	4367
913.545	4329
913.659	4405
913.772	4337
913.886	4249
914	4261
914.113	4367
914.226	4424
914.34	4360
914.453	4257
914.566	4440
914.68	4310
914.793	4329
914.906	4128
915.019	4093
915.132	4082
915.245	4154
915.358	4227
915.47	4238
915.583	4280
915.696	4318
915.809	4390
915.921	4436
916.034	4253
916.146	4246
916.259	4204
916.371	4356
916.483	4371
916.595	4230
916.708	4295
916.82	4284
916.932	4325
917.044	4284
917.156	4268
917.268	4223
917.38	4242
917.491	4295
917.603	4287
917.715	4352
917.826	4455
917.938	4363
918.049	4215
918.161	4405
918.272	4512
918.384	4512
918.495	4413
918.606	4325
918.717	4287
918.828	4322
918.939	4341
919.05	4276
919.161	4284
919.272	4143
919.383	4276
919.494	4436
919.604	4584
919.715	4417
919.826	4329
919.936	4356
920.047	4516
920.157	4485
920.267	4683
920.378	4558
920.488	4527
920.598	4740
920.708	4862
920.818	4733
920.928	4744
921.038	4881
921.148	4900
921.258	4637
921.368	4573
921.477	4478
921.587	4443
921.697	4363
921.806	4565
921.916	4424
922.025	4223
922.134	4272
922.244	4204
922.353	4341
922.462	4173
922.571	4093
922.68	3994
922.789	3994
922.898	4025
923.007	3964
923.116	4086
923.224	4074
923.333	4044
923.442	3991
923.55	3975
923.659	4040
923.767	4116
923.876	4040
923.984	4120
924.092	3983
924.201	4101
924.309	4006
924.417	4116
924.525	4029
924.633	4082
924.741	5037
924.849	3960
924.956	4105
925.064	3968
925.172	3911
925.279	3960
925.387	4074
925.494	4036
925.602	4253
925.709	4185
925.816	4067
925.924	4074
926.031	4234
926.138	4188
926.245	4196
926.352	4090
926.459	4268
926.566	4306
926.673	4116
926.779	4067
926.886	4071
926.993	3949
927.099	3964
927.206	3922
927.312	3915
927.419	4063
927.525	4002
927.631	4139
927.737	3953
927.843	3930
927.95	3808
928.056	3979
928.162	4017
928.267	4032
928.373	4679
928.479	4093
928.585	3869
928.69	3998
928.796	4036
928.901	3953
929.007	3812
929.112	3998
929.218	3960
929.323	3964
929.428	3975
929.533	4093
929.638	3899
929.743	3945
929.848	4029
929.953	3968
930.058	3922
930.163	3778
930.267	3812
930.372	3987
930.477	3778
930.581	4101
930.685	3941
930.79	3812
930.894	3861
930.998	3888
931.103	4040
931.207	3740
931.311	3713
931.415	3679
931.519	3492
931.623	3549
