Data from test_V78500241_1034.txt Node
Date: Fri Mar 25 16:56:11 CST 2022
User: usil
Spectrometer: V785-0024
Trigger mode: 0
Integration Time (sec): 4.000000E-1
Scans to average: 1
Nonlinearity correction enabled: false
Boxcar width: 0
Storing dark spectrum: false
XAxis mode: Wavelengths
Number of Pixels in Spectrum: 1024
>>>>>Begin Spectral Data<<<<<
801.071	8077
801.214	8088
801.356	7894
801.499	7921
801.641	7792
801.783	7784
801.926	7898
802.068	7940
802.211	7921
802.353	7932
802.496	7788
802.638	7826
802.78	7902
802.923	7978
803.065	7906
803.208	7879
803.35	8001
803.492	8088
803.635	8259
803.777	8111
803.919	8088
804.061	8362
804.204	8111
804.346	8062
804.488	7936
804.63	8123
804.773	8035
804.915	8096
805.057	8256
805.199	8149
805.341	8195
805.483	8244
805.626	8191
805.768	8142
805.91	8191
806.052	8119
806.194	8050
806.336	8233
806.478	8157
806.62	8016
806.762	8046
806.904	8240
807.046	8492
807.188	8301
807.33	8237
807.472	8328
807.614	8153
807.756	8100
807.898	8001
808.04	7887
808.182	7883
808.324	7875
808.465	7940
808.607	8035
808.749	8046
808.891	8199
809.033	8313
809.174	8183
809.316	8077
809.458	8012
809.6	7967
809.741	7955
809.883	8107
810.025	8134
810.166	8027
810.308	8027
810.45	8008
810.591	7841
810.733	7719
810.875	7712
811.016	7476
811.158	7480
811.299	7525
811.441	7666
811.582	7647
811.724	7540
811.865	7464
812.007	7586
812.148	7559
812.29	7605
812.431	7723
812.573	7871
812.714	7890
812.855	8062
812.997	8161
813.138	8252
813.279	8176
813.421	8096
813.562	7978
813.703	7856
813.845	7742
813.986	7445
814.127	7266
814.268	7217
814.41	7171
814.551	7065
814.692	7118
814.833	6985
814.974	6970
815.115	7034
815.256	6924
815.397	6909
815.539	6947
815.68	6798
815.821	6768
815.962	6848
816.103	6814
816.244	6696
816.385	6608
816.526	6662
816.666	6540
816.807	6281
816.948	6433
817.089	6536
817.23	6429
817.371	6357
817.512	6441
817.653	6365
817.793	6376
817.934	6418
818.075	6479
818.216	6369
818.356	6391
818.497	6205
818.638	6102
818.778	6190
818.919	6152
819.06	6175
819.2	6334
819.341	6315
819.481	6281
819.622	6483
819.762	6726
819.903	6688
820.043	6604
820.184	6593
820.324	6570
820.465	6707
820.605	6684
820.746	6608
820.886	6437
821.026	6639
821.167	6684
821.307	6760
821.447	6719
821.588	6650
821.728	6570
821.868	6483
822.008	6308
822.149	6429
822.289	6365
822.429	6136
822.569	6072
822.709	6117
822.849	5935
822.99	5920
823.13	5920
823.27	5901
823.41	5729
823.55	5798
823.69	5802
823.83	5764
823.97	5676
824.11	5490
824.25	5459
824.389	5535
824.529	5554
824.669	5501
824.809	5581
824.949	5642
825.089	5573
825.228	5596
825.368	5345
825.508	5296
825.648	5353
825.787	5307
825.927	5345
826.067	5311
826.206	5311
826.346	5318
826.485	5417
826.625	5376
826.765	5509
826.904	5425
827.044	5296
827.183	5185
827.323	5132
827.462	5189
827.601	5208
827.741	5185
827.88	5220
828.02	5102
828.159	5185
828.298	5311
828.437	5341
828.577	5246
828.716	5474
828.855	5334
828.994	5162
829.134	5121
829.273	5162
829.412	5124
829.551	5124
829.69	5155
829.829	5231
829.968	5330
830.107	5269
830.246	5296
830.385	5155
830.524	5079
830.663	5029
830.802	4987
830.941	4885
831.08	4854
831.219	4942
831.357	4961
831.496	5166
831.635	4938
831.774	4820
831.913	4850
832.051	4733
832.19	4740
832.329	4801
832.467	4725
832.606	4630
832.744	4717
832.883	4744
833.022	4733
833.16	4740
833.299	4771
833.437	4850
833.576	4786
833.714	4782
833.852	4858
833.991	4892
834.129	4957
834.267	4919
834.406	4881
834.544	4999
834.682	4915
834.821	4885
834.959	5128
835.097	4968
835.235	5185
835.373	5075
835.511	5083
835.65	4999
835.788	5033
835.926	4923
836.064	4850
836.202	4889
836.34	5121
836.478	5212
836.615	5124
836.753	5239
836.891	5258
837.029	5208
837.167	5193
837.305	5105
837.443	5105
837.58	5060
837.718	5242
837.856	5162
837.993	5113
838.131	5269
838.269	5193
838.406	5227
838.544	5162
838.681	5071
838.819	4949
838.956	4866
839.094	4911
839.231	4976
839.369	5064
839.506	5395
839.643	5223
839.781	5045
839.918	5006
840.055	5113
840.193	5056
840.33	5105
840.467	5117
840.604	5174
840.742	5410
840.879	5094
841.016	5067
841.153	5124
841.29	5417
841.427	5292
841.564	5296
841.701	5318
841.838	5204
841.975	5231
842.112	5273
842.249	5132
842.385	5117
842.522	5296
842.659	5136
842.796	5113
842.933	5208
843.069	5136
843.206	5128
843.343	5258
843.479	5239
843.616	5269
843.752	5056
843.889	4961
844.025	5204
844.162	4976
844.298	5212
844.435	5117
844.571	4980
844.708	5201
844.844	5261
844.98	5364
845.117	5242
845.253	5124
845.389	5071
845.525	5162
845.661	5174
845.798	5022
845.934	5128
846.07	5037
846.206	5132
846.342	5254
846.478	5197
846.614	5025
846.75	4965
846.886	4980
847.022	5113
847.158	5003
847.294	5048
847.429	5037
847.565	4968
847.701	5345
847.837	4835
847.972	4835
848.108	4972
848.244	4946
848.379	4786
848.515	4733
848.65	4679
848.786	4755
848.921	4729
849.057	4881
849.192	4843
849.328	4771
849.463	4816
849.598	4793
849.734	4733
849.869	4694
850.004	4630
850.14	4626
850.275	4596
850.41	4535
850.545	4565
850.68	4584
850.815	4592
850.95	4584
851.085	4847
851.22	4717
851.355	4702
851.49	4599
851.625	4584
851.76	4626
851.895	4523
852.03	4542
852.165	4626
852.299	4694
852.434	4797
852.569	4717
852.703	4771
852.838	4801
852.973	4873
853.107	4858
853.242	4725
853.376	4679
853.511	4558
853.645	4641
853.78	4801
853.914	4675
854.048	4668
854.183	4649
854.317	4668
854.451	4843
854.585	4672
854.72	4687
854.854	4729
854.988	4561
855.122	4626
855.256	4531
855.39	4664
855.524	4752
855.658	4702
855.792	4668
855.926	4721
856.06	4763
856.194	4816
856.327	4672
856.461	4634
856.595	4626
856.729	4584
856.862	4717
856.996	4649
857.13	4698
857.263	4744
857.397	4778
857.53	4660
857.664	4736
857.797	4755
857.931	4763
858.064	4675
858.197	4733
858.331	4637
858.464	4580
858.597	4504
858.731	4569
858.864	4618
858.997	4592
859.13	4668
859.263	4653
859.396	4672
859.529	4592
859.662	4554
859.795	4459
859.928	4584
860.061	4729
860.194	4759
860.327	4630
860.46	4523
860.592	4740
860.725	4717
860.858	4725
860.99	4565
861.123	4508
861.256	4542
861.388	4599
861.521	5284
861.653	4478
861.786	4481
861.918	4455
862.05	4481
862.183	4542
862.315	4603
862.447	4630
862.58	4546
862.712	4379
862.844	4303
862.976	4493
863.108	4497
863.24	4908
863.372	4299
863.504	4409
863.636	4405
863.768	4443
863.9	4398
864.032	4318
864.164	4417
864.296	4470
864.428	4542
864.559	4558
864.691	4508
864.823	4535
864.954	4500
865.086	4489
865.217	4424
865.349	4421
865.48	4432
865.612	4474
865.743	4599
865.875	4474
866.006	4379
866.137	4455
866.269	4451
866.4	4466
866.531	4363
866.662	4398
866.793	4428
866.924	4424
867.055	4436
867.186	4447
867.317	4394
867.448	4337
867.579	4421
867.71	4348
867.841	4348
867.972	4428
868.103	4466
868.233	4428
868.364	4478
868.495	4470
868.625	4611
868.756	4729
868.886	4569
869.017	4584
869.147	4733
869.278	4717
869.408	4626
869.539	4630
869.669	4771
869.799	4634
869.929	4744
870.06	4694
870.19	4961
870.32	4930
870.45	4919
870.58	5003
870.71	5071
870.84	5033
870.97	4889
871.1	4870
871.23	5098
871.36	5079
871.489	4984
871.619	5067
871.749	4995
871.879	5083
872.008	5181
872.138	5045
872.267	4949
872.397	4820
872.526	4820
872.656	4729
872.785	4782
872.915	4900
873.044	5003
873.173	4911
873.303	4934
873.432	4923
873.561	4949
873.69	4854
873.819	4885
873.948	4923
874.077	4771
874.206	4763
874.335	4801
874.464	4919
874.593	5010
874.722	4923
874.851	5109
874.979	5006
875.108	5060
875.237	4831
875.365	4854
875.494	4919
875.623	4908
875.751	4824
875.88	4881
876.008	5003
876.136	5010
876.265	5178
876.393	5307
876.521	5235
876.65	5208
876.778	5197
876.906	5052
877.034	5029
877.162	5045
877.29	4999
877.418	5075
877.546	5071
877.674	5029
877.802	5071
877.93	4968
878.058	4881
878.185	4816
878.313	4965
878.441	4927
878.568	4736
878.696	4885
878.824	4972
878.951	4965
879.079	5094
879.206	5303
879.333	5128
879.461	4995
879.588	5014
879.715	5147
879.842	5208
879.97	4968
880.097	4774
880.224	4736
880.351	4812
880.478	4828
880.605	4759
880.732	4771
880.859	5113
880.986	4870
881.112	4889
881.239	4782
881.366	4634
881.493	4577
881.619	4630
881.746	4577
881.872	4634
881.999	4660
882.125	4672
882.252	4702
882.378	4809
882.505	4968
882.631	4812
882.757	4634
882.883	4740
883.01	4698
883.136	4634
883.262	4599
883.388	4626
883.514	4805
883.64	4889
883.766	4816
883.892	4683
884.018	4664
884.143	4923
884.269	4972
884.395	4687
884.52	4626
884.646	4645
884.772	4554
884.897	4573
885.023	4656
885.148	4744
885.274	4923
885.399	4786
885.524	4679
885.65	4626
885.775	4714
885.9	4664
886.025	4843
886.15	4748
886.275	4736
886.4	4637
886.525	4793
886.65	4668
886.775	4714
886.9	4896
887.025	5022
887.149	4801
887.274	4664
887.399	4558
887.523	4588
887.648	4558
887.773	4542
887.897	4782
888.021	4763
888.146	4675
888.27	4805
888.395	4847
888.519	4763
888.643	4854
888.767	4858
888.891	4641
889.015	4577
889.139	4641
889.263	4615
889.387	4778
889.511	4828
889.635	4801
889.759	4630
889.883	4641
890.006	4744
890.13	4843
890.254	4599
890.377	4714
890.501	4523
890.624	4508
890.748	4622
890.871	4508
890.995	4405
891.118	4383
891.241	4527
891.364	4512
891.488	4679
891.611	4542
891.734	4561
891.857	4577
891.98	4538
892.103	4596
892.226	4584
892.349	4531
892.471	4409
892.594	4561
892.717	4611
892.839	4573
892.962	4599
893.085	4622
893.207	4546
893.33	4459
893.452	4523
893.575	4622
893.697	4603
893.819	4767
893.941	4812
894.064	4729
894.186	4603
894.308	4569
894.43	4752
894.552	4850
894.674	4691
894.796	4558
894.918	4577
895.04	4523
895.161	4698
895.283	4641
895.405	4558
895.526	4618
895.648	4622
895.769	4721
895.891	4706
896.012	4755
896.134	4649
896.255	4672
896.376	4618
896.498	4645
896.619	4649
896.74	4615
896.861	4622
896.982	4892
897.103	5045
897.224	4793
897.345	4771
897.466	4660
897.587	4702
897.708	4828
897.828	4782
897.949	4668
898.07	4584
898.19	4599
898.311	4778
898.431	4653
898.552	4721
898.672	4786
898.792	4824
898.913	4725
899.033	4641
899.153	4504
899.273	4379
899.393	4470
899.513	4550
899.633	4474
899.753	4561
899.873	4504
899.993	4573
900.113	4481
900.232	4565
900.352	4531
900.472	4516
900.591	4409
900.711	4459
900.83	4474
900.95	4607
901.069	4664
901.189	4565
901.308	4363
901.427	4295
901.546	4352
901.665	4451
901.784	4497
901.904	4363
902.023	4299
902.141	4139
902.26	4169
902.379	4303
902.498	4227
902.617	4215
902.735	4413
902.854	4356
902.973	4318
903.091	4215
903.21	4204
903.328	4287
903.446	4249
903.565	4207
903.683	4310
903.801	4207
903.919	4341
904.038	4459
904.156	4306
904.274	4462
904.392	4375
904.51	4428
904.627	4436
904.745	4607
904.863	4599
904.981	4424
905.098	4276
905.216	4390
905.334	4417
905.451	4432
905.569	4398
905.686	4516
905.803	4573
905.921	4386
906.038	4531
906.155	4462
906.272	4421
906.389	4478
906.506	4363
906.623	4341
906.74	4329
906.857	4280
906.974	4337
907.091	4592
907.208	4649
907.324	4580
907.441	4466
907.557	4409
907.674	4329
907.79	4322
907.907	4405
908.023	4470
908.139	4489
908.256	4409
908.372	4432
908.488	4462
908.604	4310
908.72	4318
908.836	4337
908.952	4409
909.068	4402
909.184	4550
909.3	4440
909.415	4569
909.531	4493
909.647	4356
909.762	4379
909.878	4341
909.993	4390
910.108	4409
910.224	4428
910.339	4466
910.454	4402
910.57	4386
910.685	4310
910.8	4611
910.915	4569
911.03	4459
911.145	4329
911.259	4329
911.374	4356
911.489	4341
911.604	4268
911.718	4128
911.833	4200
911.947	4063
912.062	4025
912.176	4158
912.291	4261
912.405	4207
912.519	4443
912.633	4489
912.748	4398
912.862	4322
912.976	4204
913.09	4055
913.204	4188
913.318	4223
913.431	4413
913.545	4329
913.659	4432
913.772	4367
913.886	4253
914	4219
914.113	4337
914.226	4440
914.34	4409
914.453	4196
914.566	4417
914.68	4337
914.793	4344
914.906	4154
915.019	4131
915.132	4082
915.245	4181
915.358	4150
915.47	4188
915.583	4238
915.696	4287
915.809	4428
915.921	4360
916.034	4215
916.146	4207
916.259	4249
916.371	4363
916.483	4383
916.595	4230
916.708	4314
916.82	4276
916.932	4314
917.044	4287
917.156	4333
917.268	4177
917.38	4284
917.491	4249
917.603	4360
917.715	4402
917.826	4455
917.938	4348
918.049	4230
918.161	4367
918.272	4565
918.384	4554
918.495	4440
918.606	4318
918.717	4181
918.828	4322
918.939	4360
919.05	4249
919.161	4303
919.272	4105
919.383	4211
919.494	4413
919.604	4577
919.715	4424
919.826	4375
919.936	4390
920.047	4519
920.157	4504
920.267	4702
920.378	4535
920.488	4493
920.598	4759
920.708	4889
920.818	4782
920.928	4755
921.038	4957
921.148	4900
921.258	4634
921.368	4577
921.477	4497
921.587	4424
921.697	4375
921.806	4569
921.916	4394
922.025	4287
922.134	4246
922.244	4204
922.353	4318
922.462	4177
922.571	4150
922.68	3998
922.789	3945
922.898	4021
923.007	3975
923.116	4097
923.224	4055
923.333	4059
923.442	3979
923.55	4036
923.659	4044
923.767	4055
923.876	4029
923.984	4109
924.092	4017
924.201	4063
924.309	4093
924.417	4097
924.525	4063
924.633	4071
924.741	4995
924.849	3903
924.956	4124
925.064	3994
925.172	3934
925.279	3953
925.387	4032
925.494	4055
925.602	4120
925.709	4204
925.816	4063
925.924	4101
926.031	4227
926.138	4188
926.245	4188
926.352	4067
926.459	4211
926.566	4280
926.673	4097
926.779	4071
926.886	4051
926.993	3945
927.099	3945
927.206	3941
927.312	3937
927.419	4013
927.525	3983
927.631	4101
927.737	3945
927.843	3915
927.95	3884
928.056	3926
928.162	3983
928.267	4044
928.373	4668
928.479	4162
928.585	3838
928.69	3998
928.796	4029
928.901	3994
929.007	3804
929.112	3968
929.218	3937
929.323	3945
929.428	3911
929.533	4112
929.638	3915
929.743	3960
929.848	4032
929.953	3998
930.058	3918
930.163	3778
930.267	3865
930.372	3983
930.477	3781
930.581	4063
930.685	3915
930.79	3816
930.894	3876
930.998	3888
931.103	4063
931.207	3682
931.311	3698
931.415	3709
931.519	3542
931.623	3515
