Data from test_V78500241_2039.txt Node
Date: Fri Mar 25 17:03:10 CST 2022
User: usil
Spectrometer: V785-0024
Trigger mode: 0
Integration Time (sec): 4.000000E-1
Scans to average: 1
Nonlinearity correction enabled: false
Boxcar width: 0
Storing dark spectrum: false
XAxis mode: Wavelengths
Number of Pixels in Spectrum: 1024
>>>>>Begin Spectral Data<<<<<
801.071	7986
801.214	7947
801.356	7837
801.499	7830
801.641	7894
801.783	7807
801.926	7974
802.068	7967
802.211	8035
802.353	7986
802.496	7841
802.638	7837
802.78	7852
802.923	7871
803.065	7875
803.208	7826
803.35	7947
803.492	8123
803.635	8142
803.777	7978
803.919	8100
804.061	8450
804.204	8130
804.346	8016
804.488	7947
804.63	8081
804.773	8039
804.915	8115
805.057	8214
805.199	8145
805.341	8225
805.483	8267
805.626	8199
805.768	8134
805.91	8172
806.052	8237
806.194	8153
806.336	8206
806.478	8107
806.62	8058
806.762	8172
806.904	8282
807.046	8461
807.188	8336
807.33	8355
807.472	8305
807.614	8248
807.756	8161
807.898	7940
808.04	7936
808.182	7944
808.324	7868
808.465	7902
808.607	7974
808.749	8096
808.891	8218
809.033	8248
809.174	8221
809.316	8043
809.458	8100
809.6	8024
809.741	8081
809.883	8088
810.025	8103
810.166	8069
810.308	8043
810.45	8039
810.591	7833
810.733	7788
810.875	7639
811.016	7472
811.158	7449
811.299	7571
811.441	7750
811.582	7708
811.724	7571
811.865	7556
812.007	7597
812.148	7605
812.29	7628
812.431	7719
812.573	7860
812.714	7970
812.855	8149
812.997	8191
813.138	8225
813.279	8176
813.421	8046
813.562	7955
813.703	7849
813.845	7731
813.986	7419
814.127	7312
814.268	7236
814.41	7198
814.551	7198
814.692	7156
814.833	7152
814.974	7088
815.115	7114
815.256	7008
815.397	6939
815.539	6966
815.68	6798
815.821	6745
815.962	6878
816.103	6814
816.244	6707
816.385	6635
816.526	6593
816.666	6525
816.807	6319
816.948	6433
817.089	6422
817.23	6448
817.371	6353
817.512	6369
817.653	6380
817.793	6308
817.934	6395
818.075	6448
818.216	6414
818.356	6410
818.497	6289
818.638	6144
818.778	6167
818.919	6201
819.06	6159
819.2	6300
819.341	6369
819.481	6323
819.622	6521
819.762	6707
819.903	6665
820.043	6589
820.184	6540
820.324	6540
820.465	6722
820.605	6669
820.746	6673
820.886	6513
821.026	6650
821.167	6719
821.307	6802
821.447	6673
821.588	6646
821.728	6639
821.868	6494
822.008	6372
822.149	6384
822.289	6365
822.429	6167
822.569	6098
822.709	6129
822.849	5935
822.99	5889
823.13	5923
823.27	5874
823.41	5790
823.55	5779
823.69	5771
823.83	5779
823.97	5619
824.11	5516
824.25	5520
824.389	5596
824.529	5611
824.669	5448
824.809	5611
824.949	5627
825.089	5596
825.228	5570
825.368	5368
825.508	5341
825.648	5368
825.787	5368
825.927	5349
826.067	5261
826.206	5326
826.346	5299
826.485	5379
826.625	5429
826.765	5543
826.904	5459
827.044	5197
827.183	5189
827.323	5136
827.462	5261
827.601	5147
827.741	5151
827.88	5220
828.02	5037
828.159	5208
828.298	5292
828.437	5334
828.577	5288
828.716	5490
828.855	5307
828.994	5159
829.134	5155
829.273	5159
829.412	5147
829.551	5140
829.69	5109
829.829	5254
829.968	5372
830.107	5269
830.246	5235
830.385	5181
830.524	5136
830.663	5105
830.802	4968
830.941	4854
831.08	4873
831.219	5022
831.357	5022
831.496	5140
831.635	4927
831.774	4847
831.913	4889
832.051	4755
832.19	4740
832.329	4809
832.467	4740
832.606	4634
832.744	4714
832.883	4714
833.022	4710
833.16	4816
833.299	4793
833.437	4839
833.576	4843
833.714	4870
833.852	4892
833.991	4877
834.129	4984
834.267	4942
834.406	4862
834.544	4965
834.682	4938
834.821	4995
834.959	5143
835.097	4980
835.235	5083
835.373	5105
835.511	5029
835.65	5075
835.788	5014
835.926	4843
836.064	4843
836.202	4908
836.34	5178
836.478	5181
836.615	5094
836.753	5166
836.891	5322
837.029	5197
837.167	5159
837.305	5151
837.443	5151
837.58	5124
837.718	5284
837.856	5185
837.993	5079
838.131	5204
838.269	5250
838.406	5174
838.544	5178
838.681	5018
838.819	4987
838.956	4866
839.094	4881
839.231	4984
839.369	5064
839.506	5444
839.643	5235
839.781	5086
839.918	4972
840.055	5121
840.193	5105
840.33	5060
840.467	5136
840.604	5193
840.742	5459
840.879	5067
841.016	5109
841.153	5109
841.29	5318
841.427	5318
841.564	5307
841.701	5345
841.838	5208
841.975	5239
842.112	5235
842.249	5113
842.385	5075
842.522	5353
842.659	5128
842.796	5140
842.933	5155
843.069	5147
843.206	5128
843.343	5296
843.479	5204
843.616	5261
843.752	5014
843.889	5010
844.025	5201
844.162	5006
844.298	5212
844.435	5060
844.571	5037
844.708	5170
844.844	5299
844.98	5292
845.117	5242
845.253	5162
845.389	5121
845.525	5201
845.661	5086
845.798	5048
845.934	5128
846.07	5071
846.206	5155
846.342	5277
846.478	5140
846.614	5041
846.75	4968
846.886	4923
847.022	5090
847.158	5010
847.294	5056
847.429	5064
847.565	5079
847.701	5307
847.837	4862
847.972	4824
848.108	4965
848.244	4885
848.379	4778
848.515	4733
848.65	4683
848.786	4774
848.921	4752
849.057	4877
849.192	4896
849.328	4790
849.463	4835
849.598	4714
849.734	4755
849.869	4656
850.004	4596
850.14	4702
850.275	4596
850.41	4554
850.545	4500
850.68	4577
850.815	4641
850.95	4653
851.085	4801
851.22	4721
851.355	4653
851.49	4592
851.625	4580
851.76	4645
851.895	4592
852.03	4519
852.165	4645
852.299	4736
852.434	4820
852.569	4706
852.703	4694
852.838	4824
852.973	4904
853.107	4911
853.242	4736
853.376	4656
853.511	4531
853.645	4615
853.78	4809
853.914	4733
854.048	4698
854.183	4645
854.317	4691
854.451	4889
854.585	4668
854.72	4615
854.854	4729
854.988	4565
855.122	4645
855.256	4588
855.39	4630
855.524	4771
855.658	4759
855.792	4710
855.926	4755
856.06	4767
856.194	4812
856.327	4691
856.461	4622
856.595	4634
856.729	4634
856.862	4729
856.996	4672
857.13	4721
857.263	4748
857.397	4793
857.53	4649
857.664	4702
857.797	4801
857.931	4729
858.064	4706
858.197	4744
858.331	4637
858.464	4603
858.597	4512
858.731	4592
858.864	4656
858.997	4618
859.13	4679
859.263	4641
859.396	4698
859.529	4580
859.662	4573
859.795	4596
859.928	4603
860.061	4721
860.194	4729
860.327	4599
860.46	4538
860.592	4702
860.725	4675
860.858	4717
860.99	4550
861.123	4519
861.256	4508
861.388	4607
861.521	5307
861.653	4470
861.786	4443
861.918	4451
862.05	4500
862.183	4588
862.315	4618
862.447	4672
862.58	4538
862.712	4436
862.844	4280
862.976	4447
863.108	4432
863.24	4748
863.372	4322
863.504	4428
863.636	4417
863.768	4462
863.9	4432
864.032	4352
864.164	4390
864.296	4459
864.428	4535
864.559	4573
864.691	4512
864.823	4512
864.954	4512
865.086	4546
865.217	4455
865.349	4417
865.48	4481
865.612	4512
865.743	4626
865.875	4421
866.006	4409
866.137	4451
866.269	4405
866.4	4379
866.531	4421
866.662	4447
866.793	4417
866.924	4375
867.055	4489
867.186	4451
867.317	4379
867.448	4344
867.579	4379
867.71	4394
867.841	4375
867.972	4440
868.103	4443
868.233	4489
868.364	4485
868.495	4455
868.625	4634
868.756	4710
868.886	4577
869.017	4588
869.147	4767
869.278	4797
869.408	4634
869.539	4694
869.669	4744
869.799	4645
869.929	4793
870.06	4672
870.19	4908
870.32	4946
870.45	4911
870.58	5018
870.71	5098
870.84	5045
870.97	4923
871.1	4881
871.23	5159
871.36	5155
871.489	5041
871.619	5064
871.749	5060
871.879	5105
872.008	5155
872.138	5067
872.267	4968
872.397	4889
872.526	4782
872.656	4729
872.785	4793
872.915	4980
873.044	5041
873.173	4949
873.303	4987
873.432	4976
873.561	4965
873.69	4847
873.819	4828
873.948	4934
874.077	4790
874.206	4710
874.335	4778
874.464	4930
874.593	5048
874.722	4961
874.851	5064
874.979	5045
875.108	5052
875.237	4866
875.365	4870
875.494	4892
875.623	5006
875.751	4828
875.88	4862
876.008	4995
876.136	5029
876.265	5216
876.393	5311
876.521	5250
876.65	5178
876.778	5189
876.906	5067
877.034	5041
877.162	5048
877.29	4949
877.418	5056
877.546	5018
877.674	5083
877.802	5033
877.93	5010
878.058	4938
878.185	4870
878.313	4953
878.441	4965
878.568	4831
878.696	4885
878.824	5003
878.951	4995
879.079	5121
879.206	5311
879.333	5117
879.461	4934
879.588	4995
879.715	5117
879.842	5166
879.97	5045
880.097	4793
880.224	4763
880.351	4835
880.478	4786
880.605	4767
880.732	4782
880.859	5037
880.986	4843
881.112	4904
881.239	4812
881.366	4656
881.493	4592
881.619	4569
881.746	4653
881.872	4603
881.999	4607
882.125	4694
882.252	4778
882.378	4847
882.505	4957
882.631	4816
882.757	4687
882.883	4725
883.01	4702
883.136	4672
883.262	4592
883.388	4675
883.514	4782
883.64	4881
883.766	4778
883.892	4687
884.018	4698
884.143	4885
884.269	4915
884.395	4611
884.52	4599
884.646	4687
884.772	4596
884.897	4569
885.023	4664
885.148	4774
885.274	4824
885.399	4835
885.524	4736
885.65	4706
885.775	4778
885.9	4702
886.025	4858
886.15	4714
886.275	4733
886.4	4630
886.525	4725
886.65	4679
886.775	4664
886.9	4877
887.025	5006
887.149	4774
887.274	4649
887.399	4592
887.523	4641
887.648	4565
887.773	4565
887.897	4763
888.021	4771
888.146	4675
888.27	4797
888.395	4866
888.519	4782
888.643	4782
888.767	4816
888.891	4634
889.015	4580
889.139	4645
889.263	4599
889.387	4763
889.511	4900
889.635	4782
889.759	4645
889.883	4626
890.006	4698
890.13	4805
890.254	4630
890.377	4630
890.501	4516
890.624	4497
890.748	4653
890.871	4516
890.995	4413
891.118	4363
891.241	4523
891.364	4577
891.488	4607
891.611	4451
891.734	4519
891.857	4592
891.98	4546
892.103	4634
892.226	4611
892.349	4519
892.471	4455
892.594	4531
892.717	4580
892.839	4550
892.962	4558
893.085	4664
893.207	4603
893.33	4500
893.452	4519
893.575	4672
893.697	4542
893.819	4812
893.941	4816
894.064	4729
894.186	4569
894.308	4569
894.43	4759
894.552	4774
894.674	4759
894.796	4508
894.918	4558
895.04	4580
895.161	4710
895.283	4634
895.405	4626
895.526	4603
895.648	4672
895.769	4656
895.891	4702
896.012	4767
896.134	4721
896.255	4645
896.376	4656
896.498	4599
896.619	4664
896.74	4622
896.861	4645
896.982	4904
897.103	5105
897.224	4805
897.345	4752
897.466	4615
897.587	4694
897.708	4835
897.828	4752
897.949	4683
898.07	4519
898.19	4615
898.311	4812
898.431	4656
898.552	4687
898.672	4828
898.792	4801
898.913	4729
899.033	4630
899.153	4474
899.273	4363
899.393	4451
899.513	4474
899.633	4519
899.753	4500
899.873	4481
899.993	4622
900.113	4603
900.232	4580
900.352	4531
900.472	4451
900.591	4390
900.711	4519
900.83	4417
900.95	4554
901.069	4626
901.189	4535
901.308	4363
901.427	4329
901.546	4390
901.665	4455
901.784	4497
901.904	4386
902.023	4303
902.141	4238
902.26	4139
902.379	4306
902.498	4261
902.617	4177
902.735	4360
902.854	4356
902.973	4363
903.091	4234
903.21	4242
903.328	4265
903.446	4246
903.565	4280
903.683	4333
903.801	4284
903.919	4394
904.038	4405
904.156	4299
904.274	4421
904.392	4367
904.51	4413
904.627	4421
904.745	4596
904.863	4596
904.981	4421
905.098	4318
905.216	4367
905.334	4394
905.451	4447
905.569	4459
905.686	4561
905.803	4523
905.921	4455
906.038	4493
906.155	4493
906.272	4371
906.389	4432
906.506	4360
906.623	4394
906.74	4383
906.857	4310
906.974	4360
907.091	4558
907.208	4698
907.324	4519
907.441	4474
907.557	4356
907.674	4329
907.79	4295
907.907	4371
908.023	4428
908.139	4459
908.256	4436
908.372	4432
908.488	4428
908.604	4314
908.72	4360
908.836	4405
908.952	4344
909.068	4443
909.184	4550
909.3	4455
909.415	4558
909.531	4569
909.647	4337
909.762	4337
909.878	4360
909.993	4390
910.108	4386
910.224	4371
910.339	4409
910.454	4386
910.57	4348
910.685	4329
910.8	4649
910.915	4607
911.03	4516
911.145	4276
911.259	4333
911.374	4325
911.489	4291
911.604	4295
911.718	4204
911.833	4223
911.947	4109
912.062	3994
912.176	4207
912.291	4242
912.405	4196
912.519	4493
912.633	4462
912.748	4383
912.862	4333
912.976	4169
913.09	4097
913.204	4188
913.318	4261
913.431	4371
913.545	4348
913.659	4405
913.772	4310
913.886	4284
914	4234
914.113	4379
914.226	4379
914.34	4333
914.453	4188
914.566	4440
914.68	4306
914.793	4318
914.906	4169
915.019	4109
915.132	4040
915.245	4169
915.358	4223
915.47	4242
915.583	4219
915.696	4276
915.809	4383
915.921	4432
916.034	4261
916.146	4242
916.259	4234
916.371	4348
916.483	4314
916.595	4242
916.708	4329
916.82	4299
916.932	4253
917.044	4314
917.156	4356
917.268	4223
917.38	4261
917.491	4272
917.603	4329
917.715	4417
917.826	4417
917.938	4356
918.049	4227
918.161	4405
918.272	4493
918.384	4554
918.495	4443
918.606	4268
918.717	4204
918.828	4341
918.939	4390
919.05	4253
919.161	4333
919.272	4112
919.383	4223
919.494	4390
919.604	4573
919.715	4386
919.826	4310
919.936	4455
920.047	4493
920.157	4478
920.267	4664
920.378	4538
920.488	4470
920.598	4664
920.708	4809
920.818	4717
920.928	4729
921.038	4968
921.148	4881
921.258	4592
921.368	4538
921.477	4485
921.587	4462
921.697	4352
921.806	4542
921.916	4383
922.025	4272
922.134	4249
922.244	4219
922.353	4295
922.462	4143
922.571	4116
922.68	3960
922.789	3949
922.898	4002
923.007	3987
923.116	4071
923.224	4055
923.333	4063
923.442	3987
923.55	3987
923.659	4040
923.767	4090
923.876	4029
923.984	4124
924.092	4017
924.201	4101
924.309	4051
924.417	4120
924.525	4002
924.633	4147
924.741	5067
924.849	3922
924.956	4120
925.064	3991
925.172	3903
925.279	3983
925.387	4036
925.494	4105
925.602	4246
925.709	4223
925.816	4017
925.924	4143
926.031	4272
926.138	4169
926.245	4261
926.352	4120
926.459	4215
926.566	4333
926.673	4188
926.779	4131
926.886	4120
926.993	4074
927.099	3994
927.206	3998
927.312	3937
927.419	4063
927.525	4078
927.631	4124
927.737	3972
927.843	3964
927.95	3869
928.056	4013
928.162	4006
928.267	4074
928.373	4584
928.479	4196
928.585	3930
928.69	4036
928.796	4131
928.901	3968
929.007	3915
929.112	4002
929.218	4025
929.323	4010
929.428	3979
929.533	4120
929.638	3956
929.743	3953
929.848	4071
929.953	4032
930.058	3941
930.163	3838
930.267	3892
930.372	3994
930.477	3808
930.581	4093
930.685	4006
930.79	3926
930.894	3930
930.998	3869
931.103	4059
931.207	3751
931.311	3774
931.415	3717
931.519	3568
931.623	3618
