Data from test_V78500241_2006.txt Node
Date: Fri Mar 25 17:02:56 CST 2022
User: usil
Spectrometer: V785-0024
Trigger mode: 0
Integration Time (sec): 4.000000E-1
Scans to average: 1
Nonlinearity correction enabled: false
Boxcar width: 0
Storing dark spectrum: false
XAxis mode: Wavelengths
Number of Pixels in Spectrum: 1024
>>>>>Begin Spectral Data<<<<<
801.071	7993
801.214	8077
801.356	7875
801.499	7852
801.641	7814
801.783	7826
801.926	7940
802.068	7947
802.211	8024
802.353	8031
802.496	7799
802.638	7830
802.78	7856
802.923	7947
803.065	7887
803.208	7902
803.35	7963
803.492	8050
803.635	8100
803.777	8027
803.919	8157
804.061	8454
804.204	8176
804.346	8081
804.488	7970
804.63	8084
804.773	8020
804.915	8096
805.057	8313
805.199	8092
805.341	8180
805.483	8305
805.626	8214
805.768	8206
805.91	8202
806.052	8229
806.194	8077
806.336	8377
806.478	8111
806.62	8054
806.762	8145
806.904	8271
807.046	8545
807.188	8400
807.33	8286
807.472	8377
807.614	8103
807.756	8149
807.898	7978
808.04	7951
808.182	7925
808.324	7932
808.465	7963
808.607	8149
808.749	8119
808.891	8199
809.033	8290
809.174	8187
809.316	8107
809.458	7986
809.6	8043
809.741	8046
809.883	8020
810.025	8126
810.166	8153
810.308	8046
810.45	7936
810.591	7856
810.733	7780
810.875	7731
811.016	7529
811.158	7483
811.299	7540
811.441	7715
811.582	7693
811.724	7563
811.865	7563
812.007	7666
812.148	7571
812.29	7590
812.431	7772
812.573	7902
812.714	7928
812.855	8180
812.997	8206
813.138	8271
813.279	8202
813.421	8092
813.562	7959
813.703	7849
813.845	7738
813.986	7373
814.127	7217
814.268	7202
814.41	7221
814.551	7187
814.692	7240
814.833	7137
814.974	7088
815.115	7080
815.256	6962
815.397	6977
815.539	6916
815.68	6859
815.821	6829
815.962	6829
816.103	6890
816.244	6738
816.385	6635
816.526	6673
816.666	6574
816.807	6342
816.948	6456
817.089	6498
817.23	6433
817.371	6410
817.512	6399
817.653	6395
817.793	6388
817.934	6350
818.075	6490
818.216	6456
818.356	6483
818.497	6228
818.638	6159
818.778	6125
818.919	6136
819.06	6148
819.2	6300
819.341	6365
819.481	6334
819.622	6464
819.762	6696
819.903	6738
820.043	6612
820.184	6551
820.324	6612
820.465	6711
820.605	6677
820.746	6665
820.886	6528
821.026	6715
821.167	6703
821.307	6821
821.447	6753
821.588	6662
821.728	6604
821.868	6513
822.008	6346
822.149	6403
822.289	6395
822.429	6171
822.569	6076
822.709	6190
822.849	5870
822.99	5859
823.13	5920
823.27	5908
823.41	5859
823.55	5760
823.69	5786
823.83	5809
823.97	5649
824.11	5524
824.25	5512
824.389	5535
824.529	5619
824.669	5562
824.809	5634
824.949	5653
825.089	5665
825.228	5577
825.368	5398
825.508	5372
825.648	5322
825.787	5376
825.927	5379
826.067	5299
826.206	5280
826.346	5429
826.485	5429
826.625	5391
826.765	5604
826.904	5509
827.044	5261
827.183	5197
827.323	5143
827.462	5258
827.601	5178
827.741	5174
827.88	5242
828.02	5136
828.159	5242
828.298	5357
828.437	5360
828.577	5307
828.716	5512
828.855	5330
828.994	5170
829.134	5155
829.273	5143
829.412	5159
829.551	5086
829.69	5155
829.829	5250
829.968	5402
830.107	5284
830.246	5284
830.385	5235
830.524	5223
830.663	5060
830.802	4991
830.941	4839
831.08	4881
831.219	4980
831.357	4984
831.496	5136
831.635	4919
831.774	4881
831.913	4820
832.051	4733
832.19	4763
832.329	4831
832.467	4702
832.606	4660
832.744	4740
832.883	4702
833.022	4763
833.16	4824
833.299	4805
833.437	4877
833.576	4828
833.714	4870
833.852	4877
833.991	4877
834.129	4965
834.267	5014
834.406	4870
834.544	5022
834.682	4968
834.821	4984
834.959	5208
835.097	4987
835.235	5185
835.373	5185
835.511	5083
835.65	5037
835.788	5025
835.926	4900
836.064	4854
836.202	4923
836.34	5159
836.478	5223
836.615	5181
836.753	5242
836.891	5273
837.029	5216
837.167	5208
837.305	5212
837.443	5124
837.58	5094
837.718	5250
837.856	5197
837.993	5090
838.131	5250
838.269	5181
838.406	5204
838.544	5136
838.681	5018
838.819	5067
838.956	4900
839.094	4877
839.231	4953
839.369	5083
839.506	5444
839.643	5280
839.781	5083
839.918	5045
840.055	5056
840.193	5079
840.33	5075
840.467	5098
840.604	5220
840.742	5478
840.879	5056
841.016	5075
841.153	5155
841.29	5360
841.427	5330
841.564	5364
841.701	5318
841.838	5288
841.975	5220
842.112	5235
842.249	5178
842.385	5166
842.522	5341
842.659	5132
842.796	5159
842.933	5174
843.069	5128
843.206	5124
843.343	5334
843.479	5193
843.616	5315
843.752	5056
843.889	5010
844.025	5174
844.162	5029
844.298	5166
844.435	5136
844.571	5067
844.708	5220
844.844	5318
844.98	5330
845.117	5315
845.253	5151
845.389	5067
845.525	5140
845.661	5124
845.798	5022
845.934	5159
846.07	5098
846.206	5197
846.342	5265
846.478	5178
846.614	4987
846.75	4946
846.886	4995
847.022	5155
847.158	5041
847.294	5037
847.429	5083
847.565	5048
847.701	5303
847.837	4870
847.972	4782
848.108	4965
848.244	4949
848.379	4797
848.515	4740
848.65	4752
848.786	4782
848.921	4793
849.057	4858
849.192	4915
849.328	4790
849.463	4885
849.598	4824
849.734	4774
849.869	4771
850.004	4653
850.14	4736
850.275	4580
850.41	4489
850.545	4573
850.68	4622
850.815	4622
850.95	4611
851.085	4858
851.22	4816
851.355	4664
851.49	4599
851.625	4630
851.76	4691
851.895	4535
852.03	4546
852.165	4641
852.299	4694
852.434	4759
852.569	4771
852.703	4820
852.838	4866
852.973	4892
853.107	4927
853.242	4752
853.376	4668
853.511	4577
853.645	4637
853.78	4801
853.914	4649
854.048	4660
854.183	4645
854.317	4668
854.451	4797
854.585	4710
854.72	4630
854.854	4763
854.988	4626
855.122	4653
855.256	4497
855.39	4580
855.524	4790
855.658	4755
855.792	4683
855.926	4782
856.06	4778
856.194	4801
856.327	4714
856.461	4618
856.595	4603
856.729	4622
856.862	4755
856.996	4710
857.13	4740
857.263	4759
857.397	4850
857.53	4637
857.664	4733
857.797	4706
857.931	4740
858.064	4660
858.197	4752
858.331	4664
858.464	4641
858.597	4538
858.731	4622
858.864	4634
858.997	4603
859.13	4630
859.263	4710
859.396	4717
859.529	4558
859.662	4527
859.795	4573
859.928	4603
860.061	4740
860.194	4755
860.327	4565
860.46	4523
860.592	4649
860.725	4691
860.858	4744
860.99	4558
861.123	4519
861.256	4542
861.388	4641
861.521	5143
861.653	4462
861.786	4428
861.918	4413
862.05	4538
862.183	4577
862.315	4599
862.447	4668
862.58	4504
862.712	4371
862.844	4371
862.976	4443
863.108	4443
863.24	4759
863.372	4352
863.504	4443
863.636	4443
863.768	4485
863.9	4447
864.032	4379
864.164	4409
864.296	4500
864.428	4538
864.559	4519
864.691	4519
864.823	4527
864.954	4440
865.086	4527
865.217	4489
865.349	4451
865.48	4447
865.612	4519
865.743	4584
865.875	4455
866.006	4443
866.137	4478
866.269	4440
866.4	4436
866.531	4371
866.662	4428
866.793	4398
866.924	4428
867.055	4462
867.186	4443
867.317	4424
867.448	4390
867.579	4371
867.71	4432
867.841	4371
867.972	4474
868.103	4478
868.233	4470
868.364	4459
868.495	4462
868.625	4691
868.756	4729
868.886	4588
869.017	4615
869.147	4782
869.278	4755
869.408	4599
869.539	4649
869.669	4733
869.799	4702
869.929	4767
870.06	4733
870.19	4946
870.32	4908
870.45	4919
870.58	5022
870.71	5098
870.84	5105
870.97	4873
871.1	4919
871.23	5090
871.36	5162
871.489	5029
871.619	5056
871.749	5117
871.879	5094
872.008	5227
872.138	5045
872.267	5018
872.397	4843
872.526	4767
872.656	4725
872.785	4820
872.915	4911
873.044	5006
873.173	4953
873.303	4927
873.432	4961
873.561	4949
873.69	4885
873.819	4820
873.948	4850
874.077	4809
874.206	4748
874.335	4824
874.464	4908
874.593	5079
874.722	4930
874.851	5113
874.979	5067
875.108	5006
875.237	4877
875.365	4911
875.494	4870
875.623	4991
875.751	4809
875.88	4908
876.008	4953
876.136	5094
876.265	5170
876.393	5357
876.521	5299
876.65	5246
876.778	5204
876.906	5102
877.034	4991
877.162	5056
877.29	4961
877.418	5075
877.546	5037
877.674	5079
877.802	5006
877.93	5037
878.058	4892
878.185	4835
878.313	4949
878.441	4934
878.568	4850
878.696	4877
878.824	4968
878.951	4991
879.079	5151
879.206	5311
879.333	5064
879.461	4980
879.588	4987
879.715	5143
879.842	5201
879.97	4987
880.097	4824
880.224	4778
880.351	4843
880.478	4820
880.605	4805
880.732	4790
880.859	5045
880.986	4889
881.112	4908
881.239	4793
881.366	4656
881.493	4573
881.619	4569
881.746	4649
881.872	4626
881.999	4641
882.125	4729
882.252	4790
882.378	4824
882.505	4995
882.631	4782
882.757	4615
882.883	4710
883.01	4702
883.136	4645
883.262	4550
883.388	4618
883.514	4809
883.64	4866
883.766	4801
883.892	4679
884.018	4717
884.143	4889
884.269	5003
884.395	4675
884.52	4622
884.646	4618
884.772	4603
884.897	4546
885.023	4668
885.148	4805
885.274	4877
885.399	4816
885.524	4714
885.65	4683
885.775	4725
885.9	4740
886.025	4839
886.15	4793
886.275	4710
886.4	4645
886.525	4744
886.65	4660
886.775	4672
886.9	4911
887.025	5010
887.149	4850
887.274	4656
887.399	4588
887.523	4622
887.648	4573
887.773	4573
887.897	4744
888.021	4782
888.146	4660
888.27	4801
888.395	4923
888.519	4824
888.643	4839
888.767	4854
888.891	4656
889.015	4592
889.139	4611
889.263	4611
889.387	4733
889.511	4873
889.635	4809
889.759	4626
889.883	4649
890.006	4714
890.13	4809
890.254	4645
890.377	4649
890.501	4508
890.624	4508
890.748	4573
890.871	4455
890.995	4466
891.118	4394
891.241	4523
891.364	4523
891.488	4603
891.611	4516
891.734	4580
891.857	4622
891.98	4519
892.103	4607
892.226	4588
892.349	4554
892.471	4402
892.594	4565
892.717	4630
892.839	4630
892.962	4607
893.085	4672
893.207	4615
893.33	4386
893.452	4504
893.575	4668
893.697	4538
893.819	4824
893.941	4809
894.064	4843
894.186	4580
894.308	4550
894.43	4721
894.552	4771
894.674	4763
894.796	4538
894.918	4615
895.04	4584
895.161	4717
895.283	4645
895.405	4554
895.526	4653
895.648	4641
895.769	4645
895.891	4702
896.012	4736
896.134	4683
896.255	4683
896.376	4618
896.498	4626
896.619	4668
896.74	4622
896.861	4668
896.982	4892
897.103	5033
897.224	4847
897.345	4786
897.466	4622
897.587	4714
897.708	4839
897.828	4767
897.949	4683
898.07	4561
898.19	4675
898.311	4797
898.431	4653
898.552	4740
898.672	4759
898.792	4744
898.913	4679
899.033	4599
899.153	4550
899.273	4428
899.393	4500
899.513	4584
899.633	4478
899.753	4565
899.873	4550
899.993	4584
900.113	4558
900.232	4637
900.352	4561
900.472	4459
900.591	4367
900.711	4489
900.83	4451
900.95	4584
901.069	4664
901.189	4558
901.308	4360
901.427	4306
901.546	4398
901.665	4474
901.784	4508
901.904	4367
902.023	4306
902.141	4158
902.26	4139
902.379	4303
902.498	4246
902.617	4177
902.735	4360
902.854	4352
902.973	4310
903.091	4207
903.21	4207
903.328	4287
903.446	4272
903.565	4215
903.683	4348
903.801	4257
903.919	4409
904.038	4428
904.156	4314
904.274	4379
904.392	4398
904.51	4436
904.627	4478
904.745	4554
904.863	4592
904.981	4398
905.098	4299
905.216	4333
905.334	4428
905.451	4424
905.569	4417
905.686	4519
905.803	4527
905.921	4409
906.038	4535
906.155	4489
906.272	4360
906.389	4474
906.506	4310
906.623	4363
906.74	4417
906.857	4303
906.974	4356
907.091	4580
907.208	4672
907.324	4565
907.441	4508
907.557	4325
907.674	4341
907.79	4291
907.907	4405
908.023	4497
908.139	4504
908.256	4462
908.372	4398
908.488	4466
908.604	4352
908.72	4310
908.836	4341
908.952	4329
909.068	4462
909.184	4561
909.3	4489
909.415	4577
909.531	4531
909.647	4337
909.762	4386
909.878	4287
909.993	4417
910.108	4413
910.224	4436
910.339	4516
910.454	4440
910.57	4356
910.685	4352
910.8	4634
910.915	4577
911.03	4554
911.145	4314
911.259	4337
911.374	4352
911.489	4268
911.604	4272
911.718	4196
911.833	4181
911.947	4082
912.062	4044
912.176	4207
912.291	4246
912.405	4242
912.519	4455
912.633	4512
912.748	4379
912.862	4272
912.976	4223
913.09	4105
913.204	4150
913.318	4265
913.431	4405
913.545	4405
913.659	4447
913.772	4352
913.886	4280
914	4265
914.113	4379
914.226	4421
914.34	4405
914.453	4227
914.566	4451
914.68	4310
914.793	4360
914.906	4173
915.019	4116
915.132	4086
915.245	4173
915.358	4227
915.47	4230
915.583	4272
915.696	4257
915.809	4428
915.921	4367
916.034	4276
916.146	4280
916.259	4272
916.371	4413
916.483	4405
916.595	4314
916.708	4299
916.82	4314
916.932	4325
917.044	4280
917.156	4394
917.268	4265
917.38	4284
917.491	4284
917.603	4318
917.715	4432
917.826	4440
917.938	4314
918.049	4204
918.161	4440
918.272	4531
918.384	4535
918.495	4421
918.606	4291
918.717	4261
918.828	4310
918.939	4386
919.05	4265
919.161	4337
919.272	4120
919.383	4246
919.494	4478
919.604	4630
919.715	4428
919.826	4325
919.936	4424
920.047	4516
920.157	4478
920.267	4714
920.378	4561
920.488	4500
920.598	4714
920.708	4919
920.818	4782
920.928	4744
921.038	4984
921.148	4854
921.258	4630
921.368	4538
921.477	4527
921.587	4470
921.697	4417
921.806	4573
921.916	4447
922.025	4276
922.134	4246
922.244	4230
922.353	4291
922.462	4158
922.571	4150
922.68	4002
922.789	3998
922.898	4055
923.007	4032
923.116	4150
923.224	4067
923.333	4082
923.442	4002
923.55	3968
923.659	4059
923.767	4063
923.876	4025
923.984	4112
924.092	3991
924.201	4109
924.309	4105
924.417	4143
924.525	4063
924.633	4078
924.741	4995
924.849	3937
924.956	4101
925.064	3941
925.172	3892
925.279	3994
925.387	4051
925.494	4067
925.602	4188
925.709	4154
925.816	4029
925.924	4135
926.031	4200
926.138	4128
926.245	4230
926.352	4116
926.459	4223
926.566	4363
926.673	4181
926.779	4017
926.886	4025
926.993	3968
927.099	3994
927.206	3922
927.312	3937
927.419	4074
927.525	4010
927.631	4067
927.737	3930
927.843	3922
927.95	3819
928.056	3934
928.162	3991
928.267	4067
928.373	4599
928.479	4124
928.585	3850
928.69	4032
928.796	4112
928.901	4013
929.007	3827
929.112	4010
929.218	3968
929.323	3934
929.428	3934
929.533	4112
929.638	3937
929.743	3949
929.848	4067
929.953	4013
930.058	3960
930.163	3778
930.267	3850
930.372	3922
930.477	3808
930.581	4105
930.685	3941
930.79	3846
930.894	3861
930.998	3865
931.103	4048
931.207	3743
931.311	3682
931.415	3652
931.519	3511
931.623	3545
