Data from test_V78500241_589.txt Node
Date: Fri Mar 25 16:53:05 CST 2022
User: usil
Spectrometer: V785-0024
Trigger mode: 0
Integration Time (sec): 4.000000E-1
Scans to average: 1
Nonlinearity correction enabled: false
Boxcar width: 0
Storing dark spectrum: false
XAxis mode: Wavelengths
Number of Pixels in Spectrum: 1024
>>>>>Begin Spectral Data<<<<<
801.071	8027
801.214	7997
801.356	7833
801.499	7833
801.641	7833
801.783	7887
801.926	8016
802.068	7978
802.211	7974
802.353	7970
802.496	7955
802.638	7959
802.78	7925
802.923	7887
803.065	7864
803.208	7814
803.35	7921
803.492	8065
803.635	8111
803.777	8012
803.919	8123
804.061	8438
804.204	8123
804.346	8035
804.488	7944
804.63	8058
804.773	8043
804.915	8096
805.057	8294
805.199	8145
805.341	8233
805.483	8275
805.626	8248
805.768	8149
805.91	8229
806.052	8248
806.194	8027
806.336	8256
806.478	8123
806.62	8084
806.762	8183
806.904	8225
807.046	8507
807.188	8362
807.33	8275
807.472	8351
807.614	8168
807.756	8119
807.898	7997
808.04	7932
808.182	7917
808.324	7940
808.465	7875
808.607	8088
808.749	8183
808.891	8214
809.033	8271
809.174	8252
809.316	8050
809.458	8069
809.6	8043
809.741	8043
809.883	8024
810.025	8073
810.166	8088
810.308	8119
810.45	8005
810.591	7898
810.733	7727
810.875	7738
811.016	7605
811.158	7586
811.299	7620
811.441	7803
811.582	7696
811.724	7666
811.865	7616
812.007	7647
812.148	7643
812.29	7670
812.431	7708
812.573	7902
812.714	8031
812.855	8164
812.997	8286
813.138	8431
813.279	8233
813.421	8134
813.562	7978
813.703	7963
813.845	7845
813.986	7552
814.127	7365
814.268	7320
814.41	7255
814.551	7183
814.692	7156
814.833	7091
814.974	7107
815.115	7187
815.256	6970
815.397	6993
815.539	7012
815.68	6833
815.821	6844
815.962	6916
816.103	6867
816.244	6818
816.385	6620
816.526	6616
816.666	6452
816.807	6350
816.948	6479
817.089	6532
817.23	6399
817.371	6399
817.512	6422
817.653	6426
817.793	6380
817.934	6395
818.075	6483
818.216	6452
818.356	6429
818.497	6273
818.638	6148
818.778	6178
818.919	6194
819.06	6171
819.2	6342
819.341	6380
819.481	6391
819.622	6551
819.762	6749
819.903	6681
820.043	6631
820.184	6521
820.324	6612
820.465	6639
820.605	6707
820.746	6574
820.886	6479
821.026	6658
821.167	6684
821.307	6768
821.447	6760
821.588	6707
821.728	6506
821.868	6486
822.008	6365
822.149	6380
822.289	6391
822.429	6163
822.569	6106
822.709	6167
822.849	5920
822.99	5908
823.13	5893
823.27	5889
823.41	5790
823.55	5764
823.69	5786
823.83	5741
823.97	5680
824.11	5577
824.25	5551
824.389	5554
824.529	5634
824.669	5532
824.809	5646
824.949	5722
825.089	5627
825.228	5516
825.368	5459
825.508	5353
825.648	5406
825.787	5425
825.927	5414
826.067	5292
826.206	5345
826.346	5406
826.485	5433
826.625	5429
826.765	5573
826.904	5501
827.044	5231
827.183	5242
827.323	5147
827.462	5261
827.601	5193
827.741	5250
827.88	5246
828.02	5208
828.159	5277
828.298	5292
828.437	5406
828.577	5296
828.716	5535
828.855	5349
828.994	5170
829.134	5159
829.273	5185
829.412	5140
829.551	5140
829.69	5216
829.829	5246
829.968	5402
830.107	5265
830.246	5307
830.385	5181
830.524	5140
830.663	5128
830.802	5029
830.941	4900
831.08	4927
831.219	5006
831.357	4999
831.496	5174
831.635	4965
831.774	4885
831.913	4850
832.051	4748
832.19	4786
832.329	4904
832.467	4698
832.606	4687
832.744	4763
832.883	4694
833.022	4748
833.16	4820
833.299	4831
833.437	4850
833.576	4843
833.714	4866
833.852	4885
833.991	4889
834.129	4930
834.267	4957
834.406	4896
834.544	4987
834.682	4991
834.821	5018
834.959	5212
835.097	4957
835.235	5201
835.373	5090
835.511	5086
835.65	5048
835.788	5033
835.926	4904
836.064	4904
836.202	4987
836.34	5250
836.478	5261
836.615	5189
836.753	5250
836.891	5318
837.029	5242
837.167	5208
837.305	5178
837.443	5147
837.58	5159
837.718	5220
837.856	5185
837.993	5201
838.131	5250
838.269	5216
838.406	5220
838.544	5216
838.681	5025
838.819	5010
838.956	4904
839.094	4870
839.231	4991
839.369	5086
839.506	5478
839.643	5311
839.781	5041
839.918	5029
840.055	5143
840.193	5136
840.33	5143
840.467	5212
840.604	5227
840.742	5486
840.879	5075
841.016	5098
841.153	5113
841.29	5349
841.427	5337
841.564	5337
841.701	5372
841.838	5296
841.975	5277
842.112	5311
842.249	5159
842.385	5086
842.522	5368
842.659	5197
842.796	5166
842.933	5178
843.069	5181
843.206	5170
843.343	5277
843.479	5231
843.616	5311
843.752	5132
843.889	5086
844.025	5242
844.162	5041
844.298	5254
844.435	5140
844.571	5075
844.708	5178
844.844	5299
844.98	5345
845.117	5311
845.253	5185
845.389	5090
845.525	5174
845.661	5185
845.798	5064
845.934	5143
846.07	5067
846.206	5201
846.342	5231
846.478	5155
846.614	5006
846.75	5018
846.886	4965
847.022	5124
847.158	5003
847.294	5079
847.429	5132
847.565	5064
847.701	5349
847.837	4889
847.972	4824
848.108	4938
848.244	4934
848.379	4801
848.515	4729
848.65	4729
848.786	4729
848.921	4797
849.057	4900
849.192	4870
849.328	4805
849.463	4870
849.598	4805
849.734	4736
849.869	4694
850.004	4683
850.14	4694
850.275	4615
850.41	4554
850.545	4588
850.68	4599
850.815	4630
850.95	4622
851.085	4854
851.22	4755
851.355	4710
851.49	4630
851.625	4653
851.76	4634
851.895	4561
852.03	4504
852.165	4607
852.299	4752
852.434	4862
852.569	4752
852.703	4759
852.838	4831
852.973	4946
853.107	4889
853.242	4828
853.376	4660
853.511	4599
853.645	4611
853.78	4835
853.914	4717
854.048	4710
854.183	4599
854.317	4714
854.451	4820
854.585	4702
854.72	4660
854.854	4748
854.988	4645
855.122	4645
855.256	4565
855.39	4603
855.524	4793
855.658	4740
855.792	4683
855.926	4740
856.06	4790
856.194	4793
856.327	4702
856.461	4645
856.595	4660
856.729	4599
856.862	4729
856.996	4694
857.13	4744
857.263	4763
857.397	4839
857.53	4641
857.664	4721
857.797	4771
857.931	4752
858.064	4698
858.197	4755
858.331	4660
858.464	4607
858.597	4558
858.731	4637
858.864	4691
858.997	4596
859.13	4630
859.263	4679
859.396	4691
859.529	4611
859.662	4577
859.795	4607
859.928	4656
860.061	4793
860.194	4850
860.327	4611
860.46	4577
860.592	4763
860.725	4736
860.858	4763
860.99	4611
861.123	4542
861.256	4550
861.388	4615
861.521	5395
861.653	4504
861.786	4478
861.918	4432
862.05	4493
862.183	4561
862.315	4607
862.447	4660
862.58	4592
862.712	4413
862.844	4375
862.976	4516
863.108	4436
863.24	4877
863.372	4367
863.504	4485
863.636	4432
863.768	4523
863.9	4470
864.032	4386
864.164	4405
864.296	4493
864.428	4550
864.559	4508
864.691	4554
864.823	4550
864.954	4523
865.086	4508
865.217	4470
865.349	4443
865.48	4478
865.612	4489
865.743	4668
865.875	4466
866.006	4428
866.137	4489
866.269	4466
866.4	4451
866.531	4428
866.662	4428
866.793	4405
866.924	4443
867.055	4500
867.186	4489
867.317	4386
867.448	4394
867.579	4383
867.71	4394
867.841	4421
867.972	4443
868.103	4504
868.233	4485
868.364	4462
868.495	4523
868.625	4649
868.756	4752
868.886	4599
869.017	4634
869.147	4793
869.278	4782
869.408	4668
869.539	4656
869.669	4710
869.799	4672
869.929	4816
870.06	4771
870.19	4991
870.32	4904
870.45	4904
870.58	5006
870.71	5090
870.84	5128
870.97	4957
871.1	4919
871.23	5128
871.36	5079
871.489	5025
871.619	5079
871.749	5067
871.879	5166
872.008	5151
872.138	5083
872.267	4995
872.397	4923
872.526	4843
872.656	4717
872.785	4816
872.915	4930
873.044	5052
873.173	4923
873.303	4999
873.432	4949
873.561	4987
873.69	4892
873.819	4908
873.948	4961
874.077	4778
874.206	4759
874.335	4831
874.464	4976
874.593	5052
874.722	4980
874.851	5117
874.979	5098
875.108	5048
875.237	4923
875.365	4946
875.494	4870
875.623	5033
875.751	4843
875.88	4889
876.008	5022
876.136	4984
876.265	5124
876.393	5402
876.521	5216
876.65	5227
876.778	5132
876.906	5098
877.034	5052
877.162	5041
877.29	4934
877.418	5037
877.546	5121
877.674	5018
877.802	5018
877.93	5010
878.058	4961
878.185	4889
878.313	4972
878.441	4961
878.568	4797
878.696	4934
878.824	4892
878.951	4961
879.079	5105
879.206	5292
879.333	5113
879.461	4984
879.588	4972
879.715	5105
879.842	5227
879.97	4991
880.097	4740
880.224	4740
880.351	4858
880.478	4854
880.605	4771
880.732	4820
880.859	5105
880.986	4915
881.112	4877
881.239	4797
881.366	4694
881.493	4626
881.619	4599
881.746	4672
881.872	4656
881.999	4637
882.125	4748
882.252	4782
882.378	4835
882.505	4984
882.631	4790
882.757	4645
882.883	4717
883.01	4740
883.136	4675
883.262	4611
883.388	4668
883.514	4854
883.64	4839
883.766	4790
883.892	4683
884.018	4744
884.143	4892
884.269	4980
884.395	4645
884.52	4641
884.646	4641
884.772	4607
884.897	4561
885.023	4649
885.148	4744
885.274	4870
885.399	4771
885.524	4698
885.65	4675
885.775	4721
885.9	4702
886.025	4835
886.15	4805
886.275	4729
886.4	4656
886.525	4714
886.65	4725
886.775	4691
886.9	4904
887.025	4972
887.149	4790
887.274	4607
887.399	4573
887.523	4615
887.648	4618
887.773	4554
887.897	4717
888.021	4763
888.146	4668
888.27	4820
888.395	4915
888.519	4752
888.643	4877
888.767	4877
888.891	4683
889.015	4599
889.139	4622
889.263	4599
889.387	4778
889.511	4866
889.635	4797
889.759	4660
889.883	4698
890.006	4740
890.13	4835
890.254	4641
890.377	4653
890.501	4538
890.624	4497
890.748	4649
890.871	4527
890.995	4470
891.118	4398
891.241	4542
891.364	4531
891.488	4603
891.611	4474
891.734	4592
891.857	4596
891.98	4504
892.103	4679
892.226	4531
892.349	4512
892.471	4440
892.594	4546
892.717	4615
892.839	4588
892.962	4607
893.085	4664
893.207	4569
893.33	4402
893.452	4554
893.575	4637
893.697	4607
893.819	4771
893.941	4816
894.064	4717
894.186	4565
894.308	4550
894.43	4755
894.552	4793
894.674	4721
894.796	4569
894.918	4584
895.04	4561
895.161	4698
895.283	4656
895.405	4558
895.526	4664
895.648	4660
895.769	4706
895.891	4717
896.012	4748
896.134	4759
896.255	4698
896.376	4656
896.498	4679
896.619	4683
896.74	4603
896.861	4691
896.982	4919
897.103	5048
897.224	4835
897.345	4744
897.466	4683
897.587	4733
897.708	4847
897.828	4797
897.949	4668
898.07	4592
898.19	4615
898.311	4809
898.431	4672
898.552	4729
898.672	4812
898.792	4782
898.913	4687
899.033	4634
899.153	4500
899.273	4489
899.393	4523
899.513	4535
899.633	4504
899.753	4569
899.873	4493
899.993	4615
900.113	4580
900.232	4618
900.352	4527
900.472	4485
900.591	4428
900.711	4474
900.83	4459
900.95	4626
901.069	4706
901.189	4573
901.308	4371
901.427	4333
901.546	4421
901.665	4462
901.784	4493
901.904	4402
902.023	4322
902.141	4185
902.26	4185
902.379	4310
902.498	4227
902.617	4249
902.735	4344
902.854	4363
902.973	4356
903.091	4227
903.21	4177
903.328	4303
903.446	4314
903.565	4261
903.683	4337
903.801	4253
903.919	4383
904.038	4466
904.156	4333
904.274	4413
904.392	4443
904.51	4421
904.627	4447
904.745	4554
904.863	4641
904.981	4424
905.098	4329
905.216	4352
905.334	4424
905.451	4375
905.569	4447
905.686	4577
905.803	4580
905.921	4394
906.038	4573
906.155	4474
906.272	4325
906.389	4436
906.506	4360
906.623	4398
906.74	4386
906.857	4337
906.974	4325
907.091	4554
907.208	4634
907.324	4569
907.441	4512
907.557	4379
907.674	4322
907.79	4360
907.907	4371
908.023	4516
908.139	4519
908.256	4459
908.372	4481
908.488	4489
908.604	4363
908.72	4314
908.836	4394
908.952	4386
909.068	4398
909.184	4542
909.3	4508
909.415	4596
909.531	4535
909.647	4333
909.762	4363
909.878	4356
909.993	4428
910.108	4394
910.224	4379
910.339	4481
910.454	4375
910.57	4386
910.685	4310
910.8	4615
910.915	4596
911.03	4455
911.145	4299
911.259	4341
911.374	4371
911.489	4306
911.604	4268
911.718	4131
911.833	4230
911.947	4101
912.062	4048
912.176	4173
912.291	4253
912.405	4261
912.519	4443
912.633	4523
912.748	4333
912.862	4303
912.976	4207
913.09	4120
913.204	4192
913.318	4211
913.431	4371
913.545	4367
913.659	4402
913.772	4329
913.886	4246
914	4238
914.113	4428
914.226	4383
914.34	4367
914.453	4280
914.566	4459
914.68	4303
914.793	4360
914.906	4181
915.019	4116
915.132	4048
915.245	4196
915.358	4200
915.47	4253
915.583	4280
915.696	4318
915.809	4440
915.921	4405
916.034	4223
916.146	4253
916.259	4215
916.371	4398
916.483	4379
916.595	4265
916.708	4310
916.82	4341
916.932	4318
917.044	4306
917.156	4348
917.268	4219
917.38	4291
917.491	4223
917.603	4325
917.715	4436
917.826	4409
917.938	4360
918.049	4265
918.161	4421
918.272	4508
918.384	4527
918.495	4432
918.606	4299
918.717	4249
918.828	4329
918.939	4390
919.05	4238
919.161	4295
919.272	4105
919.383	4227
919.494	4459
919.604	4637
919.715	4451
919.826	4341
919.936	4390
920.047	4478
920.157	4470
920.267	4725
920.378	4531
920.488	4508
920.598	4729
920.708	4858
920.818	4740
920.928	4759
921.038	4953
921.148	4881
921.258	4611
921.368	4561
921.477	4485
921.587	4451
921.697	4360
921.806	4546
921.916	4436
922.025	4223
922.134	4230
922.244	4272
922.353	4352
922.462	4169
922.571	4097
922.68	3972
922.789	3930
922.898	4051
923.007	4029
923.116	4112
923.224	4074
923.333	4086
923.442	3956
923.55	3964
923.659	4059
923.767	4086
923.876	3979
923.984	4173
924.092	3979
924.201	4051
924.309	4131
924.417	4135
924.525	4036
924.633	4109
924.741	5079
924.849	3911
924.956	4139
925.064	3945
925.172	3907
925.279	3937
925.387	4055
925.494	4040
925.602	4246
925.709	4128
925.816	4059
925.924	4128
926.031	4188
926.138	4181
926.245	4219
926.352	4101
926.459	4238
926.566	4341
926.673	4196
926.779	4082
926.886	4078
926.993	3991
927.099	3949
927.206	3964
927.312	3937
927.419	4082
927.525	4017
927.631	4097
927.737	3968
927.843	3983
927.95	3854
928.056	3915
928.162	3983
928.267	4078
928.373	4717
928.479	4116
928.585	3911
928.69	3998
928.796	4067
928.901	3987
929.007	3835
929.112	4044
929.218	3945
929.323	3979
929.428	3953
929.533	4101
929.638	3876
929.743	3983
929.848	4063
929.953	3987
930.058	3949
930.163	3766
930.267	3808
930.372	3964
930.477	3808
930.581	4120
930.685	3937
930.79	3827
930.894	3892
930.998	3846
931.103	4036
931.207	3671
931.311	3690
931.415	3606
931.519	3515
931.623	3614
