Data from test_V78500241_677.txt Node
Date: Fri Mar 25 16:53:42 CST 2022
User: usil
Spectrometer: V785-0024
Trigger mode: 0
Integration Time (sec): 4.000000E-1
Scans to average: 1
Nonlinearity correction enabled: false
Boxcar width: 0
Storing dark spectrum: false
XAxis mode: Wavelengths
Number of Pixels in Spectrum: 1024
>>>>>Begin Spectral Data<<<<<
801.071	7974
801.214	7974
801.356	7894
801.499	7772
801.641	7738
801.783	7852
801.926	7963
802.068	7890
802.211	7940
802.353	7970
802.496	7879
802.638	7947
802.78	7902
802.923	7864
803.065	7784
803.208	7811
803.35	8016
803.492	8126
803.635	8164
803.777	8005
803.919	8062
804.061	8415
804.204	8107
804.346	7963
804.488	7959
804.63	8077
804.773	7955
804.915	8077
805.057	8218
805.199	8100
805.341	8157
805.483	8317
805.626	8240
805.768	8058
805.91	8100
806.052	8134
806.194	8046
806.336	8305
806.478	8024
806.62	8020
806.762	8107
806.904	8199
807.046	8419
807.188	8320
807.33	8290
807.472	8332
807.614	8191
807.756	8119
807.898	7947
808.04	7818
808.182	7868
808.324	7894
808.465	7902
808.607	8092
808.749	8073
808.891	8210
809.033	8267
809.174	8183
809.316	8054
809.458	8050
809.6	7955
809.741	8008
809.883	8039
810.025	8130
810.166	8046
810.308	8054
810.45	8043
810.591	7913
810.733	7757
810.875	7647
811.016	7563
811.158	7544
811.299	7544
811.441	7761
811.582	7685
811.724	7594
811.865	7575
812.007	7563
812.148	7624
812.29	7597
812.431	7696
812.573	7841
812.714	8027
812.855	8115
812.997	8225
813.138	8324
813.279	8229
813.421	8149
813.562	8024
813.703	7928
813.845	7757
813.986	7487
814.127	7293
814.268	7346
814.41	7225
814.551	7137
814.692	7236
814.833	7107
814.974	7126
815.115	7080
815.256	7042
815.397	6939
815.539	7012
815.68	6875
815.821	6867
815.962	6958
816.103	6890
816.244	6719
816.385	6662
816.526	6585
816.666	6551
816.807	6350
816.948	6509
817.089	6517
817.23	6437
817.371	6376
817.512	6407
817.653	6384
817.793	6388
817.934	6437
818.075	6498
818.216	6460
818.356	6429
818.497	6239
818.638	6102
818.778	6182
818.919	6171
819.06	6152
819.2	6300
819.341	6338
819.481	6395
819.622	6517
819.762	6734
819.903	6658
820.043	6593
820.184	6536
820.324	6604
820.465	6715
820.605	6719
820.746	6642
820.886	6490
821.026	6650
821.167	6745
821.307	6825
821.447	6795
821.588	6654
821.728	6521
821.868	6464
822.008	6353
822.149	6369
822.289	6338
822.429	6167
822.569	6045
822.709	6057
822.849	5897
822.99	5923
823.13	5950
823.27	5999
823.41	5897
823.55	5684
823.69	5756
823.83	5771
823.97	5630
824.11	5566
824.25	5497
824.389	5573
824.529	5604
824.669	5554
824.809	5619
824.949	5665
825.089	5695
825.228	5589
825.368	5433
825.508	5322
825.648	5322
825.787	5383
825.927	5406
826.067	5368
826.206	5337
826.346	5349
826.485	5436
826.625	5414
826.765	5623
826.904	5455
827.044	5318
827.183	5181
827.323	5124
827.462	5311
827.601	5170
827.741	5181
827.88	5204
828.02	5140
828.159	5269
828.298	5311
828.437	5368
828.577	5269
828.716	5459
828.855	5376
828.994	5204
829.134	5147
829.273	5204
829.412	5174
829.551	5113
829.69	5143
829.829	5280
829.968	5387
830.107	5307
830.246	5288
830.385	5174
830.524	5143
830.663	5075
830.802	4976
830.941	4923
831.08	4885
831.219	4995
831.357	5003
831.496	5185
831.635	4942
831.774	4835
831.913	4881
832.051	4763
832.19	4755
832.329	4854
832.467	4759
832.606	4672
832.744	4782
832.883	4752
833.022	4786
833.16	4793
833.299	4828
833.437	4831
833.576	4877
833.714	4881
833.852	4889
833.991	4904
834.129	5006
834.267	5014
834.406	4896
834.544	5022
834.682	5018
834.821	5025
834.959	5193
835.097	4984
835.235	5227
835.373	5098
835.511	5102
835.65	5067
835.788	5075
835.926	4854
836.064	4885
836.202	4961
836.34	5212
836.478	5246
836.615	5170
836.753	5261
836.891	5357
837.029	5235
837.167	5258
837.305	5155
837.443	5159
837.58	5147
837.718	5296
837.856	5258
837.993	5132
838.131	5299
838.269	5220
838.406	5216
838.544	5216
838.681	5041
838.819	5037
838.956	4934
839.094	4870
839.231	4999
839.369	5132
839.506	5448
839.643	5273
839.781	5029
839.918	5018
840.055	5067
840.193	5094
840.33	5132
840.467	5193
840.604	5231
840.742	5448
840.879	5090
841.016	5109
841.153	5227
841.29	5376
841.427	5318
841.564	5345
841.701	5402
841.838	5261
841.975	5231
842.112	5235
842.249	5174
842.385	5147
842.522	5330
842.659	5155
842.796	5208
842.933	5250
843.069	5220
843.206	5155
843.343	5315
843.479	5277
843.616	5307
843.752	5022
843.889	5056
844.025	5242
844.162	5045
844.298	5223
844.435	5121
844.571	5102
844.708	5216
844.844	5341
844.98	5364
845.117	5337
845.253	5140
845.389	5117
845.525	5159
845.661	5147
845.798	5060
845.934	5166
846.07	5109
846.206	5223
846.342	5292
846.478	5189
846.614	5041
846.75	4965
846.886	4953
847.022	5143
847.158	5041
847.294	5067
847.429	5128
847.565	5075
847.701	5341
847.837	4839
847.972	4782
848.108	4953
848.244	4923
848.379	4812
848.515	4725
848.65	4733
848.786	4736
848.921	4797
849.057	4870
849.192	4896
849.328	4835
849.463	4801
849.598	4828
849.734	4797
849.869	4694
850.004	4664
850.14	4698
850.275	4584
850.41	4554
850.545	4618
850.68	4611
850.815	4649
850.95	4656
851.085	4828
851.22	4725
851.355	4706
851.49	4565
851.625	4702
851.76	4706
851.895	4577
852.03	4565
852.165	4656
852.299	4752
852.434	4767
852.569	4748
852.703	4778
852.838	4881
852.973	4919
853.107	4980
853.242	4740
853.376	4649
853.511	4588
853.645	4615
853.78	4790
853.914	4721
854.048	4702
854.183	4679
854.317	4748
854.451	4862
854.585	4702
854.72	4641
854.854	4786
854.988	4626
855.122	4668
855.256	4573
855.39	4675
855.524	4831
855.658	4748
855.792	4710
855.926	4778
856.06	4763
856.194	4820
856.327	4672
856.461	4691
856.595	4637
856.729	4664
856.862	4721
856.996	4702
857.13	4767
857.263	4744
857.397	4805
857.53	4634
857.664	4736
857.797	4721
857.931	4786
858.064	4683
858.197	4717
858.331	4679
858.464	4607
858.597	4516
858.731	4637
858.864	4653
858.997	4607
859.13	4714
859.263	4656
859.396	4675
859.529	4592
859.662	4603
859.795	4512
859.928	4656
860.061	4793
860.194	4767
860.327	4622
860.46	4641
860.592	4694
860.725	4706
860.858	4714
860.99	4550
861.123	4516
861.256	4523
861.388	4622
861.521	5239
861.653	4485
861.786	4428
861.918	4470
862.05	4615
862.183	4615
862.315	4664
862.447	4660
862.58	4580
862.712	4424
862.844	4371
862.976	4500
863.108	4474
863.24	4904
863.372	4341
863.504	4402
863.636	4440
863.768	4500
863.9	4481
864.032	4371
864.164	4394
864.296	4462
864.428	4508
864.559	4561
864.691	4546
864.823	4485
864.954	4466
865.086	4516
865.217	4424
865.349	4390
865.48	4462
865.612	4466
865.743	4653
865.875	4497
866.006	4474
866.137	4481
866.269	4432
866.4	4455
866.531	4455
866.662	4413
866.793	4428
866.924	4481
867.055	4508
867.186	4436
867.317	4443
867.448	4409
867.579	4402
867.71	4375
867.841	4363
867.972	4504
868.103	4497
868.233	4466
868.364	4447
868.495	4508
868.625	4653
868.756	4740
868.886	4599
869.017	4649
869.147	4774
869.278	4790
869.408	4660
869.539	4645
869.669	4748
869.799	4656
869.929	4759
870.06	4733
870.19	4961
870.32	4938
870.45	4942
870.58	5025
870.71	5113
870.84	5162
870.97	4953
871.1	4892
871.23	5143
871.36	5147
871.489	5056
871.619	5060
871.749	5094
871.879	5136
872.008	5143
872.138	5064
872.267	5033
872.397	4843
872.526	4805
872.656	4736
872.785	4870
872.915	4991
873.044	5033
873.173	4946
873.303	5033
873.432	4949
873.561	4984
873.69	4877
873.819	4923
873.948	4911
874.077	4858
874.206	4748
874.335	4847
874.464	4927
874.593	5102
874.722	4972
874.851	5109
874.979	5029
875.108	5052
875.237	4968
875.365	4873
875.494	4873
875.623	4999
875.751	4870
875.88	4915
876.008	5006
876.136	5010
876.265	5216
876.393	5353
876.521	5239
876.65	5258
876.778	5151
876.906	5083
877.034	4999
877.162	5029
877.29	5006
877.418	5045
877.546	5022
877.674	5037
877.802	5086
877.93	5045
878.058	4911
878.185	4835
878.313	4957
878.441	4930
878.568	4835
878.696	4900
878.824	5029
878.951	4999
879.079	5124
879.206	5277
879.333	5140
879.461	4976
879.588	5071
879.715	5223
879.842	5303
879.97	5025
880.097	4831
880.224	4767
880.351	4816
880.478	4870
880.605	4805
880.732	4820
880.859	5105
880.986	4927
881.112	4965
881.239	4820
881.366	4710
881.493	4691
881.619	4542
881.746	4637
881.872	4664
881.999	4710
882.125	4736
882.252	4831
882.378	4824
882.505	5025
882.631	4850
882.757	4748
882.883	4771
883.01	4782
883.136	4759
883.262	4641
883.388	4660
883.514	4809
883.64	4877
883.766	4835
883.892	4733
884.018	4733
884.143	4919
884.269	5006
884.395	4748
884.52	4672
884.646	4668
884.772	4656
884.897	4618
885.023	4744
885.148	4816
885.274	4858
885.399	4850
885.524	4774
885.65	4752
885.775	4824
885.9	4774
886.025	4915
886.15	4839
886.275	4755
886.4	4725
886.525	4801
886.65	4698
886.775	4740
886.9	4965
887.025	5098
887.149	4858
887.274	4729
887.399	4656
887.523	4664
887.648	4607
887.773	4599
887.897	4782
888.021	4831
888.146	4782
888.27	4835
888.395	4889
888.519	4816
888.643	4812
888.767	4847
888.891	4710
889.015	4649
889.139	4664
889.263	4649
889.387	4847
889.511	4881
889.635	4801
889.759	4679
889.883	4694
890.006	4778
890.13	4881
890.254	4603
890.377	4752
890.501	4618
890.624	4584
890.748	4664
890.871	4519
890.995	4493
891.118	4379
891.241	4558
891.364	4573
891.488	4645
891.611	4550
891.734	4546
891.857	4634
891.98	4596
892.103	4691
892.226	4645
892.349	4599
892.471	4512
892.594	4603
892.717	4607
892.839	4634
892.962	4626
893.085	4714
893.207	4706
893.33	4489
893.452	4550
893.575	4668
893.697	4611
893.819	4850
893.941	4889
894.064	4839
894.186	4691
894.308	4596
894.43	4774
894.552	4904
894.674	4778
894.796	4573
894.918	4618
895.04	4573
895.161	4729
895.283	4679
895.405	4588
895.526	4675
895.648	4729
895.769	4725
895.891	4710
896.012	4733
896.134	4744
896.255	4771
896.376	4694
896.498	4656
896.619	4649
896.74	4675
896.861	4702
896.982	4976
897.103	5090
897.224	4870
897.345	4782
897.466	4710
897.587	4778
897.708	4881
897.828	4831
897.949	4706
898.07	4592
898.19	4649
898.311	4881
898.431	4733
898.552	4763
898.672	4843
898.792	4858
898.913	4797
899.033	4656
899.153	4500
899.273	4421
899.393	4550
899.513	4531
899.633	4535
899.753	4561
899.873	4565
899.993	4649
900.113	4584
900.232	4603
900.352	4618
900.472	4535
900.591	4428
900.711	4474
900.83	4478
900.95	4599
901.069	4698
901.189	4550
901.308	4432
901.427	4333
901.546	4402
901.665	4535
901.784	4588
901.904	4459
902.023	4344
902.141	4188
902.26	4204
902.379	4333
902.498	4280
902.617	4238
902.735	4375
902.854	4497
902.973	4367
903.091	4196
903.21	4284
903.328	4310
903.446	4287
903.565	4299
903.683	4421
903.801	4314
903.919	4375
904.038	4443
904.156	4363
904.274	4424
904.392	4421
904.51	4462
904.627	4504
904.745	4649
904.863	4691
904.981	4409
905.098	4386
905.216	4371
905.334	4459
905.451	4481
905.569	4497
905.686	4573
905.803	4599
905.921	4443
906.038	4569
906.155	4519
906.272	4436
906.389	4493
906.506	4383
906.623	4363
906.74	4402
906.857	4344
906.974	4390
907.091	4637
907.208	4653
907.324	4660
907.441	4573
907.557	4371
907.674	4356
907.79	4375
907.907	4394
908.023	4546
908.139	4455
908.256	4455
908.372	4550
908.488	4485
908.604	4356
908.72	4348
908.836	4413
908.952	4417
909.068	4474
909.184	4637
909.3	4493
909.415	4637
909.531	4603
909.647	4417
909.762	4417
909.878	4405
909.993	4493
910.108	4466
910.224	4398
910.339	4489
910.454	4394
910.57	4386
910.685	4295
910.8	4694
910.915	4641
911.03	4500
911.145	4352
911.259	4356
911.374	4409
911.489	4291
911.604	4329
911.718	4185
911.833	4261
911.947	4093
912.062	4032
912.176	4162
912.291	4280
912.405	4257
912.519	4489
912.633	4550
912.748	4363
912.862	4363
912.976	4257
913.09	4101
913.204	4196
913.318	4325
913.431	4424
913.545	4417
913.659	4424
913.772	4344
913.886	4268
914	4230
914.113	4421
914.226	4455
914.34	4394
914.453	4257
914.566	4481
914.68	4363
914.793	4348
914.906	4196
915.019	4162
915.132	4120
915.245	4204
915.358	4261
915.47	4234
915.583	4360
915.696	4306
915.809	4402
915.921	4481
916.034	4287
916.146	4306
916.259	4246
916.371	4432
916.483	4367
916.595	4329
916.708	4360
916.82	4379
916.932	4360
917.044	4348
917.156	4367
917.268	4287
917.38	4341
917.491	4318
917.603	4329
917.715	4443
917.826	4462
917.938	4371
918.049	4280
918.161	4394
918.272	4550
918.384	4523
918.495	4485
918.606	4325
918.717	4348
918.828	4352
918.939	4394
919.05	4287
919.161	4333
919.272	4166
919.383	4280
919.494	4478
919.604	4649
919.715	4432
919.826	4356
919.936	4402
920.047	4558
920.157	4527
920.267	4714
920.378	4577
920.488	4542
920.598	4778
920.708	4938
920.818	4824
920.928	4778
921.038	5006
921.148	4923
921.258	4641
921.368	4599
921.477	4561
921.587	4497
921.697	4390
921.806	4607
921.916	4485
922.025	4295
922.134	4314
922.244	4284
922.353	4383
922.462	4173
922.571	4128
922.68	4029
922.789	4025
922.898	4086
923.007	4055
923.116	4150
923.224	4067
923.333	4139
923.442	4063
923.55	3945
923.659	4036
923.767	4147
923.876	4063
923.984	4150
924.092	4036
924.201	4074
924.309	4116
924.417	4166
924.525	4067
924.633	4124
924.741	5006
924.849	3930
924.956	4150
925.064	3960
925.172	3899
925.279	3968
925.387	4090
925.494	4093
925.602	4238
925.709	4223
925.816	4051
925.924	4173
926.031	4192
926.138	4257
926.245	4230
926.352	4135
926.459	4265
926.566	4299
926.673	4166
926.779	4124
926.886	4162
926.993	3983
927.099	3945
927.206	3975
927.312	3987
927.419	4044
927.525	4051
927.631	4120
927.737	3983
927.843	3991
927.95	3857
928.056	3960
928.162	3991
928.267	4067
928.373	4702
928.479	4120
928.585	3903
928.69	4040
928.796	4093
928.901	4010
929.007	3861
929.112	3998
929.218	3983
929.323	3956
929.428	3945
929.533	4131
929.638	3930
929.743	3972
929.848	4051
929.953	4021
930.058	3972
930.163	3797
930.267	3869
930.372	3964
930.477	3797
930.581	4139
930.685	3956
930.79	3865
930.894	3888
930.998	3884
931.103	4074
931.207	3698
931.311	3717
931.415	3705
931.519	3549
931.623	3549
