Data from test_V78500241_2812.txt Node
Date: Fri Mar 25 17:08:33 CST 2022
User: usil
Spectrometer: V785-0024
Trigger mode: 0
Integration Time (sec): 4.000000E-1
Scans to average: 1
Nonlinearity correction enabled: false
Boxcar width: 0
Storing dark spectrum: false
XAxis mode: Wavelengths
Number of Pixels in Spectrum: 1024
>>>>>Begin Spectral Data<<<<<
801.071	8012
801.214	7936
801.356	7871
801.499	7902
801.641	7818
801.783	7852
801.926	7967
802.068	7974
802.211	7928
802.353	7997
802.496	7902
802.638	7849
802.78	7917
802.923	7951
803.065	7852
803.208	7909
803.35	8008
803.492	8077
803.635	8187
803.777	7997
803.919	8183
804.061	8408
804.204	8172
804.346	8043
804.488	7982
804.63	8111
804.773	8043
804.915	8043
805.057	8271
805.199	8107
805.341	8252
805.483	8233
805.626	8161
805.768	8202
805.91	8271
806.052	8229
806.194	8065
806.336	8248
806.478	8016
806.62	8100
806.762	8130
806.904	8153
807.046	8412
807.188	8377
807.33	8301
807.472	8343
807.614	8225
807.756	8180
807.898	8062
808.04	7894
808.182	7894
808.324	7909
808.465	7883
808.607	8092
808.749	8210
808.891	8233
809.033	8271
809.174	8221
809.316	8107
809.458	8073
809.6	8012
809.741	8016
809.883	8088
810.025	8218
810.166	8107
810.308	8035
810.45	7986
810.591	7856
810.733	7772
810.875	7704
811.016	7556
811.158	7434
811.299	7613
811.441	7750
811.582	7708
811.724	7613
811.865	7567
812.007	7639
812.148	7533
812.29	7605
812.431	7731
812.573	7856
812.714	8012
812.855	8123
812.997	8233
813.138	8309
813.279	8130
813.421	8149
813.562	8001
813.703	7913
813.845	7822
813.986	7445
814.127	7308
814.268	7255
814.41	7175
814.551	7152
814.692	7209
814.833	7126
814.974	7110
815.115	7084
815.256	6962
815.397	6901
815.539	7008
815.68	6760
815.821	6795
815.962	6886
816.103	6859
816.244	6745
816.385	6650
816.526	6642
816.666	6513
816.807	6281
816.948	6448
817.089	6479
817.23	6506
817.371	6365
817.512	6369
817.653	6407
817.793	6361
817.934	6441
818.075	6498
818.216	6441
818.356	6403
818.497	6213
818.638	6140
818.778	6182
818.919	6136
819.06	6159
819.2	6334
819.341	6346
819.481	6429
819.622	6479
819.762	6741
819.903	6760
820.043	6620
820.184	6593
820.324	6566
820.465	6700
820.605	6715
820.746	6608
820.886	6448
821.026	6688
821.167	6669
821.307	6802
821.447	6810
821.588	6673
821.728	6570
821.868	6494
822.008	6270
822.149	6334
822.289	6334
822.429	6182
822.569	6106
822.709	6136
822.849	5920
822.99	5931
823.13	5855
823.27	5923
823.41	5813
823.55	5767
823.69	5745
823.83	5809
823.97	5623
824.11	5547
824.25	5539
824.389	5497
824.529	5596
824.669	5543
824.809	5649
824.949	5695
825.089	5638
825.228	5554
825.368	5379
825.508	5391
825.648	5398
825.787	5379
825.927	5360
826.067	5322
826.206	5254
826.346	5337
826.485	5402
826.625	5387
826.765	5528
826.904	5486
827.044	5223
827.183	5231
827.323	5136
827.462	5265
827.601	5155
827.741	5201
827.88	5227
828.02	5140
828.159	5220
828.298	5277
828.437	5398
828.577	5330
828.716	5497
828.855	5307
828.994	5227
829.134	5102
829.273	5235
829.412	5124
829.551	5079
829.69	5140
829.829	5231
829.968	5387
830.107	5280
830.246	5292
830.385	5166
830.524	5086
830.663	5094
830.802	5010
830.941	4858
831.08	4839
831.219	4980
831.357	4968
831.496	5140
831.635	4946
831.774	4847
831.913	4835
832.051	4771
832.19	4672
832.329	4809
832.467	4706
832.606	4618
832.744	4691
832.883	4706
833.022	4717
833.16	4778
833.299	4828
833.437	4839
833.576	4801
833.714	4892
833.852	4873
833.991	4858
834.129	4961
834.267	4942
834.406	4885
834.544	4965
834.682	4976
834.821	4942
834.959	5166
835.097	5010
835.235	5151
835.373	5155
835.511	5071
835.65	4987
835.788	5033
835.926	4835
836.064	4870
836.202	4892
836.34	5185
836.478	5197
836.615	5159
836.753	5208
836.891	5288
837.029	5292
837.167	5220
837.305	5143
837.443	5181
837.58	5090
837.718	5254
837.856	5208
837.993	5117
838.131	5178
838.269	5193
838.406	5204
838.544	5147
838.681	5048
838.819	4999
838.956	4908
839.094	4877
839.231	5025
839.369	5083
839.506	5448
839.643	5246
839.781	5067
839.918	5018
840.055	5098
840.193	5143
840.33	5113
840.467	5136
840.604	5212
840.742	5395
840.879	5105
841.016	5083
841.153	5136
841.29	5334
841.427	5322
841.564	5307
841.701	5353
841.838	5292
841.975	5223
842.112	5265
842.249	5136
842.385	5094
842.522	5337
842.659	5166
842.796	5132
842.933	5155
843.069	5140
843.206	5136
843.343	5292
843.479	5246
843.616	5273
843.752	5079
843.889	5022
844.025	5174
844.162	5033
844.298	5208
844.435	5109
844.571	5033
844.708	5174
844.844	5307
844.98	5273
845.117	5337
845.253	5136
845.389	5067
845.525	5147
845.661	5159
845.798	5083
845.934	5124
846.07	5060
846.206	5216
846.342	5303
846.478	5143
846.614	5052
846.75	4949
846.886	4934
847.022	5178
847.158	4976
847.294	5052
847.429	5098
847.565	5075
847.701	5337
847.837	4850
847.972	4797
848.108	4938
848.244	4927
848.379	4816
848.515	4733
848.65	4714
848.786	4740
848.921	4767
849.057	4881
849.192	4915
849.328	4793
849.463	4782
849.598	4736
849.734	4706
849.869	4679
850.004	4641
850.14	4660
850.275	4573
850.41	4504
850.545	4542
850.68	4611
850.815	4630
850.95	4599
851.085	4843
851.22	4740
851.355	4702
851.49	4599
851.625	4634
851.76	4588
851.895	4512
852.03	4550
852.165	4683
852.299	4714
852.434	4828
852.569	4793
852.703	4782
852.838	4809
852.973	4915
853.107	4908
853.242	4744
853.376	4675
853.511	4599
853.645	4656
853.78	4847
853.914	4714
854.048	4687
854.183	4645
854.317	4736
854.451	4828
854.585	4694
854.72	4649
854.854	4744
854.988	4641
855.122	4637
855.256	4554
855.39	4641
855.524	4786
855.658	4721
855.792	4710
855.926	4698
856.06	4771
856.194	4824
856.327	4675
856.461	4580
856.595	4573
856.729	4634
856.862	4774
856.996	4679
857.13	4763
857.263	4744
857.397	4778
857.53	4675
857.664	4717
857.797	4786
857.931	4752
858.064	4710
858.197	4736
858.331	4622
858.464	4588
858.597	4523
858.731	4592
858.864	4679
858.997	4584
859.13	4675
859.263	4664
859.396	4672
859.529	4584
859.662	4550
859.795	4512
859.928	4637
860.061	4755
860.194	4763
860.327	4622
860.46	4542
860.592	4721
860.725	4710
860.858	4702
860.99	4618
861.123	4470
861.256	4538
861.388	4584
861.521	5353
861.653	4523
861.786	4424
861.918	4519
862.05	4527
862.183	4535
862.315	4588
862.447	4653
862.58	4512
862.712	4402
862.844	4310
862.976	4474
863.108	4421
863.24	4774
863.372	4379
863.504	4413
863.636	4455
863.768	4424
863.9	4493
864.032	4363
864.164	4383
864.296	4474
864.428	4527
864.559	4580
864.691	4588
864.823	4527
864.954	4485
865.086	4519
865.217	4440
865.349	4428
865.48	4455
865.612	4474
865.743	4664
865.875	4474
866.006	4413
866.137	4485
866.269	4478
866.4	4436
866.531	4402
866.662	4409
866.793	4402
866.924	4417
867.055	4512
867.186	4455
867.317	4478
867.448	4367
867.579	4390
867.71	4413
867.841	4299
867.972	4455
868.103	4523
868.233	4459
868.364	4481
868.495	4432
868.625	4668
868.756	4774
868.886	4558
869.017	4611
869.147	4752
869.278	4793
869.408	4683
869.539	4630
869.669	4725
869.799	4687
869.929	4805
870.06	4687
870.19	4938
870.32	4904
870.45	4946
870.58	5006
870.71	5109
870.84	5147
870.97	4961
871.1	4965
871.23	5189
871.36	5079
871.489	5029
871.619	5018
871.749	5064
871.879	5056
872.008	5124
872.138	5045
872.267	4999
872.397	4816
872.526	4809
872.656	4698
872.785	4744
872.915	4927
873.044	5029
873.173	4942
873.303	4972
873.432	5003
873.561	4965
873.69	4889
873.819	4930
873.948	4919
874.077	4843
874.206	4786
874.335	4740
874.464	4965
874.593	5067
874.722	4946
874.851	5056
874.979	5045
875.108	5052
875.237	4896
875.365	4919
875.494	4900
875.623	4984
875.751	4824
875.88	4900
876.008	4999
876.136	5037
876.265	5143
876.393	5292
876.521	5193
876.65	5204
876.778	5128
876.906	5075
877.034	5022
877.162	5003
877.29	4987
877.418	5075
877.546	5025
877.674	5060
877.802	5056
877.93	5018
878.058	4881
878.185	4873
878.313	4980
878.441	4938
878.568	4835
878.696	4919
878.824	4934
878.951	5018
879.079	5174
879.206	5326
879.333	5113
879.461	4934
879.588	5041
879.715	5086
879.842	5246
879.97	5052
880.097	4786
880.224	4752
880.351	4831
880.478	4839
880.605	4847
880.732	4790
880.859	5105
880.986	4862
881.112	4896
881.239	4850
881.366	4660
881.493	4580
881.619	4554
881.746	4660
881.872	4691
881.999	4641
882.125	4679
882.252	4816
882.378	4809
882.505	4968
882.631	4828
882.757	4615
882.883	4733
883.01	4710
883.136	4710
883.262	4580
883.388	4622
883.514	4805
883.64	4850
883.766	4797
883.892	4664
884.018	4733
884.143	4877
884.269	5056
884.395	4668
884.52	4607
884.646	4649
884.772	4618
884.897	4565
885.023	4637
885.148	4759
885.274	4881
885.399	4835
885.524	4717
885.65	4698
885.775	4748
885.9	4691
886.025	4862
886.15	4831
886.275	4721
886.4	4649
886.525	4710
886.65	4683
886.775	4683
886.9	4923
887.025	5006
887.149	4771
887.274	4691
887.399	4626
887.523	4634
887.648	4603
887.773	4565
887.897	4717
888.021	4809
888.146	4717
888.27	4847
888.395	4923
888.519	4763
888.643	4824
888.767	4828
888.891	4683
889.015	4618
889.139	4615
889.263	4603
889.387	4801
889.511	4904
889.635	4843
889.759	4653
889.883	4672
890.006	4790
890.13	4839
890.254	4683
890.377	4656
890.501	4485
890.624	4561
890.748	4615
890.871	4527
890.995	4421
891.118	4394
891.241	4474
891.364	4531
891.488	4672
891.611	4485
891.734	4542
891.857	4554
891.98	4558
892.103	4637
892.226	4588
892.349	4546
892.471	4436
892.594	4546
892.717	4588
892.839	4527
892.962	4607
893.085	4641
893.207	4622
893.33	4474
893.452	4478
893.575	4691
893.697	4599
893.819	4790
893.941	4809
894.064	4744
894.186	4580
894.308	4573
894.43	4721
894.552	4805
894.674	4759
894.796	4550
894.918	4637
895.04	4573
895.161	4691
895.283	4672
895.405	4550
895.526	4622
895.648	4675
895.769	4653
895.891	4714
896.012	4748
896.134	4752
896.255	4618
896.376	4599
896.498	4630
896.619	4634
896.74	4573
896.861	4630
896.982	4885
897.103	5067
897.224	4812
897.345	4729
897.466	4656
897.587	4706
897.708	4862
897.828	4793
897.949	4672
898.07	4565
898.19	4634
898.311	4835
898.431	4672
898.552	4744
898.672	4782
898.792	4793
898.913	4759
899.033	4626
899.153	4500
899.273	4424
899.393	4546
899.513	4531
899.633	4516
899.753	4584
899.873	4489
899.993	4558
900.113	4527
900.232	4618
900.352	4489
900.472	4459
900.591	4386
900.711	4470
900.83	4462
900.95	4618
901.069	4679
901.189	4531
901.308	4337
901.427	4348
901.546	4363
901.665	4432
901.784	4512
901.904	4386
902.023	4318
902.141	4204
902.26	4211
902.379	4303
902.498	4299
902.617	4204
902.735	4344
902.854	4405
902.973	4322
903.091	4196
903.21	4246
903.328	4253
903.446	4261
903.565	4242
903.683	4322
903.801	4272
903.919	4405
904.038	4459
904.156	4310
904.274	4447
904.392	4371
904.51	4409
904.627	4527
904.745	4577
904.863	4679
904.981	4409
905.098	4314
905.216	4371
905.334	4451
905.451	4371
905.569	4459
905.686	4554
905.803	4577
905.921	4451
906.038	4516
906.155	4440
906.272	4375
906.389	4466
906.506	4371
906.623	4329
906.74	4436
906.857	4299
906.974	4318
907.091	4561
907.208	4721
907.324	4569
907.441	4470
907.557	4344
907.674	4329
907.79	4333
907.907	4379
908.023	4470
908.139	4497
908.256	4428
908.372	4489
908.488	4485
908.604	4310
908.72	4352
908.836	4348
908.952	4394
909.068	4440
909.184	4550
909.3	4478
909.415	4573
909.531	4592
909.647	4367
909.762	4390
909.878	4341
909.993	4413
910.108	4402
910.224	4424
910.339	4497
910.454	4379
910.57	4390
910.685	4360
910.8	4660
910.915	4531
911.03	4504
911.145	4352
911.259	4314
911.374	4356
911.489	4310
911.604	4299
911.718	4177
911.833	4200
911.947	4093
912.062	4013
912.176	4207
912.291	4246
912.405	4265
912.519	4470
912.633	4481
912.748	4371
912.862	4295
912.976	4230
913.09	4101
913.204	4173
913.318	4200
913.431	4409
913.545	4367
913.659	4440
913.772	4329
913.886	4249
914	4223
914.113	4371
914.226	4440
914.34	4417
914.453	4261
914.566	4421
914.68	4295
914.793	4333
914.906	4150
915.019	4093
915.132	4093
915.245	4215
915.358	4234
915.47	4257
915.583	4276
915.696	4306
915.809	4405
915.921	4402
916.034	4280
916.146	4257
916.259	4215
916.371	4413
916.483	4325
916.595	4287
916.708	4341
916.82	4306
916.932	4306
917.044	4344
917.156	4265
917.268	4253
917.38	4318
917.491	4253
917.603	4329
917.715	4440
917.826	4375
917.938	4333
918.049	4204
918.161	4424
918.272	4535
918.384	4512
918.495	4455
918.606	4253
918.717	4280
918.828	4360
918.939	4363
919.05	4253
919.161	4322
919.272	4131
919.383	4238
919.494	4451
919.604	4622
919.715	4478
919.826	4318
919.936	4386
920.047	4535
920.157	4485
920.267	4675
920.378	4580
920.488	4493
920.598	4752
920.708	4889
920.818	4736
920.928	4778
921.038	4930
921.148	4934
921.258	4618
921.368	4550
921.477	4481
921.587	4432
921.697	4405
921.806	4516
921.916	4459
922.025	4261
922.134	4261
922.244	4261
922.353	4310
922.462	4143
922.571	4124
922.68	4048
922.789	3953
922.898	4029
923.007	3937
923.116	4071
923.224	4048
923.333	4105
923.442	4029
923.55	3987
923.659	4017
923.767	4116
923.876	4021
923.984	4067
924.092	3983
924.201	4063
924.309	4097
924.417	4105
924.525	4055
924.633	4105
924.741	4942
924.849	3934
924.956	4150
925.064	3945
925.172	3861
925.279	3972
925.387	4029
925.494	4029
925.602	4215
925.709	4192
925.816	4074
925.924	4158
926.031	4200
926.138	4173
926.245	4185
926.352	4109
926.459	4234
926.566	4276
926.673	4192
926.779	4044
926.886	4120
926.993	3991
927.099	3983
927.206	3968
927.312	3968
927.419	4067
927.525	4021
927.631	4097
927.737	3964
927.843	3979
927.95	3854
928.056	3956
928.162	4002
928.267	4032
928.373	4710
928.479	4124
928.585	3888
928.69	4032
928.796	4112
928.901	3960
929.007	3831
929.112	3972
929.218	3953
929.323	3956
929.428	3964
929.533	4105
929.638	3911
929.743	3994
929.848	4048
929.953	4017
930.058	3960
930.163	3778
930.267	3823
930.372	3964
930.477	3857
930.581	4093
930.685	3911
930.79	3812
930.894	3899
930.998	3876
931.103	4074
931.207	3698
931.311	3740
931.415	3671
931.519	3507
931.623	3538
