Data from test_V78500241_201.txt Node
Date: Fri Mar 25 16:50:24 CST 2022
User: usil
Spectrometer: V785-0024
Trigger mode: 0
Integration Time (sec): 4.000000E-1
Scans to average: 1
Nonlinearity correction enabled: false
Boxcar width: 0
Storing dark spectrum: false
XAxis mode: Wavelengths
Number of Pixels in Spectrum: 1024
>>>>>Begin Spectral Data<<<<<
801.071	8031
801.214	7978
801.356	7856
801.499	7833
801.641	7849
801.783	7837
801.926	8012
802.068	7940
802.211	8043
802.353	8020
802.496	7837
802.638	7898
802.78	7963
802.923	7951
803.065	7860
803.208	7841
803.35	7959
803.492	8100
803.635	8244
803.777	8103
803.919	8130
804.061	8362
804.204	8164
804.346	8035
804.488	7970
804.63	8119
804.773	7959
804.915	8092
805.057	8286
805.199	8199
805.341	8210
805.483	8298
805.626	8145
805.768	8077
805.91	8157
806.052	8168
806.194	8107
806.336	8339
806.478	8088
806.62	8103
806.762	8103
806.904	8240
807.046	8412
807.188	8370
807.33	8267
807.472	8275
807.614	8168
807.756	8157
807.898	7997
808.04	7936
808.182	7932
808.324	7947
808.465	7936
808.607	8043
808.749	8111
808.891	8252
809.033	8290
809.174	8206
809.316	8123
809.458	8065
809.6	8005
809.741	8020
809.883	8008
810.025	8130
810.166	8054
810.308	7959
810.45	8001
810.591	7849
810.733	7746
810.875	7712
811.016	7559
811.158	7449
811.299	7628
811.441	7761
811.582	7666
811.724	7556
811.865	7586
812.007	7616
812.148	7571
812.29	7685
812.431	7818
812.573	7841
812.714	8031
812.855	8176
812.997	8252
813.138	8290
813.279	8248
813.421	8062
813.562	8077
813.703	7849
813.845	7784
813.986	7521
814.127	7285
814.268	7240
814.41	7266
814.551	7141
814.692	7198
814.833	7099
814.974	7122
815.115	7118
815.256	6943
815.397	6897
815.539	6996
815.68	6852
815.821	6818
815.962	6833
816.103	6829
816.244	6734
816.385	6642
816.526	6654
816.666	6536
816.807	6315
816.948	6418
817.089	6525
817.23	6456
817.371	6384
817.512	6342
817.653	6437
817.793	6311
817.934	6388
818.075	6460
818.216	6471
818.356	6429
818.497	6171
818.638	6167
818.778	6197
818.919	6102
819.06	6159
819.2	6258
819.341	6319
819.481	6273
819.622	6483
819.762	6753
819.903	6700
820.043	6601
820.184	6642
820.324	6563
820.465	6730
820.605	6673
820.746	6612
820.886	6528
821.026	6642
821.167	6757
821.307	6806
821.447	6768
821.588	6681
821.728	6566
821.868	6521
822.008	6254
822.149	6353
822.289	6422
822.429	6182
822.569	6133
822.709	6114
822.849	5954
822.99	5889
823.13	5908
823.27	5954
823.41	5836
823.55	5794
823.69	5798
823.83	5859
823.97	5691
824.11	5566
824.25	5551
824.389	5596
824.529	5585
824.669	5554
824.809	5634
824.949	5668
825.089	5619
825.228	5589
825.368	5410
825.508	5360
825.648	5353
825.787	5387
825.927	5353
826.067	5318
826.206	5288
826.346	5341
826.485	5425
826.625	5436
826.765	5459
826.904	5535
827.044	5341
827.183	5212
827.323	5147
827.462	5250
827.601	5185
827.741	5193
827.88	5181
828.02	5121
828.159	5239
828.298	5330
828.437	5406
828.577	5280
828.716	5421
828.855	5357
828.994	5162
829.134	5223
829.273	5220
829.412	5208
829.551	5155
829.69	5178
829.829	5284
829.968	5383
830.107	5280
830.246	5337
830.385	5185
830.524	5185
830.663	5079
830.802	5025
830.941	4908
831.08	4896
831.219	4976
831.357	4953
831.496	5185
831.635	4965
831.774	4900
831.913	4866
832.051	4694
832.19	4782
832.329	4847
832.467	4683
832.606	4660
832.744	4736
832.883	4744
833.022	4691
833.16	4805
833.299	4790
833.437	4904
833.576	4866
833.714	4866
833.852	4892
833.991	4866
834.129	4980
834.267	4953
834.406	4904
834.544	4980
834.682	4980
834.821	4957
834.959	5193
835.097	5041
835.235	5159
835.373	5075
835.511	5128
835.65	5033
835.788	5048
835.926	4930
836.064	4896
836.202	4957
836.34	5174
836.478	5273
836.615	5117
836.753	5201
836.891	5376
837.029	5292
837.167	5204
837.305	5143
837.443	5151
837.58	5102
837.718	5235
837.856	5201
837.993	5162
838.131	5231
838.269	5235
838.406	5288
838.544	5201
838.681	5048
838.819	5006
838.956	4881
839.094	4881
839.231	4991
839.369	5162
839.506	5433
839.643	5250
839.781	5067
839.918	5003
840.055	5048
840.193	5083
840.33	5094
840.467	5170
840.604	5159
840.742	5459
840.879	5094
841.016	5064
841.153	5201
841.29	5387
841.427	5296
841.564	5296
841.701	5395
841.838	5254
841.975	5235
842.112	5311
842.249	5105
842.385	5109
842.522	5345
842.659	5223
842.796	5174
842.933	5181
843.069	5128
843.206	5159
843.343	5288
843.479	5242
843.616	5292
843.752	5033
843.889	5025
844.025	5220
844.162	4987
844.298	5193
844.435	5113
844.571	5079
844.708	5208
844.844	5311
844.98	5322
845.117	5258
845.253	5197
845.389	5094
845.525	5143
845.661	5162
845.798	5075
845.934	5140
846.07	5071
846.206	5162
846.342	5307
846.478	5261
846.614	5048
846.75	4984
846.886	4957
847.022	5166
847.158	5086
847.294	5075
847.429	5140
847.565	5041
847.701	5330
847.837	4858
847.972	4858
848.108	4923
848.244	4949
848.379	4752
848.515	4752
848.65	4698
848.786	4786
848.921	4786
849.057	4923
849.192	4930
849.328	4828
849.463	4805
849.598	4771
849.734	4767
849.869	4710
850.004	4615
850.14	4687
850.275	4611
850.41	4531
850.545	4538
850.68	4656
850.815	4687
850.95	4611
851.085	4881
851.22	4786
851.355	4603
851.49	4660
851.625	4645
851.76	4687
851.895	4596
852.03	4538
852.165	4630
852.299	4763
852.434	4793
852.569	4733
852.703	4767
852.838	4828
852.973	4904
853.107	4972
853.242	4771
853.376	4675
853.511	4588
853.645	4577
853.78	4831
853.914	4698
854.048	4687
854.183	4691
854.317	4736
854.451	4847
854.585	4687
854.72	4596
854.854	4774
854.988	4596
855.122	4634
855.256	4561
855.39	4687
855.524	4763
855.658	4687
855.792	4702
855.926	4759
856.06	4714
856.194	4782
856.327	4702
856.461	4607
856.595	4641
856.729	4656
856.862	4790
856.996	4706
857.13	4755
857.263	4763
857.397	4801
857.53	4641
857.664	4729
857.797	4752
857.931	4694
858.064	4683
858.197	4740
858.331	4660
858.464	4637
858.597	4542
858.731	4641
858.864	4668
858.997	4615
859.13	4637
859.263	4664
859.396	4717
859.529	4558
859.662	4569
859.795	4542
859.928	4615
860.061	4759
860.194	4771
860.327	4626
860.46	4573
860.592	4752
860.725	4733
860.858	4733
860.99	4611
861.123	4523
861.256	4504
861.388	4675
861.521	5235
861.653	4516
861.786	4447
861.918	4462
862.05	4512
862.183	4558
862.315	4573
862.447	4649
862.58	4580
862.712	4390
862.844	4325
862.976	4504
863.108	4405
863.24	4866
863.372	4363
863.504	4462
863.636	4424
863.768	4504
863.9	4432
864.032	4379
864.164	4386
864.296	4481
864.428	4573
864.559	4565
864.691	4504
864.823	4542
864.954	4497
865.086	4523
865.217	4474
865.349	4421
865.48	4466
865.612	4523
865.743	4641
865.875	4516
866.006	4466
866.137	4474
866.269	4447
866.4	4436
866.531	4470
866.662	4383
866.793	4424
866.924	4409
867.055	4546
867.186	4478
867.317	4413
867.448	4367
867.579	4432
867.71	4356
867.841	4390
867.972	4478
868.103	4516
868.233	4470
868.364	4500
868.495	4474
868.625	4660
868.756	4767
868.886	4584
869.017	4641
869.147	4809
869.278	4812
869.408	4668
869.539	4615
869.669	4736
869.799	4679
869.929	4797
870.06	4778
870.19	4995
870.32	4930
870.45	4976
870.58	5037
870.71	5079
870.84	5060
870.97	4984
871.1	4911
871.23	5147
871.36	5166
871.489	5010
871.619	5060
871.749	5117
871.879	5064
872.008	5159
872.138	5083
872.267	5010
872.397	4892
872.526	4820
872.656	4763
872.785	4790
872.915	4972
873.044	5006
873.173	4930
873.303	4987
873.432	4938
873.561	5022
873.69	4870
873.819	4850
873.948	4900
874.077	4824
874.206	4763
874.335	4809
874.464	4896
874.593	5079
874.722	5003
874.851	5105
874.979	5102
875.108	5071
875.237	4915
875.365	4881
875.494	4873
875.623	5029
875.751	4850
875.88	4862
876.008	4976
876.136	5083
876.265	5227
876.393	5311
876.521	5280
876.65	5166
876.778	5121
876.906	5098
877.034	4995
877.162	5029
877.29	4984
877.418	5056
877.546	5006
877.674	5052
877.802	5048
877.93	4991
878.058	4984
878.185	4866
878.313	4957
878.441	4938
878.568	4793
878.696	4919
878.824	4953
878.951	5018
879.079	5155
879.206	5307
879.333	5109
879.461	4984
879.588	5022
879.715	5121
879.842	5212
879.97	5018
880.097	4782
880.224	4752
880.351	4801
880.478	4812
880.605	4843
880.732	4850
880.859	5102
880.986	4915
881.112	4957
881.239	4805
881.366	4630
881.493	4550
881.619	4630
881.746	4649
881.872	4660
881.999	4694
882.125	4694
882.252	4774
882.378	4824
882.505	4980
882.631	4809
882.757	4698
882.883	4714
883.01	4763
883.136	4694
883.262	4615
883.388	4596
883.514	4831
883.64	4862
883.766	4854
883.892	4634
884.018	4767
884.143	4953
884.269	5045
884.395	4687
884.52	4615
884.646	4679
884.772	4542
884.897	4588
885.023	4698
885.148	4828
885.274	4900
885.399	4771
885.524	4733
885.65	4710
885.775	4763
885.9	4679
886.025	4870
886.15	4820
886.275	4744
886.4	4637
886.525	4729
886.65	4729
886.775	4714
886.9	4892
887.025	4987
887.149	4835
887.274	4679
887.399	4603
887.523	4599
887.648	4573
887.773	4630
887.897	4733
888.021	4793
888.146	4714
888.27	4793
888.395	4885
888.519	4820
888.643	4809
888.767	4843
888.891	4733
889.015	4573
889.139	4672
889.263	4596
889.387	4759
889.511	4908
889.635	4805
889.759	4645
889.883	4641
890.006	4725
890.13	4828
890.254	4630
890.377	4649
890.501	4546
890.624	4485
890.748	4641
890.871	4508
890.995	4459
891.118	4402
891.241	4478
891.364	4519
891.488	4622
891.611	4485
891.734	4577
891.857	4615
891.98	4588
892.103	4626
892.226	4603
892.349	4481
892.471	4371
892.594	4519
892.717	4607
892.839	4577
892.962	4580
893.085	4641
893.207	4584
893.33	4485
893.452	4500
893.575	4691
893.697	4573
893.819	4793
893.941	4831
894.064	4759
894.186	4588
894.308	4573
894.43	4691
894.552	4839
894.674	4744
894.796	4497
894.918	4603
895.04	4580
895.161	4782
895.283	4626
895.405	4573
895.526	4611
895.648	4694
895.769	4687
895.891	4687
896.012	4755
896.134	4717
896.255	4668
896.376	4645
896.498	4683
896.619	4675
896.74	4603
896.861	4641
896.982	4877
897.103	5094
897.224	4835
897.345	4748
897.466	4691
897.587	4752
897.708	4850
897.828	4771
897.949	4630
898.07	4561
898.19	4683
898.311	4805
898.431	4714
898.552	4793
898.672	4847
898.792	4778
898.913	4744
899.033	4653
899.153	4535
899.273	4478
899.393	4577
899.513	4569
899.633	4542
899.753	4558
899.873	4523
899.993	4622
900.113	4550
900.232	4622
900.352	4577
900.472	4508
900.591	4466
900.711	4497
900.83	4451
900.95	4615
901.069	4668
901.189	4569
901.308	4375
901.427	4284
901.546	4344
901.665	4485
901.784	4527
901.904	4383
902.023	4295
902.141	4177
902.26	4192
902.379	4356
902.498	4299
902.617	4242
902.735	4413
902.854	4417
902.973	4337
903.091	4238
903.21	4303
903.328	4276
903.446	4272
903.565	4219
903.683	4310
903.801	4322
903.919	4436
904.038	4470
904.156	4341
904.274	4428
904.392	4451
904.51	4443
904.627	4470
904.745	4588
904.863	4664
904.981	4371
905.098	4280
905.216	4367
905.334	4440
905.451	4432
905.569	4478
905.686	4596
905.803	4584
905.921	4428
906.038	4554
906.155	4459
906.272	4405
906.389	4481
906.506	4348
906.623	4405
906.74	4383
906.857	4314
906.974	4383
907.091	4626
907.208	4683
907.324	4626
907.441	4519
907.557	4383
907.674	4333
907.79	4337
907.907	4348
908.023	4538
908.139	4531
908.256	4447
908.372	4489
908.488	4489
908.604	4360
908.72	4379
908.836	4402
908.952	4375
909.068	4451
909.184	4592
909.3	4432
909.415	4615
909.531	4538
909.647	4352
909.762	4344
909.878	4367
909.993	4470
910.108	4459
910.224	4474
910.339	4489
910.454	4413
910.57	4379
910.685	4325
910.8	4702
910.915	4672
911.03	4508
911.145	4386
911.259	4356
911.374	4363
911.489	4310
911.604	4284
911.718	4158
911.833	4238
911.947	4044
912.062	4082
912.176	4211
912.291	4253
912.405	4272
912.519	4462
912.633	4527
912.748	4413
912.862	4333
912.976	4234
913.09	4150
913.204	4177
913.318	4230
913.431	4383
913.545	4421
913.659	4417
913.772	4356
913.886	4227
914	4257
914.113	4379
914.226	4478
914.34	4390
914.453	4265
914.566	4436
914.68	4287
914.793	4337
914.906	4162
915.019	4128
915.132	4067
915.245	4169
915.358	4207
915.47	4276
915.583	4287
915.696	4295
915.809	4409
915.921	4470
916.034	4230
916.146	4280
916.259	4223
916.371	4421
916.483	4356
916.595	4200
916.708	4379
916.82	4344
916.932	4341
917.044	4322
917.156	4375
917.268	4227
917.38	4299
917.491	4272
917.603	4344
917.715	4436
917.826	4474
917.938	4310
918.049	4234
918.161	4417
918.272	4478
918.384	4512
918.495	4497
918.606	4325
918.717	4249
918.828	4341
918.939	4379
919.05	4253
919.161	4341
919.272	4204
919.383	4287
919.494	4436
919.604	4694
919.715	4455
919.826	4360
919.936	4405
920.047	4588
920.157	4485
920.267	4710
920.378	4535
920.488	4569
920.598	4702
920.708	4889
920.818	4790
920.928	4774
921.038	4942
921.148	4930
921.258	4679
921.368	4580
921.477	4481
921.587	4440
921.697	4383
921.806	4535
921.916	4440
922.025	4303
922.134	4272
922.244	4246
922.353	4306
922.462	4169
922.571	4181
922.68	4032
922.789	3953
922.898	4044
923.007	4006
923.116	4147
923.224	4082
923.333	4074
923.442	3941
923.55	3994
923.659	3975
923.767	4109
923.876	4032
923.984	4139
924.092	4025
924.201	4055
924.309	4120
924.417	4124
924.525	4143
924.633	4135
924.741	5048
924.849	3896
924.956	4116
925.064	3987
925.172	3949
925.279	3960
925.387	4063
925.494	4051
925.602	4242
925.709	4181
925.816	4059
925.924	4158
926.031	4219
926.138	4204
926.245	4207
926.352	4048
926.459	4265
926.566	4314
926.673	4162
926.779	4124
926.886	4074
926.993	3979
927.099	4006
927.206	3941
927.312	3979
927.419	4074
927.525	4040
927.631	4131
927.737	4010
927.843	3930
927.95	3903
928.056	4010
928.162	3998
928.267	4071
928.373	4694
928.479	4131
928.585	3857
928.69	4032
928.796	4055
928.901	3998
929.007	3854
929.112	3968
929.218	4002
929.323	3926
929.428	3960
929.533	4101
929.638	3934
929.743	3983
929.848	4048
929.953	3994
930.058	3983
930.163	3781
930.267	3793
930.372	3979
930.477	3846
930.581	4063
930.685	3972
930.79	3827
930.894	3903
930.998	3819
931.103	4036
931.207	3724
931.311	3736
931.415	3686
931.519	3523
931.623	3557
