Data from test_V78500241_2569.txt Node
Date: Fri Mar 25 17:06:51 CST 2022
User: usil
Spectrometer: V785-0024
Trigger mode: 0
Integration Time (sec): 4.000000E-1
Scans to average: 1
Nonlinearity correction enabled: false
Boxcar width: 0
Storing dark spectrum: false
XAxis mode: Wavelengths
Number of Pixels in Spectrum: 1024
>>>>>Begin Spectral Data<<<<<
801.071	7982
801.214	8008
801.356	7845
801.499	7833
801.641	7769
801.783	7811
801.926	7986
802.068	7898
802.211	8077
802.353	7989
802.496	7822
802.638	7932
802.78	7860
802.923	7928
803.065	7894
803.208	7970
803.35	7993
803.492	8134
803.635	8183
803.777	8046
803.919	8149
804.061	8480
804.204	8111
804.346	8039
804.488	7997
804.63	8164
804.773	8031
804.915	8130
805.057	8237
805.199	8153
805.341	8248
805.483	8294
805.626	8271
805.768	8138
805.91	8225
806.052	8279
806.194	8123
806.336	8294
806.478	8126
806.62	8024
806.762	8145
806.904	8218
807.046	8450
807.188	8358
807.33	8301
807.472	8370
807.614	8157
807.756	8103
807.898	8001
808.04	7849
808.182	7963
808.324	7890
808.465	8001
808.607	8020
808.749	8126
808.891	8229
809.033	8252
809.174	8237
809.316	8138
809.458	8039
809.6	7997
809.741	8065
809.883	7989
810.025	8172
810.166	7993
810.308	7967
810.45	7947
810.591	7879
810.733	7727
810.875	7632
811.016	7548
811.158	7419
811.299	7552
811.441	7685
811.582	7677
811.724	7578
811.865	7540
812.007	7639
812.148	7613
812.29	7567
812.431	7788
812.573	7788
812.714	7986
812.855	8126
812.997	8256
813.138	8301
813.279	8195
813.421	8043
813.562	7997
813.703	7822
813.845	7750
813.986	7441
814.127	7266
814.268	7209
814.41	7149
814.551	7156
814.692	7213
814.833	7118
814.974	7091
815.115	7164
815.256	6989
815.397	6970
815.539	6951
815.68	6829
815.821	6753
815.962	6886
816.103	6859
816.244	6707
816.385	6658
816.526	6601
816.666	6521
816.807	6331
816.948	6414
817.089	6498
817.23	6429
817.371	6369
817.512	6437
817.653	6346
817.793	6361
817.934	6445
818.075	6479
818.216	6384
818.356	6403
818.497	6273
818.638	6125
818.778	6148
818.919	6095
819.06	6167
819.2	6372
819.341	6327
819.481	6407
819.622	6498
819.762	6730
819.903	6707
820.043	6635
820.184	6585
820.324	6597
820.465	6677
820.605	6692
820.746	6700
820.886	6517
821.026	6719
821.167	6798
821.307	6840
821.447	6825
821.588	6696
821.728	6601
821.868	6528
822.008	6376
822.149	6399
822.289	6384
822.429	6216
822.569	6136
822.709	6155
822.849	5996
822.99	5946
823.13	5996
823.27	5958
823.41	5855
823.55	5870
823.69	5824
823.83	5866
823.97	5748
824.11	5611
824.25	5558
824.389	5608
824.529	5600
824.669	5570
824.809	5680
824.949	5707
825.089	5707
825.228	5592
825.368	5372
825.508	5440
825.648	5357
825.787	5463
825.927	5383
826.067	5277
826.206	5360
826.346	5410
826.485	5402
826.625	5490
826.765	5573
826.904	5535
827.044	5303
827.183	5254
827.323	5170
827.462	5280
827.601	5242
827.741	5239
827.88	5318
828.02	5170
828.159	5277
828.298	5368
828.437	5417
828.577	5311
828.716	5501
828.855	5357
828.994	5216
829.134	5147
829.273	5216
829.412	5178
829.551	5174
829.69	5162
829.829	5284
829.968	5459
830.107	5318
830.246	5311
830.385	5231
830.524	5223
830.663	5121
830.802	5037
830.941	4946
831.08	4847
831.219	5033
831.357	5006
831.496	5159
831.635	4991
831.774	4881
831.913	4892
832.051	4759
832.19	4725
832.329	4858
832.467	4759
832.606	4634
832.744	4740
832.883	4801
833.022	4759
833.16	4828
833.299	4847
833.437	4873
833.576	4889
833.714	4904
833.852	4927
833.991	4968
834.129	4930
834.267	4987
834.406	4946
834.544	5025
834.682	5006
834.821	4999
834.959	5201
835.097	5037
835.235	5162
835.373	5147
835.511	5124
835.65	5098
835.788	5128
835.926	4957
836.064	4900
836.202	4961
836.34	5189
836.478	5258
836.615	5140
836.753	5284
836.891	5318
837.029	5273
837.167	5204
837.305	5166
837.443	5208
837.58	5102
837.718	5273
837.856	5201
837.993	5204
838.131	5201
838.269	5269
838.406	5197
838.544	5227
838.681	5083
838.819	5113
838.956	4927
839.094	4957
839.231	5014
839.369	5140
839.506	5425
839.643	5254
839.781	5075
839.918	5086
840.055	5159
840.193	5147
840.33	5117
840.467	5235
840.604	5220
840.742	5444
840.879	5132
841.016	5159
841.153	5136
841.29	5349
841.427	5353
841.564	5326
841.701	5379
841.838	5322
841.975	5239
842.112	5311
842.249	5204
842.385	5162
842.522	5364
842.659	5212
842.796	5197
842.933	5212
843.069	5159
843.206	5204
843.343	5364
843.479	5280
843.616	5277
843.752	5079
843.889	5037
844.025	5216
844.162	5064
844.298	5239
844.435	5128
844.571	5094
844.708	5265
844.844	5299
844.98	5353
845.117	5250
845.253	5185
845.389	5083
845.525	5212
845.661	5208
845.798	5102
845.934	5162
846.07	5098
846.206	5235
846.342	5337
846.478	5201
846.614	5067
846.75	5048
846.886	4980
847.022	5174
847.158	5083
847.294	5086
847.429	5105
847.565	5117
847.701	5372
847.837	4900
847.972	4816
848.108	4946
848.244	4972
848.379	4812
848.515	4771
848.65	4717
848.786	4778
848.921	4824
849.057	4892
849.192	4934
849.328	4847
849.463	4885
849.598	4843
849.734	4771
849.869	4729
850.004	4660
850.14	4683
850.275	4660
850.41	4558
850.545	4584
850.68	4649
850.815	4645
850.95	4675
851.085	4942
851.22	4748
851.355	4691
851.49	4683
851.625	4679
851.76	4672
851.895	4577
852.03	4596
852.165	4702
852.299	4782
852.434	4771
852.569	4744
852.703	4771
852.838	4904
852.973	4972
853.107	4942
853.242	4744
853.376	4687
853.511	4607
853.645	4664
853.78	4870
853.914	4763
854.048	4740
854.183	4698
854.317	4717
854.451	4843
854.585	4694
854.72	4679
854.854	4774
854.988	4641
855.122	4687
855.256	4573
855.39	4683
855.524	4862
855.658	4774
855.792	4698
855.926	4740
856.06	4778
856.194	4862
856.327	4740
856.461	4580
856.595	4683
856.729	4694
856.862	4816
856.996	4725
857.13	4763
857.263	4778
857.397	4816
857.53	4679
857.664	4767
857.797	4828
857.931	4816
858.064	4733
858.197	4740
858.331	4668
858.464	4622
858.597	4565
858.731	4656
858.864	4679
858.997	4588
859.13	4672
859.263	4698
859.396	4744
859.529	4656
859.662	4554
859.795	4558
859.928	4596
860.061	4778
860.194	4782
860.327	4641
860.46	4603
860.592	4714
860.725	4759
860.858	4771
860.99	4615
861.123	4558
861.256	4523
861.388	4660
861.521	5292
861.653	4558
861.786	4481
861.918	4485
862.05	4523
862.183	4584
862.315	4634
862.447	4740
862.58	4611
862.712	4379
862.844	4367
862.976	4485
863.108	4527
863.24	4767
863.372	4344
863.504	4466
863.636	4455
863.768	4493
863.9	4447
864.032	4375
864.164	4500
864.296	4481
864.428	4592
864.559	4592
864.691	4546
864.823	4531
864.954	4535
865.086	4535
865.217	4508
865.349	4459
865.48	4428
865.612	4519
865.743	4660
865.875	4497
866.006	4432
866.137	4451
866.269	4436
866.4	4466
866.531	4500
866.662	4417
866.793	4466
866.924	4432
867.055	4504
867.186	4428
867.317	4459
867.448	4462
867.579	4417
867.71	4432
867.841	4386
867.972	4538
868.103	4489
868.233	4504
868.364	4485
868.495	4489
868.625	4714
868.756	4763
868.886	4558
869.017	4630
869.147	4797
869.278	4809
869.408	4687
869.539	4714
869.669	4748
869.799	4702
869.929	4752
870.06	4759
870.19	4934
870.32	4934
870.45	4968
870.58	5029
870.71	5105
870.84	5185
870.97	4984
871.1	4949
871.23	5159
871.36	5143
871.489	5067
871.619	5136
871.749	5124
871.879	5155
872.008	5166
872.138	5090
872.267	4968
872.397	4847
872.526	4782
872.656	4740
872.785	4820
872.915	4953
873.044	5029
873.173	4987
873.303	5025
873.432	4949
873.561	4976
873.69	4889
873.819	4900
873.948	4908
874.077	4820
874.206	4850
874.335	4801
874.464	4938
874.593	5064
874.722	4961
874.851	5117
874.979	5071
875.108	5071
875.237	4961
875.365	4904
875.494	4927
875.623	4995
875.751	4850
875.88	4908
876.008	4976
876.136	5045
876.265	5220
876.393	5353
876.521	5246
876.65	5277
876.778	5197
876.906	5128
877.034	5071
877.162	5067
877.29	4972
877.418	5071
877.546	5086
877.674	5075
877.802	5022
877.93	5056
878.058	4953
878.185	4927
878.313	5003
878.441	5006
878.568	4843
878.696	4904
878.824	4942
878.951	5003
879.079	5121
879.206	5284
879.333	5189
879.461	4999
879.588	5037
879.715	5189
879.842	5261
879.97	5048
880.097	4736
880.224	4759
880.351	4854
880.478	4843
880.605	4820
880.732	4805
880.859	5105
880.986	4923
881.112	4953
881.239	4797
881.366	4687
881.493	4626
881.619	4653
881.746	4637
881.872	4717
881.999	4683
882.125	4721
882.252	4816
882.378	4828
882.505	5022
882.631	4847
882.757	4683
882.883	4797
883.01	4702
883.136	4653
883.262	4584
883.388	4615
883.514	4843
883.64	4915
883.766	4847
883.892	4698
884.018	4725
884.143	4904
884.269	5056
884.395	4721
884.52	4630
884.646	4698
884.772	4527
884.897	4584
885.023	4714
885.148	4744
885.274	4873
885.399	4820
885.524	4771
885.65	4767
885.775	4744
885.9	4759
886.025	4919
886.15	4786
886.275	4733
886.4	4668
886.525	4767
886.65	4721
886.775	4694
886.9	4900
887.025	5041
887.149	4835
887.274	4630
887.399	4618
887.523	4603
887.648	4554
887.773	4630
887.897	4778
888.021	4786
888.146	4698
888.27	4801
888.395	4873
888.519	4824
888.643	4786
888.767	4896
888.891	4687
889.015	4603
889.139	4687
889.263	4615
889.387	4805
889.511	4881
889.635	4793
889.759	4702
889.883	4622
890.006	4759
890.13	4816
890.254	4611
890.377	4694
890.501	4584
890.624	4542
890.748	4683
890.871	4535
890.995	4451
891.118	4436
891.241	4485
891.364	4577
891.488	4672
891.611	4508
891.734	4580
891.857	4596
891.98	4596
892.103	4649
892.226	4561
892.349	4546
892.471	4443
892.594	4546
892.717	4558
892.839	4607
892.962	4626
893.085	4653
893.207	4630
893.33	4497
893.452	4535
893.575	4683
893.697	4630
893.819	4790
893.941	4809
894.064	4774
894.186	4573
894.308	4599
894.43	4744
894.552	4831
894.674	4752
894.796	4516
894.918	4599
895.04	4573
895.161	4752
895.283	4656
895.405	4637
895.526	4653
895.648	4725
895.769	4649
895.891	4710
896.012	4759
896.134	4790
896.255	4653
896.376	4649
896.498	4596
896.619	4694
896.74	4622
896.861	4694
896.982	4934
897.103	5064
897.224	4801
897.345	4771
897.466	4668
897.587	4759
897.708	4873
897.828	4786
897.949	4683
898.07	4573
898.19	4641
898.311	4839
898.431	4683
898.552	4767
898.672	4824
898.792	4793
898.913	4725
899.033	4626
899.153	4497
899.273	4478
899.393	4497
899.513	4588
899.633	4565
899.753	4531
899.873	4508
899.993	4554
900.113	4512
900.232	4626
900.352	4535
900.472	4500
900.591	4428
900.711	4561
900.83	4436
900.95	4584
901.069	4668
901.189	4580
901.308	4367
901.427	4295
901.546	4436
901.665	4508
901.784	4481
901.904	4356
902.023	4333
902.141	4188
902.26	4227
902.379	4318
902.498	4272
902.617	4268
902.735	4398
902.854	4421
902.973	4379
903.091	4265
903.21	4227
903.328	4337
903.446	4249
903.565	4287
903.683	4367
903.801	4284
903.919	4371
904.038	4466
904.156	4299
904.274	4428
904.392	4360
904.51	4398
904.627	4451
904.745	4554
904.863	4656
904.981	4398
905.098	4287
905.216	4371
905.334	4424
905.451	4447
905.569	4474
905.686	4558
905.803	4558
905.921	4455
906.038	4527
906.155	4489
906.272	4413
906.389	4481
906.506	4360
906.623	4394
906.74	4424
906.857	4287
906.974	4405
907.091	4558
907.208	4664
907.324	4622
907.441	4508
907.557	4379
907.674	4348
907.79	4333
907.907	4428
908.023	4470
908.139	4474
908.256	4440
908.372	4481
908.488	4455
908.604	4363
908.72	4322
908.836	4413
908.952	4348
909.068	4447
909.184	4558
909.3	4481
909.415	4603
909.531	4565
909.647	4371
909.762	4405
909.878	4402
909.993	4459
910.108	4428
910.224	4447
910.339	4447
910.454	4417
910.57	4375
910.685	4341
910.8	4637
910.915	4630
911.03	4523
911.145	4360
911.259	4322
911.374	4344
911.489	4268
911.604	4306
911.718	4207
911.833	4230
911.947	4063
912.062	4029
912.176	4287
912.291	4219
912.405	4299
912.519	4474
912.633	4478
912.748	4375
912.862	4306
912.976	4211
913.09	4090
913.204	4238
913.318	4253
913.431	4367
913.545	4348
913.659	4409
913.772	4360
913.886	4265
914	4246
914.113	4363
914.226	4379
914.34	4348
914.453	4268
914.566	4474
914.68	4344
914.793	4310
914.906	4131
915.019	4162
915.132	4093
915.245	4162
915.358	4238
915.47	4200
915.583	4265
915.696	4280
915.809	4417
915.921	4470
916.034	4249
916.146	4223
916.259	4261
916.371	4417
916.483	4379
916.595	4291
916.708	4333
916.82	4303
916.932	4310
917.044	4367
917.156	4337
917.268	4249
917.38	4268
917.491	4303
917.603	4325
917.715	4440
917.826	4455
917.938	4383
918.049	4230
918.161	4386
918.272	4527
918.384	4558
918.495	4451
918.606	4318
918.717	4272
918.828	4379
918.939	4375
919.05	4238
919.161	4352
919.272	4147
919.383	4211
919.494	4481
919.604	4634
919.715	4500
919.826	4386
919.936	4409
920.047	4508
920.157	4481
920.267	4744
920.378	4519
920.488	4523
920.598	4675
920.708	4877
920.818	4797
920.928	4752
921.038	4953
921.148	4934
921.258	4683
921.368	4569
921.477	4489
921.587	4447
921.697	4383
921.806	4554
921.916	4413
922.025	4284
922.134	4249
922.244	4227
922.353	4306
922.462	4173
922.571	4188
922.68	3975
922.789	3964
922.898	4063
923.007	4036
923.116	4120
923.224	4036
923.333	4090
923.442	3968
923.55	3979
923.659	4055
923.767	4124
923.876	4017
923.984	4131
924.092	4032
924.201	4082
924.309	4093
924.417	4150
924.525	4055
924.633	4093
924.741	5098
924.849	3930
924.956	4109
925.064	3979
925.172	3926
925.279	3956
925.387	4048
925.494	4055
925.602	4196
925.709	4158
925.816	4032
925.924	4128
926.031	4246
926.138	4204
926.245	4185
926.352	4086
926.459	4230
926.566	4329
926.673	4124
926.779	4097
926.886	4124
926.993	4006
927.099	3945
927.206	3934
927.312	3941
927.419	4101
927.525	4006
927.631	4093
927.737	3983
927.843	3968
927.95	3835
928.056	3979
928.162	4017
928.267	4067
928.373	4580
928.479	4139
928.585	3861
928.69	4021
928.796	4032
928.901	3983
929.007	3865
929.112	3987
929.218	3949
929.323	3968
929.428	3968
929.533	4109
929.638	3896
929.743	3972
929.848	4071
929.953	3994
930.058	3930
930.163	3816
930.267	3797
930.372	3991
930.477	3804
930.581	4067
930.685	3937
930.79	3823
930.894	3873
930.998	3831
931.103	3975
931.207	3732
931.311	3709
931.415	3682
931.519	3504
931.623	3599
