Data from test_V78500241_2435.txt Node
Date: Fri Mar 25 17:05:56 CST 2022
User: usil
Spectrometer: V785-0024
Trigger mode: 0
Integration Time (sec): 4.000000E-1
Scans to average: 1
Nonlinearity correction enabled: false
Boxcar width: 0
Storing dark spectrum: false
XAxis mode: Wavelengths
Number of Pixels in Spectrum: 1024
>>>>>Begin Spectral Data<<<<<
801.071	8027
801.214	8031
801.356	7864
801.499	7776
801.641	7837
801.783	7879
801.926	7993
802.068	7986
802.211	7989
802.353	8012
802.496	7833
802.638	7940
802.78	7898
802.923	7887
803.065	7898
803.208	7856
803.35	8046
803.492	8084
803.635	8225
803.777	8035
803.919	8138
804.061	8469
804.204	8134
804.346	8096
804.488	8020
804.63	8111
804.773	7967
804.915	8081
805.057	8214
805.199	8157
805.341	8256
805.483	8298
805.626	8282
805.768	8176
805.91	8153
806.052	8214
806.194	8084
806.336	8221
806.478	8054
806.62	8096
806.762	8145
806.904	8301
807.046	8423
807.188	8381
807.33	8275
807.472	8244
807.614	8176
807.756	8229
807.898	8046
808.04	7864
808.182	7951
808.324	7883
808.465	7868
808.607	8084
808.749	8172
808.891	8210
809.033	8275
809.174	8187
809.316	8119
809.458	8050
809.6	8046
809.741	8054
809.883	8126
810.025	8081
810.166	8100
810.308	8020
810.45	8024
810.591	7928
810.733	7700
810.875	7666
811.016	7575
811.158	7544
811.299	7582
811.441	7731
811.582	7670
811.724	7639
811.865	7529
812.007	7597
812.148	7582
812.29	7655
812.431	7776
812.573	7871
812.714	7951
812.855	8100
812.997	8252
813.138	8313
813.279	8126
813.421	8046
813.562	7940
813.703	7887
813.845	7772
813.986	7449
814.127	7274
814.268	7274
814.41	7179
814.551	7198
814.692	7225
814.833	7145
814.974	7057
815.115	7118
815.256	7023
815.397	6932
815.539	6958
815.68	6818
815.821	6798
815.962	6939
816.103	6878
816.244	6707
816.385	6654
816.526	6597
816.666	6517
816.807	6331
816.948	6464
817.089	6441
817.23	6437
817.371	6403
817.512	6407
817.653	6441
817.793	6357
817.934	6388
818.075	6475
818.216	6437
818.356	6391
818.497	6285
818.638	6095
818.778	6186
818.919	6152
819.06	6163
819.2	6361
819.341	6361
819.481	6384
819.622	6475
819.762	6688
819.903	6730
820.043	6585
820.184	6623
820.324	6612
820.465	6738
820.605	6730
820.746	6719
820.886	6551
821.026	6700
821.167	6681
821.307	6791
821.447	6791
821.588	6688
821.728	6582
821.868	6528
822.008	6353
822.149	6418
822.289	6429
822.429	6155
822.569	6117
822.709	6155
822.849	5969
822.99	5977
823.13	5920
823.27	5942
823.41	5824
823.55	5790
823.69	5805
823.83	5756
823.97	5691
824.11	5539
824.25	5543
824.389	5592
824.529	5581
824.669	5600
824.809	5623
824.949	5672
825.089	5623
825.228	5596
825.368	5376
825.508	5383
825.648	5318
825.787	5414
825.927	5402
826.067	5326
826.206	5334
826.346	5395
826.485	5433
826.625	5387
826.765	5551
826.904	5493
827.044	5277
827.183	5235
827.323	5170
827.462	5246
827.601	5201
827.741	5189
827.88	5235
828.02	5128
828.159	5258
828.298	5307
828.437	5391
828.577	5315
828.716	5512
828.855	5357
828.994	5166
829.134	5147
829.273	5204
829.412	5132
829.551	5162
829.69	5201
829.829	5242
829.968	5402
830.107	5242
830.246	5326
830.385	5189
830.524	5147
830.663	5052
830.802	5022
830.941	4892
831.08	4873
831.219	5003
831.357	4930
831.496	5181
831.635	4938
831.774	4896
831.913	4828
832.051	4740
832.19	4774
832.329	4816
832.467	4736
832.606	4641
832.744	4717
832.883	4729
833.022	4698
833.16	4801
833.299	4824
833.437	4812
833.576	4858
833.714	4873
833.852	4820
833.991	4889
834.129	4953
834.267	4995
834.406	4881
834.544	5003
834.682	4999
834.821	4953
834.959	5124
835.097	4999
835.235	5185
835.373	5075
835.511	5162
835.65	5075
835.788	5018
835.926	4927
836.064	4911
836.202	4965
836.34	5193
836.478	5235
836.615	5090
836.753	5193
836.891	5254
837.029	5288
837.167	5201
837.305	5151
837.443	5086
837.58	5132
837.718	5265
837.856	5151
837.993	5193
838.131	5254
838.269	5162
838.406	5204
838.544	5140
838.681	5022
838.819	5052
838.956	4896
839.094	4911
839.231	4980
839.369	5067
839.506	5440
839.643	5242
839.781	5109
839.918	4968
840.055	5124
840.193	5067
840.33	5090
840.467	5140
840.604	5185
840.742	5421
840.879	5045
841.016	5102
841.153	5136
841.29	5387
841.427	5353
841.564	5330
841.701	5387
841.838	5273
841.975	5265
842.112	5288
842.249	5102
842.385	5151
842.522	5307
842.659	5132
842.796	5155
842.933	5201
843.069	5189
843.206	5128
843.343	5311
843.479	5280
843.616	5269
843.752	5018
843.889	4995
844.025	5254
844.162	5029
844.298	5246
844.435	5090
844.571	5079
844.708	5193
844.844	5318
844.98	5376
845.117	5288
845.253	5102
845.389	5124
845.525	5201
845.661	5132
845.798	5006
845.934	5128
846.07	5090
846.206	5242
846.342	5307
846.478	5132
846.614	4972
846.75	4999
846.886	4968
847.022	5162
847.158	5067
847.294	5102
847.429	5083
847.565	5067
847.701	5318
847.837	4843
847.972	4862
848.108	4927
848.244	4942
848.379	4828
848.515	4774
848.65	4729
848.786	4774
848.921	4782
849.057	4892
849.192	4866
849.328	4816
849.463	4847
849.598	4782
849.734	4771
849.869	4721
850.004	4542
850.14	4656
850.275	4664
850.41	4565
850.545	4596
850.68	4611
850.815	4622
850.95	4611
851.085	4831
851.22	4733
851.355	4702
851.49	4558
851.625	4626
851.76	4656
851.895	4546
852.03	4538
852.165	4656
852.299	4714
852.434	4755
852.569	4767
852.703	4771
852.838	4854
852.973	4908
853.107	4968
853.242	4744
853.376	4702
853.511	4554
853.645	4615
853.78	4805
853.914	4691
854.048	4660
854.183	4641
854.317	4748
854.451	4843
854.585	4675
854.72	4637
854.854	4740
854.988	4554
855.122	4645
855.256	4535
855.39	4630
855.524	4786
855.658	4702
855.792	4702
855.926	4752
856.06	4752
856.194	4831
856.327	4668
856.461	4630
856.595	4596
856.729	4675
856.862	4759
856.996	4683
857.13	4740
857.263	4714
857.397	4831
857.53	4656
857.664	4691
857.797	4755
857.931	4786
858.064	4706
858.197	4706
858.331	4672
858.464	4637
858.597	4519
858.731	4641
858.864	4599
858.997	4573
859.13	4618
859.263	4641
859.396	4683
859.529	4618
859.662	4550
859.795	4561
859.928	4622
860.061	4782
860.194	4793
860.327	4569
860.46	4554
860.592	4721
860.725	4710
860.858	4744
860.99	4573
861.123	4493
861.256	4512
861.388	4630
861.521	5307
861.653	4443
861.786	4443
861.918	4462
862.05	4485
862.183	4527
862.315	4615
862.447	4675
862.58	4527
862.712	4432
862.844	4375
862.976	4485
863.108	4470
863.24	4790
863.372	4344
863.504	4459
863.636	4443
863.768	4455
863.9	4443
864.032	4333
864.164	4402
864.296	4421
864.428	4527
864.559	4558
864.691	4550
864.823	4512
864.954	4516
865.086	4554
865.217	4489
865.349	4428
865.48	4443
865.612	4466
865.743	4622
865.875	4459
866.006	4421
866.137	4443
866.269	4417
866.4	4421
866.531	4447
866.662	4394
866.793	4421
866.924	4447
867.055	4512
867.186	4478
867.317	4428
867.448	4390
867.579	4405
867.71	4421
867.841	4314
867.972	4405
868.103	4451
868.233	4440
868.364	4447
868.495	4485
868.625	4649
868.756	4782
868.886	4527
869.017	4611
869.147	4748
869.278	4774
869.408	4706
869.539	4687
869.669	4736
869.799	4668
869.929	4729
870.06	4698
870.19	4953
870.32	4976
870.45	4915
870.58	5033
870.71	5098
870.84	5064
870.97	4946
871.1	4957
871.23	5128
871.36	5109
871.489	5037
871.619	5086
871.749	5102
871.879	5140
872.008	5140
872.138	5018
872.267	5025
872.397	4873
872.526	4771
872.656	4717
872.785	4797
872.915	4957
873.044	5033
873.173	4980
873.303	4896
873.432	4987
873.561	4946
873.69	4900
873.819	4847
873.948	4885
874.077	4828
874.206	4748
874.335	4843
874.464	4942
874.593	5056
874.722	4923
874.851	5105
874.979	5060
875.108	5067
875.237	4942
875.365	4862
875.494	4873
875.623	4999
875.751	4831
875.88	4896
876.008	4965
876.136	5045
876.265	5162
876.393	5322
876.521	5258
876.65	5258
876.778	5159
876.906	5071
877.034	5071
877.162	5052
877.29	4980
877.418	5052
877.546	5045
877.674	5056
877.802	5075
877.93	5025
878.058	4953
878.185	4930
878.313	4946
878.441	4991
878.568	4820
878.696	4847
878.824	4999
878.951	4968
879.079	5109
879.206	5311
879.333	5109
879.461	4999
879.588	5010
879.715	5117
879.842	5231
879.97	4984
880.097	4816
880.224	4744
880.351	4816
880.478	4835
880.605	4824
880.732	4759
880.859	5022
880.986	4927
881.112	4908
881.239	4805
881.366	4698
881.493	4596
881.619	4584
881.746	4656
881.872	4622
881.999	4672
882.125	4717
882.252	4774
882.378	4824
882.505	4976
882.631	4801
882.757	4717
882.883	4748
883.01	4755
883.136	4649
883.262	4615
883.388	4607
883.514	4801
883.64	4866
883.766	4771
883.892	4702
884.018	4714
884.143	4934
884.269	5029
884.395	4717
884.52	4622
884.646	4641
884.772	4535
884.897	4550
885.023	4664
885.148	4744
885.274	4809
885.399	4790
885.524	4687
885.65	4717
885.775	4767
885.9	4679
886.025	4839
886.15	4744
886.275	4752
886.4	4683
886.525	4725
886.65	4698
886.775	4679
886.9	4927
887.025	5037
887.149	4858
887.274	4660
887.399	4584
887.523	4645
887.648	4550
887.773	4588
887.897	4710
888.021	4774
888.146	4641
888.27	4809
888.395	4885
888.519	4767
888.643	4824
888.767	4839
888.891	4717
889.015	4592
889.139	4611
889.263	4599
889.387	4744
889.511	4885
889.635	4801
889.759	4615
889.883	4634
890.006	4748
890.13	4835
890.254	4588
890.377	4664
890.501	4546
890.624	4481
890.748	4634
890.871	4493
890.995	4421
891.118	4367
891.241	4504
891.364	4474
891.488	4653
891.611	4523
891.734	4493
891.857	4630
891.98	4577
892.103	4637
892.226	4546
892.349	4554
892.471	4421
892.594	4542
892.717	4577
892.839	4607
892.962	4641
893.085	4672
893.207	4634
893.33	4481
893.452	4542
893.575	4668
893.697	4580
893.819	4782
893.941	4805
894.064	4797
894.186	4516
894.308	4584
894.43	4675
894.552	4839
894.674	4763
894.796	4554
894.918	4649
895.04	4588
895.161	4725
895.283	4645
895.405	4573
895.526	4649
895.648	4653
895.769	4687
895.891	4717
896.012	4755
896.134	4729
896.255	4649
896.376	4615
896.498	4649
896.619	4649
896.74	4607
896.861	4675
896.982	4961
897.103	5025
897.224	4771
897.345	4740
897.466	4679
897.587	4729
897.708	4881
897.828	4748
897.949	4630
898.07	4554
898.19	4618
898.311	4839
898.431	4714
898.552	4740
898.672	4767
898.792	4801
898.913	4706
899.033	4607
899.153	4500
899.273	4413
899.393	4424
899.513	4546
899.633	4489
899.753	4577
899.873	4531
899.993	4554
900.113	4569
900.232	4558
900.352	4542
900.472	4508
900.591	4386
900.711	4478
900.83	4478
900.95	4596
901.069	4717
901.189	4580
901.308	4371
901.427	4348
901.546	4421
901.665	4485
901.784	4546
901.904	4409
902.023	4394
902.141	4196
902.26	4215
902.379	4306
902.498	4238
902.617	4211
902.735	4299
902.854	4413
902.973	4379
903.091	4215
903.21	4230
903.328	4261
903.446	4303
903.565	4284
903.683	4356
903.801	4276
903.919	4371
904.038	4455
904.156	4337
904.274	4470
904.392	4394
904.51	4424
904.627	4459
904.745	4546
904.863	4637
904.981	4363
905.098	4322
905.216	4383
905.334	4432
905.451	4447
905.569	4424
905.686	4561
905.803	4508
905.921	4394
906.038	4561
906.155	4443
906.272	4405
906.389	4504
906.506	4352
906.623	4394
906.74	4402
906.857	4325
906.974	4344
907.091	4569
907.208	4656
907.324	4626
907.441	4516
907.557	4303
907.674	4348
907.79	4371
907.907	4390
908.023	4512
908.139	4474
908.256	4405
908.372	4485
908.488	4470
908.604	4386
908.72	4318
908.836	4379
908.952	4383
909.068	4417
909.184	4535
909.3	4481
909.415	4588
909.531	4550
909.647	4383
909.762	4390
909.878	4341
909.993	4447
910.108	4409
910.224	4436
910.339	4489
910.454	4371
910.57	4379
910.685	4367
910.8	4702
910.915	4565
911.03	4451
911.145	4333
911.259	4379
911.374	4386
911.489	4299
911.604	4303
911.718	4185
911.833	4211
911.947	4059
912.062	4013
912.176	4173
912.291	4219
912.405	4242
912.519	4459
912.633	4523
912.748	4367
912.862	4322
912.976	4223
913.09	4078
913.204	4188
913.318	4287
913.431	4375
913.545	4344
913.659	4440
913.772	4375
913.886	4299
914	4230
914.113	4363
914.226	4417
914.34	4398
914.453	4272
914.566	4413
914.68	4344
914.793	4341
914.906	4139
915.019	4120
915.132	4059
915.245	4181
915.358	4234
915.47	4242
915.583	4314
915.696	4291
915.809	4390
915.921	4409
916.034	4249
916.146	4272
916.259	4276
916.371	4383
916.483	4333
916.595	4265
916.708	4291
916.82	4322
916.932	4318
917.044	4299
917.156	4325
917.268	4242
917.38	4299
917.491	4344
917.603	4363
917.715	4424
917.826	4447
917.938	4379
918.049	4276
918.161	4428
918.272	4523
918.384	4508
918.495	4470
918.606	4295
918.717	4246
918.828	4360
918.939	4363
919.05	4253
919.161	4333
919.272	4177
919.383	4211
919.494	4440
919.604	4618
919.715	4428
919.826	4371
919.936	4341
920.047	4561
920.157	4474
920.267	4729
920.378	4599
920.488	4474
920.598	4664
920.708	4911
920.818	4744
920.928	4683
921.038	4949
921.148	4938
921.258	4649
921.368	4558
921.477	4459
921.587	4462
921.697	4394
921.806	4577
921.916	4459
922.025	4265
922.134	4253
922.244	4230
922.353	4322
922.462	4139
922.571	4124
922.68	3991
922.789	3975
922.898	4002
923.007	4010
923.116	4093
923.224	4082
923.333	4032
923.442	3975
923.55	3968
923.659	4017
923.767	4086
923.876	4002
923.984	4139
924.092	3941
924.201	4109
924.309	4093
924.417	4124
924.525	4032
924.633	4116
924.741	5048
924.849	3945
924.956	4112
925.064	3975
925.172	3918
925.279	3922
925.387	4025
925.494	4063
925.602	4196
925.709	4200
925.816	4013
925.924	4112
926.031	4242
926.138	4196
926.245	4219
926.352	4097
926.459	4261
926.566	4284
926.673	4128
926.779	4128
926.886	4078
926.993	3983
927.099	3968
927.206	3911
927.312	3994
927.419	4048
927.525	4032
927.631	4074
927.737	3968
927.843	3945
927.95	3838
928.056	3937
928.162	3953
928.267	4063
928.373	4748
928.479	4116
928.585	3865
928.69	4029
928.796	4109
928.901	3983
929.007	3865
929.112	4029
929.218	3975
929.323	3949
929.428	3941
929.533	4147
929.638	3854
929.743	3956
929.848	4010
929.953	3960
930.058	3915
930.163	3759
930.267	3842
930.372	3983
930.477	3797
930.581	4074
930.685	3960
930.79	3819
930.894	3869
930.998	3857
931.103	4017
931.207	3717
931.311	3724
931.415	3648
931.519	3561
931.623	3523
