Data from test_V78500241_2617.txt Node
Date: Fri Mar 25 17:07:11 CST 2022
User: usil
Spectrometer: V785-0024
Trigger mode: 0
Integration Time (sec): 4.000000E-1
Scans to average: 1
Nonlinearity correction enabled: false
Boxcar width: 0
Storing dark spectrum: false
XAxis mode: Wavelengths
Number of Pixels in Spectrum: 1024
>>>>>Begin Spectral Data<<<<<
801.071	7921
801.214	8058
801.356	7875
801.499	7883
801.641	7807
801.783	7803
801.926	7982
802.068	7955
802.211	7993
802.353	8069
802.496	7890
802.638	7887
802.78	7932
802.923	7947
803.065	7852
803.208	7913
803.35	7978
803.492	8069
803.635	8119
803.777	8008
803.919	8096
804.061	8385
804.204	8100
804.346	8077
804.488	7974
804.63	8046
804.773	8024
804.915	8100
805.057	8279
805.199	8195
805.341	8199
805.483	8377
805.626	8237
805.768	8172
805.91	8126
806.052	8183
806.194	8073
806.336	8343
806.478	8134
806.62	8035
806.762	8081
806.904	8229
807.046	8396
807.188	8408
807.33	8309
807.472	8309
807.614	8221
807.756	8115
807.898	8005
808.04	7894
808.182	7947
808.324	7913
808.465	7917
808.607	8111
808.749	8183
808.891	8237
809.033	8396
809.174	8233
809.316	8084
809.458	8031
809.6	8050
809.741	8046
809.883	8024
810.025	8138
810.166	8069
810.308	8031
810.45	7951
810.591	7811
810.733	7655
810.875	7643
811.016	7499
811.158	7544
811.299	7624
811.441	7753
811.582	7685
811.724	7609
811.865	7563
812.007	7666
812.148	7548
812.29	7582
812.431	7769
812.573	7890
812.714	8035
812.855	8103
812.997	8263
813.138	8267
813.279	8168
813.421	8031
813.562	7932
813.703	7852
813.845	7639
813.986	7415
814.127	7259
814.268	7187
814.41	7183
814.551	7190
814.692	7247
814.833	7053
814.974	7145
815.115	7168
815.256	7019
815.397	6935
815.539	6973
815.68	6837
815.821	6779
815.962	6848
816.103	6890
816.244	6791
816.385	6639
816.526	6635
816.666	6471
816.807	6247
816.948	6452
817.089	6517
817.23	6433
817.371	6410
817.512	6433
817.653	6372
817.793	6426
817.934	6407
818.075	6486
818.216	6486
818.356	6429
818.497	6216
818.638	6133
818.778	6152
818.919	6171
819.06	6167
819.2	6331
819.341	6334
819.481	6414
819.622	6513
819.762	6722
819.903	6757
820.043	6578
820.184	6650
820.324	6612
820.465	6734
820.605	6703
820.746	6688
820.886	6540
821.026	6642
821.167	6741
821.307	6814
821.447	6760
821.588	6711
821.728	6597
821.868	6456
822.008	6331
822.149	6357
822.289	6342
822.429	6171
822.569	6117
822.709	6136
822.849	5912
822.99	5916
823.13	5893
823.27	5939
823.41	5741
823.55	5813
823.69	5775
823.83	5741
823.97	5638
824.11	5524
824.25	5490
824.389	5551
824.529	5615
824.669	5543
824.809	5627
824.949	5627
825.089	5642
825.228	5577
825.368	5414
825.508	5326
825.648	5364
825.787	5398
825.927	5368
826.067	5280
826.206	5318
826.346	5398
826.485	5395
826.625	5398
826.765	5551
826.904	5459
827.044	5242
827.183	5216
827.323	5178
827.462	5265
827.601	5159
827.741	5201
827.88	5216
828.02	5109
828.159	5261
828.298	5299
828.437	5387
828.577	5288
828.716	5493
828.855	5345
828.994	5151
829.134	5143
829.273	5174
829.412	5166
829.551	5109
829.69	5170
829.829	5242
829.968	5383
830.107	5254
830.246	5277
830.385	5159
830.524	5143
830.663	5098
830.802	4999
830.941	4900
831.08	4892
831.219	4991
831.357	4991
831.496	5128
831.635	4900
831.774	4828
831.913	4839
832.051	4755
832.19	4759
832.329	4862
832.467	4714
832.606	4580
832.744	4714
832.883	4725
833.022	4740
833.16	4805
833.299	4824
833.437	4843
833.576	4831
833.714	4858
833.852	4881
833.991	4866
834.129	5006
834.267	4957
834.406	4927
834.544	4957
834.682	4987
834.821	4987
834.959	5121
835.097	4984
835.235	5117
835.373	5045
835.511	5090
835.65	5022
835.788	5067
835.926	4866
836.064	4885
836.202	4889
836.34	5166
836.478	5261
836.615	5094
836.753	5204
836.891	5292
837.029	5235
837.167	5193
837.305	5174
837.443	5121
837.58	5098
837.718	5242
837.856	5201
837.993	5151
838.131	5208
838.269	5193
838.406	5189
838.544	5212
838.681	5048
838.819	5025
838.956	4900
839.094	4881
839.231	5025
839.369	5048
839.506	5417
839.643	5277
839.781	5079
839.918	5033
840.055	5117
840.193	5105
840.33	5105
840.467	5181
840.604	5227
840.742	5440
840.879	5041
841.016	5128
841.153	5178
841.29	5395
841.427	5299
841.564	5368
841.701	5307
841.838	5235
841.975	5254
842.112	5265
842.249	5166
842.385	5128
842.522	5364
842.659	5147
842.796	5102
842.933	5189
843.069	5151
843.206	5178
843.343	5318
843.479	5212
843.616	5299
843.752	5048
843.889	5071
844.025	5201
844.162	5045
844.298	5174
844.435	5102
844.571	5029
844.708	5189
844.844	5307
844.98	5326
845.117	5303
845.253	5109
845.389	5045
845.525	5220
845.661	5132
845.798	5041
845.934	5128
846.07	5083
846.206	5220
846.342	5288
846.478	5193
846.614	5014
846.75	5022
846.886	4919
847.022	5147
847.158	5003
847.294	5064
847.429	5075
847.565	5014
847.701	5315
847.837	4850
847.972	4831
848.108	4919
848.244	4987
848.379	4763
848.515	4755
848.65	4736
848.786	4733
848.921	4797
849.057	4850
849.192	4885
849.328	4816
849.463	4797
849.598	4793
849.734	4793
849.869	4740
850.004	4630
850.14	4698
850.275	4653
850.41	4516
850.545	4561
850.68	4580
850.815	4672
850.95	4580
851.085	4782
851.22	4778
851.355	4691
851.49	4618
851.625	4592
851.76	4645
851.895	4573
852.03	4516
852.165	4603
852.299	4714
852.434	4729
852.569	4771
852.703	4767
852.838	4820
852.973	4915
853.107	4904
853.242	4778
853.376	4653
853.511	4512
853.645	4603
853.78	4809
853.914	4740
854.048	4656
854.183	4656
854.317	4668
854.451	4812
854.585	4706
854.72	4607
854.854	4687
854.988	4580
855.122	4596
855.256	4516
855.39	4679
855.524	4759
855.658	4668
855.792	4698
855.926	4767
856.06	4736
856.194	4759
856.327	4729
856.461	4634
856.595	4603
856.729	4615
856.862	4782
856.996	4668
857.13	4733
857.263	4736
857.397	4820
857.53	4634
857.664	4740
857.797	4725
857.931	4748
858.064	4668
858.197	4717
858.331	4641
858.464	4596
858.597	4527
858.731	4611
858.864	4649
858.997	4569
859.13	4645
859.263	4645
859.396	4687
859.529	4558
859.662	4527
859.795	4580
859.928	4611
860.061	4767
860.194	4771
860.327	4607
860.46	4577
860.592	4706
860.725	4721
860.858	4729
860.99	4592
861.123	4493
861.256	4535
861.388	4599
861.521	5425
861.653	4554
861.786	4428
861.918	4493
862.05	4519
862.183	4516
862.315	4630
862.447	4626
862.58	4527
862.712	4432
862.844	4306
862.976	4478
863.108	4447
863.24	4759
863.372	4344
863.504	4371
863.636	4424
863.768	4497
863.9	4424
864.032	4386
864.164	4386
864.296	4478
864.428	4531
864.559	4584
864.691	4497
864.823	4561
864.954	4489
865.086	4519
865.217	4481
865.349	4386
865.48	4421
865.612	4462
865.743	4656
865.875	4432
866.006	4402
866.137	4462
866.269	4432
866.4	4413
866.531	4405
866.662	4405
866.793	4413
866.924	4443
867.055	4481
867.186	4485
867.317	4462
867.448	4337
867.579	4405
867.71	4402
867.841	4356
867.972	4527
868.103	4432
868.233	4497
868.364	4402
868.495	4470
868.625	4607
868.756	4774
868.886	4588
869.017	4611
869.147	4752
869.278	4736
869.408	4641
869.539	4664
869.669	4714
869.799	4645
869.929	4771
870.06	4736
870.19	4949
870.32	4866
870.45	4904
870.58	4995
870.71	5064
870.84	5075
870.97	4965
871.1	4873
871.23	5162
871.36	5117
871.489	5105
871.619	5090
871.749	5067
871.879	5117
872.008	5174
872.138	5064
872.267	4991
872.397	4843
872.526	4839
872.656	4721
872.785	4824
872.915	4930
873.044	5052
873.173	4942
873.303	4942
873.432	4961
873.561	4923
873.69	4854
873.819	4858
873.948	4915
874.077	4828
874.206	4835
874.335	4752
874.464	4953
874.593	5117
874.722	4980
874.851	5121
874.979	5075
875.108	5022
875.237	4908
875.365	4892
875.494	4889
875.623	5006
875.751	4812
875.88	4919
876.008	4942
876.136	5018
876.265	5227
876.393	5307
876.521	5269
876.65	5197
876.778	5109
876.906	5121
877.034	5018
877.162	5083
877.29	5025
877.418	5041
877.546	5010
877.674	5083
877.802	5037
877.93	5045
878.058	4946
878.185	4881
878.313	5029
878.441	4976
878.568	4805
878.696	4866
878.824	4972
878.951	5014
879.079	5136
879.206	5284
879.333	5086
879.461	4961
879.588	5014
879.715	5067
879.842	5216
879.97	4991
880.097	4797
880.224	4755
880.351	4870
880.478	4816
880.605	4805
880.732	4786
880.859	5067
880.986	4858
881.112	4908
881.239	4824
881.366	4691
881.493	4592
881.619	4603
881.746	4626
881.872	4649
881.999	4622
882.125	4729
882.252	4786
882.378	4752
882.505	4938
882.631	4828
882.757	4649
882.883	4740
883.01	4683
883.136	4675
883.262	4550
883.388	4584
883.514	4854
883.64	4862
883.766	4774
883.892	4691
884.018	4763
884.143	4866
884.269	5041
884.395	4683
884.52	4660
884.646	4645
884.772	4580
884.897	4535
885.023	4694
885.148	4816
885.274	4870
885.399	4816
885.524	4645
885.65	4733
885.775	4706
885.9	4733
886.025	4862
886.15	4824
886.275	4744
886.4	4675
886.525	4740
886.65	4656
886.775	4687
886.9	4957
887.025	5010
887.149	4797
887.274	4698
887.399	4634
887.523	4596
887.648	4577
887.773	4561
887.897	4744
888.021	4797
888.146	4679
888.27	4862
888.395	4854
888.519	4828
888.643	4809
888.767	4828
888.891	4714
889.015	4603
889.139	4664
889.263	4611
889.387	4759
889.511	4892
889.635	4786
889.759	4599
889.883	4653
890.006	4698
890.13	4831
890.254	4607
890.377	4675
890.501	4519
890.624	4516
890.748	4630
890.871	4493
890.995	4424
891.118	4371
891.241	4512
891.364	4561
891.488	4656
891.611	4512
891.734	4535
891.857	4569
891.98	4558
892.103	4687
892.226	4565
892.349	4546
892.471	4459
892.594	4550
892.717	4588
892.839	4561
892.962	4584
893.085	4710
893.207	4607
893.33	4462
893.452	4538
893.575	4634
893.697	4558
893.819	4774
893.941	4858
894.064	4774
894.186	4569
894.308	4542
894.43	4687
894.552	4850
894.674	4755
894.796	4569
894.918	4622
895.04	4580
895.161	4706
895.283	4649
895.405	4527
895.526	4584
895.648	4683
895.769	4691
895.891	4683
896.012	4736
896.134	4721
896.255	4687
896.376	4580
896.498	4611
896.619	4672
896.74	4565
896.861	4618
896.982	4942
897.103	5037
897.224	4812
897.345	4744
897.466	4637
897.587	4759
897.708	4828
897.828	4774
897.949	4637
898.07	4535
898.19	4641
898.311	4847
898.431	4679
898.552	4771
898.672	4824
898.792	4873
898.913	4725
899.033	4615
899.153	4466
899.273	4405
899.393	4489
899.513	4489
899.633	4554
899.753	4565
899.873	4546
899.993	4546
900.113	4577
900.232	4561
900.352	4478
900.472	4485
900.591	4371
900.711	4489
900.83	4398
900.95	4573
901.069	4660
901.189	4550
901.308	4386
901.427	4322
901.546	4344
901.665	4409
901.784	4436
901.904	4386
902.023	4337
902.141	4204
902.26	4158
902.379	4337
902.498	4227
902.617	4253
902.735	4379
902.854	4371
902.973	4375
903.091	4196
903.21	4211
903.328	4303
903.446	4238
903.565	4295
903.683	4344
903.801	4261
903.919	4405
904.038	4478
904.156	4287
904.274	4459
904.392	4363
904.51	4424
904.627	4455
904.745	4588
904.863	4634
904.981	4402
905.098	4276
905.216	4398
905.334	4421
905.451	4432
905.569	4466
905.686	4527
905.803	4615
905.921	4394
906.038	4588
906.155	4497
906.272	4413
906.389	4470
906.506	4394
906.623	4363
906.74	4417
906.857	4314
906.974	4360
907.091	4546
907.208	4672
907.324	4641
907.441	4474
907.557	4341
907.674	4379
907.79	4333
907.907	4333
908.023	4455
908.139	4466
908.256	4481
908.372	4466
908.488	4455
908.604	4322
908.72	4337
908.836	4352
908.952	4386
909.068	4405
909.184	4588
909.3	4481
909.415	4599
909.531	4554
909.647	4337
909.762	4341
909.878	4337
909.993	4432
910.108	4421
910.224	4417
910.339	4428
910.454	4394
910.57	4375
910.685	4299
910.8	4672
910.915	4622
911.03	4478
911.145	4310
911.259	4341
911.374	4371
911.489	4325
911.604	4257
911.718	4169
911.833	4207
911.947	4074
912.062	3998
912.176	4154
912.291	4223
912.405	4246
912.519	4409
912.633	4504
912.748	4363
912.862	4291
912.976	4204
913.09	4055
913.204	4158
913.318	4249
913.431	4363
913.545	4352
913.659	4447
913.772	4375
913.886	4249
914	4246
914.113	4352
914.226	4459
914.34	4367
914.453	4261
914.566	4440
914.68	4348
914.793	4379
914.906	4185
915.019	4131
915.132	4105
915.245	4188
915.358	4173
915.47	4211
915.583	4276
915.696	4299
915.809	4409
915.921	4402
916.034	4276
916.146	4227
916.259	4215
916.371	4436
916.483	4314
916.595	4287
916.708	4284
916.82	4352
916.932	4284
917.044	4341
917.156	4348
917.268	4249
917.38	4257
917.491	4276
917.603	4367
917.715	4405
917.826	4428
917.938	4333
918.049	4253
918.161	4390
918.272	4527
918.384	4531
918.495	4455
918.606	4284
918.717	4284
918.828	4329
918.939	4352
919.05	4268
919.161	4318
919.272	4131
919.383	4242
919.494	4379
919.604	4691
919.715	4424
919.826	4291
919.936	4371
920.047	4497
920.157	4451
920.267	4656
920.378	4523
920.488	4512
920.598	4725
920.708	4915
920.818	4778
920.928	4786
921.038	4923
921.148	4915
921.258	4599
921.368	4584
921.477	4489
921.587	4428
921.697	4363
921.806	4565
921.916	4428
922.025	4242
922.134	4238
922.244	4249
922.353	4314
922.462	4154
922.571	4128
922.68	3983
922.789	3979
922.898	4021
923.007	3987
923.116	4082
923.224	4074
923.333	4074
923.442	3941
923.55	3991
923.659	4021
923.767	4109
923.876	4002
923.984	4128
924.092	3983
924.201	4086
924.309	4093
924.417	4154
924.525	4059
924.633	4097
924.741	5045
924.849	3915
924.956	4124
925.064	3956
925.172	3922
925.279	3960
925.387	4059
925.494	4116
925.602	4196
925.709	4181
925.816	4032
925.924	4143
926.031	4238
926.138	4230
926.245	4204
926.352	4150
926.459	4219
926.566	4299
926.673	4162
926.779	4101
926.886	4059
926.993	3983
927.099	3968
927.206	3937
927.312	3892
927.419	4074
927.525	4032
927.631	4074
927.737	3987
927.843	3949
927.95	3835
928.056	3979
928.162	3983
928.267	4086
928.373	4599
928.479	4173
928.585	3857
928.69	4017
928.796	4063
928.901	4013
929.007	3857
929.112	4025
929.218	3979
929.323	3937
929.428	3937
929.533	4078
929.638	3892
929.743	3972
929.848	4059
929.953	3979
930.058	3915
930.163	3774
930.267	3857
930.372	3987
930.477	3800
930.581	4051
930.685	3956
930.79	3800
930.894	3831
930.998	3861
931.103	4059
931.207	3713
931.311	3686
931.415	3698
931.519	3519
931.623	3561
