Data from test_V78500241_1112.txt Node
Date: Fri Mar 25 16:56:44 CST 2022
User: usil
Spectrometer: V785-0024
Trigger mode: 0
Integration Time (sec): 4.000000E-1
Scans to average: 1
Nonlinearity correction enabled: false
Boxcar width: 0
Storing dark spectrum: false
XAxis mode: Wavelengths
Number of Pixels in Spectrum: 1024
>>>>>Begin Spectral Data<<<<<
801.071	8039
801.214	8058
801.356	7883
801.499	7868
801.641	7689
801.783	7792
801.926	7982
802.068	7894
802.211	7883
802.353	7951
802.496	7814
802.638	7875
802.78	7883
802.923	7887
803.065	7879
803.208	7902
803.35	8043
803.492	8172
803.635	8130
803.777	8073
803.919	8164
804.061	8465
804.204	8153
804.346	8096
804.488	7989
804.63	8134
804.773	7997
804.915	8153
805.057	8271
805.199	8126
805.341	8138
805.483	8282
805.626	8221
805.768	8100
805.91	8119
806.052	8187
806.194	8153
806.336	8267
806.478	8134
806.62	7986
806.762	8073
806.904	8301
807.046	8457
807.188	8396
807.33	8328
807.472	8309
807.614	8096
807.756	8119
807.898	8027
808.04	7925
808.182	7814
808.324	7936
808.465	7989
808.607	8027
808.749	8111
808.891	8126
809.033	8218
809.174	8176
809.316	8054
809.458	8031
809.6	7993
809.741	8016
809.883	7997
810.025	8054
810.166	8058
810.308	8092
810.45	7982
810.591	7890
810.733	7757
810.875	7658
811.016	7506
811.158	7544
811.299	7537
811.441	7712
811.582	7696
811.724	7548
811.865	7491
812.007	7533
812.148	7540
812.29	7605
812.431	7704
812.573	7898
812.714	8046
812.855	8077
812.997	8172
813.138	8294
813.279	8153
813.421	8073
813.562	7982
813.703	7871
813.845	7738
813.986	7457
814.127	7251
814.268	7251
814.41	7228
814.551	7126
814.692	7194
814.833	7069
814.974	7027
815.115	7031
815.256	6970
815.397	6947
815.539	6947
815.68	6791
815.821	6722
815.962	6867
816.103	6814
816.244	6749
816.385	6650
816.526	6559
816.666	6418
816.807	6273
816.948	6399
817.089	6509
817.23	6483
817.371	6338
817.512	6376
817.653	6452
817.793	6410
817.934	6426
818.075	6422
818.216	6464
818.356	6353
818.497	6159
818.638	6110
818.778	6110
818.919	6087
819.06	6186
819.2	6323
819.341	6342
819.481	6338
819.622	6536
819.762	6749
819.903	6776
820.043	6623
820.184	6566
820.324	6532
820.465	6639
820.605	6650
820.746	6616
820.886	6494
821.026	6673
821.167	6681
821.307	6837
821.447	6707
821.588	6597
821.728	6563
821.868	6490
822.008	6304
822.149	6331
822.289	6365
822.429	6110
822.569	6095
822.709	6087
822.849	5889
822.99	5882
823.13	5859
823.27	5870
823.41	5760
823.55	5813
823.69	5756
823.83	5729
823.97	5653
824.11	5512
824.25	5497
824.389	5535
824.529	5627
824.669	5520
824.809	5600
824.949	5600
825.089	5615
825.228	5539
825.368	5372
825.508	5299
825.648	5341
825.787	5357
825.927	5360
826.067	5246
826.206	5269
826.346	5364
826.485	5425
826.625	5360
826.765	5524
826.904	5474
827.044	5223
827.183	5208
827.323	5128
827.462	5307
827.601	5105
827.741	5220
827.88	5246
828.02	5143
828.159	5193
828.298	5250
828.437	5326
828.577	5303
828.716	5452
828.855	5368
828.994	5132
829.134	5121
829.273	5231
829.412	5124
829.551	5147
829.69	5143
829.829	5231
829.968	5383
830.107	5208
830.246	5254
830.385	5147
830.524	5079
830.663	5102
830.802	4987
830.941	4843
831.08	4858
831.219	5003
831.357	4991
831.496	5124
831.635	4949
831.774	4873
831.913	4831
832.051	4729
832.19	4721
832.329	4820
832.467	4683
832.606	4599
832.744	4717
832.883	4740
833.022	4740
833.16	4793
833.299	4797
833.437	4793
833.576	4824
833.714	4805
833.852	4763
833.991	4900
834.129	4927
834.267	4946
834.406	4892
834.544	4942
834.682	4976
834.821	4999
834.959	5140
835.097	4938
835.235	5174
835.373	5045
835.511	5094
835.65	4972
835.788	5033
835.926	4900
836.064	4866
836.202	4908
836.34	5124
836.478	5193
836.615	5098
836.753	5204
836.891	5296
837.029	5231
837.167	5136
837.305	5189
837.443	5185
837.58	5045
837.718	5223
837.856	5155
837.993	5155
838.131	5174
838.269	5159
838.406	5166
838.544	5204
838.681	5037
838.819	4934
838.956	4889
839.094	4904
839.231	5022
839.369	5060
839.506	5448
839.643	5330
839.781	5086
839.918	5006
840.055	5067
840.193	5056
840.33	5060
840.467	5124
840.604	5193
840.742	5436
840.879	5109
841.016	5071
841.153	5140
841.29	5376
841.427	5372
841.564	5307
841.701	5296
841.838	5254
841.975	5197
842.112	5235
842.249	5143
842.385	5083
842.522	5284
842.659	5136
842.796	5067
842.933	5193
843.069	5136
843.206	5166
843.343	5303
843.479	5166
843.616	5159
843.752	5025
843.889	4999
844.025	5235
844.162	4984
844.298	5201
844.435	5064
844.571	4999
844.708	5201
844.844	5250
844.98	5376
845.117	5246
845.253	5143
845.389	5056
845.525	5174
845.661	5162
845.798	5018
845.934	5105
846.07	5071
846.206	5216
846.342	5250
846.478	5174
846.614	4938
846.75	4968
846.886	4923
847.022	5105
847.158	5025
847.294	5052
847.429	5079
847.565	5071
847.701	5277
847.837	4828
847.972	4805
848.108	4873
848.244	4972
848.379	4744
848.515	4691
848.65	4694
848.786	4771
848.921	4744
849.057	4854
849.192	4870
849.328	4790
849.463	4870
849.598	4824
849.734	4752
849.869	4725
850.004	4626
850.14	4630
850.275	4580
850.41	4504
850.545	4565
850.68	4580
850.815	4603
850.95	4618
851.085	4793
851.22	4729
851.355	4641
851.49	4607
851.625	4649
851.76	4626
851.895	4550
852.03	4462
852.165	4683
852.299	4683
852.434	4744
852.569	4755
852.703	4748
852.838	4835
852.973	4949
853.107	4889
853.242	4740
853.376	4645
853.511	4531
853.645	4580
853.78	4782
853.914	4622
854.048	4622
854.183	4618
854.317	4725
854.451	4850
854.585	4683
854.72	4607
854.854	4767
854.988	4584
855.122	4618
855.256	4500
855.39	4656
855.524	4717
855.658	4759
855.792	4675
855.926	4748
856.06	4771
856.194	4793
856.327	4668
856.461	4645
856.595	4596
856.729	4599
856.862	4698
856.996	4653
857.13	4717
857.263	4759
857.397	4778
857.53	4599
857.664	4698
857.797	4744
857.931	4778
858.064	4637
858.197	4702
858.331	4653
858.464	4565
858.597	4500
858.731	4634
858.864	4588
858.997	4569
859.13	4634
859.263	4622
859.396	4656
859.529	4554
859.662	4527
859.795	4504
859.928	4626
860.061	4759
860.194	4801
860.327	4603
860.46	4538
860.592	4649
860.725	4702
860.858	4710
860.99	4527
861.123	4485
861.256	4523
861.388	4618
861.521	5448
861.653	4443
861.786	4459
861.918	4405
862.05	4519
862.183	4523
862.315	4542
862.447	4634
862.58	4550
862.712	4348
862.844	4306
862.976	4443
863.108	4421
863.24	4748
863.372	4303
863.504	4413
863.636	4405
863.768	4493
863.9	4417
864.032	4371
864.164	4337
864.296	4478
864.428	4485
864.559	4516
864.691	4546
864.823	4550
864.954	4489
865.086	4478
865.217	4443
865.349	4462
865.48	4436
865.612	4485
865.743	4603
865.875	4417
866.006	4390
866.137	4466
866.269	4455
866.4	4409
866.531	4428
866.662	4352
866.793	4341
866.924	4413
867.055	4466
867.186	4470
867.317	4398
867.448	4348
867.579	4394
867.71	4386
867.841	4379
867.972	4462
868.103	4421
868.233	4485
868.364	4421
868.495	4443
868.625	4618
868.756	4740
868.886	4561
869.017	4599
869.147	4752
869.278	4706
869.408	4622
869.539	4649
869.669	4778
869.799	4630
869.929	4733
870.06	4698
870.19	4930
870.32	4934
870.45	4930
870.58	4972
870.71	5064
870.84	5086
870.97	4942
871.1	4877
871.23	5113
871.36	5121
871.489	5071
871.619	5060
871.749	5025
871.879	5102
872.008	5143
872.138	5037
872.267	4987
872.397	4816
872.526	4801
872.656	4710
872.785	4793
872.915	4984
873.044	4972
873.173	4896
873.303	4972
873.432	4873
873.561	4991
873.69	4854
873.819	4843
873.948	4892
874.077	4873
874.206	4763
874.335	4790
874.464	4927
874.593	5067
874.722	4927
874.851	5052
874.979	5022
875.108	5029
875.237	4881
875.365	4843
875.494	4900
875.623	4949
875.751	4805
875.88	4889
876.008	4999
876.136	5006
876.265	5231
876.393	5311
876.521	5197
876.65	5136
876.778	5117
876.906	5083
877.034	5018
877.162	5029
877.29	5003
877.418	5086
877.546	4999
877.674	5003
877.802	4999
877.93	5025
878.058	4911
878.185	4896
878.313	4934
878.441	4934
878.568	4793
878.696	4824
878.824	4949
878.951	4995
879.079	5136
879.206	5246
879.333	5109
879.461	4965
879.588	4991
879.715	5075
879.842	5223
879.97	4999
880.097	4786
880.224	4714
880.351	4793
880.478	4847
880.605	4835
880.732	4763
880.859	5109
880.986	4896
881.112	4896
881.239	4752
881.366	4675
881.493	4577
881.619	4550
881.746	4668
881.872	4618
881.999	4626
882.125	4729
882.252	4771
882.378	4828
882.505	4915
882.631	4816
882.757	4641
882.883	4714
883.01	4744
883.136	4634
883.262	4615
883.388	4565
883.514	4767
883.64	4835
883.766	4771
883.892	4687
884.018	4698
884.143	4877
884.269	4949
884.395	4641
884.52	4618
884.646	4653
884.772	4580
884.897	4584
885.023	4664
885.148	4771
885.274	4812
885.399	4824
885.524	4714
885.65	4691
885.775	4790
885.9	4687
886.025	4854
886.15	4774
886.275	4759
886.4	4672
886.525	4702
886.65	4645
886.775	4744
886.9	4900
887.025	5014
887.149	4828
887.274	4649
887.399	4550
887.523	4580
887.648	4580
887.773	4569
887.897	4744
888.021	4748
888.146	4698
888.27	4755
888.395	4900
888.519	4824
888.643	4797
888.767	4790
888.891	4706
889.015	4588
889.139	4660
889.263	4569
889.387	4778
889.511	4854
889.635	4862
889.759	4622
889.883	4577
890.006	4736
890.13	4816
890.254	4622
890.377	4717
890.501	4538
890.624	4497
890.748	4641
890.871	4485
890.995	4421
891.118	4379
891.241	4497
891.364	4531
891.488	4611
891.611	4478
891.734	4474
891.857	4580
891.98	4527
892.103	4698
892.226	4634
892.349	4485
892.471	4356
892.594	4535
892.717	4577
892.839	4527
892.962	4599
893.085	4634
893.207	4573
893.33	4447
893.452	4508
893.575	4611
893.697	4569
893.819	4778
893.941	4839
894.064	4797
894.186	4550
894.308	4569
894.43	4755
894.552	4816
894.674	4767
894.796	4504
894.918	4558
895.04	4546
895.161	4656
895.283	4679
895.405	4603
895.526	4622
895.648	4649
895.769	4672
895.891	4725
896.012	4733
896.134	4752
896.255	4637
896.376	4656
896.498	4607
896.619	4679
896.74	4637
896.861	4626
896.982	4915
897.103	5090
897.224	4812
897.345	4740
897.466	4630
897.587	4744
897.708	4835
897.828	4793
897.949	4668
898.07	4542
898.19	4649
898.311	4812
898.431	4687
898.552	4714
898.672	4809
898.792	4831
898.913	4698
899.033	4592
899.153	4512
899.273	4386
899.393	4538
899.513	4497
899.633	4516
899.753	4531
899.873	4508
899.993	4596
900.113	4527
900.232	4573
900.352	4527
900.472	4466
900.591	4379
900.711	4500
900.83	4440
900.95	4599
901.069	4653
901.189	4519
901.308	4379
901.427	4272
901.546	4341
901.665	4459
901.784	4538
901.904	4356
902.023	4303
902.141	4196
902.26	4188
902.379	4348
902.498	4253
902.617	4188
902.735	4337
902.854	4371
902.973	4348
903.091	4219
903.21	4211
903.328	4303
903.446	4227
903.565	4234
903.683	4367
903.801	4249
903.919	4386
904.038	4398
904.156	4318
904.274	4417
904.392	4344
904.51	4443
904.627	4440
904.745	4550
904.863	4626
904.981	4394
905.098	4287
905.216	4344
905.334	4440
905.451	4459
905.569	4394
905.686	4535
905.803	4588
905.921	4383
906.038	4500
906.155	4474
906.272	4413
906.389	4485
906.506	4356
906.623	4375
906.74	4394
906.857	4276
906.974	4367
907.091	4538
907.208	4630
907.324	4599
907.441	4470
907.557	4325
907.674	4329
907.79	4329
907.907	4447
908.023	4470
908.139	4447
908.256	4421
908.372	4421
908.488	4417
908.604	4325
908.72	4325
908.836	4386
908.952	4318
909.068	4402
909.184	4561
909.3	4474
909.415	4538
909.531	4508
909.647	4310
909.762	4379
909.878	4303
909.993	4417
910.108	4375
910.224	4394
910.339	4462
910.454	4386
910.57	4341
910.685	4314
910.8	4653
910.915	4554
911.03	4527
911.145	4341
911.259	4291
911.374	4383
911.489	4318
911.604	4227
911.718	4131
911.833	4215
911.947	4051
912.062	3979
912.176	4150
912.291	4268
912.405	4207
912.519	4409
912.633	4535
912.748	4333
912.862	4303
912.976	4246
913.09	4105
913.204	4162
913.318	4253
913.431	4398
913.545	4291
913.659	4436
913.772	4371
913.886	4238
914	4242
914.113	4348
914.226	4421
914.34	4371
914.453	4238
914.566	4417
914.68	4360
914.793	4344
914.906	4223
915.019	4154
915.132	4082
915.245	4158
915.358	4196
915.47	4223
915.583	4257
915.696	4310
915.809	4390
915.921	4417
916.034	4249
916.146	4230
916.259	4169
916.371	4329
916.483	4367
916.595	4276
916.708	4325
916.82	4299
916.932	4280
917.044	4322
917.156	4299
917.268	4238
917.38	4261
917.491	4261
917.603	4325
917.715	4405
917.826	4436
917.938	4329
918.049	4238
918.161	4413
918.272	4527
918.384	4531
918.495	4447
918.606	4325
918.717	4257
918.828	4287
918.939	4356
919.05	4207
919.161	4314
919.272	4120
919.383	4238
919.494	4398
919.604	4637
919.715	4432
919.826	4329
919.936	4417
920.047	4519
920.157	4542
920.267	4698
920.378	4546
920.488	4481
920.598	4714
920.708	4938
920.818	4725
920.928	4778
921.038	4919
921.148	4889
921.258	4603
921.368	4599
921.477	4470
921.587	4481
921.697	4291
921.806	4546
921.916	4386
922.025	4257
922.134	4261
922.244	4227
922.353	4299
922.462	4147
922.571	4135
922.68	4017
922.789	3945
922.898	4040
923.007	3979
923.116	4105
923.224	4055
923.333	4071
923.442	4013
923.55	3991
923.659	4040
923.767	4097
923.876	3991
923.984	4120
924.092	3956
924.201	4082
924.309	4082
924.417	4120
924.525	4044
924.633	4063
924.741	4866
924.849	3876
924.956	4090
925.064	3968
925.172	3888
925.279	3991
925.387	4051
925.494	4036
925.602	4204
925.709	4147
925.816	4029
925.924	4086
926.031	4200
926.138	4181
926.245	4215
926.352	4090
926.459	4249
926.566	4333
926.673	4139
926.779	4124
926.886	4105
926.993	4010
927.099	3953
927.206	3926
927.312	3953
927.419	4032
927.525	4048
927.631	4059
927.737	3941
927.843	3926
927.95	3812
928.056	3918
928.162	3972
928.267	4051
928.373	4637
928.479	4116
928.585	3937
928.69	3979
928.796	4071
928.901	3953
929.007	3789
929.112	3991
929.218	3972
929.323	3892
929.428	3968
929.533	4109
929.638	3899
929.743	3930
929.848	3987
929.953	3975
930.058	3960
930.163	3800
930.267	3781
930.372	3998
930.477	3835
930.581	4048
930.685	3937
930.79	3808
930.894	3869
930.998	3876
931.103	4025
931.207	3720
931.311	3698
931.415	3679
931.519	3515
931.623	3530
