Data from test_V78500241_1976.txt Node
Date: Fri Mar 25 17:02:44 CST 2022
User: usil
Spectrometer: V785-0024
Trigger mode: 0
Integration Time (sec): 4.000000E-1
Scans to average: 1
Nonlinearity correction enabled: false
Boxcar width: 0
Storing dark spectrum: false
XAxis mode: Wavelengths
Number of Pixels in Spectrum: 1024
>>>>>Begin Spectral Data<<<<<
801.071	7955
801.214	7947
801.356	7864
801.499	7826
801.641	7765
801.783	7811
801.926	7940
802.068	7909
802.211	7913
802.353	7982
802.496	7788
802.638	7837
802.78	7845
802.923	7913
803.065	7769
803.208	7807
803.35	8008
803.492	8096
803.635	8153
803.777	7993
803.919	8065
804.061	8438
804.204	8187
804.346	8084
804.488	7940
804.63	8050
804.773	7951
804.915	8145
805.057	8343
805.199	8164
805.341	8191
805.483	8157
805.626	8240
805.768	8130
805.91	8183
806.052	8206
806.194	8115
806.336	8210
806.478	8073
806.62	8069
806.762	8077
806.904	8191
807.046	8507
807.188	8415
807.33	8263
807.472	8328
807.614	8180
807.756	8134
807.898	8024
808.04	7879
808.182	7841
808.324	7936
808.465	7887
808.607	7989
808.749	8168
808.891	8202
809.033	8298
809.174	8183
809.316	8088
809.458	8084
809.6	8012
809.741	7997
809.883	7974
810.025	8103
810.166	8092
810.308	7936
810.45	7982
810.591	7814
810.733	7757
810.875	7616
811.016	7544
811.158	7434
811.299	7540
811.441	7674
811.582	7605
811.724	7525
811.865	7445
812.007	7597
812.148	7544
812.29	7609
812.431	7719
812.573	7894
812.714	7921
812.855	8126
812.997	8214
813.138	8225
813.279	8153
813.421	8012
813.562	7959
813.703	7830
813.845	7685
813.986	7419
814.127	7228
814.268	7187
814.41	7129
814.551	7206
814.692	7206
814.833	7099
814.974	7065
815.115	7072
815.256	6932
815.397	6875
815.539	6939
815.68	6779
815.821	6760
815.962	6829
816.103	6726
816.244	6696
816.385	6574
816.526	6654
816.666	6517
816.807	6273
816.948	6479
817.089	6471
817.23	6399
817.371	6357
817.512	6418
817.653	6369
817.793	6350
817.934	6388
818.075	6490
818.216	6391
818.356	6376
818.497	6239
818.638	6102
818.778	6140
818.919	6114
819.06	6190
819.2	6346
819.341	6285
819.481	6342
819.622	6574
819.762	6719
819.903	6722
820.043	6608
820.184	6525
820.324	6589
820.465	6719
820.605	6669
820.746	6646
820.886	6502
821.026	6711
821.167	6753
821.307	6856
821.447	6818
821.588	6688
821.728	6559
821.868	6525
822.008	6342
822.149	6414
822.289	6334
822.429	6163
822.569	6140
822.709	6129
822.849	5984
822.99	5901
823.13	5927
823.27	5958
823.41	5844
823.55	5855
823.69	5828
823.83	5779
823.97	5688
824.11	5551
824.25	5516
824.389	5547
824.529	5630
824.669	5547
824.809	5665
824.949	5699
825.089	5634
825.228	5581
825.368	5410
825.508	5368
825.648	5318
825.787	5360
825.927	5368
826.067	5353
826.206	5322
826.346	5395
826.485	5471
826.625	5459
826.765	5577
826.904	5478
827.044	5334
827.183	5201
827.323	5128
827.462	5292
827.601	5185
827.741	5231
827.88	5250
828.02	5170
828.159	5258
828.298	5318
828.437	5398
828.577	5269
828.716	5490
828.855	5353
828.994	5235
829.134	5178
829.273	5223
829.412	5178
829.551	5201
829.69	5208
829.829	5273
829.968	5452
830.107	5265
830.246	5341
830.385	5208
830.524	5159
830.663	5121
830.802	5025
830.941	4877
831.08	4873
831.219	5025
831.357	4961
831.496	5178
831.635	5010
831.774	4873
831.913	4908
832.051	4767
832.19	4774
832.329	4908
832.467	4744
832.606	4645
832.744	4752
832.883	4759
833.022	4767
833.16	4812
833.299	4896
833.437	4870
833.576	4835
833.714	4927
833.852	4892
833.991	4930
834.129	4938
834.267	5037
834.406	4953
834.544	5045
834.682	5014
834.821	4980
834.959	5189
835.097	4984
835.235	5201
835.373	5086
835.511	5159
835.65	5071
835.788	5045
835.926	4923
836.064	4854
836.202	4949
836.34	5181
836.478	5280
836.615	5128
836.753	5231
836.891	5311
837.029	5277
837.167	5246
837.305	5151
837.443	5212
837.58	5128
837.718	5265
837.856	5181
837.993	5170
838.131	5250
838.269	5212
838.406	5216
838.544	5166
838.681	5048
838.819	5048
838.956	4930
839.094	4953
839.231	4984
839.369	5143
839.506	5421
839.643	5277
839.781	5155
839.918	5018
840.055	5071
840.193	5117
840.33	5105
840.467	5193
840.604	5223
840.742	5493
840.879	5090
841.016	5140
841.153	5189
841.29	5444
841.427	5395
841.564	5383
841.701	5436
841.838	5345
841.975	5242
842.112	5277
842.249	5174
842.385	5117
842.522	5318
842.659	5181
842.796	5212
842.933	5136
843.069	5204
843.206	5193
843.343	5349
843.479	5341
843.616	5315
843.752	5064
843.889	4999
844.025	5204
844.162	5022
844.298	5227
844.435	5094
844.571	5041
844.708	5227
844.844	5303
844.98	5360
845.117	5311
845.253	5189
845.389	5075
845.525	5212
845.661	5174
845.798	5094
845.934	5162
846.07	5056
846.206	5239
846.342	5353
846.478	5159
846.614	4991
846.75	4980
846.886	4991
847.022	5197
847.158	5075
847.294	5060
847.429	5128
847.565	5064
847.701	5372
847.837	4843
847.972	4881
848.108	5014
848.244	4934
848.379	4782
848.515	4744
848.65	4691
848.786	4710
848.921	4824
849.057	4870
849.192	4934
849.328	4831
849.463	4923
849.598	4850
849.734	4759
849.869	4725
850.004	4634
850.14	4660
850.275	4675
850.41	4550
850.545	4622
850.68	4634
850.815	4626
850.95	4634
851.085	4843
851.22	4786
851.355	4717
851.49	4645
851.625	4710
851.76	4664
851.895	4546
852.03	4542
852.165	4717
852.299	4759
852.434	4870
852.569	4767
852.703	4774
852.838	4801
852.973	4965
853.107	4957
853.242	4771
853.376	4752
853.511	4573
853.645	4649
853.78	4862
853.914	4763
854.048	4706
854.183	4653
854.317	4706
854.451	4839
854.585	4683
854.72	4698
854.854	4812
854.988	4653
855.122	4649
855.256	4554
855.39	4691
855.524	4828
855.658	4736
855.792	4675
855.926	4729
856.06	4763
856.194	4847
856.327	4721
856.461	4607
856.595	4618
856.729	4603
856.862	4793
856.996	4740
857.13	4729
857.263	4767
857.397	4824
857.53	4660
857.664	4736
857.797	4812
857.931	4801
858.064	4714
858.197	4763
858.331	4618
858.464	4645
858.597	4519
858.731	4641
858.864	4679
858.997	4660
859.13	4694
859.263	4668
859.396	4698
859.529	4630
859.662	4584
859.795	4584
859.928	4653
860.061	4771
860.194	4805
860.327	4603
860.46	4626
860.592	4740
860.725	4687
860.858	4698
860.99	4596
861.123	4577
861.256	4542
861.388	4603
861.521	5178
861.653	4466
861.786	4462
861.918	4462
862.05	4542
862.183	4580
862.315	4634
862.447	4656
862.58	4611
862.712	4428
862.844	4386
862.976	4535
863.108	4466
863.24	4782
863.372	4344
863.504	4451
863.636	4424
863.768	4527
863.9	4455
864.032	4402
864.164	4451
864.296	4504
864.428	4538
864.559	4592
864.691	4535
864.823	4538
864.954	4500
865.086	4527
865.217	4497
865.349	4432
865.48	4531
865.612	4569
865.743	4653
865.875	4527
866.006	4462
866.137	4455
866.269	4462
866.4	4459
866.531	4424
866.662	4428
866.793	4405
866.924	4383
867.055	4538
867.186	4466
867.317	4424
867.448	4375
867.579	4371
867.71	4383
867.841	4409
867.972	4508
868.103	4474
868.233	4428
868.364	4478
868.495	4538
868.625	4687
868.756	4820
868.886	4596
869.017	4683
869.147	4797
869.278	4774
869.408	4664
869.539	4691
869.669	4668
869.799	4679
869.929	4740
870.06	4782
870.19	4957
870.32	4930
870.45	4984
870.58	5041
870.71	5140
870.84	5128
870.97	4911
871.1	4889
871.23	5132
871.36	5159
871.489	4999
871.619	5117
871.749	5136
871.879	5136
872.008	5166
872.138	5079
872.267	4980
872.397	4892
872.526	4831
872.656	4710
872.785	4812
872.915	4938
873.044	5083
873.173	4919
873.303	4987
873.432	4961
873.561	4987
873.69	4915
873.819	4911
873.948	4927
874.077	4847
874.206	4744
874.335	4843
874.464	4930
874.593	5060
874.722	4965
874.851	5121
874.979	5136
875.108	5064
875.237	4953
875.365	4877
875.494	4923
875.623	5003
875.751	4820
875.88	4911
876.008	5010
876.136	4984
876.265	5216
876.393	5379
876.521	5261
876.65	5235
876.778	5159
876.906	5094
877.034	5025
877.162	5014
877.29	5041
877.418	5090
877.546	5045
877.674	5014
877.802	5006
877.93	5041
878.058	4949
878.185	4877
878.313	4976
878.441	4949
878.568	4877
878.696	4858
878.824	4987
878.951	5048
879.079	5166
879.206	5273
879.333	5071
879.461	5022
879.588	4942
879.715	5136
879.842	5231
879.97	5029
880.097	4782
880.224	4797
880.351	4820
880.478	4850
880.605	4801
880.732	4809
880.859	5128
880.986	4919
881.112	4927
881.239	4733
881.366	4656
881.493	4615
881.619	4622
881.746	4660
881.872	4668
881.999	4649
882.125	4694
882.252	4812
882.378	4877
882.505	4972
882.631	4824
882.757	4664
882.883	4771
883.01	4767
883.136	4694
883.262	4622
883.388	4611
883.514	4843
883.64	4866
883.766	4793
883.892	4710
884.018	4714
884.143	4892
884.269	5010
884.395	4634
884.52	4656
884.646	4664
884.772	4573
884.897	4531
885.023	4710
885.148	4797
885.274	4858
885.399	4790
885.524	4767
885.65	4755
885.775	4793
885.9	4725
886.025	4843
886.15	4801
886.275	4782
886.4	4645
886.525	4774
886.65	4687
886.775	4721
886.9	4938
887.025	5045
887.149	4793
887.274	4675
887.399	4584
887.523	4588
887.648	4577
887.773	4538
887.897	4767
888.021	4744
888.146	4714
888.27	4809
888.395	4934
888.519	4763
888.643	4835
888.767	4877
888.891	4706
889.015	4622
889.139	4656
889.263	4611
889.387	4782
889.511	4862
889.635	4778
889.759	4626
889.883	4637
890.006	4752
890.13	4828
890.254	4607
890.377	4683
890.501	4565
890.624	4565
890.748	4645
890.871	4500
890.995	4421
891.118	4402
891.241	4535
891.364	4592
891.488	4641
891.611	4500
891.734	4580
891.857	4592
891.98	4573
892.103	4664
892.226	4592
892.349	4523
892.471	4398
892.594	4580
892.717	4637
892.839	4550
892.962	4592
893.085	4634
893.207	4615
893.33	4474
893.452	4489
893.575	4672
893.697	4630
893.819	4790
893.941	4831
894.064	4771
894.186	4580
894.308	4523
894.43	4698
894.552	4870
894.674	4771
894.796	4573
894.918	4630
895.04	4592
895.161	4721
895.283	4660
895.405	4618
895.526	4630
895.648	4714
895.769	4656
895.891	4774
896.012	4763
896.134	4706
896.255	4729
896.376	4645
896.498	4622
896.619	4672
896.74	4653
896.861	4649
896.982	4934
897.103	5071
897.224	4858
897.345	4740
897.466	4554
897.587	4721
897.708	4870
897.828	4809
897.949	4675
898.07	4596
898.19	4607
898.311	4797
898.431	4660
898.552	4759
898.672	4793
898.792	4812
898.913	4725
899.033	4637
899.153	4504
899.273	4462
899.393	4542
899.513	4535
899.633	4527
899.753	4596
899.873	4542
899.993	4607
900.113	4516
900.232	4599
900.352	4538
900.472	4481
900.591	4436
900.711	4523
900.83	4443
900.95	4626
901.069	4702
901.189	4531
901.308	4367
901.427	4363
901.546	4379
901.665	4504
901.784	4546
901.904	4363
902.023	4310
902.141	4211
902.26	4173
902.379	4318
902.498	4234
902.617	4223
902.735	4367
902.854	4413
902.973	4371
903.091	4219
903.21	4246
903.328	4325
903.446	4276
903.565	4238
903.683	4363
903.801	4325
903.919	4394
904.038	4424
904.156	4276
904.274	4443
904.392	4402
904.51	4417
904.627	4436
904.745	4569
904.863	4630
904.981	4367
905.098	4325
905.216	4360
905.334	4455
905.451	4447
905.569	4440
905.686	4577
905.803	4535
905.921	4443
906.038	4512
906.155	4508
906.272	4402
906.389	4500
906.506	4318
906.623	4375
906.74	4379
906.857	4341
906.974	4360
907.091	4538
907.208	4687
907.324	4622
907.441	4459
907.557	4314
907.674	4409
907.79	4337
907.907	4390
908.023	4470
908.139	4481
908.256	4424
908.372	4432
908.488	4474
908.604	4402
908.72	4329
908.836	4367
908.952	4363
909.068	4428
909.184	4592
909.3	4516
909.415	4558
909.531	4588
909.647	4413
909.762	4394
909.878	4318
909.993	4462
910.108	4474
910.224	4413
910.339	4478
910.454	4386
910.57	4371
910.685	4310
910.8	4630
910.915	4592
911.03	4512
911.145	4333
911.259	4322
911.374	4337
911.489	4337
911.604	4287
911.718	4150
911.833	4242
911.947	4097
912.062	4044
912.176	4211
912.291	4234
912.405	4280
912.519	4500
912.633	4519
912.748	4337
912.862	4329
912.976	4154
913.09	4135
913.204	4169
913.318	4268
913.431	4352
913.545	4363
913.659	4474
913.772	4341
913.886	4227
914	4207
914.113	4413
914.226	4436
914.34	4360
914.453	4272
914.566	4440
914.68	4314
914.793	4333
914.906	4139
915.019	4169
915.132	4074
915.245	4207
915.358	4227
915.47	4227
915.583	4253
915.696	4318
915.809	4394
915.921	4440
916.034	4234
916.146	4196
916.259	4192
916.371	4421
916.483	4344
916.595	4242
916.708	4284
916.82	4337
916.932	4325
917.044	4314
917.156	4325
917.268	4238
917.38	4299
917.491	4272
917.603	4371
917.715	4413
917.826	4462
917.938	4363
918.049	4242
918.161	4390
918.272	4497
918.384	4569
918.495	4485
918.606	4322
918.717	4268
918.828	4348
918.939	4398
919.05	4215
919.161	4325
919.272	4147
919.383	4257
919.494	4421
919.604	4618
919.715	4443
919.826	4272
919.936	4386
920.047	4531
920.157	4493
920.267	4729
920.378	4531
920.488	4474
920.598	4694
920.708	4911
920.818	4744
920.928	4714
921.038	4968
921.148	4938
921.258	4580
921.368	4542
921.477	4516
921.587	4459
921.697	4363
921.806	4531
921.916	4436
922.025	4306
922.134	4284
922.244	4223
922.353	4337
922.462	4215
922.571	4143
922.68	4086
922.789	3926
922.898	4036
923.007	3994
923.116	4112
923.224	4029
923.333	4048
923.442	4010
923.55	3949
923.659	4032
923.767	4097
923.876	3987
923.984	4112
924.092	4002
924.201	4124
924.309	4109
924.417	4124
924.525	4055
924.633	4093
924.741	5067
924.849	3945
924.956	4112
925.064	3937
925.172	3915
925.279	3922
925.387	4059
925.494	4032
925.602	4261
925.709	4181
925.816	4048
925.924	4112
926.031	4234
926.138	4154
926.245	4204
926.352	4074
926.459	4246
926.566	4337
926.673	4143
926.779	4082
926.886	4071
926.993	3998
927.099	3922
927.206	3949
927.312	3934
927.419	4067
927.525	4059
927.631	4093
927.737	3998
927.843	3964
927.95	3865
928.056	3968
928.162	3991
928.267	4086
928.373	4550
928.479	4109
928.585	3884
928.69	4017
928.796	4074
928.901	3979
929.007	3876
929.112	3998
929.218	3972
929.323	3930
929.428	3953
929.533	4135
929.638	3915
929.743	3941
929.848	4025
929.953	4029
930.058	3949
930.163	3770
930.267	3800
930.372	3968
930.477	3793
930.581	4101
930.685	3968
930.79	3808
930.894	3876
930.998	3865
931.103	4040
931.207	3709
931.311	3701
931.415	3656
931.519	3549
931.623	3587
