Data from test_V78500241_2733.txt Node
Date: Fri Mar 25 17:08:00 CST 2022
User: usil
Spectrometer: V785-0024
Trigger mode: 0
Integration Time (sec): 4.000000E-1
Scans to average: 1
Nonlinearity correction enabled: false
Boxcar width: 0
Storing dark spectrum: false
XAxis mode: Wavelengths
Number of Pixels in Spectrum: 1024
>>>>>Begin Spectral Data<<<<<
801.071	8123
801.214	8020
801.356	7955
801.499	7913
801.641	7860
801.783	7887
801.926	8031
802.068	7993
802.211	8088
802.353	8096
802.496	7902
802.638	7936
802.78	7913
802.923	7970
803.065	7913
803.208	7917
803.35	8062
803.492	8081
803.635	8305
803.777	8096
803.919	8252
804.061	8617
804.204	8183
804.346	8069
804.488	8024
804.63	8180
804.773	8043
804.915	8191
805.057	8358
805.199	8195
805.341	8225
805.483	8305
805.626	8221
805.768	8187
805.91	8157
806.052	8229
806.194	8149
806.336	8362
806.478	8130
806.62	8088
806.762	8138
806.904	8176
807.046	8454
807.188	8408
807.33	8343
807.472	8317
807.614	8202
807.756	8195
807.898	8054
808.04	7833
808.182	7967
808.324	7917
808.465	7921
808.607	8161
808.749	8244
808.891	8343
809.033	8320
809.174	8267
809.316	8134
809.458	7989
809.6	8065
809.741	8062
809.883	8107
810.025	8153
810.166	8145
810.308	8077
810.45	8054
810.591	7925
810.733	7769
810.875	7662
811.016	7575
811.158	7590
811.299	7655
811.441	7822
811.582	7704
811.724	7696
811.865	7613
812.007	7670
812.148	7674
812.29	7704
812.431	7772
812.573	7860
812.714	8050
812.855	8229
812.997	8225
813.138	8355
813.279	8187
813.421	8183
813.562	8024
813.703	7894
813.845	7753
813.986	7514
814.127	7266
814.268	7301
814.41	7202
814.551	7240
814.692	7232
814.833	7080
814.974	7129
815.115	7164
815.256	6916
815.397	6916
815.539	6996
815.68	6901
815.821	6837
815.962	6928
816.103	6935
816.244	6730
816.385	6612
816.526	6612
816.666	6540
816.807	6342
816.948	6502
817.089	6506
817.23	6448
817.371	6395
817.512	6479
817.653	6429
817.793	6350
817.934	6456
818.075	6521
818.216	6513
818.356	6407
818.497	6273
818.638	6114
818.778	6148
818.919	6163
819.06	6167
819.2	6334
819.341	6350
819.481	6372
819.622	6578
819.762	6791
819.903	6734
820.043	6566
820.184	6589
820.324	6536
820.465	6707
820.605	6745
820.746	6681
820.886	6544
821.026	6642
821.167	6760
821.307	6810
821.447	6810
821.588	6719
821.728	6593
821.868	6494
822.008	6323
822.149	6388
822.289	6376
822.429	6232
822.569	6178
822.709	6140
822.849	5973
822.99	5920
823.13	5942
823.27	5973
823.41	5821
823.55	5798
823.69	5821
823.83	5771
823.97	5665
824.11	5551
824.25	5497
824.389	5615
824.529	5649
824.669	5570
824.809	5630
824.949	5707
825.089	5668
825.228	5630
825.368	5429
825.508	5414
825.648	5337
825.787	5417
825.927	5395
826.067	5280
826.206	5357
826.346	5372
826.485	5433
826.625	5406
826.765	5619
826.904	5535
827.044	5303
827.183	5235
827.323	5140
827.462	5307
827.601	5231
827.741	5181
827.88	5284
828.02	5140
828.159	5265
828.298	5364
828.437	5425
828.577	5303
828.716	5539
828.855	5357
828.994	5223
829.134	5143
829.273	5201
829.412	5170
829.551	5178
829.69	5185
829.829	5273
829.968	5379
830.107	5280
830.246	5292
830.385	5155
830.524	5166
830.663	5056
830.802	4965
830.941	4870
831.08	4873
831.219	4984
831.357	4976
831.496	5197
831.635	4976
831.774	4862
831.913	4866
832.051	4733
832.19	4740
832.329	4900
832.467	4725
832.606	4710
832.744	4786
832.883	4763
833.022	4748
833.16	4774
833.299	4820
833.437	4797
833.576	4877
833.714	4854
833.852	4900
833.991	4900
834.129	4930
834.267	5010
834.406	4862
834.544	4961
834.682	5014
834.821	4987
834.959	5197
835.097	5045
835.235	5216
835.373	5102
835.511	5124
835.65	5025
835.788	5079
835.926	4980
836.064	4900
836.202	4949
836.34	5166
836.478	5235
836.615	5151
836.753	5193
836.891	5265
837.029	5269
837.167	5254
837.305	5212
837.443	5166
837.58	5136
837.718	5288
837.856	5162
837.993	5223
838.131	5258
838.269	5220
838.406	5227
838.544	5250
838.681	5056
838.819	5064
838.956	4938
839.094	4908
839.231	4987
839.369	5041
839.506	5440
839.643	5261
839.781	5025
839.918	5048
840.055	5098
840.193	5090
840.33	5147
840.467	5109
840.604	5201
840.742	5417
840.879	5147
841.016	5109
841.153	5223
841.29	5353
841.427	5360
841.564	5341
841.701	5372
841.838	5345
841.975	5223
842.112	5227
842.249	5151
842.385	5105
842.522	5372
842.659	5208
842.796	5147
842.933	5189
843.069	5151
843.206	5155
843.343	5353
843.479	5231
843.616	5277
843.752	5037
843.889	5025
844.025	5220
844.162	5037
844.298	5265
844.435	5105
844.571	5079
844.708	5265
844.844	5315
844.98	5360
845.117	5318
845.253	5086
845.389	5121
845.525	5159
845.661	5159
845.798	5079
845.934	5178
846.07	5045
846.206	5284
846.342	5261
846.478	5162
846.614	5067
846.75	4949
846.886	4908
847.022	5170
847.158	5083
847.294	5064
847.429	5117
847.565	5083
847.701	5334
847.837	4854
847.972	4809
848.108	4934
848.244	4934
848.379	4767
848.515	4778
848.65	4752
848.786	4752
848.921	4786
849.057	4870
849.192	4942
849.328	4843
849.463	4870
849.598	4805
849.734	4778
849.869	4717
850.004	4584
850.14	4660
850.275	4615
850.41	4508
850.545	4523
850.68	4561
850.815	4637
850.95	4611
851.085	4786
851.22	4717
851.355	4683
851.49	4683
851.625	4645
851.76	4645
851.895	4554
852.03	4512
852.165	4672
852.299	4744
852.434	4782
852.569	4759
852.703	4793
852.838	4900
852.973	4942
853.107	4911
853.242	4759
853.376	4717
853.511	4546
853.645	4615
853.78	4847
853.914	4710
854.048	4714
854.183	4672
854.317	4691
854.451	4839
854.585	4656
854.72	4634
854.854	4771
854.988	4607
855.122	4637
855.256	4538
855.39	4691
855.524	4755
855.658	4706
855.792	4691
855.926	4763
856.06	4786
856.194	4839
856.327	4717
856.461	4615
856.595	4653
856.729	4641
856.862	4721
856.996	4702
857.13	4706
857.263	4786
857.397	4797
857.53	4653
857.664	4736
857.797	4786
857.931	4816
858.064	4759
858.197	4721
858.331	4668
858.464	4634
858.597	4573
858.731	4668
858.864	4679
858.997	4611
859.13	4672
859.263	4664
859.396	4694
859.529	4626
859.662	4577
859.795	4577
859.928	4645
860.061	4778
860.194	4733
860.327	4615
860.46	4592
860.592	4763
860.725	4714
860.858	4714
860.99	4592
861.123	4554
861.256	4512
861.388	4615
861.521	5318
861.653	4504
861.786	4478
861.918	4470
862.05	4542
862.183	4512
862.315	4607
862.447	4691
862.58	4577
862.712	4405
862.844	4371
862.976	4459
863.108	4489
863.24	4752
863.372	4265
863.504	4424
863.636	4402
863.768	4508
863.9	4436
864.032	4341
864.164	4436
864.296	4489
864.428	4565
864.559	4512
864.691	4527
864.823	4538
864.954	4538
865.086	4554
865.217	4535
865.349	4417
865.48	4451
865.612	4527
865.743	4630
865.875	4481
866.006	4428
866.137	4504
866.269	4459
866.4	4455
866.531	4409
866.662	4428
866.793	4440
866.924	4455
867.055	4474
867.186	4489
867.317	4379
867.448	4379
867.579	4421
867.71	4455
867.841	4360
867.972	4500
868.103	4459
868.233	4459
868.364	4474
868.495	4470
868.625	4691
868.756	4755
868.886	4561
869.017	4622
869.147	4782
869.278	4755
869.408	4714
869.539	4675
869.669	4702
869.799	4672
869.929	4790
870.06	4691
870.19	4946
870.32	4980
870.45	4938
870.58	5014
870.71	5060
870.84	5147
870.97	4930
871.1	4911
871.23	5132
871.36	5124
871.489	5022
871.619	5071
871.749	5121
871.879	5136
872.008	5155
872.138	5056
872.267	4930
872.397	4870
872.526	4835
872.656	4721
872.785	4809
872.915	4991
873.044	5071
873.173	4949
873.303	4991
873.432	5056
873.561	4961
873.69	4896
873.819	4908
873.948	4881
874.077	4816
874.206	4736
874.335	4835
874.464	4938
874.593	5029
874.722	4987
874.851	5121
874.979	5045
875.108	5037
875.237	4927
875.365	4934
875.494	4904
875.623	4972
875.751	4812
875.88	4896
876.008	5003
876.136	5086
876.265	5216
876.393	5326
876.521	5265
876.65	5239
876.778	5155
876.906	5083
877.034	5033
877.162	5029
877.29	4991
877.418	5079
877.546	5079
877.674	5037
877.802	5075
877.93	5048
878.058	4953
878.185	4892
878.313	4930
878.441	4980
878.568	4801
878.696	4847
878.824	4953
878.951	5022
879.079	5132
879.206	5277
879.333	5117
879.461	5018
879.588	4995
879.715	5162
879.842	5208
879.97	4980
880.097	4790
880.224	4748
880.351	4790
880.478	4847
880.605	4812
880.732	4843
880.859	5079
880.986	4885
881.112	4904
881.239	4778
881.366	4702
881.493	4607
881.619	4569
881.746	4630
881.872	4683
881.999	4630
882.125	4679
882.252	4820
882.378	4839
882.505	4919
882.631	4771
882.757	4691
882.883	4740
883.01	4733
883.136	4691
883.262	4588
883.388	4630
883.514	4858
883.64	4908
883.766	4767
883.892	4687
884.018	4744
884.143	4900
884.269	5029
884.395	4714
884.52	4599
884.646	4653
884.772	4588
884.897	4523
885.023	4641
885.148	4820
885.274	4850
885.399	4782
885.524	4687
885.65	4706
885.775	4706
885.9	4733
886.025	4870
886.15	4847
886.275	4729
886.4	4634
886.525	4717
886.65	4683
886.775	4653
886.9	4892
887.025	5041
887.149	4797
887.274	4660
887.399	4577
887.523	4618
887.648	4615
887.773	4618
887.897	4752
888.021	4786
888.146	4672
888.27	4797
888.395	4870
888.519	4816
888.643	4774
888.767	4790
888.891	4702
889.015	4592
889.139	4649
889.263	4599
889.387	4771
889.511	4847
889.635	4820
889.759	4615
889.883	4637
890.006	4744
890.13	4835
890.254	4622
890.377	4698
890.501	4489
890.624	4504
890.748	4641
890.871	4489
890.995	4405
891.118	4428
891.241	4504
891.364	4535
891.488	4626
891.611	4428
891.734	4519
891.857	4618
891.98	4546
892.103	4679
892.226	4569
892.349	4527
892.471	4379
892.594	4561
892.717	4611
892.839	4558
892.962	4580
893.085	4641
893.207	4573
893.33	4428
893.452	4523
893.575	4634
893.697	4580
893.819	4782
893.941	4824
894.064	4771
894.186	4554
894.308	4588
894.43	4706
894.552	4843
894.674	4809
894.796	4577
894.918	4577
895.04	4535
895.161	4706
895.283	4679
895.405	4546
895.526	4683
895.648	4694
895.769	4653
895.891	4710
896.012	4774
896.134	4694
896.255	4641
896.376	4656
896.498	4679
896.619	4679
896.74	4630
896.861	4675
896.982	4923
897.103	5079
897.224	4831
897.345	4759
897.466	4672
897.587	4721
897.708	4847
897.828	4809
897.949	4694
898.07	4588
898.19	4660
898.311	4824
898.431	4668
898.552	4694
898.672	4847
898.792	4831
898.913	4744
899.033	4637
899.153	4432
899.273	4440
899.393	4500
899.513	4531
899.633	4531
899.753	4481
899.873	4535
899.993	4580
900.113	4561
900.232	4558
900.352	4573
900.472	4508
900.591	4398
900.711	4538
900.83	4421
900.95	4607
901.069	4679
901.189	4550
901.308	4344
901.427	4310
901.546	4398
901.665	4481
901.784	4523
901.904	4402
902.023	4329
902.141	4207
902.26	4177
902.379	4306
902.498	4253
902.617	4215
902.735	4333
902.854	4417
902.973	4360
903.091	4215
903.21	4207
903.328	4280
903.446	4306
903.565	4230
903.683	4356
903.801	4303
903.919	4398
904.038	4390
904.156	4310
904.274	4417
904.392	4360
904.51	4440
904.627	4440
904.745	4611
904.863	4615
904.981	4386
905.098	4325
905.216	4379
905.334	4451
905.451	4428
905.569	4428
905.686	4535
905.803	4584
905.921	4436
906.038	4542
906.155	4451
906.272	4424
906.389	4447
906.506	4371
906.623	4375
906.74	4417
906.857	4318
906.974	4352
907.091	4584
907.208	4656
907.324	4577
907.441	4443
907.557	4333
907.674	4379
907.79	4398
907.907	4398
908.023	4493
908.139	4455
908.256	4421
908.372	4428
908.488	4493
908.604	4379
908.72	4337
908.836	4390
908.952	4386
909.068	4459
909.184	4565
909.3	4451
909.415	4577
909.531	4550
909.647	4344
909.762	4405
909.878	4360
909.993	4455
910.108	4394
910.224	4402
910.339	4504
910.454	4398
910.57	4337
910.685	4341
910.8	4664
910.915	4622
911.03	4523
911.145	4310
911.259	4371
911.374	4310
911.489	4329
911.604	4253
911.718	4181
911.833	4215
911.947	4063
912.062	4021
912.176	4234
912.291	4211
912.405	4280
912.519	4459
912.633	4527
912.748	4356
912.862	4318
912.976	4215
913.09	4082
913.204	4158
913.318	4207
913.431	4337
913.545	4402
913.659	4481
913.772	4363
913.886	4276
914	4234
914.113	4383
914.226	4451
914.34	4371
914.453	4234
914.566	4409
914.68	4303
914.793	4325
914.906	4131
915.019	4105
915.132	4044
915.245	4169
915.358	4207
915.47	4230
915.583	4257
915.696	4303
915.809	4462
915.921	4398
916.034	4253
916.146	4261
916.259	4238
916.371	4348
916.483	4390
916.595	4306
916.708	4337
916.82	4322
916.932	4329
917.044	4329
917.156	4318
917.268	4242
917.38	4261
917.491	4268
917.603	4325
917.715	4409
917.826	4405
917.938	4314
918.049	4249
918.161	4436
918.272	4558
918.384	4531
918.495	4474
918.606	4306
918.717	4219
918.828	4299
918.939	4363
919.05	4249
919.161	4337
919.272	4128
919.383	4246
919.494	4428
919.604	4660
919.715	4417
919.826	4322
919.936	4398
920.047	4512
920.157	4474
920.267	4740
920.378	4531
920.488	4504
920.598	4714
920.708	4892
920.818	4733
920.928	4755
921.038	4946
921.148	4927
921.258	4656
921.368	4508
921.477	4489
921.587	4481
921.697	4322
921.806	4527
921.916	4375
922.025	4211
922.134	4291
922.244	4192
922.353	4348
922.462	4139
922.571	4101
922.68	3975
922.789	4002
922.898	4059
923.007	4010
923.116	4120
923.224	4063
923.333	4055
923.442	3968
923.55	3953
923.659	4048
923.767	4067
923.876	3941
923.984	4139
924.092	3979
924.201	4101
924.309	4086
924.417	4112
924.525	4059
924.633	4082
924.741	5014
924.849	3926
924.956	4154
925.064	3918
925.172	3861
925.279	3949
925.387	4029
925.494	4071
925.602	4185
925.709	4166
925.816	4082
925.924	4124
926.031	4287
926.138	4196
926.245	4196
926.352	4131
926.459	4238
926.566	4295
926.673	4166
926.779	4059
926.886	4086
926.993	4029
927.099	3941
927.206	3922
927.312	3934
927.419	4059
927.525	4059
927.631	4082
927.737	3953
927.843	3979
927.95	3892
928.056	3934
928.162	3975
928.267	4055
928.373	4569
928.479	4101
928.585	3861
928.69	3964
928.796	4086
928.901	3911
929.007	3846
929.112	3983
929.218	4017
929.323	3926
929.428	3960
929.533	4090
929.638	3949
929.743	3918
929.848	4059
929.953	3964
930.058	3964
930.163	3778
930.267	3842
930.372	3998
930.477	3831
930.581	4078
930.685	3922
930.79	3812
930.894	3884
930.998	3857
931.103	4059
931.207	3728
931.311	3675
931.415	3652
931.519	3538
931.623	3553
