Data from test_V78500241_1603.txt Node
Date: Fri Mar 25 17:00:08 CST 2022
User: usil
Spectrometer: V785-0024
Trigger mode: 0
Integration Time (sec): 4.000000E-1
Scans to average: 1
Nonlinearity correction enabled: false
Boxcar width: 0
Storing dark spectrum: false
XAxis mode: Wavelengths
Number of Pixels in Spectrum: 1024
>>>>>Begin Spectral Data<<<<<
801.071	7993
801.214	8005
801.356	7830
801.499	7818
801.641	7765
801.783	7746
801.926	7982
802.068	7932
802.211	7993
802.353	7993
802.496	7826
802.638	7833
802.78	7837
802.923	7898
803.065	7955
803.208	7871
803.35	7978
803.492	8103
803.635	8164
803.777	7993
803.919	8096
804.061	8473
804.204	8103
804.346	8081
804.488	7989
804.63	8058
804.773	8008
804.915	8077
805.057	8233
805.199	8119
805.341	8199
805.483	8267
805.626	8149
805.768	8142
805.91	8248
806.052	8157
806.194	8100
806.336	8275
806.478	8046
806.62	8058
806.762	8149
806.904	8252
807.046	8434
807.188	8374
807.33	8279
807.472	8351
807.614	8149
807.756	8142
807.898	8039
808.04	7928
808.182	7917
808.324	7833
808.465	7868
808.607	8054
808.749	8164
808.891	8138
809.033	8202
809.174	8180
809.316	8103
809.458	8111
809.6	8005
809.741	8069
809.883	8084
810.025	8035
810.166	8043
810.308	7997
810.45	8024
810.591	7849
810.733	7704
810.875	7708
811.016	7514
811.158	7491
811.299	7628
811.441	7719
811.582	7681
811.724	7597
811.865	7521
812.007	7651
812.148	7578
812.29	7571
812.431	7708
812.573	7845
812.714	7936
812.855	8126
812.997	8119
813.138	8263
813.279	8225
813.421	8092
813.562	7947
813.703	7837
813.845	7746
813.986	7419
814.127	7209
814.268	7247
814.41	7149
814.551	7137
814.692	7187
814.833	7076
814.974	7126
815.115	7145
815.256	6958
815.397	6928
815.539	6970
815.68	6859
815.821	6730
815.962	6875
816.103	6806
816.244	6662
816.385	6589
816.526	6620
816.666	6490
816.807	6304
816.948	6418
817.089	6441
817.23	6456
817.371	6365
817.512	6407
817.653	6452
817.793	6388
817.934	6331
818.075	6490
818.216	6410
818.356	6426
818.497	6243
818.638	6079
818.778	6087
818.919	6144
819.06	6209
819.2	6319
819.341	6331
819.481	6342
819.622	6486
819.762	6730
819.903	6692
820.043	6551
820.184	6521
820.324	6608
820.465	6741
820.605	6707
820.746	6684
820.886	6525
821.026	6658
821.167	6631
821.307	6760
821.447	6829
821.588	6627
821.728	6544
821.868	6460
822.008	6353
822.149	6403
822.289	6365
822.429	6140
822.569	6117
822.709	6125
822.849	5878
822.99	5931
823.13	5866
823.27	5950
823.41	5783
823.55	5813
823.69	5722
823.83	5737
823.97	5726
824.11	5512
824.25	5486
824.389	5554
824.529	5619
824.669	5558
824.809	5653
824.949	5657
825.089	5592
825.228	5539
825.368	5417
825.508	5315
825.648	5341
825.787	5379
825.927	5330
826.067	5269
826.206	5277
826.346	5417
826.485	5429
826.625	5414
826.765	5528
826.904	5455
827.044	5261
827.183	5220
827.323	5128
827.462	5220
827.601	5227
827.741	5174
827.88	5220
828.02	5079
828.159	5254
828.298	5322
828.437	5307
828.577	5292
828.716	5455
828.855	5322
828.994	5178
829.134	5174
829.273	5212
829.412	5147
829.551	5124
829.69	5140
829.829	5258
829.968	5349
830.107	5360
830.246	5265
830.385	5204
830.524	5155
830.663	5060
830.802	5014
830.941	4915
831.08	4873
831.219	4995
831.357	4980
831.496	5151
831.635	4961
831.774	4858
831.913	4866
832.051	4694
832.19	4721
832.329	4797
832.467	4668
832.606	4660
832.744	4755
832.883	4710
833.022	4729
833.16	4755
833.299	4839
833.437	4820
833.576	4820
833.714	4820
833.852	4870
833.991	4831
834.129	5010
834.267	4934
834.406	4896
834.544	5018
834.682	5006
834.821	4934
834.959	5140
835.097	4991
835.235	5071
835.373	5109
835.511	5067
835.65	5067
835.788	5037
835.926	4873
836.064	4892
836.202	4889
836.34	5147
836.478	5193
836.615	5109
836.753	5261
836.891	5307
837.029	5239
837.167	5181
837.305	5113
837.443	5094
837.58	5064
837.718	5231
837.856	5170
837.993	5181
838.131	5193
838.269	5162
838.406	5193
838.544	5174
838.681	5025
838.819	5022
838.956	4919
839.094	4885
839.231	4938
839.369	5067
839.506	5330
839.643	5250
839.781	5071
839.918	4999
840.055	5075
840.193	5071
840.33	5124
840.467	5143
840.604	5174
840.742	5448
840.879	5083
841.016	5079
841.153	5105
841.29	5318
841.427	5296
841.564	5265
841.701	5360
841.838	5303
841.975	5227
842.112	5280
842.249	5178
842.385	5090
842.522	5330
842.659	5185
842.796	5079
842.933	5220
843.069	5124
843.206	5166
843.343	5269
843.479	5201
843.616	5277
843.752	4972
843.889	5014
844.025	5185
844.162	5018
844.298	5178
844.435	5041
844.571	5041
844.708	5227
844.844	5292
844.98	5341
845.117	5258
845.253	5113
845.389	5071
845.525	5166
845.661	5166
845.798	5033
845.934	5143
846.07	5018
846.206	5181
846.342	5223
846.478	5189
846.614	4991
846.75	4991
846.886	5003
847.022	5128
847.158	5025
847.294	5086
847.429	5105
847.565	5045
847.701	5273
847.837	4835
847.972	4801
848.108	4972
848.244	4915
848.379	4763
848.515	4679
848.65	4736
848.786	4759
848.921	4755
849.057	4862
849.192	4889
849.328	4786
849.463	4828
849.598	4790
849.734	4759
849.869	4679
850.004	4607
850.14	4675
850.275	4653
850.41	4542
850.545	4565
850.68	4577
850.815	4599
850.95	4622
851.085	4828
851.22	4683
851.355	4706
851.49	4645
851.625	4630
851.76	4615
851.895	4558
852.03	4565
852.165	4691
852.299	4683
852.434	4767
852.569	4774
852.703	4778
852.838	4782
852.973	4900
853.107	4953
853.242	4717
853.376	4660
853.511	4542
853.645	4580
853.78	4790
853.914	4691
854.048	4641
854.183	4626
854.317	4672
854.451	4812
854.585	4653
854.72	4599
854.854	4752
854.988	4634
855.122	4611
855.256	4527
855.39	4634
855.524	4755
855.658	4714
855.792	4702
855.926	4729
856.06	4774
856.194	4801
856.327	4702
856.461	4565
856.595	4618
856.729	4607
856.862	4729
856.996	4698
857.13	4683
857.263	4752
857.397	4809
857.53	4668
857.664	4687
857.797	4793
857.931	4793
858.064	4618
858.197	4672
858.331	4672
858.464	4596
858.597	4493
858.731	4599
858.864	4592
858.997	4577
859.13	4592
859.263	4679
859.396	4691
859.529	4577
859.662	4527
859.795	4512
859.928	4577
860.061	4721
860.194	4797
860.327	4577
860.46	4519
860.592	4752
860.725	4729
860.858	4729
860.99	4554
861.123	4538
861.256	4470
861.388	4577
861.521	5189
861.653	4459
861.786	4455
861.918	4466
862.05	4542
862.183	4569
862.315	4569
862.447	4607
862.58	4538
862.712	4405
862.844	4310
862.976	4432
863.108	4432
863.24	4774
863.372	4299
863.504	4371
863.636	4383
863.768	4462
863.9	4405
864.032	4375
864.164	4432
864.296	4497
864.428	4542
864.559	4577
864.691	4519
864.823	4531
864.954	4478
865.086	4466
865.217	4455
865.349	4428
865.48	4451
865.612	4470
865.743	4637
865.875	4413
866.006	4405
866.137	4489
866.269	4424
866.4	4424
866.531	4428
866.662	4409
866.793	4447
866.924	4394
867.055	4489
867.186	4447
867.317	4421
867.448	4409
867.579	4379
867.71	4409
867.841	4356
867.972	4421
868.103	4462
868.233	4443
868.364	4455
868.495	4451
868.625	4649
868.756	4786
868.886	4558
869.017	4641
869.147	4786
869.278	4816
869.408	4634
869.539	4660
869.669	4710
869.799	4649
869.929	4706
870.06	4717
870.19	4961
870.32	4873
870.45	4889
870.58	4995
870.71	5056
870.84	5071
870.97	4930
871.1	4908
871.23	5124
871.36	5178
871.489	5025
871.619	5033
871.749	5098
871.879	5064
872.008	5121
872.138	5045
872.267	4953
872.397	4812
872.526	4805
872.656	4748
872.785	4793
872.915	4946
873.044	5067
873.173	4908
873.303	4968
873.432	4972
873.561	4972
873.69	4828
873.819	4889
873.948	4923
874.077	4816
874.206	4774
874.335	4790
874.464	4915
874.593	5006
874.722	4984
874.851	5048
874.979	5033
875.108	5010
875.237	4908
875.365	4896
875.494	4854
875.623	4938
875.751	4828
875.88	4900
876.008	4987
876.136	4999
876.265	5170
876.393	5292
876.521	5258
876.65	5178
876.778	5201
876.906	5117
877.034	5033
877.162	5041
877.29	5014
877.418	5029
877.546	5102
877.674	5037
877.802	5029
877.93	4965
878.058	4946
878.185	4885
878.313	4900
878.441	4927
878.568	4820
878.696	4911
878.824	4946
878.951	4999
879.079	5147
879.206	5269
879.333	5075
879.461	4999
879.588	4984
879.715	5086
879.842	5178
879.97	4987
880.097	4801
880.224	4683
880.351	4801
880.478	4900
880.605	4805
880.732	4797
880.859	5121
880.986	4885
881.112	4949
881.239	4805
881.366	4668
881.493	4630
881.619	4577
881.746	4637
881.872	4660
881.999	4618
882.125	4664
882.252	4809
882.378	4824
882.505	4930
882.631	4778
882.757	4664
882.883	4752
883.01	4733
883.136	4694
883.262	4577
883.388	4615
883.514	4850
883.64	4885
883.766	4790
883.892	4641
884.018	4702
884.143	4885
884.269	5006
884.395	4668
884.52	4634
884.646	4603
884.772	4542
884.897	4554
885.023	4649
885.148	4774
885.274	4828
885.399	4793
885.524	4664
885.65	4660
885.775	4736
885.9	4679
886.025	4854
886.15	4831
886.275	4679
886.4	4630
886.525	4744
886.65	4660
886.775	4672
886.9	4904
887.025	5025
887.149	4759
887.274	4626
887.399	4535
887.523	4618
887.648	4554
887.773	4569
887.897	4778
888.021	4771
888.146	4675
888.27	4752
888.395	4854
888.519	4767
888.643	4835
888.767	4839
888.891	4687
889.015	4584
889.139	4691
889.263	4561
889.387	4733
889.511	4873
889.635	4790
889.759	4603
889.883	4618
890.006	4698
890.13	4805
890.254	4634
890.377	4702
890.501	4497
890.624	4493
890.748	4634
890.871	4497
890.995	4405
891.118	4325
891.241	4519
891.364	4561
891.488	4630
891.611	4493
891.734	4508
891.857	4592
891.98	4516
892.103	4637
892.226	4569
892.349	4516
892.471	4405
892.594	4550
892.717	4554
892.839	4554
892.962	4577
893.085	4630
893.207	4596
893.33	4440
893.452	4504
893.575	4641
893.697	4546
893.819	4733
893.941	4801
894.064	4733
894.186	4554
894.308	4584
894.43	4683
894.552	4778
894.674	4744
894.796	4569
894.918	4561
895.04	4580
895.161	4687
895.283	4641
895.405	4561
895.526	4637
895.648	4675
895.769	4679
895.891	4710
896.012	4729
896.134	4740
896.255	4706
896.376	4611
896.498	4603
896.619	4645
896.74	4634
896.861	4645
896.982	4877
897.103	5029
897.224	4797
897.345	4755
897.466	4687
897.587	4736
897.708	4816
897.828	4782
897.949	4675
898.07	4573
898.19	4641
898.311	4828
898.431	4691
898.552	4729
898.672	4824
898.792	4774
898.913	4759
899.033	4641
899.153	4451
899.273	4432
899.393	4485
899.513	4493
899.633	4500
899.753	4542
899.873	4508
899.993	4569
900.113	4519
900.232	4588
900.352	4558
900.472	4512
900.591	4386
900.711	4523
900.83	4432
900.95	4660
901.069	4714
901.189	4558
901.308	4390
901.427	4291
901.546	4337
901.665	4451
901.784	4519
901.904	4424
902.023	4306
902.141	4147
902.26	4150
902.379	4318
902.498	4268
902.617	4219
902.735	4352
902.854	4390
902.973	4390
903.091	4238
903.21	4230
903.328	4234
903.446	4261
903.565	4333
903.683	4352
903.801	4291
903.919	4413
904.038	4436
904.156	4291
904.274	4432
904.392	4386
904.51	4443
904.627	4443
904.745	4538
904.863	4607
904.981	4344
905.098	4295
905.216	4379
905.334	4402
905.451	4474
905.569	4413
905.686	4580
905.803	4561
905.921	4402
906.038	4535
906.155	4459
906.272	4428
906.389	4451
906.506	4386
906.623	4363
906.74	4398
906.857	4318
906.974	4413
907.091	4519
907.208	4675
907.324	4626
907.441	4516
907.557	4337
907.674	4344
907.79	4276
907.907	4367
908.023	4466
908.139	4493
908.256	4447
908.372	4455
908.488	4432
908.604	4310
908.72	4318
908.836	4367
908.952	4371
909.068	4432
909.184	4599
909.3	4493
909.415	4546
909.531	4508
909.647	4360
909.762	4394
909.878	4356
909.993	4443
910.108	4421
910.224	4432
910.339	4531
910.454	4390
910.57	4383
910.685	4303
910.8	4656
910.915	4626
911.03	4474
911.145	4306
911.259	4295
911.374	4390
911.489	4276
911.604	4280
911.718	4158
911.833	4207
911.947	4048
912.062	4074
912.176	4223
912.291	4200
912.405	4257
912.519	4470
912.633	4523
912.748	4356
912.862	4284
912.976	4238
913.09	4074
913.204	4207
913.318	4268
913.431	4421
913.545	4341
913.659	4428
913.772	4356
913.886	4257
914	4230
914.113	4371
914.226	4428
914.34	4413
914.453	4219
914.566	4428
914.68	4318
914.793	4348
914.906	4147
915.019	4131
915.132	4067
915.245	4169
915.358	4177
915.47	4135
915.583	4257
915.696	4303
915.809	4390
915.921	4421
916.034	4234
916.146	4249
916.259	4215
916.371	4379
916.483	4314
916.595	4242
916.708	4325
916.82	4348
916.932	4287
917.044	4295
917.156	4325
917.268	4265
917.38	4272
917.491	4318
917.603	4352
917.715	4436
917.826	4481
917.938	4360
918.049	4230
918.161	4398
918.272	4569
918.384	4535
918.495	4428
918.606	4306
918.717	4265
918.828	4348
918.939	4341
919.05	4238
919.161	4314
919.272	4162
919.383	4219
919.494	4424
919.604	4603
919.715	4436
919.826	4333
919.936	4402
920.047	4523
920.157	4470
920.267	4649
920.378	4561
920.488	4527
920.598	4752
920.708	4862
920.818	4706
920.928	4740
921.038	4953
921.148	4812
921.258	4656
921.368	4538
921.477	4493
921.587	4470
921.697	4356
921.806	4592
921.916	4447
922.025	4299
922.134	4249
922.244	4196
922.353	4303
922.462	4162
922.571	4143
922.68	3979
922.789	3968
922.898	4063
923.007	4010
923.116	4124
923.224	4078
923.333	4055
923.442	4013
923.55	3953
923.659	4036
923.767	4116
923.876	4002
923.984	4128
924.092	4032
924.201	4059
924.309	4059
924.417	4150
924.525	4063
924.633	4105
924.741	4831
924.849	3930
924.956	4188
925.064	3983
925.172	3937
925.279	3956
925.387	4074
925.494	4059
925.602	4265
925.709	4188
925.816	4059
925.924	4093
926.031	4207
926.138	4211
926.245	4188
926.352	4059
926.459	4223
926.566	4303
926.673	4185
926.779	4078
926.886	4093
926.993	4010
927.099	3953
927.206	3945
927.312	3972
927.419	4055
927.525	4006
927.631	4116
927.737	3949
927.843	3956
927.95	3846
928.056	3960
928.162	3994
928.267	4029
928.373	4603
928.479	4147
928.585	3842
928.69	4040
928.796	4025
928.901	3979
929.007	3823
929.112	4021
929.218	3956
929.323	3918
929.428	3987
929.533	4097
929.638	3899
929.743	3949
929.848	4013
929.953	3972
930.058	3865
930.163	3740
930.267	3831
930.372	3956
930.477	3781
930.581	4101
930.685	3918
930.79	3831
930.894	3884
930.998	3835
931.103	4006
931.207	3660
931.311	3682
931.415	3698
931.519	3515
931.623	3595
