Data from test_V78500241_1291.txt Node
Date: Fri Mar 25 16:57:58 CST 2022
User: usil
Spectrometer: V785-0024
Trigger mode: 0
Integration Time (sec): 4.000000E-1
Scans to average: 1
Nonlinearity correction enabled: false
Boxcar width: 0
Storing dark spectrum: false
XAxis mode: Wavelengths
Number of Pixels in Spectrum: 1024
>>>>>Begin Spectral Data<<<<<
801.071	7997
801.214	8020
801.356	7925
801.499	7902
801.641	7757
801.783	7833
801.926	7944
802.068	7932
802.211	8020
802.353	7970
802.496	7875
802.638	7871
802.78	7955
802.923	7947
803.065	7852
803.208	7871
803.35	7982
803.492	8092
803.635	8183
803.777	8062
803.919	8115
804.061	8499
804.204	8214
804.346	8126
804.488	8016
804.63	8142
804.773	8001
804.915	8164
805.057	8374
805.199	8240
805.341	8275
805.483	8286
805.626	8244
805.768	8149
805.91	8187
806.052	8191
806.194	8123
806.336	8298
806.478	8081
806.62	8081
806.762	8157
806.904	8313
807.046	8533
807.188	8385
807.33	8320
807.472	8339
807.614	8180
807.756	8157
807.898	8008
808.04	7841
808.182	7917
808.324	7906
808.465	7978
808.607	8142
808.749	8145
808.891	8180
809.033	8275
809.174	8206
809.316	8012
809.458	8126
809.6	8001
809.741	8062
809.883	8005
810.025	8111
810.166	8065
810.308	8096
810.45	8024
810.591	7921
810.733	7700
810.875	7731
811.016	7548
811.158	7529
811.299	7639
811.441	7731
811.582	7719
811.724	7639
811.865	7529
812.007	7578
812.148	7636
812.29	7643
812.431	7727
812.573	7875
812.714	7928
812.855	8134
812.997	8180
813.138	8358
813.279	8195
813.421	8077
813.562	8001
813.703	7906
813.845	7708
813.986	7460
814.127	7236
814.268	7228
814.41	7232
814.551	7122
814.692	7217
814.833	7084
814.974	7069
815.115	7122
815.256	6966
815.397	6882
815.539	6920
815.68	6878
815.821	6730
815.962	6852
816.103	6840
816.244	6692
816.385	6654
816.526	6646
816.666	6494
816.807	6319
816.948	6426
817.089	6483
817.23	6418
817.371	6357
817.512	6414
817.653	6388
817.793	6429
817.934	6452
818.075	6467
818.216	6357
818.356	6414
818.497	6243
818.638	6155
818.778	6190
818.919	6133
819.06	6155
819.2	6380
819.341	6331
819.481	6388
819.622	6525
819.762	6688
819.903	6730
820.043	6570
820.184	6593
820.324	6574
820.465	6787
820.605	6692
820.746	6574
820.886	6464
821.026	6650
821.167	6665
821.307	6779
821.447	6749
821.588	6703
821.728	6608
821.868	6502
822.008	6308
822.149	6429
822.289	6350
822.429	6175
822.569	6110
822.709	6186
822.849	5961
822.99	5931
823.13	5935
823.27	5942
823.41	5767
823.55	5798
823.69	5809
823.83	5741
823.97	5657
824.11	5535
824.25	5512
824.389	5558
824.529	5589
824.669	5592
824.809	5638
824.949	5649
825.089	5638
825.228	5524
825.368	5459
825.508	5258
825.648	5376
825.787	5379
825.927	5402
826.067	5318
826.206	5277
826.346	5391
826.485	5345
826.625	5425
826.765	5490
826.904	5486
827.044	5242
827.183	5181
827.323	5102
827.462	5265
827.601	5181
827.741	5197
827.88	5223
828.02	5159
828.159	5254
828.298	5341
828.437	5341
828.577	5242
828.716	5478
828.855	5292
828.994	5166
829.134	5162
829.273	5201
829.412	5136
829.551	5124
829.69	5159
829.829	5258
829.968	5307
830.107	5239
830.246	5299
830.385	5140
830.524	5121
830.663	5128
830.802	5018
830.941	4930
831.08	4870
831.219	4953
831.357	4961
831.496	5143
831.635	4911
831.774	4858
831.913	4847
832.051	4710
832.19	4744
832.329	4850
832.467	4717
832.606	4664
832.744	4683
832.883	4729
833.022	4744
833.16	4786
833.299	4805
833.437	4847
833.576	4870
833.714	4877
833.852	4873
833.991	4877
834.129	4968
834.267	4942
834.406	4885
834.544	4968
834.682	4980
834.821	4987
834.959	5132
835.097	5003
835.235	5132
835.373	5109
835.511	5128
835.65	5052
835.788	5045
835.926	4885
836.064	4908
836.202	4949
836.34	5136
836.478	5254
836.615	5124
836.753	5216
836.891	5292
837.029	5246
837.167	5201
837.305	5143
837.443	5159
837.58	5071
837.718	5246
837.856	5193
837.993	5117
838.131	5261
838.269	5220
838.406	5170
838.544	5117
838.681	4999
838.819	5018
838.956	4927
839.094	4919
839.231	5018
839.369	5045
839.506	5406
839.643	5242
839.781	5064
839.918	4984
840.055	5136
840.193	5083
840.33	5147
840.467	5113
840.604	5193
840.742	5463
840.879	5090
841.016	5067
841.153	5193
841.29	5372
841.427	5334
841.564	5337
841.701	5383
841.838	5299
841.975	5223
842.112	5288
842.249	5124
842.385	5067
842.522	5318
842.659	5162
842.796	5121
842.933	5197
843.069	5045
843.206	5185
843.343	5303
843.479	5242
843.616	5273
843.752	5037
843.889	4987
844.025	5201
844.162	5064
844.298	5216
844.435	5117
844.571	5022
844.708	5204
844.844	5318
844.98	5303
845.117	5299
845.253	5178
845.389	5037
845.525	5147
845.661	5162
845.798	5048
845.934	5090
846.07	5083
846.206	5193
846.342	5280
846.478	5204
846.614	4999
846.75	4961
846.886	4938
847.022	5147
847.158	5041
847.294	5060
847.429	5117
847.565	5071
847.701	5349
847.837	4824
847.972	4801
848.108	4965
848.244	4942
848.379	4733
848.515	4725
848.65	4717
848.786	4736
848.921	4748
849.057	4870
849.192	4904
849.328	4835
849.463	4862
849.598	4805
849.734	4744
849.869	4729
850.004	4599
850.14	4679
850.275	4599
850.41	4508
850.545	4618
850.68	4607
850.815	4584
850.95	4630
851.085	4805
851.22	4721
851.355	4687
851.49	4626
851.625	4675
851.76	4607
851.895	4580
852.03	4531
852.165	4645
852.299	4702
852.434	4793
852.569	4774
852.703	4778
852.838	4839
852.973	4949
853.107	4873
853.242	4706
853.376	4660
853.511	4508
853.645	4630
853.78	4759
853.914	4660
854.048	4729
854.183	4626
854.317	4679
854.451	4828
854.585	4653
854.72	4615
854.854	4733
854.988	4603
855.122	4653
855.256	4561
855.39	4641
855.524	4771
855.658	4698
855.792	4675
855.926	4721
856.06	4744
856.194	4812
856.327	4714
856.461	4664
856.595	4622
856.729	4641
856.862	4736
856.996	4683
857.13	4755
857.263	4755
857.397	4771
857.53	4615
857.664	4733
857.797	4710
857.931	4812
858.064	4634
858.197	4759
858.331	4683
858.464	4592
858.597	4470
858.731	4615
858.864	4649
858.997	4554
859.13	4668
859.263	4687
859.396	4687
859.529	4569
859.662	4596
859.795	4485
859.928	4641
860.061	4782
860.194	4786
860.327	4641
860.46	4561
860.592	4748
860.725	4729
860.858	4744
860.99	4558
861.123	4493
861.256	4508
861.388	4618
861.521	5113
861.653	4470
861.786	4478
861.918	4421
862.05	4500
862.183	4519
862.315	4618
862.447	4649
862.58	4512
862.712	4409
862.844	4306
862.976	4390
863.108	4428
863.24	4881
863.372	4341
863.504	4383
863.636	4402
863.768	4478
863.9	4436
864.032	4322
864.164	4386
864.296	4466
864.428	4569
864.559	4558
864.691	4561
864.823	4516
864.954	4504
865.086	4497
865.217	4447
865.349	4337
865.48	4443
865.612	4466
865.743	4611
865.875	4455
866.006	4440
866.137	4443
866.269	4451
866.4	4485
866.531	4466
866.662	4363
866.793	4394
866.924	4390
867.055	4470
867.186	4470
867.317	4440
867.448	4371
867.579	4409
867.71	4390
867.841	4360
867.972	4474
868.103	4481
868.233	4451
868.364	4451
868.495	4512
868.625	4653
868.756	4759
868.886	4569
869.017	4615
869.147	4725
869.278	4793
869.408	4687
869.539	4615
869.669	4672
869.799	4664
869.929	4736
870.06	4706
870.19	4930
870.32	4889
870.45	4934
870.58	4987
870.71	5094
870.84	5064
870.97	4949
871.1	4953
871.23	5166
871.36	5102
871.489	5025
871.619	5064
871.749	5037
871.879	5102
872.008	5132
872.138	5056
872.267	4972
872.397	4850
872.526	4805
872.656	4763
872.785	4790
872.915	4915
873.044	5071
873.173	4953
873.303	4946
873.432	4934
873.561	4946
873.69	4812
873.819	4862
873.948	4881
874.077	4858
874.206	4767
874.335	4831
874.464	4911
874.593	5079
874.722	4957
874.851	5064
874.979	5033
875.108	5048
875.237	4854
875.365	4908
875.494	4858
875.623	4942
875.751	4820
875.88	4854
876.008	4930
876.136	5075
876.265	5254
876.393	5303
876.521	5204
876.65	5265
876.778	5151
876.906	5098
877.034	5037
877.162	5064
877.29	4961
877.418	5052
877.546	5025
877.674	5006
877.802	5033
877.93	4968
878.058	4889
878.185	4866
878.313	4980
878.441	4938
878.568	4805
878.696	4805
878.824	4957
878.951	4942
879.079	5117
879.206	5280
879.333	5071
879.461	4995
879.588	4972
879.715	5117
879.842	5212
879.97	4987
880.097	4782
880.224	4702
880.351	4786
880.478	4778
880.605	4809
880.732	4797
880.859	5067
880.986	4892
881.112	4847
881.239	4755
881.366	4698
881.493	4607
881.619	4626
881.746	4656
881.872	4656
881.999	4645
882.125	4679
882.252	4774
882.378	4828
882.505	4896
882.631	4778
882.757	4634
882.883	4721
883.01	4672
883.136	4653
883.262	4577
883.388	4611
883.514	4843
883.64	4854
883.766	4782
883.892	4622
884.018	4683
884.143	4870
884.269	4980
884.395	4653
884.52	4546
884.646	4634
884.772	4573
884.897	4558
885.023	4653
885.148	4771
885.274	4908
885.399	4805
885.524	4717
885.65	4668
885.775	4736
885.9	4736
886.025	4847
886.15	4786
886.275	4710
886.4	4615
886.525	4698
886.65	4740
886.775	4694
886.9	4881
887.025	5037
887.149	4843
887.274	4694
887.399	4615
887.523	4569
887.648	4558
887.773	4550
887.897	4767
888.021	4763
888.146	4694
888.27	4782
888.395	4873
888.519	4744
888.643	4805
888.767	4862
888.891	4668
889.015	4607
889.139	4653
889.263	4603
889.387	4755
889.511	4847
889.635	4744
889.759	4603
889.883	4660
890.006	4675
890.13	4759
890.254	4607
890.377	4717
890.501	4546
890.624	4523
890.748	4618
890.871	4516
890.995	4424
891.118	4356
891.241	4470
891.364	4527
891.488	4637
891.611	4478
891.734	4588
891.857	4573
891.98	4512
892.103	4618
892.226	4596
892.349	4462
892.471	4421
892.594	4561
892.717	4558
892.839	4577
892.962	4554
893.085	4645
893.207	4611
893.33	4459
893.452	4466
893.575	4645
893.697	4558
893.819	4767
893.941	4801
894.064	4736
894.186	4531
894.308	4519
894.43	4694
894.552	4824
894.674	4763
894.796	4508
894.918	4592
895.04	4554
895.161	4702
895.283	4664
895.405	4580
895.526	4618
895.648	4645
895.769	4656
895.891	4660
896.012	4744
896.134	4683
896.255	4691
896.376	4645
896.498	4649
896.619	4653
896.74	4596
896.861	4599
896.982	4892
897.103	5064
897.224	4812
897.345	4694
897.466	4668
897.587	4748
897.708	4930
897.828	4790
897.949	4645
898.07	4592
898.19	4615
898.311	4831
898.431	4649
898.552	4778
898.672	4782
898.792	4786
898.913	4778
899.033	4580
899.153	4470
899.273	4398
899.393	4455
899.513	4504
899.633	4508
899.753	4535
899.873	4459
899.993	4546
900.113	4542
900.232	4569
900.352	4497
900.472	4462
900.591	4363
900.711	4451
900.83	4440
900.95	4596
901.069	4698
901.189	4508
901.308	4341
901.427	4287
901.546	4432
901.665	4497
901.784	4481
901.904	4394
902.023	4287
902.141	4154
902.26	4169
902.379	4299
902.498	4242
902.617	4227
902.735	4367
902.854	4398
902.973	4337
903.091	4192
903.21	4207
903.328	4287
903.446	4253
903.565	4249
903.683	4291
903.801	4280
903.919	4379
904.038	4424
904.156	4314
904.274	4443
904.392	4417
904.51	4462
904.627	4504
904.745	4558
904.863	4630
904.981	4360
905.098	4348
905.216	4360
905.334	4451
905.451	4436
905.569	4443
905.686	4561
905.803	4577
905.921	4409
906.038	4527
906.155	4424
906.272	4371
906.389	4493
906.506	4333
906.623	4394
906.74	4363
906.857	4344
906.974	4379
907.091	4558
907.208	4672
907.324	4592
907.441	4512
907.557	4322
907.674	4325
907.79	4329
907.907	4318
908.023	4500
908.139	4504
908.256	4443
908.372	4459
908.488	4451
908.604	4371
908.72	4329
908.836	4375
908.952	4379
909.068	4436
909.184	4523
909.3	4500
909.415	4561
909.531	4565
909.647	4348
909.762	4371
909.878	4375
909.993	4436
910.108	4371
910.224	4417
910.339	4451
910.454	4394
910.57	4356
910.685	4295
910.8	4675
910.915	4569
911.03	4519
911.145	4329
911.259	4398
911.374	4356
911.489	4280
911.604	4284
911.718	4147
911.833	4223
911.947	4082
912.062	4048
912.176	4227
912.291	4280
912.405	4234
912.519	4436
912.633	4493
912.748	4322
912.862	4284
912.976	4173
913.09	4112
913.204	4143
913.318	4238
913.431	4337
913.545	4405
913.659	4436
913.772	4360
913.886	4253
914	4188
914.113	4383
914.226	4436
914.34	4390
914.453	4257
914.566	4424
914.68	4322
914.793	4291
914.906	4147
915.019	4124
915.132	4078
915.245	4181
915.358	4196
915.47	4223
915.583	4265
915.696	4272
915.809	4356
915.921	4386
916.034	4219
916.146	4257
916.259	4207
916.371	4360
916.483	4367
916.595	4280
916.708	4310
916.82	4310
916.932	4318
917.044	4272
917.156	4367
917.268	4246
917.38	4295
917.491	4265
917.603	4314
917.715	4432
917.826	4409
917.938	4333
918.049	4234
918.161	4371
918.272	4554
918.384	4523
918.495	4459
918.606	4333
918.717	4207
918.828	4348
918.939	4360
919.05	4238
919.161	4333
919.272	4097
919.383	4238
919.494	4417
919.604	4592
919.715	4409
919.826	4325
919.936	4367
920.047	4535
920.157	4497
920.267	4683
920.378	4558
920.488	4523
920.598	4740
920.708	4881
920.818	4755
920.928	4733
921.038	4892
921.148	4942
921.258	4611
921.368	4546
921.477	4478
921.587	4398
921.697	4383
921.806	4516
921.916	4405
922.025	4265
922.134	4272
922.244	4192
922.353	4314
922.462	4169
922.571	4166
922.68	4044
922.789	3960
922.898	4074
923.007	4010
923.116	4131
923.224	4067
923.333	4055
923.442	3983
923.55	3991
923.659	4025
923.767	4093
923.876	4036
923.984	4131
924.092	3998
924.201	4086
924.309	4090
924.417	4128
924.525	4071
924.633	4090
924.741	5033
924.849	3896
924.956	4135
925.064	3983
925.172	3937
925.279	3960
925.387	4059
925.494	3998
925.602	4169
925.709	4158
925.816	4063
925.924	4173
926.031	4242
926.138	4090
926.245	4177
926.352	4063
926.459	4249
926.566	4303
926.673	4120
926.779	4067
926.886	4067
926.993	3953
927.099	3975
927.206	3899
927.312	3922
927.419	4055
927.525	4021
927.631	4071
927.737	3972
927.843	3953
927.95	3850
928.056	3975
928.162	3994
928.267	4097
928.373	4660
928.479	4128
928.585	3857
928.69	3949
928.796	4112
928.901	3994
929.007	3812
929.112	4010
929.218	4032
929.323	3945
929.428	3968
929.533	4124
929.638	3911
929.743	3937
929.848	4082
929.953	4006
930.058	3926
930.163	3759
930.267	3797
930.372	3907
930.477	3857
930.581	4086
930.685	3907
930.79	3838
930.894	3892
930.998	3850
931.103	4025
931.207	3724
931.311	3701
931.415	3629
931.519	3496
931.623	3553
