Data from test_V78500241_1149.txt Node
Date: Fri Mar 25 16:56:59 CST 2022
User: usil
Spectrometer: V785-0024
Trigger mode: 0
Integration Time (sec): 4.000000E-1
Scans to average: 1
Nonlinearity correction enabled: false
Boxcar width: 0
Storing dark spectrum: false
XAxis mode: Wavelengths
Number of Pixels in Spectrum: 1024
>>>>>Begin Spectral Data<<<<<
801.071	8062
801.214	8096
801.356	7986
801.499	7883
801.641	7841
801.783	7845
801.926	7993
802.068	7997
802.211	7963
802.353	7967
802.496	7833
802.638	7890
802.78	7871
802.923	8008
803.065	7887
803.208	7879
803.35	8016
803.492	8050
803.635	8172
803.777	8035
803.919	8058
804.061	8465
804.204	8153
804.346	8088
804.488	8043
804.63	8062
804.773	8046
804.915	8153
805.057	8244
805.199	8134
805.341	8206
805.483	8263
805.626	8191
805.768	8138
805.91	8191
806.052	8252
806.194	8065
806.336	8324
806.478	8073
806.62	8069
806.762	8100
806.904	8320
807.046	8499
807.188	8328
807.33	8286
807.472	8256
807.614	8119
807.756	8168
807.898	7993
808.04	7890
808.182	7860
808.324	7902
808.465	7917
808.607	8081
808.749	8123
808.891	8134
809.033	8313
809.174	8233
809.316	8050
809.458	8065
809.6	8043
809.741	8054
809.883	7947
810.025	8111
810.166	8081
810.308	8039
810.45	8008
810.591	7868
810.733	7693
810.875	7677
811.016	7518
811.158	7502
811.299	7636
811.441	7715
811.582	7712
811.724	7537
811.865	7578
812.007	7651
812.148	7571
812.29	7674
812.431	7765
812.573	7833
812.714	7955
812.855	8157
812.997	8214
813.138	8286
813.279	8183
813.421	8126
813.562	7959
813.703	7852
813.845	7792
813.986	7426
814.127	7278
814.268	7175
814.41	7122
814.551	7156
814.692	7129
814.833	7042
814.974	7050
815.115	7072
815.256	6977
815.397	6958
815.539	6954
815.68	6837
815.821	6802
815.962	6928
816.103	6783
816.244	6738
816.385	6696
816.526	6627
816.666	6471
816.807	6315
816.948	6395
817.089	6551
817.23	6433
817.371	6388
817.512	6391
817.653	6384
817.793	6327
817.934	6353
818.075	6448
818.216	6414
818.356	6376
818.497	6292
818.638	6125
818.778	6106
818.919	6136
819.06	6136
819.2	6323
819.341	6353
819.481	6395
819.622	6601
819.762	6681
819.903	6764
820.043	6582
820.184	6570
820.324	6566
820.465	6734
820.605	6677
820.746	6608
820.886	6517
821.026	6700
821.167	6677
821.307	6802
821.447	6730
821.588	6646
821.728	6585
821.868	6528
822.008	6391
822.149	6346
822.289	6281
822.429	6121
822.569	6110
822.709	6117
822.849	5973
822.99	5885
823.13	5904
823.27	5927
823.41	5798
823.55	5794
823.69	5718
823.83	5783
823.97	5657
824.11	5581
824.25	5509
824.389	5547
824.529	5554
824.669	5539
824.809	5634
824.949	5642
825.089	5611
825.228	5611
825.368	5398
825.508	5376
825.648	5334
825.787	5341
825.927	5364
826.067	5277
826.206	5296
826.346	5372
826.485	5376
826.625	5341
826.765	5497
826.904	5436
827.044	5303
827.183	5197
827.323	5151
827.462	5311
827.601	5231
827.741	5189
827.88	5220
828.02	5128
828.159	5341
828.298	5326
828.437	5364
828.577	5288
828.716	5448
828.855	5330
828.994	5204
829.134	5132
829.273	5147
829.412	5155
829.551	5136
829.69	5143
829.829	5261
829.968	5311
830.107	5242
830.246	5303
830.385	5189
830.524	5128
830.663	5048
830.802	4999
830.941	4877
831.08	4873
831.219	5003
831.357	4953
831.496	5143
831.635	4957
831.774	4839
831.913	4824
832.051	4752
832.19	4782
832.329	4877
832.467	4717
832.606	4645
832.744	4717
832.883	4653
833.022	4744
833.16	4843
833.299	4820
833.437	4797
833.576	4801
833.714	4843
833.852	4858
833.991	4904
834.129	4934
834.267	4953
834.406	4908
834.544	4908
834.682	4934
834.821	4930
834.959	5147
835.097	4968
835.235	5132
835.373	5113
835.511	5037
835.65	5022
835.788	5033
835.926	4866
836.064	4885
836.202	4923
836.34	5117
836.478	5204
836.615	5121
836.753	5189
836.891	5322
837.029	5178
837.167	5204
837.305	5155
837.443	5121
837.58	5079
837.718	5201
837.856	5201
837.993	5067
838.131	5185
838.269	5181
838.406	5242
838.544	5132
838.681	5010
838.819	5003
838.956	4934
839.094	4831
839.231	4965
839.369	5094
839.506	5414
839.643	5227
839.781	5056
839.918	4965
840.055	5128
840.193	5121
840.33	5105
840.467	5117
840.604	5162
840.742	5455
840.879	5064
841.016	5094
841.153	5162
841.29	5353
841.427	5345
841.564	5227
841.701	5406
841.838	5258
841.975	5227
842.112	5258
842.249	5166
842.385	5045
842.522	5284
842.659	5147
842.796	5185
842.933	5216
843.069	5132
843.206	5105
843.343	5284
843.479	5235
843.616	5250
843.752	4999
843.889	5033
844.025	5193
844.162	5006
844.298	5223
844.435	5090
844.571	5041
844.708	5170
844.844	5273
844.98	5345
845.117	5258
845.253	5185
845.389	5079
845.525	5147
845.661	5159
845.798	5064
845.934	5113
846.07	5037
846.206	5265
846.342	5288
846.478	5181
846.614	5060
846.75	4972
846.886	4946
847.022	5155
847.158	4987
847.294	5064
847.429	5155
847.565	5022
847.701	5280
847.837	4862
847.972	4809
848.108	4965
848.244	4919
848.379	4752
848.515	4714
848.65	4710
848.786	4740
848.921	4801
849.057	4843
849.192	4911
849.328	4843
849.463	4866
849.598	4828
849.734	4744
849.869	4672
850.004	4634
850.14	4664
850.275	4607
850.41	4462
850.545	4580
850.68	4622
850.815	4634
850.95	4630
851.085	4831
851.22	4744
851.355	4675
851.49	4634
851.625	4584
851.76	4634
851.895	4535
852.03	4508
852.165	4645
852.299	4694
852.434	4797
852.569	4683
852.703	4805
852.838	4820
852.973	4900
853.107	4908
853.242	4740
853.376	4656
853.511	4580
853.645	4611
853.78	4828
853.914	4653
854.048	4694
854.183	4675
854.317	4691
854.451	4809
854.585	4637
854.72	4596
854.854	4736
854.988	4569
855.122	4577
855.256	4535
855.39	4664
855.524	4786
855.658	4694
855.792	4698
855.926	4710
856.06	4733
856.194	4824
856.327	4645
856.461	4588
856.595	4618
856.729	4607
856.862	4729
856.996	4641
857.13	4714
857.263	4793
857.397	4752
857.53	4615
857.664	4683
857.797	4805
857.931	4744
858.064	4675
858.197	4771
858.331	4649
858.464	4603
858.597	4493
858.731	4580
858.864	4634
858.997	4584
859.13	4641
859.263	4694
859.396	4683
859.529	4584
859.662	4569
859.795	4527
859.928	4580
860.061	4752
860.194	4740
860.327	4622
860.46	4580
860.592	4660
860.725	4729
860.858	4679
860.99	4573
861.123	4508
861.256	4485
861.388	4618
861.521	5220
861.653	4535
861.786	4466
861.918	4466
862.05	4504
862.183	4527
862.315	4584
862.447	4683
862.58	4516
862.712	4413
862.844	4333
862.976	4455
863.108	4443
863.24	4862
863.372	4344
863.504	4421
863.636	4352
863.768	4504
863.9	4447
864.032	4386
864.164	4379
864.296	4497
864.428	4504
864.559	4542
864.691	4531
864.823	4523
864.954	4519
865.086	4497
865.217	4485
865.349	4409
865.48	4447
865.612	4478
865.743	4588
865.875	4432
866.006	4375
866.137	4462
866.269	4466
866.4	4428
866.531	4409
866.662	4363
866.793	4428
866.924	4360
867.055	4508
867.186	4451
867.317	4421
867.448	4371
867.579	4440
867.71	4367
867.841	4356
867.972	4436
868.103	4470
868.233	4413
868.364	4436
868.495	4470
868.625	4725
868.756	4748
868.886	4561
869.017	4630
869.147	4767
869.278	4729
869.408	4618
869.539	4660
869.669	4710
869.799	4634
869.929	4729
870.06	4721
870.19	4934
870.32	4927
870.45	4908
870.58	4961
870.71	5121
870.84	5064
870.97	4980
871.1	4934
871.23	5151
871.36	5086
871.489	4968
871.619	5079
871.749	5117
871.879	5056
872.008	5147
872.138	5033
872.267	4968
872.397	4801
872.526	4740
872.656	4694
872.785	4809
872.915	4987
873.044	5025
873.173	4885
873.303	4984
873.432	4965
873.561	4892
873.69	4904
873.819	4877
873.948	4911
874.077	4816
874.206	4767
874.335	4793
874.464	4938
874.593	5045
874.722	4923
874.851	5079
874.979	5014
875.108	5048
875.237	4919
875.365	4862
875.494	4900
875.623	4972
875.751	4858
875.88	4816
876.008	4995
876.136	5022
876.265	5181
876.393	5322
876.521	5239
876.65	5258
876.778	5102
876.906	5052
877.034	5048
877.162	5033
877.29	4984
877.418	5006
877.546	5075
877.674	4991
877.802	5029
877.93	5029
878.058	4949
878.185	4889
878.313	4961
878.441	4972
878.568	4786
878.696	4839
878.824	5022
878.951	4984
879.079	5143
879.206	5250
879.333	5086
879.461	4957
879.588	4968
879.715	5075
879.842	5223
879.97	4984
880.097	4790
880.224	4729
880.351	4809
880.478	4793
880.605	4744
880.732	4752
880.859	5029
880.986	4885
881.112	4927
881.239	4767
881.366	4668
881.493	4607
881.619	4603
881.746	4603
881.872	4641
881.999	4694
882.125	4694
882.252	4771
882.378	4816
882.505	4949
882.631	4755
882.757	4694
882.883	4706
883.01	4721
883.136	4653
883.262	4618
883.388	4630
883.514	4835
883.64	4820
883.766	4744
883.892	4637
884.018	4767
884.143	4881
884.269	5029
884.395	4675
884.52	4599
884.646	4622
884.772	4531
884.897	4554
885.023	4641
885.148	4755
885.274	4835
885.399	4816
885.524	4740
885.65	4729
885.775	4733
885.9	4683
886.025	4831
886.15	4691
886.275	4702
886.4	4622
886.525	4763
886.65	4641
886.775	4694
886.9	4877
887.025	5018
887.149	4767
887.274	4611
887.399	4531
887.523	4542
887.648	4558
887.773	4603
887.897	4774
888.021	4824
888.146	4672
888.27	4812
888.395	4866
888.519	4759
888.643	4812
888.767	4820
888.891	4660
889.015	4592
889.139	4656
889.263	4615
889.387	4767
889.511	4881
889.635	4755
889.759	4599
889.883	4664
890.006	4694
890.13	4847
890.254	4698
890.377	4660
890.501	4573
890.624	4500
890.748	4626
890.871	4550
890.995	4417
891.118	4409
891.241	4531
891.364	4500
891.488	4599
891.611	4478
891.734	4565
891.857	4599
891.98	4596
892.103	4618
892.226	4607
892.349	4554
892.471	4379
892.594	4500
892.717	4615
892.839	4550
892.962	4618
893.085	4645
893.207	4546
893.33	4436
893.452	4592
893.575	4694
893.697	4565
893.819	4763
893.941	4847
894.064	4736
894.186	4558
894.308	4599
894.43	4679
894.552	4797
894.674	4763
894.796	4481
894.918	4588
895.04	4573
895.161	4710
895.283	4656
895.405	4569
895.526	4603
895.648	4683
895.769	4679
895.891	4694
896.012	4706
896.134	4714
896.255	4645
896.376	4687
896.498	4592
896.619	4748
896.74	4596
896.861	4630
896.982	4881
897.103	5079
897.224	4824
897.345	4748
897.466	4717
897.587	4679
897.708	4828
897.828	4774
897.949	4656
898.07	4527
898.19	4588
898.311	4835
898.431	4691
898.552	4694
898.672	4786
898.792	4759
898.913	4706
899.033	4626
899.153	4504
899.273	4432
899.393	4504
899.513	4542
899.633	4535
899.753	4588
899.873	4512
899.993	4588
900.113	4493
900.232	4558
900.352	4558
900.472	4500
900.591	4402
900.711	4508
900.83	4413
900.95	4577
901.069	4649
901.189	4527
901.308	4409
901.427	4341
901.546	4371
901.665	4447
901.784	4497
901.904	4417
902.023	4344
902.141	4196
902.26	4147
902.379	4276
902.498	4238
902.617	4204
902.735	4367
902.854	4383
902.973	4386
903.091	4238
903.21	4253
903.328	4276
903.446	4268
903.565	4223
903.683	4367
903.801	4253
903.919	4398
904.038	4379
904.156	4272
904.274	4421
904.392	4390
904.51	4421
904.627	4432
904.745	4500
904.863	4615
904.981	4402
905.098	4299
905.216	4306
905.334	4440
905.451	4470
905.569	4436
905.686	4527
905.803	4554
905.921	4432
906.038	4550
906.155	4512
906.272	4413
906.389	4421
906.506	4341
906.623	4413
906.74	4356
906.857	4265
906.974	4371
907.091	4561
907.208	4660
907.324	4592
907.441	4481
907.557	4363
907.674	4318
907.79	4291
907.907	4352
908.023	4470
908.139	4455
908.256	4424
908.372	4436
908.488	4478
908.604	4398
908.72	4314
908.836	4333
908.952	4348
909.068	4417
909.184	4592
909.3	4451
909.415	4622
909.531	4565
909.647	4329
909.762	4375
909.878	4284
909.993	4451
910.108	4413
910.224	4405
910.339	4447
910.454	4348
910.57	4341
910.685	4291
910.8	4649
910.915	4584
911.03	4451
911.145	4352
911.259	4363
911.374	4371
911.489	4284
911.604	4314
911.718	4166
911.833	4242
911.947	4059
912.062	4025
912.176	4158
912.291	4230
912.405	4196
912.519	4481
912.633	4531
912.748	4371
912.862	4284
912.976	4246
913.09	4086
913.204	4147
913.318	4242
913.431	4337
913.545	4310
913.659	4386
913.772	4341
913.886	4219
914	4177
914.113	4440
914.226	4417
914.34	4428
914.453	4276
914.566	4417
914.68	4280
914.793	4280
914.906	4162
915.019	4120
915.132	4059
915.245	4162
915.358	4196
915.47	4215
915.583	4299
915.696	4325
915.809	4386
915.921	4405
916.034	4257
916.146	4238
916.259	4238
916.371	4386
916.483	4352
916.595	4268
916.708	4303
916.82	4325
916.932	4280
917.044	4314
917.156	4280
917.268	4227
917.38	4280
917.491	4246
917.603	4337
917.715	4421
917.826	4379
917.938	4344
918.049	4268
918.161	4379
918.272	4516
918.384	4558
918.495	4459
918.606	4284
918.717	4188
918.828	4322
918.939	4333
919.05	4230
919.161	4303
919.272	4109
919.383	4211
919.494	4428
919.604	4584
919.715	4386
919.826	4379
919.936	4383
920.047	4531
920.157	4451
920.267	4679
920.378	4523
920.488	4523
920.598	4664
920.708	4881
920.818	4767
920.928	4748
921.038	4930
921.148	4862
921.258	4607
921.368	4512
921.477	4493
921.587	4474
921.697	4402
921.806	4531
921.916	4443
922.025	4234
922.134	4261
922.244	4242
922.353	4303
922.462	4177
922.571	4131
922.68	4044
922.789	4025
922.898	4082
923.007	4021
923.116	4128
923.224	4059
923.333	4067
923.442	3991
923.55	3964
923.659	4048
923.767	4093
923.876	3994
923.984	4078
924.092	3972
924.201	4090
924.309	4112
924.417	4109
924.525	4063
924.633	4124
924.741	5033
924.849	3941
924.956	4105
925.064	3968
925.172	3941
925.279	3934
925.387	4093
925.494	4082
925.602	4223
925.709	4188
925.816	3991
925.924	4139
926.031	4192
926.138	4177
926.245	4215
926.352	4120
926.459	4211
926.566	4337
926.673	4128
926.779	4048
926.886	4109
926.993	3994
927.099	3949
927.206	3953
927.312	3991
927.419	4067
927.525	4006
927.631	4147
927.737	3949
927.843	3896
927.95	3842
928.056	3949
928.162	3956
928.267	4059
928.373	4706
928.479	4090
928.585	3846
928.69	4025
928.796	4101
928.901	3960
929.007	3842
929.112	4013
929.218	3983
929.323	3945
929.428	3941
929.533	4090
929.638	3926
929.743	3922
929.848	4017
929.953	3991
930.058	3937
930.163	3770
930.267	3842
930.372	3979
930.477	3819
930.581	4082
930.685	3930
930.79	3797
930.894	3861
930.998	3846
931.103	4025
931.207	3709
931.311	3679
931.415	3637
931.519	3519
931.623	3526
