Data from test_V78500241_364.txt Node
Date: Fri Mar 25 16:51:32 CST 2022
User: usil
Spectrometer: V785-0024
Trigger mode: 0
Integration Time (sec): 4.000000E-1
Scans to average: 1
Nonlinearity correction enabled: false
Boxcar width: 0
Storing dark spectrum: false
XAxis mode: Wavelengths
Number of Pixels in Spectrum: 1024
>>>>>Begin Spectral Data<<<<<
801.071	8050
801.214	8027
801.356	7932
801.499	7928
801.641	7894
801.783	7894
801.926	8039
802.068	7951
802.211	8069
802.353	8081
802.496	7921
802.638	7928
802.78	7936
802.923	7997
803.065	7875
803.208	7879
803.35	7959
803.492	8077
803.635	8153
803.777	7978
803.919	8149
804.061	8465
804.204	8210
804.346	8058
804.488	8035
804.63	8107
804.773	7970
804.915	8153
805.057	8355
805.199	8218
805.341	8263
805.483	8282
805.626	8206
805.768	8107
805.91	8107
806.052	8252
806.194	8050
806.336	8324
806.478	8138
806.62	8084
806.762	8191
806.904	8305
807.046	8446
807.188	8301
807.33	8294
807.472	8279
807.614	8206
807.756	8183
807.898	8050
808.04	7837
808.182	7947
808.324	8001
808.465	7947
808.607	8119
808.749	8180
808.891	8225
809.033	8263
809.174	8218
809.316	8062
809.458	8107
809.6	8016
809.741	8073
809.883	8016
810.025	8145
810.166	8115
810.308	8096
810.45	8084
810.591	7875
810.733	7757
810.875	7704
811.016	7586
811.158	7483
811.299	7670
811.441	7776
811.582	7689
811.724	7674
811.865	7605
812.007	7639
812.148	7628
812.29	7655
812.431	7757
812.573	7887
812.714	8027
812.855	8115
812.997	8202
813.138	8339
813.279	8202
813.421	8168
813.562	7959
813.703	7955
813.845	7841
813.986	7506
814.127	7308
814.268	7289
814.41	7240
814.551	7187
814.692	7293
814.833	7137
814.974	7095
815.115	7069
815.256	7000
815.397	6970
815.539	6977
815.68	6848
815.821	6791
815.962	6928
816.103	6837
816.244	6726
816.385	6658
816.526	6658
816.666	6506
816.807	6346
816.948	6467
817.089	6528
817.23	6410
817.371	6376
817.512	6361
817.653	6429
817.793	6361
817.934	6426
818.075	6479
818.216	6448
818.356	6422
818.497	6289
818.638	6110
818.778	6152
818.919	6171
819.06	6228
819.2	6353
819.341	6300
819.481	6346
819.622	6525
819.762	6764
819.903	6715
820.043	6631
820.184	6601
820.324	6597
820.465	6715
820.605	6707
820.746	6711
820.886	6551
821.026	6688
821.167	6719
821.307	6818
821.447	6810
821.588	6711
821.728	6582
821.868	6498
822.008	6350
822.149	6376
822.289	6365
822.429	6186
822.569	6121
822.709	6178
822.849	5977
822.99	5889
823.13	5942
823.27	5961
823.41	5851
823.55	5885
823.69	5786
823.83	5866
823.97	5729
824.11	5600
824.25	5585
824.389	5653
824.529	5657
824.669	5619
824.809	5665
824.949	5695
825.089	5676
825.228	5566
825.368	5395
825.508	5387
825.648	5414
825.787	5429
825.927	5440
826.067	5353
826.206	5368
826.346	5467
826.485	5490
826.625	5455
826.765	5592
826.904	5573
827.044	5296
827.183	5242
827.323	5185
827.462	5261
827.601	5204
827.741	5273
827.88	5258
828.02	5162
828.159	5288
828.298	5311
828.437	5368
828.577	5341
828.716	5570
828.855	5376
828.994	5201
829.134	5132
829.273	5242
829.412	5201
829.551	5189
829.69	5204
829.829	5322
829.968	5444
830.107	5357
830.246	5330
830.385	5204
830.524	5189
830.663	5155
830.802	5052
830.941	4995
831.08	4949
831.219	5010
831.357	5037
831.496	5170
831.635	5006
831.774	4889
831.913	4877
832.051	4790
832.19	4824
832.329	4877
832.467	4725
832.606	4702
832.744	4733
832.883	4790
833.022	4797
833.16	4839
833.299	4866
833.437	4885
833.576	4915
833.714	4896
833.852	4919
833.991	4934
834.129	5006
834.267	4991
834.406	4927
834.544	5060
834.682	5029
834.821	5075
834.959	5223
835.097	5014
835.235	5242
835.373	5170
835.511	5128
835.65	5067
835.788	5052
835.926	4938
836.064	4862
836.202	4972
836.34	5197
836.478	5284
836.615	5181
836.753	5303
836.891	5299
837.029	5284
837.167	5254
837.305	5212
837.443	5204
837.58	5140
837.718	5284
837.856	5250
837.993	5170
838.131	5265
838.269	5315
838.406	5265
838.544	5254
838.681	5109
838.819	5041
838.956	4972
839.094	4976
839.231	5010
839.369	5117
839.506	5497
839.643	5273
839.781	5064
839.918	5071
840.055	5143
840.193	5140
840.33	5159
840.467	5178
840.604	5227
840.742	5444
840.879	5136
841.016	5124
841.153	5162
841.29	5433
841.427	5349
841.564	5379
841.701	5410
841.838	5303
841.975	5277
842.112	5368
842.249	5208
842.385	5189
842.522	5398
842.659	5185
842.796	5212
842.933	5227
843.069	5166
843.206	5208
843.343	5322
843.479	5258
843.616	5254
843.752	5109
843.889	5075
844.025	5269
844.162	5045
844.298	5220
844.435	5075
844.571	5117
844.708	5212
844.844	5349
844.98	5303
845.117	5357
845.253	5124
845.389	5162
845.525	5231
845.661	5128
845.798	5086
845.934	5174
846.07	5048
846.206	5235
846.342	5372
846.478	5246
846.614	5067
846.75	5010
846.886	4953
847.022	5143
847.158	5048
847.294	5086
847.429	5162
847.565	5113
847.701	5326
847.837	4870
847.972	4850
848.108	5018
848.244	4991
848.379	4828
848.515	4782
848.65	4714
848.786	4805
848.921	4820
849.057	4900
849.192	4930
849.328	4854
849.463	4911
849.598	4828
849.734	4797
849.869	4717
850.004	4694
850.14	4694
850.275	4630
850.41	4580
850.545	4596
850.68	4645
850.815	4660
850.95	4675
851.085	4866
851.22	4752
851.355	4706
851.49	4618
851.625	4656
851.76	4714
851.895	4516
852.03	4550
852.165	4675
852.299	4767
852.434	4820
852.569	4771
852.703	4828
852.838	4930
852.973	4984
853.107	4968
853.242	4778
853.376	4683
853.511	4599
853.645	4679
853.78	4812
853.914	4733
854.048	4679
854.183	4634
854.317	4736
854.451	4904
854.585	4714
854.72	4683
854.854	4774
854.988	4584
855.122	4679
855.256	4573
855.39	4763
855.524	4790
855.658	4744
855.792	4778
855.926	4767
856.06	4786
856.194	4850
856.327	4702
856.461	4637
856.595	4645
856.729	4637
856.862	4767
856.996	4755
857.13	4763
857.263	4793
857.397	4793
857.53	4702
857.664	4740
857.797	4828
857.931	4831
858.064	4748
858.197	4790
858.331	4653
858.464	4653
858.597	4573
858.731	4630
858.864	4645
858.997	4592
859.13	4675
859.263	4706
859.396	4736
859.529	4626
859.662	4580
859.795	4565
859.928	4656
860.061	4793
860.194	4793
860.327	4656
860.46	4626
860.592	4744
860.725	4725
860.858	4767
860.99	4603
861.123	4603
861.256	4573
861.388	4660
861.521	5368
861.653	4519
861.786	4451
861.918	4508
862.05	4535
862.183	4607
862.315	4679
862.447	4668
862.58	4569
862.712	4424
862.844	4360
862.976	4516
863.108	4519
863.24	4809
863.372	4325
863.504	4428
863.636	4436
863.768	4527
863.9	4474
864.032	4352
864.164	4428
864.296	4440
864.428	4535
864.559	4573
864.691	4527
864.823	4584
864.954	4519
865.086	4554
865.217	4538
865.349	4455
865.48	4512
865.612	4497
865.743	4649
865.875	4500
866.006	4455
866.137	4516
866.269	4485
866.4	4459
866.531	4451
866.662	4470
866.793	4470
866.924	4478
867.055	4550
867.186	4504
867.317	4485
867.448	4443
867.579	4428
867.71	4417
867.841	4413
867.972	4481
868.103	4466
868.233	4512
868.364	4485
868.495	4504
868.625	4698
868.756	4782
868.886	4584
869.017	4660
869.147	4816
869.278	4771
869.408	4706
869.539	4694
869.669	4774
869.799	4694
869.929	4748
870.06	4744
870.19	4957
870.32	4961
870.45	4965
870.58	5048
870.71	5102
870.84	5113
870.97	4991
871.1	4923
871.23	5166
871.36	5159
871.489	5052
871.619	5109
871.749	5098
871.879	5162
872.008	5201
872.138	5083
872.267	5045
872.397	4889
872.526	4858
872.656	4725
872.785	4831
872.915	4980
873.044	5033
873.173	4972
873.303	5029
873.432	4984
873.561	4972
873.69	4889
873.819	4904
873.948	4889
874.077	4858
874.206	4786
874.335	4877
874.464	4953
874.593	5102
874.722	4965
874.851	5132
874.979	5113
875.108	5090
875.237	4991
875.365	4911
875.494	4927
875.623	4961
875.751	4862
875.88	4930
876.008	5018
876.136	5102
876.265	5250
876.393	5395
876.521	5273
876.65	5280
876.778	5231
876.906	5117
877.034	5060
877.162	5071
877.29	5060
877.418	5117
877.546	5121
877.674	5132
877.802	5041
877.93	5025
878.058	4949
878.185	4919
878.313	5006
878.441	4987
878.568	4816
878.696	4877
878.824	4968
878.951	4995
879.079	5212
879.206	5288
879.333	5117
879.461	4991
879.588	5029
879.715	5140
879.842	5216
879.97	5025
880.097	4835
880.224	4790
880.351	4816
880.478	4911
880.605	4831
880.732	4824
880.859	5052
880.986	4927
881.112	4896
881.239	4786
881.366	4717
881.493	4649
881.619	4622
881.746	4710
881.872	4706
881.999	4702
882.125	4691
882.252	4824
882.378	4870
882.505	4953
882.631	4778
882.757	4683
882.883	4748
883.01	4763
883.136	4717
883.262	4622
883.388	4630
883.514	4812
883.64	4908
883.766	4812
883.892	4714
884.018	4752
884.143	4896
884.269	4968
884.395	4675
884.52	4702
884.646	4641
884.772	4615
884.897	4588
885.023	4714
885.148	4839
885.274	4847
885.399	4812
885.524	4774
885.65	4679
885.775	4755
885.9	4771
886.025	4896
886.15	4873
886.275	4698
886.4	4710
886.525	4786
886.65	4752
886.775	4660
886.9	4908
887.025	5064
887.149	4881
887.274	4656
887.399	4580
887.523	4622
887.648	4603
887.773	4603
887.897	4824
888.021	4816
888.146	4729
888.27	4835
888.395	4965
888.519	4862
888.643	4858
888.767	4850
888.891	4702
889.015	4615
889.139	4683
889.263	4656
889.387	4782
889.511	4904
889.635	4774
889.759	4668
889.883	4634
890.006	4755
890.13	4885
890.254	4649
890.377	4672
890.501	4607
890.624	4569
890.748	4618
890.871	4558
890.995	4481
891.118	4443
891.241	4523
891.364	4546
891.488	4634
891.611	4497
891.734	4550
891.857	4634
891.98	4569
892.103	4664
892.226	4561
892.349	4580
892.471	4489
892.594	4584
892.717	4599
892.839	4656
892.962	4626
893.085	4717
893.207	4618
893.33	4512
893.452	4527
893.575	4694
893.697	4588
893.819	4805
893.941	4812
894.064	4755
894.186	4622
894.308	4618
894.43	4717
894.552	4847
894.674	4824
894.796	4554
894.918	4630
895.04	4584
895.161	4714
895.283	4668
895.405	4645
895.526	4626
895.648	4717
895.769	4721
895.891	4714
896.012	4771
896.134	4721
896.255	4748
896.376	4622
896.498	4603
896.619	4748
896.74	4641
896.861	4626
896.982	4949
897.103	5075
897.224	4870
897.345	4767
897.466	4702
897.587	4698
897.708	4911
897.828	4820
897.949	4660
898.07	4592
898.19	4694
898.311	4892
898.431	4664
898.552	4744
898.672	4847
898.792	4790
898.913	4805
899.033	4675
899.153	4527
899.273	4432
899.393	4523
899.513	4523
899.633	4542
899.753	4546
899.873	4535
899.993	4580
900.113	4527
900.232	4573
900.352	4565
900.472	4519
900.591	4432
900.711	4531
900.83	4455
900.95	4641
901.069	4698
901.189	4554
901.308	4379
901.427	4318
901.546	4371
901.665	4485
901.784	4504
901.904	4398
902.023	4333
902.141	4204
902.26	4192
902.379	4360
902.498	4272
902.617	4234
902.735	4379
902.854	4379
902.973	4379
903.091	4211
903.21	4238
903.328	4318
903.446	4299
903.565	4272
903.683	4367
903.801	4257
903.919	4409
904.038	4432
904.156	4352
904.274	4443
904.392	4421
904.51	4474
904.627	4500
904.745	4653
904.863	4649
904.981	4417
905.098	4299
905.216	4394
905.334	4470
905.451	4443
905.569	4474
905.686	4565
905.803	4630
905.921	4390
906.038	4554
906.155	4500
906.272	4428
906.389	4485
906.506	4333
906.623	4390
906.74	4409
906.857	4310
906.974	4390
907.091	4538
907.208	4691
907.324	4592
907.441	4516
907.557	4322
907.674	4325
907.79	4306
907.907	4424
908.023	4550
908.139	4470
908.256	4462
908.372	4459
908.488	4489
908.604	4341
908.72	4291
908.836	4390
908.952	4432
909.068	4424
909.184	4569
909.3	4512
909.415	4573
909.531	4580
909.647	4421
909.762	4375
909.878	4310
909.993	4489
910.108	4417
910.224	4462
910.339	4512
910.454	4421
910.57	4417
910.685	4295
910.8	4675
910.915	4611
911.03	4531
911.145	4325
911.259	4367
911.374	4398
911.489	4356
911.604	4341
911.718	4211
911.833	4196
911.947	4063
912.062	4048
912.176	4215
912.291	4234
912.405	4276
912.519	4481
912.633	4500
912.748	4341
912.862	4360
912.976	4185
913.09	4105
913.204	4166
913.318	4280
913.431	4443
913.545	4360
913.659	4436
913.772	4360
913.886	4284
914	4284
914.113	4394
914.226	4493
914.34	4348
914.453	4272
914.566	4455
914.68	4299
914.793	4333
914.906	4154
915.019	4135
915.132	4124
915.245	4196
915.358	4192
915.47	4234
915.583	4284
915.696	4314
915.809	4402
915.921	4386
916.034	4299
916.146	4246
916.259	4253
916.371	4398
916.483	4367
916.595	4329
916.708	4329
916.82	4356
916.932	4367
917.044	4341
917.156	4356
917.268	4234
917.38	4295
917.491	4276
917.603	4341
917.715	4409
917.826	4436
917.938	4348
918.049	4287
918.161	4413
918.272	4542
918.384	4519
918.495	4424
918.606	4276
918.717	4253
918.828	4341
918.939	4337
919.05	4257
919.161	4306
919.272	4105
919.383	4291
919.494	4455
919.604	4615
919.715	4485
919.826	4363
919.936	4379
920.047	4535
920.157	4516
920.267	4729
920.378	4554
920.488	4531
920.598	4744
920.708	4877
920.818	4721
920.928	4816
921.038	4938
921.148	4911
921.258	4645
921.368	4607
921.477	4462
921.587	4462
921.697	4421
921.806	4573
921.916	4417
922.025	4257
922.134	4287
922.244	4261
922.353	4333
922.462	4181
922.571	4154
922.68	3968
922.789	4029
922.898	4029
923.007	4029
923.116	4090
923.224	4071
923.333	4086
923.442	4002
923.55	4017
923.659	4040
923.767	4147
923.876	4025
923.984	4173
924.092	4010
924.201	4120
924.309	4105
924.417	4143
924.525	4036
924.633	4105
924.741	4858
924.849	3884
924.956	4147
925.064	3983
925.172	3953
925.279	3987
925.387	4101
925.494	4051
925.602	4181
925.709	4219
925.816	4036
925.924	4166
926.031	4272
926.138	4196
926.245	4192
926.352	4093
926.459	4322
926.566	4329
926.673	4173
926.779	4154
926.886	4086
926.993	4025
927.099	3983
927.206	3968
927.312	3915
927.419	4017
927.525	4063
927.631	4109
927.737	3922
927.843	3930
927.95	3873
928.056	3964
928.162	4036
928.267	4063
928.373	4683
928.479	4093
928.585	3915
928.69	4013
928.796	4082
928.901	3964
929.007	3831
929.112	3994
929.218	4002
929.323	3960
929.428	3972
929.533	4147
929.638	3903
929.743	3934
929.848	4082
929.953	4017
930.058	3926
930.163	3759
930.267	3789
930.372	3975
930.477	3846
930.581	4059
930.685	3998
930.79	3869
930.894	3899
930.998	3888
931.103	4055
931.207	3732
931.311	3709
931.415	3652
931.519	3564
931.623	3557
