Data from test_V78500241_1081.txt Node
Date: Fri Mar 25 16:56:31 CST 2022
User: usil
Spectrometer: V785-0024
Trigger mode: 0
Integration Time (sec): 4.000000E-1
Scans to average: 1
Nonlinearity correction enabled: false
Boxcar width: 0
Storing dark spectrum: false
XAxis mode: Wavelengths
Number of Pixels in Spectrum: 1024
>>>>>Begin Spectral Data<<<<<
801.071	8035
801.214	8115
801.356	7830
801.499	7871
801.641	7803
801.783	7830
801.926	7887
802.068	7909
802.211	7921
802.353	7940
802.496	7830
802.638	7883
802.78	7940
802.923	7970
803.065	7856
803.208	7887
803.35	7997
803.492	8008
803.635	8115
803.777	8062
803.919	8092
804.061	8419
804.204	8142
804.346	8153
804.488	7856
804.63	8134
804.773	8012
804.915	8149
805.057	8256
805.199	8164
805.341	8286
805.483	8271
805.626	8195
805.768	8130
805.91	8210
806.052	8180
806.194	8069
806.336	8286
806.478	8081
806.62	8054
806.762	8149
806.904	8267
807.046	8484
807.188	8305
807.33	8290
807.472	8339
807.614	8138
807.756	8103
807.898	7978
808.04	7849
808.182	7875
808.324	7864
808.465	7974
808.607	8103
808.749	8126
808.891	8199
809.033	8328
809.174	8176
809.316	8016
809.458	7936
809.6	7993
809.741	8054
809.883	7997
810.025	8050
810.166	8115
810.308	8035
810.45	8001
810.591	7879
810.733	7712
810.875	7597
811.016	7438
811.158	7457
811.299	7647
811.441	7670
811.582	7670
811.724	7556
811.865	7506
812.007	7540
812.148	7605
812.29	7594
812.431	7685
812.573	7852
812.714	7936
812.855	8100
812.997	8172
813.138	8244
813.279	8176
813.421	8111
813.562	7963
813.703	7830
813.845	7723
813.986	7438
814.127	7282
814.268	7312
814.41	7187
814.551	7141
814.692	7171
814.833	6989
814.974	7057
815.115	7084
815.256	6916
815.397	6909
815.539	6913
815.68	6840
815.821	6757
815.962	6863
816.103	6791
816.244	6719
816.385	6688
816.526	6639
816.666	6486
816.807	6323
816.948	6376
817.089	6445
817.23	6414
817.371	6315
817.512	6410
817.653	6391
817.793	6426
817.934	6376
818.075	6448
818.216	6418
818.356	6376
818.497	6205
818.638	6117
818.778	6148
818.919	6114
819.06	6171
819.2	6342
819.341	6304
819.481	6323
819.622	6555
819.762	6688
819.903	6669
820.043	6616
820.184	6540
820.324	6521
820.465	6700
820.605	6650
820.746	6623
820.886	6490
821.026	6654
821.167	6658
821.307	6764
821.447	6684
821.588	6612
821.728	6555
821.868	6486
822.008	6311
822.149	6353
822.289	6342
822.429	6095
822.569	6064
822.709	6091
822.849	5863
822.99	5863
823.13	5935
823.27	5908
823.41	5752
823.55	5790
823.69	5809
823.83	5798
823.97	5649
824.11	5528
824.25	5474
824.389	5558
824.529	5581
824.669	5505
824.809	5604
824.949	5657
825.089	5611
825.228	5490
825.368	5414
825.508	5322
825.648	5349
825.787	5376
825.927	5322
826.067	5292
826.206	5269
826.346	5345
826.485	5425
826.625	5406
826.765	5547
826.904	5410
827.044	5239
827.183	5159
827.323	5086
827.462	5208
827.601	5117
827.741	5166
827.88	5265
828.02	5140
828.159	5212
828.298	5223
828.437	5303
828.577	5265
828.716	5455
828.855	5296
828.994	5147
829.134	5128
829.273	5189
829.412	5094
829.551	5132
829.69	5124
829.829	5174
829.968	5330
830.107	5269
830.246	5246
830.385	5208
830.524	5041
830.663	5014
830.802	4942
830.941	4801
831.08	4892
831.219	4968
831.357	5006
831.496	5166
831.635	4915
831.774	4839
831.913	4866
832.051	4733
832.19	4786
832.329	4801
832.467	4645
832.606	4577
832.744	4714
832.883	4683
833.022	4683
833.16	4721
833.299	4793
833.437	4774
833.576	4812
833.714	4858
833.852	4854
833.991	4870
834.129	4957
834.267	4873
834.406	4934
834.544	4927
834.682	4946
834.821	4946
834.959	5117
835.097	4976
835.235	5136
835.373	5083
835.511	5064
835.65	4987
835.788	5014
835.926	4831
836.064	4877
836.202	4900
836.34	5124
836.478	5178
836.615	5094
836.753	5181
836.891	5303
837.029	5193
837.167	5132
837.305	5113
837.443	5121
837.58	5018
837.718	5250
837.856	5201
837.993	5128
838.131	5208
838.269	5181
838.406	5181
838.544	5178
838.681	5033
838.819	4980
838.956	4915
839.094	4896
839.231	4984
839.369	5056
839.506	5368
839.643	5212
839.781	5098
839.918	4999
840.055	5083
840.193	5113
840.33	5105
840.467	5102
840.604	5216
840.742	5459
840.879	5147
841.016	5109
841.153	5140
841.29	5398
841.427	5307
841.564	5307
841.701	5379
841.838	5292
841.975	5250
842.112	5258
842.249	5132
842.385	5105
842.522	5284
842.659	5181
842.796	5170
842.933	5178
843.069	5159
843.206	5208
843.343	5299
843.479	5220
843.616	5311
843.752	5090
843.889	5010
844.025	5140
844.162	5014
844.298	5246
844.435	5079
844.571	5071
844.708	5220
844.844	5368
844.98	5372
845.117	5284
845.253	5136
845.389	5094
845.525	5193
845.661	5162
845.798	5052
845.934	5155
846.07	5083
846.206	5197
846.342	5273
846.478	5201
846.614	5048
846.75	5064
846.886	5025
847.022	5178
847.158	5041
847.294	5102
847.429	5132
847.565	5105
847.701	5376
847.837	4908
847.972	4828
848.108	4961
848.244	4957
848.379	4805
848.515	4774
848.65	4744
848.786	4714
848.921	4729
849.057	4915
849.192	4938
849.328	4870
849.463	4850
849.598	4809
849.734	4843
849.869	4706
850.004	4649
850.14	4672
850.275	4630
850.41	4550
850.545	4584
850.68	4618
850.815	4672
850.95	4618
851.085	4881
851.22	4812
851.355	4668
851.49	4592
851.625	4672
851.76	4656
851.895	4618
852.03	4580
852.165	4664
852.299	4729
852.434	4824
852.569	4740
852.703	4843
852.838	4862
852.973	4934
853.107	4942
853.242	4733
853.376	4729
853.511	4634
853.645	4668
853.78	4782
853.914	4694
854.048	4687
854.183	4660
854.317	4714
854.451	4850
854.585	4721
854.72	4672
854.854	4763
854.988	4668
855.122	4672
855.256	4596
855.39	4675
855.524	4782
855.658	4729
855.792	4752
855.926	4763
856.06	4744
856.194	4790
856.327	4637
856.461	4584
856.595	4660
856.729	4577
856.862	4771
856.996	4675
857.13	4740
857.263	4748
857.397	4858
857.53	4710
857.664	4736
857.797	4839
857.931	4820
858.064	4721
858.197	4763
858.331	4675
858.464	4656
858.597	4527
858.731	4672
858.864	4649
858.997	4618
859.13	4672
859.263	4683
859.396	4774
859.529	4607
859.662	4569
859.795	4584
859.928	4653
860.061	4771
860.194	4763
860.327	4611
860.46	4588
860.592	4721
860.725	4759
860.858	4733
860.99	4599
861.123	4538
861.256	4558
861.388	4607
861.521	5421
861.653	4535
861.786	4474
861.918	4497
862.05	4561
862.183	4573
862.315	4653
862.447	4645
862.58	4577
862.712	4432
862.844	4379
862.976	4481
863.108	4504
863.24	4915
863.372	4363
863.504	4402
863.636	4424
863.768	4542
863.9	4462
864.032	4371
864.164	4402
864.296	4462
864.428	4561
864.559	4523
864.691	4550
864.823	4558
864.954	4485
865.086	4516
865.217	4504
865.349	4459
865.48	4447
865.612	4546
865.743	4672
865.875	4516
866.006	4447
866.137	4516
866.269	4451
866.4	4470
866.531	4455
866.662	4440
866.793	4432
866.924	4478
867.055	4474
867.186	4489
867.317	4447
867.448	4405
867.579	4428
867.71	4405
867.841	4360
867.972	4466
868.103	4497
868.233	4481
868.364	4470
868.495	4508
868.625	4664
868.756	4767
868.886	4565
869.017	4588
869.147	4790
869.278	4774
869.408	4626
869.539	4664
869.669	4790
869.799	4649
869.929	4778
870.06	4744
870.19	5014
870.32	4934
870.45	4934
870.58	4972
870.71	5124
870.84	5086
870.97	4957
871.1	4934
871.23	5128
871.36	5090
871.489	5029
871.619	5056
871.749	5067
871.879	5174
872.008	5185
872.138	5090
872.267	5014
872.397	4870
872.526	4771
872.656	4714
872.785	4801
872.915	4949
873.044	5064
873.173	4942
873.303	5010
873.432	4980
873.561	4949
873.69	4908
873.819	4908
873.948	4976
874.077	4778
874.206	4725
874.335	4774
874.464	4927
874.593	5071
874.722	4949
874.851	5109
874.979	5094
875.108	5025
875.237	4904
875.365	4896
875.494	4850
875.623	4961
875.751	4858
875.88	4908
876.008	5010
876.136	5003
876.265	5147
876.393	5299
876.521	5231
876.65	5258
876.778	5181
876.906	5132
877.034	4991
877.162	5029
877.29	5041
877.418	5079
877.546	5064
877.674	5041
877.802	5033
877.93	5045
878.058	4961
878.185	4930
878.313	5003
878.441	4938
878.568	4801
878.696	4847
878.824	4915
878.951	5025
879.079	5143
879.206	5269
879.333	5105
879.461	5010
879.588	5071
879.715	5121
879.842	5235
879.97	5018
880.097	4755
880.224	4755
880.351	4793
880.478	4816
880.605	4824
880.732	4805
880.859	5159
880.986	4930
881.112	4965
881.239	4809
881.366	4710
881.493	4611
881.619	4618
881.746	4653
881.872	4698
881.999	4645
882.125	4702
882.252	4774
882.378	4831
882.505	5010
882.631	4820
882.757	4656
882.883	4733
883.01	4755
883.136	4668
883.262	4584
883.388	4664
883.514	4812
883.64	4854
883.766	4752
883.892	4656
884.018	4717
884.143	4908
884.269	4995
884.395	4664
884.52	4645
884.646	4706
884.772	4596
884.897	4531
885.023	4687
885.148	4816
885.274	4904
885.399	4809
885.524	4717
885.65	4763
885.775	4717
885.9	4694
886.025	4858
886.15	4771
886.275	4744
886.4	4679
886.525	4740
886.65	4763
886.775	4694
886.9	4946
887.025	4965
887.149	4835
887.274	4645
887.399	4558
887.523	4607
887.648	4588
887.773	4580
887.897	4748
888.021	4809
888.146	4691
888.27	4900
888.395	4927
888.519	4877
888.643	4797
888.767	4835
888.891	4721
889.015	4622
889.139	4687
889.263	4584
889.387	4820
889.511	4904
889.635	4797
889.759	4675
889.883	4668
890.006	4744
890.13	4805
890.254	4584
890.377	4675
890.501	4615
890.624	4516
890.748	4675
890.871	4550
890.995	4470
891.118	4402
891.241	4508
891.364	4527
891.488	4653
891.611	4500
891.734	4538
891.857	4603
891.98	4531
892.103	4653
892.226	4615
892.349	4588
892.471	4417
892.594	4519
892.717	4618
892.839	4607
892.962	4592
893.085	4694
893.207	4535
893.33	4447
893.452	4546
893.575	4649
893.697	4580
893.819	4786
893.941	4870
894.064	4755
894.186	4596
894.308	4550
894.43	4744
894.552	4828
894.674	4729
894.796	4573
894.918	4607
895.04	4542
895.161	4744
895.283	4675
895.405	4622
895.526	4630
895.648	4698
895.769	4710
895.891	4748
896.012	4748
896.134	4714
896.255	4664
896.376	4630
896.498	4580
896.619	4691
896.74	4611
896.861	4691
896.982	4930
897.103	5105
897.224	4812
897.345	4805
897.466	4691
897.587	4733
897.708	4850
897.828	4748
897.949	4721
898.07	4538
898.19	4618
898.311	4828
898.431	4687
898.552	4706
898.672	4767
898.792	4793
898.913	4755
899.033	4626
899.153	4523
899.273	4409
899.393	4504
899.513	4531
899.633	4519
899.753	4554
899.873	4527
899.993	4569
900.113	4546
900.232	4592
900.352	4466
900.472	4481
900.591	4417
900.711	4508
900.83	4440
900.95	4618
901.069	4687
901.189	4535
901.308	4344
901.427	4322
901.546	4371
901.665	4466
901.784	4542
901.904	4402
902.023	4348
902.141	4230
902.26	4185
902.379	4322
902.498	4276
902.617	4227
902.735	4417
902.854	4341
902.973	4306
903.091	4238
903.21	4227
903.328	4318
903.446	4246
903.565	4272
903.683	4322
903.801	4265
903.919	4360
904.038	4470
904.156	4356
904.274	4428
904.392	4409
904.51	4424
904.627	4481
904.745	4588
904.863	4615
904.981	4424
905.098	4287
905.216	4413
905.334	4440
905.451	4409
905.569	4493
905.686	4542
905.803	4542
905.921	4432
906.038	4516
906.155	4508
906.272	4436
906.389	4424
906.506	4360
906.623	4367
906.74	4436
906.857	4310
906.974	4413
907.091	4569
907.208	4660
907.324	4634
907.441	4523
907.557	4367
907.674	4344
907.79	4367
907.907	4348
908.023	4462
908.139	4519
908.256	4451
908.372	4481
908.488	4459
908.604	4398
908.72	4352
908.836	4337
908.952	4337
909.068	4402
909.184	4538
909.3	4421
909.415	4580
909.531	4599
909.647	4371
909.762	4375
909.878	4375
909.993	4462
910.108	4375
910.224	4383
910.339	4478
910.454	4409
910.57	4363
910.685	4306
910.8	4672
910.915	4603
911.03	4550
911.145	4341
911.259	4348
911.374	4394
911.489	4310
911.604	4265
911.718	4204
911.833	4204
911.947	4105
912.062	4021
912.176	4196
912.291	4246
912.405	4261
912.519	4485
912.633	4481
912.748	4325
912.862	4325
912.976	4192
913.09	4082
913.204	4196
913.318	4287
913.431	4356
913.545	4398
913.659	4432
913.772	4318
913.886	4227
914	4238
914.113	4383
914.226	4421
914.34	4371
914.453	4211
914.566	4466
914.68	4291
914.793	4318
914.906	4173
915.019	4124
915.132	4048
915.245	4177
915.358	4223
915.47	4287
915.583	4284
915.696	4284
915.809	4386
915.921	4436
916.034	4261
916.146	4223
916.259	4196
916.371	4402
916.483	4341
916.595	4280
916.708	4329
916.82	4329
916.932	4356
917.044	4238
917.156	4367
917.268	4295
917.38	4284
917.491	4257
917.603	4333
917.715	4470
917.826	4443
917.938	4318
918.049	4257
918.161	4390
918.272	4542
918.384	4538
918.495	4428
918.606	4322
918.717	4249
918.828	4322
918.939	4383
919.05	4261
919.161	4276
919.272	4173
919.383	4253
919.494	4462
919.604	4588
919.715	4447
919.826	4337
919.936	4394
920.047	4481
920.157	4512
920.267	4702
920.378	4508
920.488	4523
920.598	4725
920.708	4862
920.818	4740
920.928	4771
921.038	4896
921.148	4896
921.258	4611
921.368	4561
921.477	4462
921.587	4447
921.697	4390
921.806	4561
921.916	4413
922.025	4253
922.134	4333
922.244	4192
922.353	4333
922.462	4154
922.571	4074
922.68	3998
922.789	3979
922.898	4067
923.007	4017
923.116	4135
923.224	4048
923.333	4055
923.442	3972
923.55	4002
923.659	4032
923.767	4093
923.876	3998
923.984	4101
924.092	3979
924.201	4093
924.309	4128
924.417	4097
924.525	4032
924.633	4082
924.741	5060
924.849	3934
924.956	4116
925.064	3949
925.172	3911
925.279	3945
925.387	4063
925.494	4044
925.602	4276
925.709	4166
925.816	4048
925.924	4086
926.031	4249
926.138	4154
926.245	4192
926.352	4059
926.459	4192
926.566	4310
926.673	4128
926.779	4082
926.886	4029
926.993	3956
927.099	3972
927.206	3892
927.312	3934
927.419	4029
927.525	4032
927.631	4105
927.737	3899
927.843	3945
927.95	3819
928.056	3941
928.162	3968
928.267	4078
928.373	4679
928.479	4124
928.585	3896
928.69	4017
928.796	4032
928.901	3991
929.007	3793
929.112	3994
929.218	3972
929.323	4006
929.428	3934
929.533	4097
929.638	3937
929.743	3941
929.848	4013
929.953	3960
930.058	3972
930.163	3785
930.267	3812
930.372	4010
930.477	3812
930.581	4097
930.685	3975
930.79	3804
930.894	3899
930.998	3835
931.103	4032
931.207	3740
931.311	3644
931.415	3679
931.519	3526
931.623	3530
