Data from test_V78500241_1716.txt Node
Date: Fri Mar 25 17:00:56 CST 2022
User: usil
Spectrometer: V785-0024
Trigger mode: 0
Integration Time (sec): 4.000000E-1
Scans to average: 1
Nonlinearity correction enabled: false
Boxcar width: 0
Storing dark spectrum: false
XAxis mode: Wavelengths
Number of Pixels in Spectrum: 1024
>>>>>Begin Spectral Data<<<<<
801.071	8024
801.214	8005
801.356	7883
801.499	7852
801.641	7742
801.783	7788
801.926	7978
802.068	7989
802.211	7913
802.353	7963
802.496	7833
802.638	7856
802.78	7932
802.923	7936
803.065	7830
803.208	7871
803.35	7967
803.492	8111
803.635	8123
803.777	8081
803.919	8134
804.061	8457
804.204	8187
804.346	8107
804.488	7967
804.63	8103
804.773	8008
804.915	8119
805.057	8282
805.199	8145
805.341	8202
805.483	8263
805.626	8180
805.768	8050
805.91	8252
806.052	8138
806.194	8134
806.336	8313
806.478	8157
806.62	8043
806.762	8081
806.904	8301
807.046	8469
807.188	8427
807.33	8237
807.472	8309
807.614	8180
807.756	8107
807.898	7970
808.04	7909
808.182	7917
808.324	7898
808.465	7936
808.607	8027
808.749	8084
808.891	8206
809.033	8286
809.174	8214
809.316	8058
809.458	8024
809.6	8020
809.741	8020
809.883	8058
810.025	8107
810.166	8043
810.308	8012
810.45	8001
810.591	7833
810.733	7757
810.875	7674
811.016	7525
811.158	7480
811.299	7548
811.441	7696
811.582	7681
811.724	7552
811.865	7571
812.007	7559
812.148	7594
812.29	7639
812.431	7818
812.573	7849
812.714	7947
812.855	8123
812.997	8206
813.138	8336
813.279	8134
813.421	8123
813.562	8016
813.703	7784
813.845	7670
813.986	7476
814.127	7297
814.268	7217
814.41	7160
814.551	7145
814.692	7240
814.833	7091
814.974	7156
815.115	7091
815.256	6935
815.397	6989
815.539	6924
815.68	6806
815.821	6738
815.962	6886
816.103	6852
816.244	6669
816.385	6589
816.526	6662
816.666	6525
816.807	6319
816.948	6456
817.089	6506
817.23	6414
817.371	6376
817.512	6407
817.653	6369
817.793	6304
817.934	6399
818.075	6448
818.216	6399
818.356	6369
818.497	6213
818.638	6144
818.778	6194
818.919	6076
819.06	6152
819.2	6350
819.341	6350
819.481	6388
819.622	6452
819.762	6749
819.903	6707
820.043	6627
820.184	6631
820.324	6559
820.465	6650
820.605	6646
820.746	6635
820.886	6498
821.026	6642
821.167	6707
821.307	6772
821.447	6719
821.588	6681
821.728	6517
821.868	6448
822.008	6292
822.149	6369
822.289	6380
822.429	6186
822.569	6098
822.709	6136
822.849	5897
822.99	5942
823.13	5942
823.27	5942
823.41	5783
823.55	5741
823.69	5737
823.83	5764
823.97	5714
824.11	5505
824.25	5463
824.389	5509
824.529	5570
824.669	5524
824.809	5573
824.949	5657
825.089	5627
825.228	5539
825.368	5337
825.508	5330
825.648	5345
825.787	5425
825.927	5353
826.067	5273
826.206	5307
826.346	5395
826.485	5433
826.625	5398
826.765	5547
826.904	5493
827.044	5269
827.183	5216
827.323	5117
827.462	5273
827.601	5170
827.741	5143
827.88	5223
828.02	5071
828.159	5231
828.298	5280
828.437	5334
828.577	5239
828.716	5566
828.855	5246
828.994	5189
829.134	5162
829.273	5140
829.412	5132
829.551	5178
829.69	5140
829.829	5239
829.968	5341
830.107	5288
830.246	5261
830.385	5162
830.524	5094
830.663	5018
830.802	4965
830.941	4870
831.08	4824
831.219	4968
831.357	4968
831.496	5128
831.635	4915
831.774	4797
831.913	4801
832.051	4672
832.19	4763
832.329	4862
832.467	4687
832.606	4672
832.744	4679
832.883	4710
833.022	4714
833.16	4797
833.299	4831
833.437	4816
833.576	4786
833.714	4850
833.852	4843
833.991	4885
834.129	4957
834.267	4949
834.406	4904
834.544	4957
834.682	4976
834.821	4976
834.959	5113
835.097	5048
835.235	5136
835.373	5105
835.511	5060
835.65	5064
835.788	4965
835.926	4862
836.064	4858
836.202	4934
836.34	5174
836.478	5197
836.615	5064
836.753	5189
836.891	5193
837.029	5288
837.167	5128
837.305	5162
837.443	5147
837.58	5067
837.718	5239
837.856	5136
837.993	5117
838.131	5204
838.269	5201
838.406	5162
838.544	5208
838.681	5060
838.819	4995
838.956	4870
839.094	4896
839.231	4980
839.369	5079
839.506	5406
839.643	5242
839.781	5033
839.918	4953
840.055	5079
840.193	5098
840.33	5075
840.467	5086
840.604	5216
840.742	5414
840.879	5029
841.016	5086
841.153	5170
841.29	5357
841.427	5296
841.564	5307
841.701	5376
841.838	5254
841.975	5189
842.112	5258
842.249	5140
842.385	5113
842.522	5277
842.659	5189
842.796	5155
842.933	5159
843.069	5170
843.206	5159
843.343	5288
843.479	5242
843.616	5277
843.752	5025
843.889	5033
844.025	5197
844.162	5003
844.298	5178
844.435	5086
844.571	5029
844.708	5201
844.844	5239
844.98	5345
845.117	5299
845.253	5140
845.389	5109
845.525	5170
845.661	5124
845.798	4999
845.934	5140
846.07	5048
846.206	5189
846.342	5303
846.478	5170
846.614	4987
846.75	5006
846.886	4949
847.022	5056
847.158	4968
847.294	5071
847.429	5109
847.565	5056
847.701	5292
847.837	4820
847.972	4839
848.108	4904
848.244	4965
848.379	4782
848.515	4729
848.65	4679
848.786	4786
848.921	4774
849.057	4881
849.192	4927
849.328	4805
849.463	4820
849.598	4816
849.734	4725
849.869	4698
850.004	4622
850.14	4630
850.275	4611
850.41	4558
850.545	4535
850.68	4558
850.815	4622
850.95	4626
851.085	4828
851.22	4714
851.355	4675
851.49	4592
851.625	4626
851.76	4653
851.895	4550
852.03	4535
852.165	4626
852.299	4721
852.434	4816
852.569	4717
852.703	4805
852.838	4809
852.973	4919
853.107	4896
853.242	4748
853.376	4641
853.511	4519
853.645	4588
853.78	4801
853.914	4649
854.048	4653
854.183	4668
854.317	4653
854.451	4877
854.585	4687
854.72	4603
854.854	4721
854.988	4542
855.122	4649
855.256	4523
855.39	4645
855.524	4782
855.658	4710
855.792	4710
855.926	4698
856.06	4736
856.194	4801
856.327	4675
856.461	4603
856.595	4577
856.729	4653
856.862	4733
856.996	4672
857.13	4679
857.263	4763
857.397	4797
857.53	4660
857.664	4717
857.797	4774
857.931	4752
858.064	4687
858.197	4763
858.331	4653
858.464	4599
858.597	4516
858.731	4565
858.864	4611
858.997	4615
859.13	4725
859.263	4649
859.396	4683
859.529	4554
859.662	4599
859.795	4573
859.928	4603
860.061	4755
860.194	4767
860.327	4603
860.46	4592
860.592	4702
860.725	4721
860.858	4752
860.99	4588
861.123	4500
861.256	4554
861.388	4622
861.521	5212
861.653	4527
861.786	4443
861.918	4470
862.05	4485
862.183	4535
862.315	4599
862.447	4615
862.58	4615
862.712	4367
862.844	4318
862.976	4481
863.108	4470
863.24	4877
863.372	4306
863.504	4409
863.636	4455
863.768	4451
863.9	4386
864.032	4341
864.164	4363
864.296	4485
864.428	4573
864.559	4569
864.691	4512
864.823	4497
864.954	4470
865.086	4497
865.217	4474
865.349	4398
865.48	4383
865.612	4459
865.743	4565
865.875	4405
866.006	4386
866.137	4478
866.269	4417
866.4	4421
866.531	4459
866.662	4421
866.793	4352
866.924	4402
867.055	4493
867.186	4402
867.317	4436
867.448	4363
867.579	4386
867.71	4379
867.841	4383
867.972	4428
868.103	4447
868.233	4390
868.364	4432
868.495	4493
868.625	4630
868.756	4733
868.886	4535
869.017	4618
869.147	4786
869.278	4729
869.408	4645
869.539	4626
869.669	4683
869.799	4664
869.929	4782
870.06	4733
870.19	4923
870.32	4885
870.45	4976
870.58	5033
870.71	5048
870.84	5075
870.97	4942
871.1	4911
871.23	5159
871.36	5140
871.489	5025
871.619	5094
871.749	5094
871.879	5098
872.008	5140
872.138	5018
872.267	4976
872.397	4892
872.526	4831
872.656	4702
872.785	4793
872.915	4972
873.044	5037
873.173	4904
873.303	4972
873.432	4972
873.561	4961
873.69	4892
873.819	4835
873.948	4862
874.077	4858
874.206	4797
874.335	4790
874.464	4953
874.593	5033
874.722	4946
874.851	5117
874.979	5056
875.108	5010
875.237	4892
875.365	4866
875.494	4866
875.623	4953
875.751	4873
875.88	4854
876.008	5018
876.136	5033
876.265	5174
876.393	5357
876.521	5227
876.65	5246
876.778	5159
876.906	5052
877.034	4991
877.162	5075
877.29	4987
877.418	5018
877.546	5006
877.674	5124
877.802	5022
877.93	5010
878.058	4949
878.185	4889
878.313	4934
878.441	4915
878.568	4729
878.696	4885
878.824	5003
878.951	4991
879.079	5166
879.206	5326
879.333	5094
879.461	4980
879.588	4980
879.715	5098
879.842	5227
879.97	4965
880.097	4774
880.224	4752
880.351	4828
880.478	4786
880.605	4805
880.732	4774
880.859	5037
880.986	4866
881.112	4919
881.239	4752
881.366	4702
881.493	4596
881.619	4561
881.746	4622
881.872	4622
881.999	4596
882.125	4668
882.252	4812
882.378	4816
882.505	4968
882.631	4786
882.757	4675
882.883	4755
883.01	4691
883.136	4618
883.262	4615
883.388	4592
883.514	4839
883.64	4831
883.766	4858
883.892	4672
884.018	4752
884.143	4904
884.269	5003
884.395	4706
884.52	4641
884.646	4656
884.772	4580
884.897	4603
885.023	4664
885.148	4786
885.274	4847
885.399	4790
885.524	4717
885.65	4668
885.775	4725
885.9	4710
886.025	4824
886.15	4809
886.275	4660
886.4	4637
886.525	4710
886.65	4675
886.775	4706
886.9	4862
887.025	5018
887.149	4778
887.274	4634
887.399	4550
887.523	4596
887.648	4550
887.773	4546
887.897	4725
888.021	4759
888.146	4702
888.27	4809
888.395	4839
888.519	4748
888.643	4850
888.767	4767
888.891	4702
889.015	4596
889.139	4611
889.263	4535
889.387	4717
889.511	4938
889.635	4786
889.759	4596
889.883	4607
890.006	4767
890.13	4831
890.254	4554
890.377	4649
890.501	4508
890.624	4561
890.748	4656
890.871	4527
890.995	4367
891.118	4379
891.241	4519
891.364	4546
891.488	4649
891.611	4550
891.734	4542
891.857	4607
891.98	4542
892.103	4611
892.226	4558
892.349	4558
892.471	4405
892.594	4573
892.717	4538
892.839	4558
892.962	4611
893.085	4618
893.207	4569
893.33	4405
893.452	4497
893.575	4679
893.697	4580
893.819	4771
893.941	4831
894.064	4729
894.186	4569
894.308	4584
894.43	4721
894.552	4809
894.674	4752
894.796	4561
894.918	4611
895.04	4611
895.161	4729
895.283	4698
895.405	4626
895.526	4634
895.648	4668
895.769	4630
895.891	4714
896.012	4675
896.134	4717
896.255	4675
896.376	4630
896.498	4592
896.619	4668
896.74	4618
896.861	4603
896.982	4919
897.103	5079
897.224	4809
897.345	4755
897.466	4630
897.587	4714
897.708	4793
897.828	4755
897.949	4634
898.07	4550
898.19	4668
898.311	4793
898.431	4645
898.552	4729
898.672	4801
898.792	4740
898.913	4710
899.033	4622
899.153	4519
899.273	4443
899.393	4523
899.513	4531
899.633	4546
899.753	4516
899.873	4478
899.993	4588
900.113	4546
900.232	4588
900.352	4508
900.472	4481
900.591	4413
900.711	4485
900.83	4424
900.95	4603
901.069	4660
901.189	4565
901.308	4386
901.427	4322
901.546	4371
901.665	4512
901.784	4504
901.904	4398
902.023	4280
902.141	4162
902.26	4169
902.379	4276
902.498	4215
902.617	4207
902.735	4360
902.854	4379
902.973	4367
903.091	4238
903.21	4223
903.328	4257
903.446	4249
903.565	4276
903.683	4314
903.801	4314
903.919	4352
904.038	4428
904.156	4306
904.274	4436
904.392	4417
904.51	4436
904.627	4470
904.745	4546
904.863	4641
904.981	4409
905.098	4276
905.216	4318
905.334	4443
905.451	4409
905.569	4428
905.686	4523
905.803	4527
905.921	4405
906.038	4523
906.155	4459
906.272	4424
906.389	4405
906.506	4402
906.623	4352
906.74	4394
906.857	4291
906.974	4322
907.091	4558
907.208	4710
907.324	4550
907.441	4478
907.557	4329
907.674	4367
907.79	4310
907.907	4394
908.023	4462
908.139	4519
908.256	4440
908.372	4474
908.488	4459
908.604	4329
908.72	4325
908.836	4341
908.952	4375
909.068	4409
909.184	4569
909.3	4489
909.415	4584
909.531	4527
909.647	4371
909.762	4402
909.878	4348
909.993	4413
910.108	4436
910.224	4405
910.339	4405
910.454	4405
910.57	4379
910.685	4371
910.8	4664
910.915	4626
911.03	4481
911.145	4303
911.259	4356
911.374	4333
911.489	4242
911.604	4257
911.718	4154
911.833	4227
911.947	4078
912.062	4032
912.176	4192
912.291	4230
912.405	4230
912.519	4470
912.633	4481
912.748	4383
912.862	4314
912.976	4196
913.09	4109
913.204	4196
913.318	4265
913.431	4402
913.545	4367
913.659	4405
913.772	4310
913.886	4234
914	4234
914.113	4352
914.226	4436
914.34	4424
914.453	4207
914.566	4386
914.68	4329
914.793	4318
914.906	4192
915.019	4116
915.132	4112
915.245	4173
915.358	4246
915.47	4238
915.583	4265
915.696	4265
915.809	4371
915.921	4443
916.034	4223
916.146	4234
916.259	4230
916.371	4386
916.483	4306
916.595	4253
916.708	4318
916.82	4360
916.932	4295
917.044	4314
917.156	4356
917.268	4204
917.38	4295
917.491	4272
917.603	4276
917.715	4428
917.826	4443
917.938	4348
918.049	4246
918.161	4424
918.272	4561
918.384	4565
918.495	4432
918.606	4299
918.717	4272
918.828	4333
918.939	4398
919.05	4257
919.161	4325
919.272	4131
919.383	4253
919.494	4443
919.604	4637
919.715	4379
919.826	4394
919.936	4409
920.047	4561
920.157	4508
920.267	4668
920.378	4504
920.488	4504
920.598	4687
920.708	4831
920.818	4736
920.928	4744
921.038	4934
921.148	4900
921.258	4645
921.368	4580
921.477	4508
921.587	4455
921.697	4356
921.806	4546
921.916	4447
922.025	4268
922.134	4261
922.244	4238
922.353	4352
922.462	4147
922.571	4154
922.68	3979
922.789	4029
922.898	4048
923.007	3964
923.116	4078
923.224	4059
923.333	4021
923.442	4032
923.55	3949
923.659	4021
923.767	4093
923.876	3987
923.984	4143
924.092	3960
924.201	4109
924.309	4105
924.417	4139
924.525	4082
924.633	4120
924.741	4862
924.849	3956
924.956	4120
925.064	3953
925.172	3930
925.279	3956
925.387	4051
925.494	4063
925.602	4200
925.709	4135
925.816	4063
925.924	4139
926.031	4181
926.138	4158
926.245	4211
926.352	4120
926.459	4276
926.566	4318
926.673	4147
926.779	4059
926.886	4055
926.993	3964
927.099	3983
927.206	3934
927.312	3945
927.419	4097
927.525	4036
927.631	4078
927.737	3975
927.843	3941
927.95	3861
928.056	3949
928.162	3991
928.267	4074
928.373	4702
928.479	4093
928.585	3899
928.69	3991
928.796	4086
928.901	4013
929.007	3854
929.112	4006
929.218	3949
929.323	3945
929.428	3949
929.533	4116
929.638	3922
929.743	3983
929.848	4036
929.953	4013
930.058	3964
930.163	3770
930.267	3823
930.372	4006
930.477	3800
930.581	4078
930.685	3964
930.79	3816
930.894	3888
930.998	3850
931.103	3987
931.207	3747
931.311	3728
931.415	3633
931.519	3549
931.623	3519
