Data from test_V78500241_765.txt Node
Date: Fri Mar 25 16:54:19 CST 2022
User: usil
Spectrometer: V785-0024
Trigger mode: 0
Integration Time (sec): 4.000000E-1
Scans to average: 1
Nonlinearity correction enabled: false
Boxcar width: 0
Storing dark spectrum: false
XAxis mode: Wavelengths
Number of Pixels in Spectrum: 1024
>>>>>Begin Spectral Data<<<<<
801.071	7993
801.214	8020
801.356	7830
801.499	7887
801.641	7780
801.783	7871
801.926	7986
802.068	7913
802.211	7993
802.353	7967
802.496	7879
802.638	7947
802.78	7883
802.923	7947
803.065	7875
803.208	7864
803.35	8001
803.492	8069
803.635	8172
803.777	8031
803.919	8058
804.061	8343
804.204	8138
804.346	8020
804.488	7955
804.63	8103
804.773	8054
804.915	8092
805.057	8172
805.199	8065
805.341	8180
805.483	8263
805.626	8229
805.768	8027
805.91	8142
806.052	8233
806.194	8058
806.336	8244
806.478	8031
806.62	7997
806.762	8115
806.904	8279
807.046	8427
807.188	8328
807.33	8336
807.472	8347
807.614	8123
807.756	8142
807.898	8012
808.04	7841
808.182	7841
808.324	7864
808.465	7909
808.607	8016
808.749	8039
808.891	8187
809.033	8294
809.174	8225
809.316	8103
809.458	8050
809.6	7967
809.741	7955
809.883	8008
810.025	8092
810.166	8012
810.308	8008
810.45	8050
810.591	7833
810.733	7693
810.875	7632
811.016	7533
811.158	7499
811.299	7559
811.441	7715
811.582	7636
811.724	7586
811.865	7468
812.007	7559
812.148	7556
812.29	7567
812.431	7719
812.573	7860
812.714	7997
812.855	8065
812.997	8237
813.138	8339
813.279	8145
813.421	8172
813.562	7993
813.703	7814
813.845	7689
813.986	7426
814.127	7274
814.268	7179
814.41	7190
814.551	7034
814.692	7114
814.833	7042
814.974	7057
815.115	7031
815.256	6970
815.397	6901
815.539	6924
815.68	6814
815.821	6753
815.962	6878
816.103	6772
816.244	6722
816.385	6662
816.526	6616
816.666	6433
816.807	6266
816.948	6380
817.089	6429
817.23	6456
817.371	6300
817.512	6399
817.653	6338
817.793	6353
817.934	6342
818.075	6384
818.216	6403
818.356	6471
818.497	6163
818.638	6079
818.778	6133
818.919	6117
819.06	6121
819.2	6304
819.341	6372
819.481	6361
819.622	6509
819.762	6719
819.903	6681
820.043	6593
820.184	6540
820.324	6604
820.465	6662
820.605	6608
820.746	6627
820.886	6551
821.026	6566
821.167	6719
821.307	6798
821.447	6776
821.588	6608
821.728	6559
821.868	6486
822.008	6372
822.149	6372
822.289	6346
822.429	6186
822.569	6060
822.709	6133
822.849	5920
822.99	5885
823.13	5920
823.27	5923
823.41	5802
823.55	5805
823.69	5771
823.83	5767
823.97	5741
824.11	5459
824.25	5482
824.389	5562
824.529	5623
824.669	5509
824.809	5627
824.949	5642
825.089	5585
825.228	5600
825.368	5429
825.508	5341
825.648	5326
825.787	5341
825.927	5383
826.067	5292
826.206	5261
826.346	5334
826.485	5376
826.625	5414
826.765	5497
826.904	5425
827.044	5242
827.183	5174
827.323	5132
827.462	5220
827.601	5178
827.741	5159
827.88	5189
828.02	5090
828.159	5284
828.298	5299
828.437	5364
828.577	5189
828.716	5497
828.855	5277
828.994	5185
829.134	5147
829.273	5128
829.412	5166
829.551	5132
829.69	5102
829.829	5231
829.968	5345
830.107	5231
830.246	5303
830.385	5147
830.524	5155
830.663	5018
830.802	4961
830.941	4881
831.08	4889
831.219	5022
831.357	4942
831.496	5140
831.635	4885
831.774	4824
831.913	4873
832.051	4721
832.19	4736
832.329	4854
832.467	4668
832.606	4645
832.744	4717
832.883	4736
833.022	4702
833.16	4729
833.299	4759
833.437	4862
833.576	4870
833.714	4847
833.852	4839
833.991	4854
834.129	4972
834.267	4965
834.406	4938
834.544	4934
834.682	4930
834.821	4957
834.959	5178
835.097	4957
835.235	5113
835.373	5071
835.511	5090
835.65	5052
835.788	4999
835.926	4896
836.064	4885
836.202	4938
836.34	5117
836.478	5174
836.615	5124
836.753	5159
836.891	5223
837.029	5216
837.167	5197
837.305	5193
837.443	5098
837.58	5056
837.718	5197
837.856	5147
837.993	5079
838.131	5193
838.269	5185
838.406	5185
838.544	5159
838.681	5041
838.819	4999
838.956	4942
839.094	4881
839.231	4976
839.369	5064
839.506	5364
839.643	5284
839.781	5045
839.918	4999
840.055	5086
840.193	5086
840.33	5140
840.467	5166
840.604	5178
840.742	5414
840.879	5060
841.016	5090
841.153	5162
841.29	5349
841.427	5330
841.564	5292
841.701	5353
841.838	5261
841.975	5212
842.112	5288
842.249	5136
842.385	5067
842.522	5277
842.659	5185
842.796	5117
842.933	5235
843.069	5151
843.206	5109
843.343	5303
843.479	5254
843.616	5265
843.752	5048
843.889	4961
844.025	5174
844.162	4972
844.298	5204
844.435	5132
844.571	4987
844.708	5197
844.844	5330
844.98	5307
845.117	5292
845.253	5083
845.389	5045
845.525	5185
845.661	5113
845.798	5075
845.934	5136
846.07	5079
846.206	5159
846.342	5307
846.478	5102
846.614	5018
846.75	5052
846.886	4968
847.022	5113
847.158	4980
847.294	5052
847.429	5052
847.565	5003
847.701	5280
847.837	4831
847.972	4778
848.108	4980
848.244	4965
848.379	4812
848.515	4725
848.65	4721
848.786	4729
848.921	4755
849.057	4850
849.192	4911
849.328	4763
849.463	4809
849.598	4767
849.734	4729
849.869	4694
850.004	4630
850.14	4668
850.275	4664
850.41	4523
850.545	4550
850.68	4538
850.815	4641
850.95	4599
851.085	4828
851.22	4736
851.355	4653
851.49	4622
851.625	4603
851.76	4653
851.895	4512
852.03	4512
852.165	4668
852.299	4672
852.434	4820
852.569	4759
852.703	4702
852.838	4824
852.973	4881
853.107	4915
853.242	4736
853.376	4694
853.511	4577
853.645	4596
853.78	4782
853.914	4664
854.048	4634
854.183	4611
854.317	4660
854.451	4824
854.585	4611
854.72	4626
854.854	4759
854.988	4588
855.122	4611
855.256	4485
855.39	4645
855.524	4778
855.658	4729
855.792	4691
855.926	4687
856.06	4774
856.194	4805
856.327	4714
856.461	4611
856.595	4641
856.729	4599
856.862	4691
856.996	4656
857.13	4729
857.263	4767
857.397	4763
857.53	4649
857.664	4714
857.797	4755
857.931	4748
858.064	4679
858.197	4714
858.331	4653
858.464	4554
858.597	4512
858.731	4615
858.864	4615
858.997	4565
859.13	4630
859.263	4649
859.396	4691
859.529	4592
859.662	4531
859.795	4531
859.928	4626
860.061	4759
860.194	4774
860.327	4607
860.46	4584
860.592	4698
860.725	4721
860.858	4721
860.99	4592
861.123	4565
861.256	4535
861.388	4565
861.521	5368
861.653	4466
861.786	4424
861.918	4432
862.05	4478
862.183	4588
862.315	4531
862.447	4630
862.58	4500
862.712	4344
862.844	4299
862.976	4485
863.108	4436
863.24	4839
863.372	4337
863.504	4451
863.636	4421
863.768	4462
863.9	4443
864.032	4356
864.164	4432
864.296	4478
864.428	4542
864.559	4542
864.691	4508
864.823	4558
864.954	4466
865.086	4527
865.217	4470
865.349	4394
865.48	4421
865.612	4466
865.743	4630
865.875	4459
866.006	4436
866.137	4424
866.269	4478
866.4	4436
866.531	4417
866.662	4402
866.793	4398
866.924	4436
867.055	4466
867.186	4462
867.317	4394
867.448	4375
867.579	4390
867.71	4421
867.841	4371
867.972	4474
868.103	4474
868.233	4394
868.364	4356
868.495	4447
868.625	4660
868.756	4786
868.886	4538
869.017	4603
869.147	4744
869.278	4805
869.408	4634
869.539	4630
869.669	4714
869.799	4656
869.929	4774
870.06	4714
870.19	4942
870.32	4923
870.45	4911
870.58	5029
870.71	5048
870.84	5094
870.97	4957
871.1	4885
871.23	5041
871.36	5121
871.489	5010
871.619	5045
871.749	5045
871.879	5136
872.008	5201
872.138	5086
872.267	4957
872.397	4854
872.526	4797
872.656	4683
872.785	4824
872.915	4942
873.044	4995
873.173	4923
873.303	4919
873.432	4946
873.561	4915
873.69	4847
873.819	4850
873.948	4896
874.077	4778
874.206	4767
874.335	4786
874.464	4930
874.593	5022
874.722	4995
874.851	5098
874.979	5025
875.108	5033
875.237	4908
875.365	4911
875.494	4911
875.623	4927
875.751	4877
875.88	4809
876.008	4946
876.136	4957
876.265	5204
876.393	5326
876.521	5265
876.65	5227
876.778	5155
876.906	5056
877.034	5022
877.162	5075
877.29	4972
877.418	5006
877.546	5006
877.674	5064
877.802	5037
877.93	4987
878.058	4930
878.185	4892
878.313	4953
878.441	5014
878.568	4801
878.696	4866
878.824	4999
878.951	4946
879.079	5124
879.206	5288
879.333	5102
879.461	4991
879.588	5025
879.715	5098
879.842	5208
879.97	4991
880.097	4752
880.224	4763
880.351	4824
880.478	4885
880.605	4771
880.732	4809
880.859	5067
880.986	4915
881.112	4892
881.239	4782
881.366	4694
881.493	4607
881.619	4618
881.746	4618
881.872	4618
881.999	4622
882.125	4660
882.252	4774
882.378	4877
882.505	4927
882.631	4805
882.757	4664
882.883	4744
883.01	4740
883.136	4649
883.262	4596
883.388	4607
883.514	4801
883.64	4782
883.766	4797
883.892	4630
884.018	4710
884.143	4892
884.269	4991
884.395	4687
884.52	4615
884.646	4679
884.772	4596
884.897	4531
885.023	4649
885.148	4740
885.274	4847
885.399	4812
885.524	4683
885.65	4714
885.775	4740
885.9	4683
886.025	4774
886.15	4763
886.275	4702
886.4	4611
886.525	4721
886.65	4653
886.775	4698
886.9	4885
887.025	4995
887.149	4763
887.274	4672
887.399	4580
887.523	4580
887.648	4584
887.773	4573
887.897	4755
888.021	4805
888.146	4683
888.27	4790
888.395	4866
888.519	4774
888.643	4805
888.767	4835
888.891	4660
889.015	4542
889.139	4611
889.263	4622
889.387	4736
889.511	4854
889.635	4774
889.759	4641
889.883	4603
890.006	4729
890.13	4809
890.254	4588
890.377	4656
890.501	4603
890.624	4512
890.748	4603
890.871	4500
890.995	4394
891.118	4405
891.241	4531
891.364	4504
891.488	4683
891.611	4474
891.734	4554
891.857	4565
891.98	4558
892.103	4634
892.226	4622
892.349	4565
892.471	4447
892.594	4538
892.717	4580
892.839	4565
892.962	4569
893.085	4660
893.207	4580
893.33	4462
893.452	4508
893.575	4630
893.697	4561
893.819	4801
893.941	4835
894.064	4771
894.186	4588
894.308	4577
894.43	4740
894.552	4816
894.674	4755
894.796	4519
894.918	4542
895.04	4516
895.161	4668
895.283	4649
895.405	4550
895.526	4634
895.648	4660
895.769	4645
895.891	4668
896.012	4755
896.134	4694
896.255	4698
896.376	4615
896.498	4599
896.619	4656
896.74	4626
896.861	4626
896.982	4896
897.103	4987
897.224	4854
897.345	4782
897.466	4607
897.587	4687
897.708	4847
897.828	4759
897.949	4675
898.07	4504
898.19	4607
898.311	4820
898.431	4649
898.552	4763
898.672	4786
898.792	4843
898.913	4736
899.033	4626
899.153	4500
899.273	4428
899.393	4489
899.513	4485
899.633	4504
899.753	4542
899.873	4527
899.993	4622
900.113	4542
900.232	4565
900.352	4542
900.472	4447
900.591	4383
900.711	4470
900.83	4440
900.95	4580
901.069	4691
901.189	4558
901.308	4371
901.427	4299
901.546	4375
901.665	4447
901.784	4481
901.904	4413
902.023	4337
902.141	4223
902.26	4166
902.379	4272
902.498	4272
902.617	4242
902.735	4314
902.854	4367
902.973	4329
903.091	4200
903.21	4215
903.328	4284
903.446	4253
903.565	4265
903.683	4303
903.801	4257
903.919	4417
904.038	4428
904.156	4325
904.274	4421
904.392	4352
904.51	4405
904.627	4497
904.745	4607
904.863	4649
904.981	4398
905.098	4299
905.216	4375
905.334	4383
905.451	4413
905.569	4405
905.686	4573
905.803	4546
905.921	4383
906.038	4508
906.155	4455
906.272	4394
906.389	4474
906.506	4417
906.623	4352
906.74	4363
906.857	4291
906.974	4379
907.091	4542
907.208	4664
907.324	4573
907.441	4485
907.557	4318
907.674	4329
907.79	4314
907.907	4352
908.023	4432
908.139	4512
908.256	4371
908.372	4489
908.488	4409
908.604	4333
908.72	4265
908.836	4306
908.952	4398
909.068	4409
909.184	4542
909.3	4455
909.415	4516
909.531	4531
909.647	4375
909.762	4352
909.878	4322
909.993	4436
910.108	4421
910.224	4432
910.339	4451
910.454	4322
910.57	4344
910.685	4287
910.8	4634
910.915	4569
911.03	4508
911.145	4310
911.259	4329
911.374	4341
911.489	4242
911.604	4219
911.718	4131
911.833	4143
911.947	4078
912.062	4017
912.176	4238
912.291	4188
912.405	4204
912.519	4417
912.633	4500
912.748	4337
912.862	4303
912.976	4166
913.09	4074
913.204	4162
913.318	4230
913.431	4375
913.545	4299
913.659	4402
913.772	4386
913.886	4234
914	4196
914.113	4375
914.226	4421
914.34	4413
914.453	4238
914.566	4428
914.68	4322
914.793	4314
914.906	4181
915.019	4097
915.132	4074
915.245	4135
915.358	4177
915.47	4234
915.583	4219
915.696	4257
915.809	4409
915.921	4405
916.034	4242
916.146	4253
916.259	4204
916.371	4310
916.483	4367
916.595	4238
916.708	4322
916.82	4348
916.932	4295
917.044	4325
917.156	4299
917.268	4219
917.38	4284
917.491	4227
917.603	4329
917.715	4405
917.826	4402
917.938	4379
918.049	4261
918.161	4363
918.272	4577
918.384	4512
918.495	4432
918.606	4280
918.717	4246
918.828	4291
918.939	4405
919.05	4249
919.161	4352
919.272	4109
919.383	4227
919.494	4478
919.604	4630
919.715	4436
919.826	4360
919.936	4436
920.047	4554
920.157	4493
920.267	4679
920.378	4554
920.488	4527
920.598	4698
920.708	4934
920.818	4771
920.928	4771
921.038	4965
921.148	4984
921.258	4687
921.368	4542
921.477	4485
921.587	4451
921.697	4424
921.806	4611
921.916	4485
922.025	4322
922.134	4280
922.244	4257
922.353	4383
922.462	4227
922.571	4158
922.68	4040
922.789	4025
922.898	4032
923.007	4017
923.116	4166
923.224	4090
923.333	4131
923.442	4025
923.55	4017
923.659	4013
923.767	4147
923.876	4006
923.984	4139
924.092	4021
924.201	4101
924.309	4147
924.417	4154
924.525	4078
924.633	4143
924.741	4854
924.849	3975
924.956	4166
925.064	4021
925.172	3953
925.279	4017
925.387	4055
925.494	4112
925.602	4230
925.709	4188
925.816	4078
925.924	4162
926.031	4287
926.138	4207
926.245	4188
926.352	4131
926.459	4265
926.566	4360
926.673	4200
926.779	4109
926.886	4131
926.993	4025
927.099	3983
927.206	3979
927.312	3975
927.419	4059
927.525	4055
927.631	4143
927.737	4006
927.843	3918
927.95	3876
928.056	3972
928.162	4044
928.267	4074
928.373	4664
928.479	4181
928.585	3903
928.69	4059
928.796	4131
928.901	3998
929.007	3865
929.112	4029
929.218	4006
929.323	3991
929.428	3956
929.533	4143
929.638	3956
929.743	3975
929.848	4078
929.953	4029
930.058	3953
930.163	3816
930.267	3827
930.372	3998
930.477	3835
930.581	4158
930.685	4010
930.79	3838
930.894	3880
930.998	3907
931.103	4090
931.207	3785
931.311	3720
931.415	3717
931.519	3549
931.623	3587
