Data from test_V78500241_566.txt Node
Date: Fri Mar 25 16:52:56 CST 2022
User: usil
Spectrometer: V785-0024
Trigger mode: 0
Integration Time (sec): 4.000000E-1
Scans to average: 1
Nonlinearity correction enabled: false
Boxcar width: 0
Storing dark spectrum: false
XAxis mode: Wavelengths
Number of Pixels in Spectrum: 1024
>>>>>Begin Spectral Data<<<<<
801.071	8077
801.214	7989
801.356	7879
801.499	7894
801.641	7807
801.783	7887
801.926	8005
802.068	7986
802.211	7959
802.353	8027
802.496	7875
802.638	7978
802.78	7879
802.923	7917
803.065	7795
803.208	7967
803.35	7970
803.492	8142
803.635	8153
803.777	8035
803.919	8107
804.061	8434
804.204	8107
804.346	8050
804.488	7997
804.63	8107
804.773	8103
804.915	8084
805.057	8305
805.199	8142
805.341	8248
805.483	8282
805.626	8267
805.768	8073
805.91	8225
806.052	8191
806.194	8081
806.336	8286
806.478	8180
806.62	8107
806.762	8115
806.904	8271
807.046	8438
807.188	8313
807.33	8317
807.472	8286
807.614	8221
807.756	8126
807.898	7940
808.04	7871
808.182	7909
808.324	7917
808.465	7928
808.607	7982
808.749	8161
808.891	8298
809.033	8259
809.174	8161
809.316	8046
809.458	8043
809.6	8020
809.741	8024
809.883	8020
810.025	8039
810.166	8088
810.308	7970
810.45	8050
810.591	7890
810.733	7693
810.875	7689
811.016	7540
811.158	7533
811.299	7594
811.441	7784
811.582	7693
811.724	7571
811.865	7556
812.007	7578
812.148	7567
812.29	7578
812.431	7761
812.573	7887
812.714	8039
812.855	8161
812.997	8244
813.138	8328
813.279	8195
813.421	8168
813.562	8103
813.703	7925
813.845	7757
813.986	7525
814.127	7327
814.268	7354
814.41	7293
814.551	7141
814.692	7179
814.833	7118
814.974	7141
815.115	7175
815.256	6970
815.397	6897
815.539	7008
815.68	6818
815.821	6749
815.962	6905
816.103	6829
816.244	6783
816.385	6688
816.526	6642
816.666	6563
816.807	6308
816.948	6467
817.089	6460
817.23	6479
817.371	6422
817.512	6361
817.653	6353
817.793	6437
817.934	6388
818.075	6471
818.216	6460
818.356	6384
818.497	6251
818.638	6197
818.778	6144
818.919	6110
819.06	6148
819.2	6308
819.341	6292
819.481	6369
819.622	6494
819.762	6707
819.903	6738
820.043	6559
820.184	6570
820.324	6585
820.465	6684
820.605	6658
820.746	6604
820.886	6483
821.026	6601
821.167	6684
821.307	6760
821.447	6688
821.588	6665
821.728	6547
821.868	6445
822.008	6270
822.149	6338
822.289	6338
822.429	6186
822.569	6098
822.709	6121
822.849	5939
822.99	5889
823.13	5927
823.27	5897
823.41	5824
823.55	5783
823.69	5764
823.83	5802
823.97	5710
824.11	5543
824.25	5490
824.389	5577
824.529	5554
824.669	5535
824.809	5642
824.949	5615
825.089	5649
825.228	5585
825.368	5414
825.508	5353
825.648	5360
825.787	5395
825.927	5357
826.067	5284
826.206	5334
826.346	5383
826.485	5417
826.625	5417
826.765	5585
826.904	5486
827.044	5250
827.183	5227
827.323	5124
827.462	5277
827.601	5178
827.741	5193
827.88	5216
828.02	5121
828.159	5246
828.298	5280
828.437	5318
828.577	5341
828.716	5444
828.855	5315
828.994	5193
829.134	5109
829.273	5250
829.412	5140
829.551	5132
829.69	5159
829.829	5235
829.968	5383
830.107	5269
830.246	5315
830.385	5140
830.524	5143
830.663	5079
830.802	4984
830.941	4911
831.08	4873
831.219	5018
831.357	4919
831.496	5117
831.635	4949
831.774	4835
831.913	4786
832.051	4740
832.19	4748
832.329	4873
832.467	4694
832.606	4607
832.744	4740
832.883	4691
833.022	4717
833.16	4782
833.299	4866
833.437	4835
833.576	4812
833.714	4839
833.852	4927
833.991	4877
834.129	4968
834.267	4953
834.406	4946
834.544	5006
834.682	4972
834.821	4946
834.959	5102
835.097	4965
835.235	5159
835.373	5071
835.511	5048
835.65	5037
835.788	5022
835.926	4892
836.064	4870
836.202	4923
836.34	5189
836.478	5208
836.615	5159
836.753	5208
836.891	5299
837.029	5242
837.167	5181
837.305	5220
837.443	5155
837.58	5105
837.718	5220
837.856	5159
837.993	5143
838.131	5204
838.269	5189
838.406	5201
838.544	5204
838.681	5006
838.819	5010
838.956	4908
839.094	4953
839.231	4995
839.369	5117
839.506	5482
839.643	5269
839.781	5041
839.918	4984
840.055	5136
840.193	5113
840.33	5098
840.467	5159
840.604	5227
840.742	5463
840.879	5071
841.016	5109
841.153	5143
841.29	5391
841.427	5311
841.564	5345
841.701	5337
841.838	5315
841.975	5246
842.112	5269
842.249	5147
842.385	5102
842.522	5330
842.659	5178
842.796	5128
842.933	5155
843.069	5140
843.206	5143
843.343	5273
843.479	5250
843.616	5261
843.752	5010
843.889	4987
844.025	5250
844.162	5048
844.298	5204
844.435	5071
844.571	5079
844.708	5208
844.844	5284
844.98	5322
845.117	5261
845.253	5170
845.389	5094
845.525	5109
845.661	5140
845.798	5086
845.934	5204
846.07	5083
846.206	5174
846.342	5326
846.478	5140
846.614	5014
846.75	5018
846.886	4984
847.022	5159
847.158	5010
847.294	5071
847.429	5079
847.565	5060
847.701	5379
847.837	4854
847.972	4793
848.108	4934
848.244	4904
848.379	4797
848.515	4721
848.65	4733
848.786	4710
848.921	4786
849.057	4835
849.192	4949
849.328	4786
849.463	4854
849.598	4752
849.734	4778
849.869	4710
850.004	4599
850.14	4630
850.275	4588
850.41	4531
850.545	4565
850.68	4596
850.815	4607
850.95	4641
851.085	4847
851.22	4748
851.355	4679
851.49	4641
851.625	4634
851.76	4656
851.895	4542
852.03	4516
852.165	4664
852.299	4729
852.434	4771
852.569	4706
852.703	4774
852.838	4858
852.973	4923
853.107	4930
853.242	4736
853.376	4637
853.511	4565
853.645	4622
853.78	4786
853.914	4702
854.048	4653
854.183	4675
854.317	4634
854.451	4877
854.585	4717
854.72	4649
854.854	4729
854.988	4569
855.122	4630
855.256	4538
855.39	4672
855.524	4797
855.658	4702
855.792	4672
855.926	4752
856.06	4736
856.194	4797
856.327	4653
856.461	4626
856.595	4592
856.729	4588
856.862	4740
856.996	4672
857.13	4668
857.263	4774
857.397	4828
857.53	4702
857.664	4725
857.797	4763
857.931	4778
858.064	4653
858.197	4759
858.331	4656
858.464	4634
858.597	4538
858.731	4603
858.864	4641
858.997	4580
859.13	4641
859.263	4687
859.396	4672
859.529	4588
859.662	4546
859.795	4565
859.928	4596
860.061	4805
860.194	4782
860.327	4649
860.46	4580
860.592	4725
860.725	4744
860.858	4736
860.99	4596
861.123	4542
861.256	4558
861.388	4584
861.521	5421
861.653	4451
861.786	4424
861.918	4421
862.05	4554
862.183	4592
862.315	4596
862.447	4641
862.58	4516
862.712	4375
862.844	4348
862.976	4440
863.108	4398
863.24	4854
863.372	4379
863.504	4424
863.636	4398
863.768	4462
863.9	4440
864.032	4398
864.164	4413
864.296	4451
864.428	4531
864.559	4558
864.691	4527
864.823	4516
864.954	4474
865.086	4538
865.217	4417
865.349	4413
865.48	4443
865.612	4493
865.743	4618
865.875	4497
866.006	4447
866.137	4466
866.269	4455
866.4	4443
866.531	4424
866.662	4402
866.793	4421
866.924	4440
867.055	4538
867.186	4436
867.317	4436
867.448	4398
867.579	4402
867.71	4436
867.841	4352
867.972	4432
868.103	4386
868.233	4436
868.364	4417
868.495	4466
868.625	4668
868.756	4797
868.886	4535
869.017	4611
869.147	4797
869.278	4797
869.408	4615
869.539	4622
869.669	4744
869.799	4687
869.929	4740
870.06	4687
870.19	4911
870.32	4934
870.45	4919
870.58	4980
870.71	5098
870.84	5075
870.97	4843
871.1	4915
871.23	5124
871.36	5132
871.489	5041
871.619	5033
871.749	5056
871.879	5117
872.008	5166
872.138	5079
872.267	4999
872.397	4854
872.526	4774
872.656	4683
872.785	4839
872.915	4927
873.044	5033
873.173	4957
873.303	4953
873.432	4976
873.561	4949
873.69	4885
873.819	4885
873.948	4972
874.077	4843
874.206	4767
874.335	4797
874.464	4938
874.593	5067
874.722	4961
874.851	5132
874.979	5113
875.108	5037
875.237	4911
875.365	4877
875.494	4850
875.623	4946
875.751	4843
875.88	4835
876.008	4953
876.136	5006
876.265	5174
876.393	5360
876.521	5227
876.65	5197
876.778	5159
876.906	5075
877.034	4999
877.162	5033
877.29	5006
877.418	5064
877.546	5071
877.674	5033
877.802	4980
877.93	5060
878.058	4972
878.185	4881
878.313	4934
878.441	4965
878.568	4805
878.696	4866
878.824	4984
878.951	4953
879.079	5102
879.206	5330
879.333	5124
879.461	5022
879.588	4961
879.715	5143
879.842	5223
879.97	4995
880.097	4793
880.224	4736
880.351	4801
880.478	4847
880.605	4816
880.732	4763
880.859	5067
880.986	4881
881.112	4953
881.239	4801
881.366	4660
881.493	4615
881.619	4592
881.746	4664
881.872	4645
881.999	4714
882.125	4683
882.252	4767
882.378	4828
882.505	4938
882.631	4809
882.757	4675
882.883	4736
883.01	4744
883.136	4668
883.262	4622
883.388	4611
883.514	4797
883.64	4885
883.766	4774
883.892	4668
884.018	4725
884.143	4908
884.269	4976
884.395	4694
884.52	4615
884.646	4679
884.772	4615
884.897	4580
885.023	4675
885.148	4786
885.274	4892
885.399	4786
885.524	4717
885.65	4679
885.775	4733
885.9	4660
886.025	4858
886.15	4774
886.275	4744
886.4	4630
886.525	4702
886.65	4675
886.775	4736
886.9	4942
887.025	5010
887.149	4740
887.274	4653
887.399	4561
887.523	4573
887.648	4588
887.773	4592
887.897	4755
888.021	4809
888.146	4664
888.27	4828
888.395	4911
888.519	4759
888.643	4873
888.767	4831
888.891	4649
889.015	4607
889.139	4645
889.263	4626
889.387	4706
889.511	4866
889.635	4801
889.759	4611
889.883	4649
890.006	4714
890.13	4843
890.254	4584
890.377	4694
890.501	4546
890.624	4485
890.748	4649
890.871	4527
890.995	4402
891.118	4360
891.241	4523
891.364	4554
891.488	4607
891.611	4462
891.734	4523
891.857	4584
891.98	4523
892.103	4634
892.226	4596
892.349	4554
892.471	4417
892.594	4535
892.717	4577
892.839	4584
892.962	4554
893.085	4649
893.207	4611
893.33	4474
893.452	4561
893.575	4656
893.697	4588
893.819	4812
893.941	4835
894.064	4744
894.186	4584
894.308	4618
894.43	4729
894.552	4786
894.674	4725
894.796	4531
894.918	4645
895.04	4603
895.161	4710
895.283	4641
895.405	4588
895.526	4634
895.648	4710
895.769	4672
895.891	4755
896.012	4725
896.134	4702
896.255	4706
896.376	4664
896.498	4599
896.619	4714
896.74	4592
896.861	4637
896.982	4919
897.103	5079
897.224	4828
897.345	4767
897.466	4683
897.587	4725
897.708	4824
897.828	4763
897.949	4668
898.07	4580
898.19	4694
898.311	4831
898.431	4733
898.552	4714
898.672	4824
898.792	4801
898.913	4778
899.033	4660
899.153	4478
899.273	4451
899.393	4470
899.513	4497
899.633	4470
899.753	4523
899.873	4489
899.993	4588
900.113	4538
900.232	4565
900.352	4493
900.472	4489
900.591	4413
900.711	4497
900.83	4443
900.95	4603
901.069	4694
901.189	4550
901.308	4371
901.427	4284
901.546	4383
901.665	4432
901.784	4550
901.904	4371
902.023	4303
902.141	4219
902.26	4120
902.379	4329
902.498	4249
902.617	4238
902.735	4341
902.854	4421
902.973	4322
903.091	4188
903.21	4230
903.328	4268
903.446	4257
903.565	4253
903.683	4337
903.801	4268
903.919	4386
904.038	4421
904.156	4363
904.274	4424
904.392	4421
904.51	4417
904.627	4417
904.745	4599
904.863	4660
904.981	4375
905.098	4299
905.216	4363
905.334	4421
905.451	4402
905.569	4432
905.686	4554
905.803	4554
905.921	4398
906.038	4535
906.155	4512
906.272	4413
906.389	4466
906.506	4383
906.623	4371
906.74	4360
906.857	4299
906.974	4375
907.091	4535
907.208	4622
907.324	4596
907.441	4489
907.557	4325
907.674	4303
907.79	4261
907.907	4383
908.023	4500
908.139	4394
908.256	4489
908.372	4451
908.488	4451
908.604	4356
908.72	4348
908.836	4375
908.952	4360
909.068	4443
909.184	4599
909.3	4523
909.415	4577
909.531	4561
909.647	4363
909.762	4409
909.878	4333
909.993	4493
910.108	4459
910.224	4421
910.339	4447
910.454	4405
910.57	4390
910.685	4268
910.8	4649
910.915	4599
911.03	4500
911.145	4356
911.259	4284
911.374	4386
911.489	4322
911.604	4265
911.718	4169
911.833	4185
911.947	4086
912.062	4010
912.176	4246
912.291	4261
912.405	4287
912.519	4466
912.633	4508
912.748	4398
912.862	4318
912.976	4200
913.09	4120
913.204	4166
913.318	4234
913.431	4390
913.545	4371
913.659	4428
913.772	4337
913.886	4219
914	4227
914.113	4367
914.226	4421
914.34	4394
914.453	4257
914.566	4466
914.68	4344
914.793	4333
914.906	4196
915.019	4128
915.132	4109
915.245	4158
915.358	4223
915.47	4249
915.583	4318
915.696	4276
915.809	4386
915.921	4447
916.034	4272
916.146	4234
916.259	4291
916.371	4341
916.483	4383
916.595	4284
916.708	4325
916.82	4348
916.932	4367
917.044	4348
917.156	4360
917.268	4276
917.38	4287
917.491	4287
917.603	4360
917.715	4440
917.826	4466
917.938	4325
918.049	4230
918.161	4386
918.272	4535
918.384	4516
918.495	4466
918.606	4306
918.717	4238
918.828	4310
918.939	4314
919.05	4246
919.161	4337
919.272	4135
919.383	4246
919.494	4459
919.604	4649
919.715	4436
919.826	4322
919.936	4421
920.047	4474
920.157	4470
920.267	4721
920.378	4561
920.488	4531
920.598	4672
920.708	4870
920.818	4778
920.928	4793
921.038	4946
921.148	4904
921.258	4584
921.368	4542
921.477	4535
921.587	4481
921.697	4386
921.806	4558
921.916	4428
922.025	4284
922.134	4303
922.244	4200
922.353	4325
922.462	4166
922.571	4143
922.68	3998
922.789	3983
922.898	4082
923.007	3994
923.116	4082
923.224	4090
923.333	4082
923.442	3972
923.55	4002
923.659	4006
923.767	4135
923.876	4025
923.984	4147
924.092	4032
924.201	4071
924.309	4112
924.417	4112
924.525	4093
924.633	4105
924.741	5060
924.849	3896
924.956	4162
925.064	3979
925.172	3899
925.279	4002
925.387	4059
925.494	4059
925.602	4253
925.709	4166
925.816	4036
925.924	4135
926.031	4242
926.138	4143
926.245	4215
926.352	4112
926.459	4230
926.566	4242
926.673	4101
926.779	4112
926.886	4105
926.993	3968
927.099	3979
927.206	3964
927.312	3937
927.419	4040
927.525	4067
927.631	4128
927.737	4013
927.843	3911
927.95	3827
928.056	3968
928.162	4025
928.267	4071
928.373	4683
928.479	4097
928.585	3907
928.69	3987
928.796	4078
928.901	3945
929.007	3827
929.112	4010
929.218	3972
929.323	3960
929.428	3937
929.533	4093
929.638	3907
929.743	3991
929.848	4086
929.953	3983
930.058	3949
930.163	3762
930.267	3823
930.372	3945
930.477	3823
930.581	4082
930.685	3937
930.79	3819
930.894	3941
930.998	3831
931.103	4025
931.207	3743
931.311	3724
931.415	3713
931.519	3523
931.623	3576
