Data from test_V78500241_1682.txt Node
Date: Fri Mar 25 17:00:41 CST 2022
User: usil
Spectrometer: V785-0024
Trigger mode: 0
Integration Time (sec): 4.000000E-1
Scans to average: 1
Nonlinearity correction enabled: false
Boxcar width: 0
Storing dark spectrum: false
XAxis mode: Wavelengths
Number of Pixels in Spectrum: 1024
>>>>>Begin Spectral Data<<<<<
801.071	8031
801.214	7986
801.356	7890
801.499	7902
801.641	7799
801.783	7776
801.926	7959
802.068	7974
802.211	8043
802.353	8005
802.496	7837
802.638	7856
802.78	7883
802.923	7940
803.065	7909
803.208	7875
803.35	7947
803.492	8100
803.635	8073
803.777	7993
803.919	8123
804.061	8442
804.204	8138
804.346	8081
804.488	7951
804.63	8069
804.773	8016
804.915	8054
805.057	8286
805.199	8142
805.341	8153
805.483	8252
805.626	8176
805.768	8062
805.91	8176
806.052	8138
806.194	8119
806.336	8305
806.478	8088
806.62	8043
806.762	8149
806.904	8237
807.046	8476
807.188	8313
807.33	8320
807.472	8347
807.614	8172
807.756	8123
807.898	7909
808.04	7856
808.182	7849
808.324	7898
808.465	7921
808.607	8081
808.749	8164
808.891	8233
809.033	8298
809.174	8259
809.316	8107
809.458	8065
809.6	7993
809.741	8024
809.883	8050
810.025	8088
810.166	8077
810.308	8084
810.45	7959
810.591	7883
810.733	7719
810.875	7681
811.016	7563
811.158	7502
811.299	7662
811.441	7708
811.582	7662
811.724	7647
811.865	7487
812.007	7655
812.148	7636
812.29	7674
812.431	7814
812.573	7887
812.714	8005
812.855	8119
812.997	8248
813.138	8336
813.279	8145
813.421	8062
813.562	7947
813.703	7864
813.845	7769
813.986	7430
814.127	7274
814.268	7255
814.41	7247
814.551	7168
814.692	7282
814.833	7137
814.974	7107
815.115	7099
815.256	7012
815.397	6985
815.539	6905
815.68	6863
815.821	6772
815.962	6871
816.103	6810
816.244	6726
816.385	6582
816.526	6627
816.666	6513
816.807	6304
816.948	6498
817.089	6521
817.23	6448
817.371	6391
817.512	6441
817.653	6399
817.793	6369
817.934	6483
818.075	6479
818.216	6418
818.356	6353
818.497	6239
818.638	6083
818.778	6167
818.919	6194
819.06	6182
819.2	6342
819.341	6388
819.481	6384
819.622	6551
819.762	6798
819.903	6696
820.043	6658
820.184	6582
820.324	6589
820.465	6681
820.605	6677
820.746	6662
820.886	6525
821.026	6639
821.167	6711
821.307	6772
821.447	6787
821.588	6703
821.728	6547
821.868	6555
822.008	6346
822.149	6391
822.289	6376
822.429	6182
822.569	6152
822.709	6125
822.849	5931
822.99	5939
823.13	5939
823.27	5935
823.41	5866
823.55	5802
823.69	5855
823.83	5817
823.97	5657
824.11	5535
824.25	5471
824.389	5566
824.529	5577
824.669	5520
824.809	5634
824.949	5703
825.089	5688
825.228	5547
825.368	5368
825.508	5372
825.648	5364
825.787	5376
825.927	5379
826.067	5330
826.206	5292
826.346	5433
826.485	5398
826.625	5414
826.765	5611
826.904	5482
827.044	5349
827.183	5246
827.323	5143
827.462	5284
827.601	5189
827.741	5181
827.88	5220
828.02	5162
828.159	5242
828.298	5322
828.437	5417
828.577	5372
828.716	5448
828.855	5349
828.994	5136
829.134	5159
829.273	5193
829.412	5166
829.551	5155
829.69	5162
829.829	5223
829.968	5387
830.107	5288
830.246	5273
830.385	5155
830.524	5178
830.663	5090
830.802	4984
830.941	4908
831.08	4873
831.219	5006
831.357	4976
831.496	5212
831.635	4927
831.774	4843
831.913	4847
832.051	4717
832.19	4782
832.329	4847
832.467	4744
832.606	4656
832.744	4725
832.883	4706
833.022	4755
833.16	4854
833.299	4866
833.437	4854
833.576	4873
833.714	4900
833.852	4877
833.991	4911
834.129	5010
834.267	4965
834.406	4923
834.544	4946
834.682	5014
834.821	4968
834.959	5162
835.097	5025
835.235	5132
835.373	5136
835.511	5124
835.65	5086
835.788	4999
835.926	4908
836.064	4911
836.202	4949
836.34	5170
836.478	5261
836.615	5159
836.753	5280
836.891	5261
837.029	5250
837.167	5235
837.305	5208
837.443	5174
837.58	5067
837.718	5250
837.856	5140
837.993	5155
838.131	5216
838.269	5242
838.406	5273
838.544	5155
838.681	5041
838.819	5037
838.956	4934
839.094	4965
839.231	4972
839.369	5083
839.506	5444
839.643	5284
839.781	5067
839.918	5029
840.055	5136
840.193	5094
840.33	5166
840.467	5124
840.604	5166
840.742	5490
840.879	5105
841.016	5086
841.153	5208
841.29	5410
841.427	5353
841.564	5337
841.701	5360
841.838	5258
841.975	5269
842.112	5318
842.249	5113
842.385	5113
842.522	5337
842.659	5162
842.796	5132
842.933	5208
843.069	5197
843.206	5159
843.343	5345
843.479	5288
843.616	5254
843.752	5052
843.889	5022
844.025	5216
844.162	5029
844.298	5181
844.435	5162
844.571	5037
844.708	5242
844.844	5341
844.98	5398
845.117	5311
845.253	5098
845.389	5086
845.525	5204
845.661	5121
845.798	5083
845.934	5166
846.07	5079
846.206	5235
846.342	5292
846.478	5109
846.614	5022
846.75	5022
846.886	4942
847.022	5136
847.158	5060
847.294	5022
847.429	5140
847.565	5102
847.701	5330
847.837	4889
847.972	4839
848.108	4957
848.244	4949
848.379	4755
848.515	4755
848.65	4740
848.786	4763
848.921	4782
849.057	4892
849.192	4904
849.328	4843
849.463	4850
849.598	4805
849.734	4763
849.869	4736
850.004	4679
850.14	4687
850.275	4649
850.41	4561
850.545	4550
850.68	4584
850.815	4637
850.95	4626
851.085	4828
851.22	4748
851.355	4710
851.49	4660
851.625	4637
851.76	4683
851.895	4580
852.03	4542
852.165	4675
852.299	4763
852.434	4736
852.569	4759
852.703	4778
852.838	4847
852.973	4953
853.107	4953
853.242	4714
853.376	4626
853.511	4599
853.645	4611
853.78	4835
853.914	4717
854.048	4656
854.183	4664
854.317	4691
854.451	4831
854.585	4660
854.72	4618
854.854	4717
854.988	4596
855.122	4687
855.256	4485
855.39	4706
855.524	4790
855.658	4714
855.792	4687
855.926	4733
856.06	4786
856.194	4809
856.327	4710
856.461	4645
856.595	4573
856.729	4611
856.862	4763
856.996	4710
857.13	4725
857.263	4736
857.397	4812
857.53	4599
857.664	4752
857.797	4797
857.931	4824
858.064	4717
858.197	4729
858.331	4653
858.464	4611
858.597	4584
858.731	4615
858.864	4649
858.997	4634
859.13	4675
859.263	4660
859.396	4698
859.529	4584
859.662	4584
859.795	4535
859.928	4577
860.061	4748
860.194	4774
860.327	4634
860.46	4599
860.592	4744
860.725	4725
860.858	4694
860.99	4554
861.123	4546
861.256	4577
861.388	4611
861.521	5440
861.653	4508
861.786	4470
861.918	4459
862.05	4538
862.183	4580
862.315	4618
862.447	4630
862.58	4550
862.712	4424
862.844	4333
862.976	4527
863.108	4459
863.24	4816
863.372	4337
863.504	4447
863.636	4386
863.768	4504
863.9	4455
864.032	4379
864.164	4405
864.296	4516
864.428	4569
864.559	4565
864.691	4546
864.823	4519
864.954	4478
865.086	4523
865.217	4474
865.349	4405
865.48	4474
865.612	4516
865.743	4672
865.875	4474
866.006	4417
866.137	4478
866.269	4489
866.4	4421
866.531	4436
866.662	4352
866.793	4455
866.924	4417
867.055	4500
867.186	4443
867.317	4432
867.448	4394
867.579	4443
867.71	4421
867.841	4413
867.972	4466
868.103	4459
868.233	4459
868.364	4455
868.495	4466
868.625	4675
868.756	4805
868.886	4538
869.017	4603
869.147	4771
869.278	4824
869.408	4656
869.539	4641
869.669	4725
869.799	4668
869.929	4752
870.06	4786
870.19	4976
870.32	4942
870.45	4930
870.58	5060
870.71	5159
870.84	5086
870.97	4881
871.1	4923
871.23	5109
871.36	5109
871.489	5014
871.619	5094
871.749	5113
871.879	5094
872.008	5178
872.138	5045
872.267	5010
872.397	4854
872.526	4801
872.656	4744
872.785	4847
872.915	4946
873.044	5018
873.173	4953
873.303	4961
873.432	4961
873.561	4934
873.69	4877
873.819	4900
873.948	4900
874.077	4793
874.206	4797
874.335	4828
874.464	4923
874.593	5056
874.722	4961
874.851	5071
874.979	5079
875.108	5037
875.237	4915
875.365	4881
875.494	4946
875.623	4953
875.751	4866
875.88	4900
876.008	4968
876.136	5045
876.265	5185
876.393	5360
876.521	5258
876.65	5220
876.778	5143
876.906	5075
877.034	4999
877.162	5064
877.29	5018
877.418	5033
877.546	5006
877.674	5048
877.802	5045
877.93	5029
878.058	4965
878.185	4889
878.313	4991
878.441	4984
878.568	4816
878.696	4831
878.824	4972
878.951	5029
879.079	5113
879.206	5269
879.333	5117
879.461	4961
879.588	5022
879.715	5113
879.842	5223
879.97	4980
880.097	4820
880.224	4710
880.351	4816
880.478	4809
880.605	4748
880.732	4824
880.859	5067
880.986	4919
881.112	4934
881.239	4793
881.366	4656
881.493	4656
881.619	4588
881.746	4630
881.872	4660
881.999	4687
882.125	4733
882.252	4748
882.378	4771
882.505	4957
882.631	4831
882.757	4694
882.883	4774
883.01	4698
883.136	4630
883.262	4580
883.388	4615
883.514	4866
883.64	4862
883.766	4771
883.892	4721
884.018	4687
884.143	4957
884.269	4991
884.395	4656
884.52	4607
884.646	4622
884.772	4577
884.897	4565
885.023	4729
885.148	4812
885.274	4885
885.399	4797
885.524	4752
885.65	4706
885.775	4752
885.9	4706
886.025	4862
886.15	4835
886.275	4683
886.4	4672
886.525	4740
886.65	4729
886.775	4717
886.9	4892
887.025	5018
887.149	4790
887.274	4588
887.399	4584
887.523	4615
887.648	4592
887.773	4599
887.897	4767
888.021	4809
888.146	4664
888.27	4831
888.395	4881
888.519	4824
888.643	4778
888.767	4828
888.891	4691
889.015	4569
889.139	4672
889.263	4637
889.387	4729
889.511	4877
889.635	4797
889.759	4634
889.883	4626
890.006	4733
890.13	4824
890.254	4580
890.377	4672
890.501	4603
890.624	4535
890.748	4679
890.871	4508
890.995	4432
891.118	4421
891.241	4561
891.364	4481
891.488	4683
891.611	4432
891.734	4546
891.857	4596
891.98	4573
892.103	4580
892.226	4592
892.349	4550
892.471	4474
892.594	4523
892.717	4630
892.839	4554
892.962	4577
893.085	4717
893.207	4599
893.33	4432
893.452	4508
893.575	4672
893.697	4584
893.819	4828
893.941	4786
894.064	4790
894.186	4618
894.308	4611
894.43	4733
894.552	4763
894.674	4752
894.796	4603
894.918	4645
895.04	4561
895.161	4706
895.283	4664
895.405	4580
895.526	4630
895.648	4664
895.769	4660
895.891	4733
896.012	4748
896.134	4759
896.255	4687
896.376	4637
896.498	4641
896.619	4672
896.74	4630
896.861	4679
896.982	4980
897.103	5098
897.224	4904
897.345	4702
897.466	4672
897.587	4729
897.708	4847
897.828	4786
897.949	4675
898.07	4546
898.19	4664
898.311	4771
898.431	4656
898.552	4805
898.672	4797
898.792	4774
898.913	4729
899.033	4649
899.153	4508
899.273	4424
899.393	4516
899.513	4527
899.633	4519
899.753	4565
899.873	4493
899.993	4573
900.113	4565
900.232	4577
900.352	4523
900.472	4516
900.591	4394
900.711	4481
900.83	4428
900.95	4618
901.069	4687
901.189	4550
901.308	4413
901.427	4348
901.546	4371
901.665	4459
901.784	4489
901.904	4413
902.023	4303
902.141	4181
902.26	4196
902.379	4287
902.498	4249
902.617	4230
902.735	4363
902.854	4402
902.973	4394
903.091	4211
903.21	4249
903.328	4276
903.446	4310
903.565	4295
903.683	4325
903.801	4238
903.919	4390
904.038	4405
904.156	4337
904.274	4459
904.392	4375
904.51	4447
904.627	4462
904.745	4588
904.863	4618
904.981	4379
905.098	4337
905.216	4363
905.334	4443
905.451	4451
905.569	4424
905.686	4565
905.803	4516
905.921	4417
906.038	4550
906.155	4462
906.272	4363
906.389	4459
906.506	4341
906.623	4363
906.74	4322
906.857	4325
906.974	4348
907.091	4565
907.208	4698
907.324	4554
907.441	4459
907.557	4341
907.674	4363
907.79	4314
907.907	4371
908.023	4447
908.139	4516
908.256	4436
908.372	4466
908.488	4455
908.604	4337
908.72	4310
908.836	4386
908.952	4379
909.068	4443
909.184	4554
909.3	4489
909.415	4538
909.531	4554
909.647	4318
909.762	4371
909.878	4337
909.993	4493
910.108	4440
910.224	4386
910.339	4478
910.454	4405
910.57	4371
910.685	4287
910.8	4649
910.915	4573
911.03	4493
911.145	4310
911.259	4299
911.374	4348
911.489	4322
911.604	4280
911.718	4166
911.833	4177
911.947	4097
912.062	4010
912.176	4207
912.291	4234
912.405	4211
912.519	4493
912.633	4531
912.748	4360
912.862	4329
912.976	4177
913.09	4112
913.204	4166
913.318	4223
913.431	4386
913.545	4352
913.659	4405
913.772	4352
913.886	4238
914	4246
914.113	4318
914.226	4390
914.34	4322
914.453	4238
914.566	4405
914.68	4322
914.793	4265
914.906	4158
915.019	4166
915.132	4044
915.245	4143
915.358	4215
915.47	4246
915.583	4242
915.696	4280
915.809	4428
915.921	4386
916.034	4291
916.146	4253
916.259	4242
916.371	4341
916.483	4352
916.595	4299
916.708	4291
916.82	4310
916.932	4341
917.044	4322
917.156	4360
917.268	4211
917.38	4268
917.491	4261
917.603	4314
917.715	4413
917.826	4417
917.938	4352
918.049	4287
918.161	4371
918.272	4527
918.384	4550
918.495	4421
918.606	4284
918.717	4223
918.828	4344
918.939	4314
919.05	4253
919.161	4284
919.272	4124
919.383	4253
919.494	4428
919.604	4577
919.715	4493
919.826	4329
919.936	4428
920.047	4493
920.157	4516
920.267	4714
920.378	4542
920.488	4447
920.598	4725
920.708	4839
920.818	4744
920.928	4698
921.038	4972
921.148	4885
921.258	4611
921.368	4550
921.477	4462
921.587	4451
921.697	4386
921.806	4561
921.916	4344
922.025	4238
922.134	4272
922.244	4246
922.353	4344
922.462	4147
922.571	4116
922.68	4032
922.789	3968
922.898	4017
923.007	4044
923.116	4082
923.224	4021
923.333	4067
923.442	4036
923.55	3979
923.659	4032
923.767	4116
923.876	4025
923.984	4112
924.092	3987
924.201	4059
924.309	4101
924.417	4097
924.525	4055
924.633	4093
924.741	4816
924.849	3930
924.956	4105
925.064	3949
925.172	3884
925.279	3941
925.387	4044
925.494	4025
925.602	4253
925.709	4200
925.816	4048
925.924	4124
926.031	4200
926.138	4223
926.245	4185
926.352	4097
926.459	4219
926.566	4329
926.673	4154
926.779	4067
926.886	4097
926.993	3987
927.099	3949
927.206	3945
927.312	3941
927.419	4055
927.525	4032
927.631	4101
927.737	3983
927.843	3899
927.95	3835
928.056	3987
928.162	3994
928.267	4059
928.373	4664
928.479	4101
928.585	3861
928.69	4013
928.796	4093
928.901	3975
929.007	3861
929.112	4032
929.218	3975
929.323	3922
929.428	3956
929.533	4093
929.638	3876
929.743	3975
929.848	4048
929.953	3975
930.058	3922
930.163	3831
930.267	3838
930.372	3964
930.477	3778
930.581	4086
930.685	3941
930.79	3797
930.894	3876
930.998	3819
931.103	4021
931.207	3713
931.311	3671
931.415	3660
931.519	3504
931.623	3584
