Data from test_V78500241_1732.txt Node
Date: Fri Mar 25 17:01:02 CST 2022
User: usil
Spectrometer: V785-0024
Trigger mode: 0
Integration Time (sec): 4.000000E-1
Scans to average: 1
Nonlinearity correction enabled: false
Boxcar width: 0
Storing dark spectrum: false
XAxis mode: Wavelengths
Number of Pixels in Spectrum: 1024
>>>>>Begin Spectral Data<<<<<
801.071	7936
801.214	7986
801.356	7807
801.499	7845
801.641	7807
801.783	7902
801.926	8012
802.068	7852
802.211	7944
802.353	7989
802.496	7734
802.638	7826
802.78	7856
802.923	7875
803.065	7871
803.208	7784
803.35	7944
803.492	8043
803.635	8126
803.777	8031
803.919	8103
804.061	8366
804.204	8111
804.346	8035
804.488	7978
804.63	8077
804.773	7909
804.915	8115
805.057	8256
805.199	8202
805.341	8138
805.483	8324
805.626	8164
805.768	8164
805.91	8145
806.052	8176
806.194	8138
806.336	8320
806.478	8069
806.62	8020
806.762	8145
806.904	8271
807.046	8423
807.188	8389
807.33	8343
807.472	8286
807.614	8119
807.756	8027
807.898	8008
808.04	7875
808.182	7868
808.324	7940
808.465	7913
808.607	8069
808.749	8065
808.891	8164
809.033	8290
809.174	8210
809.316	8050
809.458	8073
809.6	7993
809.741	7967
809.883	7978
810.025	8126
810.166	8130
810.308	8020
810.45	7997
810.591	7830
810.733	7681
810.875	7677
811.016	7506
811.158	7514
811.299	7525
811.441	7662
811.582	7662
811.724	7533
811.865	7537
812.007	7655
812.148	7571
812.29	7616
812.431	7750
812.573	7856
812.714	7940
812.855	8081
812.997	8218
813.138	8294
813.279	8176
813.421	8073
813.562	7989
813.703	7803
813.845	7769
813.986	7434
814.127	7194
814.268	7206
814.41	7232
814.551	7107
814.692	7274
814.833	7103
814.974	7118
815.115	7084
815.256	6985
815.397	6939
815.539	6947
815.68	6779
815.821	6734
815.962	6890
816.103	6802
816.244	6669
816.385	6589
816.526	6578
816.666	6464
816.807	6285
816.948	6448
817.089	6471
817.23	6479
817.371	6403
817.512	6403
817.653	6418
817.793	6304
817.934	6456
818.075	6486
818.216	6422
818.356	6433
818.497	6258
818.638	6129
818.778	6152
818.919	6083
819.06	6148
819.2	6319
819.341	6331
819.481	6350
819.622	6486
819.762	6734
819.903	6677
820.043	6574
820.184	6509
820.324	6570
820.465	6665
820.605	6616
820.746	6688
820.886	6536
821.026	6715
821.167	6627
821.307	6798
821.447	6757
821.588	6734
821.728	6532
821.868	6498
822.008	6304
822.149	6384
822.289	6327
822.429	6155
822.569	6064
822.709	6091
822.849	5923
822.99	5908
823.13	5927
823.27	5874
823.41	5760
823.55	5760
823.69	5767
823.83	5752
823.97	5676
824.11	5573
824.25	5459
824.389	5528
824.529	5573
824.669	5528
824.809	5638
824.949	5672
825.089	5680
825.228	5558
825.368	5364
825.508	5318
825.648	5292
825.787	5391
825.927	5387
826.067	5261
826.206	5322
826.346	5303
826.485	5398
826.625	5417
826.765	5501
826.904	5490
827.044	5246
827.183	5174
827.323	5185
827.462	5212
827.601	5189
827.741	5197
827.88	5166
828.02	5136
828.159	5242
828.298	5216
828.437	5357
828.577	5299
828.716	5505
828.855	5303
828.994	5166
829.134	5128
829.273	5132
829.412	5105
829.551	5113
829.69	5181
829.829	5220
829.968	5337
830.107	5235
830.246	5254
830.385	5181
830.524	5094
830.663	5086
830.802	4904
830.941	4847
831.08	4843
831.219	5003
831.357	4976
831.496	5143
831.635	4927
831.774	4831
831.913	4820
832.051	4721
832.19	4744
832.329	4877
832.467	4725
832.606	4626
832.744	4687
832.883	4721
833.022	4721
833.16	4774
833.299	4828
833.437	4782
833.576	4805
833.714	4854
833.852	4801
833.991	4854
834.129	4938
834.267	4870
834.406	4919
834.544	4976
834.682	4987
834.821	4999
834.959	5223
835.097	4987
835.235	5128
835.373	5052
835.511	5048
835.65	4980
835.788	5018
835.926	4877
836.064	4881
836.202	4900
836.34	5159
836.478	5212
836.615	5159
836.753	5201
836.891	5292
837.029	5227
837.167	5212
837.305	5117
837.443	5166
837.58	5071
837.718	5231
837.856	5193
837.993	5086
838.131	5242
838.269	5223
838.406	5208
838.544	5166
838.681	5033
838.819	4995
838.956	4873
839.094	4866
839.231	4976
839.369	5071
839.506	5425
839.643	5322
839.781	5071
839.918	5048
840.055	5064
840.193	5052
840.33	5067
840.467	5140
840.604	5212
840.742	5417
840.879	5067
841.016	5105
841.153	5181
841.29	5353
841.427	5288
841.564	5330
841.701	5376
841.838	5269
841.975	5208
842.112	5204
842.249	5132
842.385	5140
842.522	5265
842.659	5155
842.796	5071
842.933	5162
843.069	5140
843.206	5117
843.343	5269
843.479	5189
843.616	5220
843.752	5090
843.889	5052
844.025	5227
844.162	5022
844.298	5227
844.435	5064
844.571	5075
844.708	5181
844.844	5299
844.98	5288
845.117	5330
845.253	5151
845.389	5128
845.525	5155
845.661	5166
845.798	4995
845.934	5094
846.07	5056
846.206	5197
846.342	5292
846.478	5132
846.614	4991
846.75	4968
846.886	4923
847.022	5090
847.158	5010
847.294	5060
847.429	5132
847.565	5052
847.701	5292
847.837	4885
847.972	4809
848.108	4942
848.244	4957
848.379	4812
848.515	4710
848.65	4721
848.786	4759
848.921	4736
849.057	4854
849.192	4862
849.328	4812
849.463	4824
849.598	4782
849.734	4767
849.869	4694
850.004	4622
850.14	4675
850.275	4611
850.41	4535
850.545	4546
850.68	4603
850.815	4603
850.95	4596
851.085	4835
851.22	4736
851.355	4645
851.49	4596
851.625	4611
851.76	4607
851.895	4542
852.03	4542
852.165	4660
852.299	4691
852.434	4793
852.569	4725
852.703	4752
852.838	4828
852.973	4919
853.107	4904
853.242	4729
853.376	4637
853.511	4504
853.645	4615
853.78	4809
853.914	4691
854.048	4664
854.183	4622
854.317	4725
854.451	4858
854.585	4649
854.72	4656
854.854	4736
854.988	4615
855.122	4626
855.256	4531
855.39	4675
855.524	4774
855.658	4672
855.792	4679
855.926	4778
856.06	4744
856.194	4748
856.327	4675
856.461	4580
856.595	4592
856.729	4615
856.862	4752
856.996	4672
857.13	4736
857.263	4733
857.397	4790
857.53	4637
857.664	4656
857.797	4733
857.931	4805
858.064	4702
858.197	4740
858.331	4649
858.464	4603
858.597	4508
858.731	4607
858.864	4653
858.997	4596
859.13	4626
859.263	4698
859.396	4717
859.529	4596
859.662	4538
859.795	4535
859.928	4641
860.061	4736
860.194	4733
860.327	4630
860.46	4554
860.592	4687
860.725	4714
860.858	4702
860.99	4512
861.123	4500
861.256	4538
861.388	4618
861.521	5322
861.653	4470
861.786	4413
861.918	4462
862.05	4470
862.183	4569
862.315	4596
862.447	4656
862.58	4577
862.712	4402
862.844	4322
862.976	4440
863.108	4493
863.24	4885
863.372	4360
863.504	4455
863.636	4398
863.768	4497
863.9	4413
864.032	4341
864.164	4413
864.296	4436
864.428	4531
864.559	4565
864.691	4580
864.823	4500
864.954	4443
865.086	4531
865.217	4451
865.349	4421
865.48	4398
865.612	4481
865.743	4603
865.875	4428
866.006	4409
866.137	4478
866.269	4421
866.4	4451
866.531	4409
866.662	4428
866.793	4402
866.924	4405
867.055	4500
867.186	4443
867.317	4371
867.448	4379
867.579	4383
867.71	4360
867.841	4318
867.972	4421
868.103	4436
868.233	4432
868.364	4455
868.495	4466
868.625	4656
868.756	4755
868.886	4558
869.017	4577
869.147	4729
869.278	4740
869.408	4645
869.539	4615
869.669	4740
869.799	4645
869.929	4774
870.06	4717
870.19	4968
870.32	4896
870.45	4957
870.58	5006
870.71	5113
870.84	5083
870.97	4938
871.1	4923
871.23	5113
871.36	5105
871.489	5018
871.619	5117
871.749	5121
871.879	5075
872.008	5140
872.138	4999
872.267	4965
872.397	4839
872.526	4816
872.656	4672
872.785	4797
872.915	4930
873.044	5033
873.173	4942
873.303	4991
873.432	4938
873.561	4930
873.69	4923
873.819	4824
873.948	4896
874.077	4809
874.206	4752
874.335	4816
874.464	4949
874.593	5014
874.722	4972
874.851	5102
874.979	5041
875.108	5060
875.237	4923
875.365	4889
875.494	4862
875.623	4984
875.751	4797
875.88	4850
876.008	4999
876.136	5025
876.265	5185
876.393	5307
876.521	5250
876.65	5178
876.778	5174
876.906	5105
877.034	4995
877.162	5041
877.29	4923
877.418	5048
877.546	5025
877.674	5041
877.802	5018
877.93	4991
878.058	4938
878.185	4828
878.313	4923
878.441	4942
878.568	4847
878.696	4892
878.824	4957
878.951	4980
879.079	5170
879.206	5280
879.333	5113
879.461	5003
879.588	5022
879.715	5094
879.842	5239
879.97	4984
880.097	4767
880.224	4725
880.351	4843
880.478	4850
880.605	4801
880.732	4771
880.859	5086
880.986	4938
881.112	4854
881.239	4812
881.366	4714
881.493	4645
881.619	4512
881.746	4660
881.872	4645
881.999	4668
882.125	4668
882.252	4782
882.378	4854
882.505	4934
882.631	4839
882.757	4637
882.883	4740
883.01	4740
883.136	4664
883.262	4645
883.388	4626
883.514	4771
883.64	4873
883.766	4828
883.892	4656
884.018	4714
884.143	4854
884.269	4984
884.395	4679
884.52	4679
884.646	4656
884.772	4588
884.897	4550
885.023	4672
885.148	4782
885.274	4843
885.399	4828
885.524	4702
885.65	4679
885.775	4774
885.9	4771
886.025	4828
886.15	4767
886.275	4736
886.4	4675
886.525	4714
886.65	4694
886.775	4672
886.9	4862
887.025	5067
887.149	4767
887.274	4683
887.399	4565
887.523	4588
887.648	4577
887.773	4573
887.897	4687
888.021	4824
888.146	4668
888.27	4812
888.395	4858
888.519	4782
888.643	4805
888.767	4805
888.891	4679
889.015	4630
889.139	4656
889.263	4649
889.387	4763
889.511	4839
889.635	4790
889.759	4714
889.883	4611
890.006	4683
890.13	4828
890.254	4611
890.377	4649
890.501	4538
890.624	4519
890.748	4645
890.871	4489
890.995	4405
891.118	4394
891.241	4470
891.364	4569
891.488	4634
891.611	4519
891.734	4554
891.857	4588
891.98	4527
892.103	4603
892.226	4611
892.349	4516
892.471	4409
892.594	4504
892.717	4596
892.839	4535
892.962	4584
893.085	4656
893.207	4622
893.33	4470
893.452	4504
893.575	4649
893.697	4573
893.819	4786
893.941	4801
894.064	4748
894.186	4599
894.308	4611
894.43	4687
894.552	4790
894.674	4740
894.796	4542
894.918	4607
895.04	4580
895.161	4710
895.283	4653
895.405	4580
895.526	4656
895.648	4630
895.769	4694
895.891	4687
896.012	4759
896.134	4694
896.255	4706
896.376	4698
896.498	4584
896.619	4683
896.74	4607
896.861	4634
896.982	4942
897.103	5124
897.224	4843
897.345	4752
897.466	4683
897.587	4694
897.708	4797
897.828	4767
897.949	4706
898.07	4577
898.19	4618
898.311	4790
898.431	4630
898.552	4679
898.672	4809
898.792	4801
898.913	4714
899.033	4592
899.153	4470
899.273	4432
899.393	4478
899.513	4470
899.633	4531
899.753	4508
899.873	4440
899.993	4577
900.113	4573
900.232	4603
900.352	4523
900.472	4504
900.591	4432
900.711	4504
900.83	4443
900.95	4618
901.069	4702
901.189	4493
901.308	4360
901.427	4360
901.546	4383
901.665	4428
901.784	4531
901.904	4424
902.023	4295
902.141	4177
902.26	4169
902.379	4344
902.498	4207
902.617	4227
902.735	4363
902.854	4390
902.973	4341
903.091	4200
903.21	4166
903.328	4295
903.446	4284
903.565	4261
903.683	4356
903.801	4246
903.919	4383
904.038	4436
904.156	4348
904.274	4409
904.392	4394
904.51	4440
904.627	4455
904.745	4592
904.863	4660
904.981	4417
905.098	4295
905.216	4367
905.334	4405
905.451	4451
905.569	4470
905.686	4558
905.803	4561
905.921	4421
906.038	4550
906.155	4470
906.272	4352
906.389	4443
906.506	4352
906.623	4390
906.74	4386
906.857	4352
906.974	4356
907.091	4565
907.208	4668
907.324	4565
907.441	4497
907.557	4318
907.674	4383
907.79	4322
907.907	4379
908.023	4478
908.139	4432
908.256	4417
908.372	4409
908.488	4462
908.604	4344
908.72	4310
908.836	4348
908.952	4379
909.068	4451
909.184	4565
909.3	4531
909.415	4554
909.531	4531
909.647	4329
909.762	4348
909.878	4375
909.993	4371
910.108	4386
910.224	4436
910.339	4485
910.454	4322
910.57	4329
910.685	4299
910.8	4660
910.915	4577
911.03	4466
911.145	4318
911.259	4322
911.374	4344
911.489	4280
911.604	4299
911.718	4192
911.833	4207
911.947	4051
912.062	4040
912.176	4192
912.291	4257
912.405	4249
912.519	4516
912.633	4535
912.748	4356
912.862	4341
912.976	4211
913.09	4078
913.204	4185
913.318	4261
913.431	4390
913.545	4325
913.659	4447
913.772	4386
913.886	4211
914	4215
914.113	4386
914.226	4421
914.34	4383
914.453	4268
914.566	4432
914.68	4276
914.793	4310
914.906	4143
915.019	4071
915.132	4086
915.245	4116
915.358	4173
915.47	4211
915.583	4246
915.696	4318
915.809	4417
915.921	4405
916.034	4249
916.146	4215
916.259	4219
916.371	4398
916.483	4329
916.595	4246
916.708	4310
916.82	4291
916.932	4348
917.044	4329
917.156	4329
917.268	4238
917.38	4310
917.491	4253
917.603	4310
917.715	4440
917.826	4432
917.938	4329
918.049	4303
918.161	4402
918.272	4554
918.384	4535
918.495	4432
918.606	4246
918.717	4261
918.828	4371
918.939	4367
919.05	4295
919.161	4325
919.272	4139
919.383	4207
919.494	4413
919.604	4596
919.715	4440
919.826	4367
919.936	4428
920.047	4588
920.157	4542
920.267	4664
920.378	4550
920.488	4497
920.598	4725
920.708	4881
920.818	4725
920.928	4763
921.038	4934
921.148	4889
921.258	4603
921.368	4538
921.477	4508
921.587	4447
921.697	4371
921.806	4519
921.916	4424
922.025	4215
922.134	4272
922.244	4276
922.353	4325
922.462	4158
922.571	4112
922.68	3983
922.789	3960
922.898	4074
923.007	3994
923.116	4063
923.224	4040
923.333	4048
923.442	3964
923.55	3968
923.659	3998
923.767	4067
923.876	3998
923.984	4097
924.092	3998
924.201	4074
924.309	4059
924.417	4124
924.525	4078
924.633	4097
924.741	4858
924.849	3907
924.956	4105
925.064	3979
925.172	3880
925.279	3937
925.387	4021
925.494	4048
925.602	4207
925.709	4158
925.816	4063
925.924	4181
926.031	4238
926.138	4173
926.245	4196
926.352	4105
926.459	4238
926.566	4325
926.673	4173
926.779	4109
926.886	4074
926.993	3968
927.099	3998
927.206	3915
927.312	3930
927.419	4063
927.525	4044
927.631	4071
927.737	3975
927.843	3911
927.95	3842
928.056	3983
928.162	4010
928.267	4025
928.373	4645
928.479	4086
928.585	3884
928.69	3994
928.796	4055
928.901	3964
929.007	3857
929.112	3972
929.218	3903
929.323	3941
929.428	3907
929.533	4097
929.638	3873
929.743	3964
929.848	4059
929.953	4036
930.058	3956
930.163	3774
930.267	3804
930.372	3960
930.477	3823
930.581	4097
930.685	3949
930.79	3838
930.894	3896
930.998	3842
931.103	4013
931.207	3717
931.311	3690
931.415	3652
931.519	3473
931.623	3587
