Data from test_V78500241_2010.txt Node
Date: Fri Mar 25 17:02:58 CST 2022
User: usil
Spectrometer: V785-0024
Trigger mode: 0
Integration Time (sec): 4.000000E-1
Scans to average: 1
Nonlinearity correction enabled: false
Boxcar width: 0
Storing dark spectrum: false
XAxis mode: Wavelengths
Number of Pixels in Spectrum: 1024
>>>>>Begin Spectral Data<<<<<
801.071	7944
801.214	8054
801.356	7860
801.499	7868
801.641	7753
801.783	7822
801.926	7967
802.068	7951
802.211	8020
802.353	7963
802.496	7864
802.638	7864
802.78	7879
802.923	7940
803.065	7795
803.208	7849
803.35	7921
803.492	7997
803.635	8142
803.777	7986
803.919	8138
804.061	8457
804.204	8145
804.346	8062
804.488	7974
804.63	8088
804.773	7982
804.915	8084
805.057	8233
805.199	8123
805.341	8202
805.483	8199
805.626	8240
805.768	8084
805.91	8195
806.052	8240
806.194	8081
806.336	8229
806.478	8111
806.62	8069
806.762	8096
806.904	8218
807.046	8495
807.188	8412
807.33	8324
807.472	8324
807.614	8183
807.756	8069
807.898	7993
808.04	7849
808.182	7833
808.324	7875
808.465	7932
808.607	8100
808.749	8092
808.891	8233
809.033	8301
809.174	8157
809.316	8115
809.458	8046
809.6	7989
809.741	7993
809.883	8096
810.025	8138
810.166	8084
810.308	7963
810.45	7944
810.591	7845
810.733	7731
810.875	7662
811.016	7495
811.158	7521
811.299	7540
811.441	7643
811.582	7651
811.724	7609
811.865	7514
812.007	7620
812.148	7571
812.29	7594
812.431	7772
812.573	7860
812.714	7921
812.855	8119
812.997	8237
813.138	8332
813.279	8130
813.421	8073
813.562	8001
813.703	7769
813.845	7670
813.986	7388
814.127	7160
814.268	7141
814.41	7171
814.551	7190
814.692	7206
814.833	7129
814.974	7072
815.115	7164
815.256	6973
815.397	6970
815.539	6954
815.68	6783
815.821	6795
815.962	6814
816.103	6848
816.244	6662
816.385	6597
816.526	6627
816.666	6475
816.807	6277
816.948	6464
817.089	6467
817.23	6407
817.371	6361
817.512	6346
817.653	6357
817.793	6319
817.934	6414
818.075	6460
818.216	6429
818.356	6429
818.497	6224
818.638	6144
818.778	6129
818.919	6114
819.06	6102
819.2	6353
819.341	6388
819.481	6384
819.622	6509
819.762	6688
819.903	6677
820.043	6601
820.184	6570
820.324	6532
820.465	6707
820.605	6635
820.746	6654
820.886	6563
821.026	6639
821.167	6726
821.307	6768
821.447	6779
821.588	6627
821.728	6566
821.868	6486
822.008	6350
822.149	6372
822.289	6334
822.429	6152
822.569	6117
822.709	6121
822.849	5942
822.99	5885
823.13	5969
823.27	5897
823.41	5783
823.55	5752
823.69	5779
823.83	5779
823.97	5699
824.11	5604
824.25	5528
824.389	5547
824.529	5581
824.669	5589
824.809	5676
824.949	5672
825.089	5661
825.228	5532
825.368	5425
825.508	5364
825.648	5353
825.787	5402
825.927	5398
826.067	5337
826.206	5345
826.346	5387
826.485	5459
826.625	5433
826.765	5566
826.904	5547
827.044	5315
827.183	5208
827.323	5170
827.462	5269
827.601	5204
827.741	5239
827.88	5250
828.02	5227
828.159	5242
828.298	5299
828.437	5414
828.577	5326
828.716	5512
828.855	5349
828.994	5174
829.134	5151
829.273	5220
829.412	5170
829.551	5227
829.69	5170
829.829	5318
829.968	5357
830.107	5318
830.246	5341
830.385	5242
830.524	5170
830.663	5109
830.802	4999
830.941	4911
831.08	4881
831.219	4995
831.357	5022
831.496	5246
831.635	4972
831.774	4896
831.913	4870
832.051	4763
832.19	4801
832.329	4862
832.467	4694
832.606	4660
832.744	4748
832.883	4801
833.022	4812
833.16	4774
833.299	4843
833.437	4881
833.576	4881
833.714	4881
833.852	4889
833.991	4866
834.129	5025
834.267	4965
834.406	4968
834.544	5022
834.682	5022
834.821	5006
834.959	5239
835.097	4995
835.235	5143
835.373	5090
835.511	5143
835.65	5094
835.788	5041
835.926	4938
836.064	4957
836.202	4995
836.34	5189
836.478	5250
836.615	5189
836.753	5242
836.891	5288
837.029	5250
837.167	5220
837.305	5235
837.443	5155
837.58	5151
837.718	5311
837.856	5208
837.993	5181
838.131	5261
838.269	5296
838.406	5231
838.544	5235
838.681	5071
838.819	5045
838.956	4866
839.094	4919
839.231	5022
839.369	5151
839.506	5490
839.643	5280
839.781	5083
839.918	5033
840.055	5124
840.193	5136
840.33	5140
840.467	5155
840.604	5239
840.742	5474
840.879	5159
841.016	5124
841.153	5155
841.29	5398
841.427	5326
841.564	5410
841.701	5364
841.838	5303
841.975	5254
842.112	5311
842.249	5181
842.385	5113
842.522	5372
842.659	5155
842.796	5189
842.933	5151
843.069	5174
843.206	5189
843.343	5315
843.479	5239
843.616	5246
843.752	5083
843.889	5041
844.025	5235
844.162	5056
844.298	5220
844.435	5090
844.571	5102
844.708	5212
844.844	5315
844.98	5395
845.117	5269
845.253	5155
845.389	5181
845.525	5204
845.661	5208
845.798	5071
845.934	5181
846.07	5090
846.206	5193
846.342	5269
846.478	5220
846.614	5018
846.75	4961
846.886	4995
847.022	5128
847.158	5060
847.294	5090
847.429	5124
847.565	5090
847.701	5391
847.837	4873
847.972	4858
848.108	4961
848.244	4991
848.379	4809
848.515	4740
848.65	4767
848.786	4782
848.921	4790
849.057	4900
849.192	4915
849.328	4881
849.463	4828
849.598	4786
849.734	4797
849.869	4748
850.004	4664
850.14	4664
850.275	4641
850.41	4584
850.545	4618
850.68	4672
850.815	4641
850.95	4641
851.085	4923
851.22	4793
851.355	4729
851.49	4611
851.625	4656
851.76	4702
851.895	4577
852.03	4531
852.165	4637
852.299	4771
852.434	4828
852.569	4801
852.703	4812
852.838	4911
852.973	4908
853.107	4965
853.242	4782
853.376	4706
853.511	4580
853.645	4615
853.78	4820
853.914	4679
854.048	4668
854.183	4634
854.317	4736
854.451	4873
854.585	4706
854.72	4687
854.854	4774
854.988	4687
855.122	4645
855.256	4569
855.39	4653
855.524	4782
855.658	4797
855.792	4744
855.926	4744
856.06	4755
856.194	4824
856.327	4656
856.461	4664
856.595	4637
856.729	4649
856.862	4767
856.996	4736
857.13	4759
857.263	4774
857.397	4831
857.53	4683
857.664	4755
857.797	4797
857.931	4809
858.064	4748
858.197	4774
858.331	4664
858.464	4607
858.597	4542
858.731	4622
858.864	4679
858.997	4645
859.13	4641
859.263	4710
859.396	4729
859.529	4641
859.662	4584
859.795	4538
859.928	4645
860.061	4793
860.194	4748
860.327	4645
860.46	4577
860.592	4702
860.725	4725
860.858	4717
860.99	4588
861.123	4538
861.256	4504
861.388	4664
861.521	5299
861.653	4493
861.786	4462
861.918	4493
862.05	4508
862.183	4550
862.315	4675
862.447	4691
862.58	4558
862.712	4394
862.844	4348
862.976	4500
863.108	4436
863.24	4793
863.372	4367
863.504	4402
863.636	4424
863.768	4481
863.9	4432
864.032	4394
864.164	4466
864.296	4504
864.428	4603
864.559	4565
864.691	4618
864.823	4516
864.954	4542
865.086	4508
865.217	4478
865.349	4432
865.48	4500
865.612	4531
865.743	4626
865.875	4497
866.006	4459
866.137	4485
866.269	4504
866.4	4481
866.531	4455
866.662	4390
866.793	4428
866.924	4451
867.055	4550
867.186	4519
867.317	4440
867.448	4417
867.579	4405
867.71	4394
867.841	4398
867.972	4516
868.103	4489
868.233	4432
868.364	4485
868.495	4550
868.625	4668
868.756	4771
868.886	4588
869.017	4675
869.147	4778
869.278	4809
869.408	4698
869.539	4672
869.669	4729
869.799	4698
869.929	4774
870.06	4702
870.19	4923
870.32	4919
870.45	4930
870.58	5022
870.71	5136
870.84	5113
870.97	5022
871.1	4930
871.23	5147
871.36	5079
871.489	5064
871.619	5098
871.749	5151
871.879	5181
872.008	5197
872.138	5113
872.267	5003
872.397	4870
872.526	4839
872.656	4790
872.785	4843
872.915	4991
873.044	5060
873.173	5003
873.303	5041
873.432	4991
873.561	4995
873.69	4889
873.819	4892
873.948	4919
874.077	4843
874.206	4763
874.335	4816
874.464	4984
874.593	5075
874.722	4934
874.851	5147
874.979	5033
875.108	5071
875.237	4946
875.365	4908
875.494	4957
875.623	4949
875.751	4885
875.88	4919
876.008	5014
876.136	5056
876.265	5193
876.393	5360
876.521	5292
876.65	5303
876.778	5189
876.906	5136
877.034	4999
877.162	5029
877.29	4987
877.418	5086
877.546	5071
877.674	5079
877.802	5029
877.93	5090
878.058	4930
878.185	4847
878.313	4980
878.441	4984
878.568	4824
878.696	4831
878.824	4991
878.951	5014
879.079	5159
879.206	5280
879.333	5140
879.461	4980
879.588	5003
879.715	5094
879.842	5223
879.97	5041
880.097	4820
880.224	4771
880.351	4820
880.478	4797
880.605	4801
880.732	4805
880.859	5105
880.986	4915
881.112	4930
881.239	4809
881.366	4725
881.493	4596
881.619	4641
881.746	4573
881.872	4687
881.999	4714
882.125	4710
882.252	4805
882.378	4889
882.505	5006
882.631	4797
882.757	4660
882.883	4679
883.01	4717
883.136	4687
883.262	4645
883.388	4656
883.514	4831
883.64	4889
883.766	4828
883.892	4710
884.018	4748
884.143	4881
884.269	5037
884.395	4691
884.52	4599
884.646	4679
884.772	4596
884.897	4592
885.023	4687
885.148	4801
885.274	4900
885.399	4835
885.524	4740
885.65	4706
885.775	4771
885.9	4683
886.025	4866
886.15	4801
886.275	4691
886.4	4653
886.525	4740
886.65	4702
886.775	4683
886.9	4938
887.025	5064
887.149	4786
887.274	4683
887.399	4584
887.523	4592
887.648	4580
887.773	4634
887.897	4835
888.021	4809
888.146	4691
888.27	4862
888.395	4923
888.519	4725
888.643	4885
888.767	4850
888.891	4675
889.015	4622
889.139	4721
889.263	4649
889.387	4748
889.511	4839
889.635	4858
889.759	4645
889.883	4599
890.006	4710
890.13	4831
890.254	4660
890.377	4675
890.501	4519
890.624	4489
890.748	4641
890.871	4504
890.995	4390
891.118	4383
891.241	4565
891.364	4550
891.488	4656
891.611	4531
891.734	4554
891.857	4577
891.98	4592
892.103	4637
892.226	4535
892.349	4542
892.471	4485
892.594	4554
892.717	4607
892.839	4645
892.962	4599
893.085	4641
893.207	4645
893.33	4424
893.452	4573
893.575	4637
893.697	4550
893.819	4759
893.941	4801
894.064	4790
894.186	4565
894.308	4550
894.43	4694
894.552	4828
894.674	4759
894.796	4577
894.918	4596
895.04	4580
895.161	4710
895.283	4634
895.405	4596
895.526	4607
895.648	4702
895.769	4653
895.891	4755
896.012	4790
896.134	4683
896.255	4687
896.376	4683
896.498	4626
896.619	4725
896.74	4653
896.861	4664
896.982	4961
897.103	5094
897.224	4843
897.345	4729
897.466	4702
897.587	4763
897.708	4850
897.828	4790
897.949	4679
898.07	4573
898.19	4672
898.311	4858
898.431	4702
898.552	4748
898.672	4847
898.792	4812
898.913	4717
899.033	4615
899.153	4497
899.273	4451
899.393	4527
899.513	4531
899.633	4569
899.753	4584
899.873	4508
899.993	4580
900.113	4493
900.232	4596
900.352	4523
900.472	4474
900.591	4428
900.711	4474
900.83	4436
900.95	4637
901.069	4698
901.189	4554
901.308	4348
901.427	4295
901.546	4379
901.665	4546
901.784	4569
901.904	4413
902.023	4322
902.141	4169
902.26	4188
902.379	4310
902.498	4280
902.617	4204
902.735	4310
902.854	4363
902.973	4371
903.091	4219
903.21	4238
903.328	4325
903.446	4238
903.565	4261
903.683	4386
903.801	4291
903.919	4379
904.038	4405
904.156	4352
904.274	4440
904.392	4409
904.51	4405
904.627	4459
904.745	4561
904.863	4634
904.981	4421
905.098	4257
905.216	4436
905.334	4470
905.451	4455
905.569	4443
905.686	4535
905.803	4573
905.921	4394
906.038	4554
906.155	4447
906.272	4424
906.389	4459
906.506	4379
906.623	4421
906.74	4417
906.857	4329
906.974	4386
907.091	4577
907.208	4740
907.324	4622
907.441	4500
907.557	4314
907.674	4356
907.79	4344
907.907	4398
908.023	4497
908.139	4447
908.256	4417
908.372	4470
908.488	4470
908.604	4383
908.72	4322
908.836	4386
908.952	4310
909.068	4409
909.184	4569
909.3	4474
909.415	4607
909.531	4565
909.647	4352
909.762	4405
909.878	4371
909.993	4443
910.108	4440
910.224	4455
910.339	4538
910.454	4394
910.57	4383
910.685	4268
910.8	4641
910.915	4607
911.03	4523
911.145	4299
911.259	4318
911.374	4363
911.489	4306
911.604	4268
911.718	4223
911.833	4207
911.947	4082
912.062	4021
912.176	4211
912.291	4242
912.405	4287
912.519	4474
912.633	4500
912.748	4413
912.862	4322
912.976	4204
913.09	4128
913.204	4181
913.318	4253
913.431	4383
913.545	4424
913.659	4428
913.772	4402
913.886	4211
914	4246
914.113	4417
914.226	4424
914.34	4409
914.453	4230
914.566	4428
914.68	4284
914.793	4352
914.906	4158
915.019	4154
915.132	4055
915.245	4173
915.358	4242
915.47	4246
915.583	4314
915.696	4291
915.809	4428
915.921	4428
916.034	4265
916.146	4284
916.259	4192
916.371	4379
916.483	4383
916.595	4276
916.708	4356
916.82	4344
916.932	4291
917.044	4363
917.156	4318
917.268	4257
917.38	4257
917.491	4257
917.603	4371
917.715	4470
917.826	4405
917.938	4310
918.049	4253
918.161	4417
918.272	4542
918.384	4596
918.495	4409
918.606	4257
918.717	4246
918.828	4295
918.939	4379
919.05	4291
919.161	4310
919.272	4109
919.383	4223
919.494	4455
919.604	4580
919.715	4436
919.826	4299
919.936	4436
920.047	4519
920.157	4523
920.267	4683
920.378	4531
920.488	4497
920.598	4687
920.708	4889
920.818	4717
920.928	4759
921.038	4965
921.148	4896
921.258	4641
921.368	4569
921.477	4497
921.587	4470
921.697	4383
921.806	4538
921.916	4462
922.025	4310
922.134	4238
922.244	4215
922.353	4310
922.462	4185
922.571	4143
922.68	4017
922.789	3998
922.898	4032
923.007	3983
923.116	4109
923.224	4051
923.333	4067
923.442	4006
923.55	3994
923.659	4036
923.767	4093
923.876	3998
923.984	4124
924.092	4013
924.201	4097
924.309	4105
924.417	4086
924.525	4074
924.633	4078
924.741	5029
924.849	3899
924.956	4135
925.064	3975
925.172	3846
925.279	3964
925.387	4063
925.494	4051
925.602	4200
925.709	4238
925.816	4021
925.924	4131
926.031	4207
926.138	4173
926.245	4200
926.352	4078
926.459	4253
926.566	4322
926.673	4131
926.779	4109
926.886	4112
926.993	3953
927.099	3972
927.206	3949
927.312	3926
927.419	4071
927.525	4025
927.631	4109
927.737	3960
927.843	3937
927.95	3842
928.056	3915
928.162	4006
928.267	4090
928.373	4577
928.479	4128
928.585	3850
928.69	4021
928.796	4101
928.901	3945
929.007	3880
929.112	4006
929.218	3960
929.323	3953
929.428	3937
929.533	4105
929.638	3937
929.743	3953
929.848	4025
929.953	3983
930.058	3949
930.163	3800
930.267	3816
930.372	4002
930.477	3793
930.581	4067
930.685	3949
930.79	3835
930.894	3865
930.998	3831
931.103	4059
931.207	3698
931.311	3724
931.415	3671
931.519	3515
931.623	3534
