Data from test_V78500241_207.txt Node
Date: Fri Mar 25 16:50:26 CST 2022
User: usil
Spectrometer: V785-0024
Trigger mode: 0
Integration Time (sec): 4.000000E-1
Scans to average: 1
Nonlinearity correction enabled: false
Boxcar width: 0
Storing dark spectrum: false
XAxis mode: Wavelengths
Number of Pixels in Spectrum: 1024
>>>>>Begin Spectral Data<<<<<
801.071	8058
801.214	7978
801.356	7890
801.499	7849
801.641	7757
801.783	7875
801.926	7947
802.068	7932
802.211	7947
802.353	8024
802.496	7849
802.638	7883
802.78	7944
802.923	7928
803.065	7849
803.208	7852
803.35	7974
803.492	8054
803.635	8168
803.777	7913
803.919	8138
804.061	8457
804.204	8096
804.346	7993
804.488	7951
804.63	8123
804.773	8001
804.915	8073
805.057	8282
805.199	8096
805.341	8187
805.483	8237
805.626	8180
805.768	8081
805.91	8142
806.052	8221
806.194	8069
806.336	8393
806.478	8126
806.62	8084
806.762	8157
806.904	8107
807.046	8389
807.188	8404
807.33	8244
807.472	8244
807.614	8134
807.756	8123
807.898	7989
808.04	7906
808.182	7917
808.324	7909
808.465	7871
808.607	8043
808.749	8119
808.891	8225
809.033	8317
809.174	8225
809.316	8012
809.458	8081
809.6	7978
809.741	7989
809.883	8069
810.025	8088
810.166	8039
810.308	7967
810.45	8031
810.591	7875
810.733	7784
810.875	7632
811.016	7518
811.158	7510
811.299	7571
811.441	7742
811.582	7594
811.724	7582
811.865	7563
812.007	7578
812.148	7575
812.29	7597
812.431	7814
812.573	7894
812.714	7978
812.855	8153
812.997	8195
813.138	8263
813.279	8214
813.421	8065
813.562	8016
813.703	7875
813.845	7742
813.986	7472
814.127	7274
814.268	7274
814.41	7164
814.551	7164
814.692	7206
814.833	7164
814.974	7152
815.115	7156
815.256	6973
815.397	6905
815.539	6996
815.68	6802
815.821	6795
815.962	6878
816.103	6829
816.244	6711
816.385	6662
816.526	6593
816.666	6597
816.807	6327
816.948	6437
817.089	6547
817.23	6494
817.371	6361
817.512	6350
817.653	6395
817.793	6350
817.934	6418
818.075	6448
818.216	6414
818.356	6429
818.497	6175
818.638	6068
818.778	6155
818.919	6144
819.06	6098
819.2	6350
819.341	6323
819.481	6292
819.622	6521
819.762	6719
819.903	6658
820.043	6532
820.184	6566
820.324	6620
820.465	6627
820.605	6669
820.746	6608
820.886	6570
821.026	6635
821.167	6783
821.307	6783
821.447	6715
821.588	6650
821.728	6563
821.868	6456
822.008	6365
822.149	6433
822.289	6361
822.429	6125
822.569	6102
822.709	6159
822.849	5950
822.99	5863
823.13	5897
823.27	5931
823.41	5779
823.55	5767
823.69	5748
823.83	5821
823.97	5691
824.11	5543
824.25	5558
824.389	5615
824.529	5543
824.669	5497
824.809	5642
824.949	5642
825.089	5592
825.228	5581
825.368	5372
825.508	5353
825.648	5341
825.787	5398
825.927	5372
826.067	5273
826.206	5227
826.346	5368
826.485	5379
826.625	5421
826.765	5577
826.904	5497
827.044	5311
827.183	5181
827.323	5121
827.462	5235
827.601	5147
827.741	5162
827.88	5197
828.02	5124
828.159	5235
828.298	5303
828.437	5398
828.577	5296
828.716	5452
828.855	5391
828.994	5178
829.134	5124
829.273	5220
829.412	5098
829.551	5094
829.69	5220
829.829	5208
829.968	5383
830.107	5261
830.246	5280
830.385	5181
830.524	5083
830.663	5121
830.802	4934
830.941	4858
831.08	4847
831.219	4999
831.357	5006
831.496	5189
831.635	4965
831.774	4824
831.913	4812
832.051	4714
832.19	4755
832.329	4816
832.467	4698
832.606	4698
832.744	4717
832.883	4771
833.022	4748
833.16	4786
833.299	4805
833.437	4809
833.576	4828
833.714	4862
833.852	4801
833.991	4949
834.129	4957
834.267	4927
834.406	4953
834.544	4968
834.682	5014
834.821	5014
834.959	5159
835.097	4961
835.235	5159
835.373	5102
835.511	5102
835.65	5090
835.788	5075
835.926	4873
836.064	4877
836.202	4972
836.34	5136
836.478	5258
836.615	5174
836.753	5193
836.891	5299
837.029	5204
837.167	5250
837.305	5239
837.443	5147
837.58	5121
837.718	5223
837.856	5208
837.993	5121
838.131	5254
838.269	5250
838.406	5181
838.544	5212
838.681	5003
838.819	4980
838.956	4873
839.094	4904
839.231	4961
839.369	5159
839.506	5383
839.643	5227
839.781	5079
839.918	4957
840.055	5102
840.193	5170
840.33	5109
840.467	5121
840.604	5235
840.742	5452
840.879	5060
841.016	5090
841.153	5166
841.29	5357
841.427	5345
841.564	5296
841.701	5391
841.838	5258
841.975	5242
842.112	5273
842.249	5151
842.385	5105
842.522	5284
842.659	5212
842.796	5117
842.933	5197
843.069	5174
843.206	5113
843.343	5326
843.479	5280
843.616	5284
843.752	5048
843.889	5025
844.025	5242
844.162	5025
844.298	5231
844.435	5083
844.571	5041
844.708	5197
844.844	5288
844.98	5337
845.117	5261
845.253	5181
845.389	5056
845.525	5147
845.661	5170
845.798	5041
845.934	5128
846.07	5083
846.206	5174
846.342	5258
846.478	5201
846.614	5022
846.75	4965
846.886	4972
847.022	5147
847.158	5014
847.294	5090
847.429	5109
847.565	5052
847.701	5277
847.837	4854
847.972	4892
848.108	4984
848.244	4972
848.379	4778
848.515	4774
848.65	4683
848.786	4752
848.921	4797
849.057	4896
849.192	4923
849.328	4835
849.463	4858
849.598	4812
849.734	4778
849.869	4710
850.004	4637
850.14	4645
850.275	4626
850.41	4497
850.545	4599
850.68	4592
850.815	4607
850.95	4634
851.085	4892
851.22	4744
851.355	4702
851.49	4611
851.625	4637
851.76	4641
851.895	4561
852.03	4550
852.165	4675
852.299	4698
852.434	4752
852.569	4733
852.703	4812
852.838	4892
852.973	4896
853.107	4942
853.242	4752
853.376	4675
853.511	4519
853.645	4626
853.78	4809
853.914	4683
854.048	4679
854.183	4603
854.317	4679
854.451	4793
854.585	4702
854.72	4694
854.854	4755
854.988	4588
855.122	4645
855.256	4580
855.39	4584
855.524	4843
855.658	4748
855.792	4698
855.926	4733
856.06	4736
856.194	4824
856.327	4694
856.461	4607
856.595	4607
856.729	4615
856.862	4740
856.996	4683
857.13	4714
857.263	4774
857.397	4748
857.53	4675
857.664	4717
857.797	4767
857.931	4835
858.064	4706
858.197	4839
858.331	4653
858.464	4596
858.597	4466
858.731	4649
858.864	4596
858.997	4653
859.13	4664
859.263	4702
859.396	4721
859.529	4599
859.662	4497
859.795	4535
859.928	4653
860.061	4782
860.194	4797
860.327	4607
860.46	4584
860.592	4714
860.725	4736
860.858	4740
860.99	4622
861.123	4523
861.256	4565
861.388	4615
861.521	5250
861.653	4436
861.786	4443
861.918	4436
862.05	4508
862.183	4546
862.315	4588
862.447	4664
862.58	4561
862.712	4428
862.844	4325
862.976	4455
863.108	4462
863.24	4885
863.372	4344
863.504	4421
863.636	4337
863.768	4478
863.9	4466
864.032	4386
864.164	4417
864.296	4481
864.428	4580
864.559	4538
864.691	4535
864.823	4474
864.954	4489
865.086	4493
865.217	4500
865.349	4409
865.48	4424
865.612	4455
865.743	4622
865.875	4493
866.006	4443
866.137	4489
866.269	4443
866.4	4459
866.531	4447
866.662	4386
866.793	4417
866.924	4451
867.055	4451
867.186	4459
867.317	4440
867.448	4329
867.579	4356
867.71	4379
867.841	4383
867.972	4447
868.103	4462
868.233	4466
868.364	4443
868.495	4447
868.625	4675
868.756	4752
868.886	4622
869.017	4649
869.147	4793
869.278	4759
869.408	4683
869.539	4630
869.669	4664
869.799	4626
869.929	4736
870.06	4736
870.19	4972
870.32	4972
870.45	4961
870.58	4942
870.71	5105
870.84	5086
870.97	4946
871.1	4919
871.23	5121
871.36	5113
871.489	5083
871.619	5117
871.749	5064
871.879	5098
872.008	5216
872.138	5048
872.267	4984
872.397	4866
872.526	4793
872.656	4725
872.785	4824
872.915	4965
873.044	4991
873.173	4904
873.303	4946
873.432	4965
873.561	4968
873.69	4843
873.819	4892
873.948	4908
874.077	4828
874.206	4786
874.335	4790
874.464	4965
874.593	5060
874.722	4980
874.851	5121
874.979	5045
875.108	5033
875.237	4915
875.365	4904
875.494	4877
875.623	4984
875.751	4850
875.88	4873
876.008	4949
876.136	5098
876.265	5174
876.393	5364
876.521	5322
876.65	5242
876.778	5159
876.906	5041
877.034	5018
877.162	5025
877.29	4991
877.418	5109
877.546	5071
877.674	5071
877.802	5045
877.93	5022
878.058	4930
878.185	4843
878.313	4980
878.441	5010
878.568	4839
878.696	4866
878.824	4923
878.951	5045
879.079	5124
879.206	5318
879.333	5109
879.461	5006
879.588	5022
879.715	5105
879.842	5235
879.97	5037
880.097	4824
880.224	4755
880.351	4801
880.478	4850
880.605	4805
880.732	4793
880.859	5159
880.986	4900
881.112	4911
881.239	4774
881.366	4637
881.493	4588
881.619	4588
881.746	4622
881.872	4656
881.999	4721
882.125	4725
882.252	4835
882.378	4831
882.505	4995
882.631	4824
882.757	4660
882.883	4714
883.01	4748
883.136	4721
883.262	4569
883.388	4611
883.514	4816
883.64	4866
883.766	4793
883.892	4660
884.018	4687
884.143	4923
884.269	4987
884.395	4630
884.52	4634
884.646	4637
884.772	4607
884.897	4569
885.023	4675
885.148	4824
885.274	4889
885.399	4767
885.524	4721
885.65	4721
885.775	4778
885.9	4710
886.025	4866
886.15	4805
886.275	4717
886.4	4622
886.525	4748
886.65	4733
886.775	4698
886.9	4877
887.025	5048
887.149	4820
887.274	4622
887.399	4573
887.523	4656
887.648	4584
887.773	4618
887.897	4786
888.021	4790
888.146	4649
888.27	4835
888.395	4927
888.519	4790
888.643	4847
888.767	4793
888.891	4649
889.015	4615
889.139	4672
889.263	4618
889.387	4771
889.511	4858
889.635	4786
889.759	4687
889.883	4634
890.006	4774
890.13	4866
890.254	4660
890.377	4717
890.501	4584
890.624	4561
890.748	4649
890.871	4478
890.995	4436
891.118	4402
891.241	4512
891.364	4531
891.488	4634
891.611	4474
891.734	4550
891.857	4596
891.98	4588
892.103	4634
892.226	4603
892.349	4489
892.471	4440
892.594	4558
892.717	4592
892.839	4569
892.962	4592
893.085	4645
893.207	4618
893.33	4474
893.452	4554
893.575	4656
893.697	4630
893.819	4797
893.941	4801
894.064	4748
894.186	4558
894.308	4508
894.43	4687
894.552	4790
894.674	4729
894.796	4546
894.918	4637
895.04	4550
895.161	4744
895.283	4634
895.405	4554
895.526	4668
895.648	4733
895.769	4691
895.891	4725
896.012	4748
896.134	4786
896.255	4683
896.376	4618
896.498	4660
896.619	4664
896.74	4607
896.861	4656
896.982	4930
897.103	5105
897.224	4831
897.345	4694
897.466	4679
897.587	4752
897.708	4873
897.828	4755
897.949	4717
898.07	4577
898.19	4660
898.311	4839
898.431	4706
898.552	4729
898.672	4809
898.792	4816
898.913	4759
899.033	4607
899.153	4493
899.273	4432
899.393	4497
899.513	4538
899.633	4489
899.753	4512
899.873	4497
899.993	4603
900.113	4561
900.232	4630
900.352	4558
900.472	4478
900.591	4428
900.711	4493
900.83	4474
900.95	4660
901.069	4717
901.189	4573
901.308	4409
901.427	4356
901.546	4466
901.665	4508
901.784	4577
901.904	4402
902.023	4352
902.141	4246
902.26	4181
902.379	4352
902.498	4287
902.617	4265
902.735	4390
902.854	4462
902.973	4386
903.091	4257
903.21	4280
903.328	4367
903.446	4310
903.565	4314
903.683	4402
903.801	4284
903.919	4519
904.038	4474
904.156	4344
904.274	4478
904.392	4428
904.51	4489
904.627	4516
904.745	4630
904.863	4649
904.981	4466
905.098	4341
905.216	4428
905.334	4455
905.451	4478
905.569	4474
905.686	4611
905.803	4618
905.921	4489
906.038	4596
906.155	4565
906.272	4440
906.389	4538
906.506	4424
906.623	4383
906.74	4432
906.857	4367
906.974	4363
907.091	4622
907.208	4694
907.324	4645
907.441	4550
907.557	4409
907.674	4383
907.79	4394
907.907	4440
908.023	4500
908.139	4504
908.256	4531
908.372	4512
908.488	4523
908.604	4405
908.72	4371
908.836	4462
908.952	4428
909.068	4432
909.184	4618
909.3	4516
909.415	4634
909.531	4588
909.647	4440
909.762	4428
909.878	4356
909.993	4497
910.108	4432
910.224	4440
910.339	4527
910.454	4466
910.57	4405
910.685	4348
910.8	4683
910.915	4660
911.03	4554
911.145	4375
911.259	4394
911.374	4386
911.489	4371
911.604	4322
911.718	4207
911.833	4242
911.947	4154
912.062	4048
912.176	4238
912.291	4314
912.405	4287
912.519	4508
912.633	4504
912.748	4462
912.862	4337
912.976	4223
913.09	4124
913.204	4227
913.318	4299
913.431	4413
913.545	4413
913.659	4500
913.772	4344
913.886	4272
914	4276
914.113	4440
914.226	4424
914.34	4459
914.453	4287
914.566	4508
914.68	4333
914.793	4367
914.906	4215
915.019	4147
915.132	4120
915.245	4227
915.358	4280
915.47	4291
915.583	4314
915.696	4352
915.809	4451
915.921	4470
916.034	4322
916.146	4306
916.259	4276
916.371	4402
916.483	4405
916.595	4318
916.708	4333
916.82	4394
916.932	4390
917.044	4413
917.156	4375
917.268	4249
917.38	4284
917.491	4299
917.603	4394
917.715	4489
917.826	4443
917.938	4367
918.049	4284
918.161	4447
918.272	4584
918.384	4561
918.495	4489
918.606	4344
918.717	4257
918.828	4383
918.939	4394
919.05	4291
919.161	4367
919.272	4169
919.383	4303
919.494	4485
919.604	4702
919.715	4409
919.826	4417
919.936	4413
920.047	4599
920.157	4561
920.267	4702
920.378	4592
920.488	4542
920.598	4710
920.708	4934
920.818	4797
920.928	4812
921.038	4980
921.148	4984
921.258	4656
921.368	4615
921.477	4489
921.587	4485
921.697	4390
921.806	4618
921.916	4443
922.025	4352
922.134	4344
922.244	4234
922.353	4379
922.462	4211
922.571	4188
922.68	4044
922.789	4063
922.898	4040
923.007	4044
923.116	4135
923.224	4093
923.333	4116
923.442	4006
923.55	4025
923.659	4112
923.767	4150
923.876	4078
923.984	4169
924.092	4021
924.201	4169
924.309	4143
924.417	4169
924.525	4101
924.633	4173
924.741	5098
924.849	3949
924.956	4207
925.064	3994
925.172	3975
925.279	3991
925.387	4082
925.494	4097
925.602	4249
925.709	4215
925.816	4071
925.924	4249
926.031	4257
926.138	4242
926.245	4238
926.352	4169
926.459	4310
926.566	4367
926.673	4188
926.779	4112
926.886	4135
926.993	4029
927.099	3960
927.206	4013
927.312	3972
927.419	4112
927.525	4074
927.631	4097
927.737	4017
927.843	3998
927.95	3861
928.056	3998
928.162	4010
928.267	4135
928.373	4748
928.479	4147
928.585	3907
928.69	4086
928.796	4131
928.901	4010
929.007	3899
929.112	4002
929.218	4021
929.323	3979
929.428	3968
929.533	4181
929.638	3991
929.743	4017
929.848	4082
929.953	4017
930.058	3998
930.163	3854
930.267	3899
930.372	4051
930.477	3873
930.581	4124
930.685	3983
930.79	3884
930.894	3888
930.998	3888
931.103	4071
931.207	3743
931.311	3740
931.415	3698
931.519	3603
931.623	3591
