Data from test_V78500241_1852.txt Node
Date: Fri Mar 25 17:01:52 CST 2022
User: usil
Spectrometer: V785-0024
Trigger mode: 0
Integration Time (sec): 4.000000E-1
Scans to average: 1
Nonlinearity correction enabled: false
Boxcar width: 0
Storing dark spectrum: false
XAxis mode: Wavelengths
Number of Pixels in Spectrum: 1024
>>>>>Begin Spectral Data<<<<<
801.071	7978
801.214	8012
801.356	7822
801.499	7856
801.641	7746
801.783	7837
801.926	7928
802.068	7955
802.211	7906
802.353	7993
802.496	7799
802.638	7864
802.78	7841
802.923	7860
803.065	7849
803.208	7871
803.35	8001
803.492	8005
803.635	8123
803.777	8027
803.919	8077
804.061	8400
804.204	8142
804.346	8012
804.488	7986
804.63	8039
804.773	7925
804.915	8043
805.057	8225
805.199	8153
805.341	8183
805.483	8298
805.626	8172
805.768	8134
805.91	8237
806.052	8218
806.194	8123
806.336	8252
806.478	8107
806.62	8096
806.762	8153
806.904	8225
807.046	8446
807.188	8347
807.33	8294
807.472	8362
807.614	8279
807.756	8153
807.898	7986
808.04	7913
808.182	7898
808.324	7830
808.465	7940
808.607	8084
808.749	8092
808.891	8263
809.033	8324
809.174	8229
809.316	8069
809.458	8069
809.6	7993
809.741	8039
809.883	8039
810.025	8119
810.166	8027
810.308	8054
810.45	7925
810.591	7868
810.733	7738
810.875	7647
811.016	7514
811.158	7468
811.299	7571
811.441	7727
811.582	7693
811.724	7537
811.865	7559
812.007	7521
812.148	7578
812.29	7658
812.431	7712
812.573	7868
812.714	8024
812.855	8214
812.997	8195
813.138	8267
813.279	8183
813.421	8073
813.562	7936
813.703	7788
813.845	7685
813.986	7403
814.127	7324
814.268	7213
814.41	7255
814.551	7103
814.692	7228
814.833	7133
814.974	7095
815.115	7152
815.256	7034
815.397	6954
815.539	6920
815.68	6856
815.821	6749
815.962	6829
816.103	6760
816.244	6650
816.385	6604
816.526	6646
816.666	6555
816.807	6319
816.948	6395
817.089	6460
817.23	6426
817.371	6338
817.512	6346
817.653	6399
817.793	6311
817.934	6365
818.075	6452
818.216	6456
818.356	6342
818.497	6289
818.638	6159
818.778	6201
818.919	6148
819.06	6194
819.2	6323
819.341	6327
819.481	6273
819.622	6525
819.762	6726
819.903	6669
820.043	6574
820.184	6585
820.324	6570
820.465	6734
820.605	6715
820.746	6646
820.886	6536
821.026	6646
821.167	6677
821.307	6825
821.447	6719
821.588	6627
821.728	6506
821.868	6429
822.008	6258
822.149	6357
822.289	6391
822.429	6163
822.569	6072
822.709	6144
822.849	5916
822.99	5912
823.13	5920
823.27	5901
823.41	5790
823.55	5737
823.69	5794
823.83	5737
823.97	5642
824.11	5535
824.25	5524
824.389	5562
824.529	5558
824.669	5532
824.809	5627
824.949	5684
825.089	5619
825.228	5520
825.368	5353
825.508	5379
825.648	5299
825.787	5436
825.927	5368
826.067	5299
826.206	5296
826.346	5379
826.485	5398
826.625	5414
826.765	5493
826.904	5429
827.044	5239
827.183	5239
827.323	5189
827.462	5258
827.601	5143
827.741	5117
827.88	5159
828.02	5098
828.159	5273
828.298	5299
828.437	5345
828.577	5288
828.716	5486
828.855	5296
828.994	5189
829.134	5109
829.273	5193
829.412	5151
829.551	5109
829.69	5117
829.829	5201
829.968	5349
830.107	5197
830.246	5277
830.385	5140
830.524	5109
830.663	4995
830.802	4949
830.941	4911
831.08	4850
831.219	4965
831.357	4961
831.496	5147
831.635	4915
831.774	4828
831.913	4797
832.051	4706
832.19	4702
832.329	4850
832.467	4698
832.606	4618
832.744	4755
832.883	4748
833.022	4694
833.16	4759
833.299	4831
833.437	4824
833.576	4831
833.714	4866
833.852	4915
833.991	4889
834.129	4946
834.267	4934
834.406	4889
834.544	4946
834.682	4957
834.821	4980
834.959	5151
835.097	4930
835.235	5140
835.373	5071
835.511	5098
835.65	4995
835.788	4976
835.926	4896
836.064	4866
836.202	4934
836.34	5151
836.478	5216
836.615	5075
836.753	5197
836.891	5269
837.029	5231
837.167	5162
837.305	5102
837.443	5083
837.58	5041
837.718	5227
837.856	5166
837.993	5170
838.131	5201
838.269	5136
838.406	5178
838.544	5151
838.681	5010
838.819	4980
838.956	4843
839.094	4843
839.231	4949
839.369	5060
839.506	5410
839.643	5254
839.781	5018
839.918	5018
840.055	5052
840.193	5045
840.33	5117
840.467	5147
840.604	5193
840.742	5429
840.879	5048
841.016	5079
841.153	5105
841.29	5330
841.427	5258
841.564	5280
841.701	5353
841.838	5273
841.975	5189
842.112	5216
842.249	5189
842.385	5075
842.522	5379
842.659	5174
842.796	5185
842.933	5155
843.069	5162
843.206	5124
843.343	5292
843.479	5235
843.616	5277
843.752	5056
843.889	5056
844.025	5189
844.162	5025
844.298	5185
844.435	5079
844.571	5029
844.708	5181
844.844	5345
844.98	5322
845.117	5258
845.253	5083
845.389	5113
845.525	5162
845.661	5140
845.798	5048
845.934	5105
846.07	5052
846.206	5197
846.342	5212
846.478	5162
846.614	4987
846.75	4946
846.886	4927
847.022	5181
847.158	5003
847.294	5041
847.429	5113
847.565	5083
847.701	5280
847.837	4862
847.972	4767
848.108	4984
848.244	4915
848.379	4778
848.515	4710
848.65	4740
848.786	4744
848.921	4725
849.057	4889
849.192	4866
849.328	4801
849.463	4881
849.598	4816
849.734	4793
849.869	4714
850.004	4607
850.14	4630
850.275	4554
850.41	4546
850.545	4546
850.68	4626
850.815	4641
850.95	4645
851.085	4805
851.22	4759
851.355	4630
851.49	4584
851.625	4626
851.76	4668
851.895	4493
852.03	4546
852.165	4675
852.299	4656
852.434	4744
852.569	4740
852.703	4763
852.838	4835
852.973	4870
853.107	4904
853.242	4733
853.376	4664
853.511	4565
853.645	4618
853.78	4786
853.914	4660
854.048	4660
854.183	4649
854.317	4664
854.451	4847
854.585	4691
854.72	4664
854.854	4717
854.988	4596
855.122	4668
855.256	4542
855.39	4615
855.524	4812
855.658	4645
855.792	4710
855.926	4729
856.06	4767
856.194	4755
856.327	4660
856.461	4573
856.595	4653
856.729	4637
856.862	4717
856.996	4649
857.13	4748
857.263	4729
857.397	4786
857.53	4694
857.664	4717
857.797	4771
857.931	4725
858.064	4729
858.197	4759
858.331	4645
858.464	4588
858.597	4497
858.731	4592
858.864	4603
858.997	4577
859.13	4679
859.263	4653
859.396	4634
859.529	4554
859.662	4554
859.795	4615
859.928	4637
860.061	4801
860.194	4767
860.327	4554
860.46	4596
860.592	4714
860.725	4774
860.858	4714
860.99	4592
861.123	4554
861.256	4519
861.388	4634
861.521	5360
861.653	4485
861.786	4371
861.918	4462
862.05	4546
862.183	4519
862.315	4653
862.447	4656
862.58	4531
862.712	4394
862.844	4291
862.976	4421
863.108	4451
863.24	4881
863.372	4303
863.504	4383
863.636	4405
863.768	4462
863.9	4432
864.032	4360
864.164	4402
864.296	4462
864.428	4561
864.559	4519
864.691	4519
864.823	4481
864.954	4485
865.086	4508
865.217	4474
865.349	4432
865.48	4413
865.612	4466
865.743	4588
865.875	4474
866.006	4341
866.137	4413
866.269	4443
866.4	4432
866.531	4371
866.662	4405
866.793	4417
866.924	4405
867.055	4527
867.186	4417
867.317	4417
867.448	4379
867.579	4337
867.71	4413
867.841	4363
867.972	4459
868.103	4459
868.233	4428
868.364	4447
868.495	4462
868.625	4694
868.756	4687
868.886	4565
869.017	4607
869.147	4782
869.278	4736
869.408	4672
869.539	4618
869.669	4710
869.799	4645
869.929	4759
870.06	4725
870.19	4942
870.32	4870
870.45	4949
870.58	4987
870.71	5064
870.84	5098
870.97	4923
871.1	4915
871.23	5117
871.36	5109
871.489	5018
871.619	5037
871.749	5113
871.879	5086
872.008	5159
872.138	4999
872.267	4961
872.397	4854
872.526	4801
872.656	4675
872.785	4790
872.915	4938
873.044	5052
873.173	4965
873.303	4949
873.432	4965
873.561	4919
873.69	4858
873.819	4835
873.948	4877
874.077	4778
874.206	4782
874.335	4820
874.464	4892
874.593	4999
874.722	4976
874.851	5064
874.979	5086
875.108	4976
875.237	4915
875.365	4885
875.494	4892
875.623	4938
875.751	4793
875.88	4896
876.008	4927
876.136	5018
876.265	5174
876.393	5334
876.521	5235
876.65	5231
876.778	5147
876.906	5064
877.034	5006
877.162	5037
877.29	4968
877.418	5056
877.546	4999
877.674	5014
877.802	5037
877.93	4957
878.058	4934
878.185	4866
878.313	4942
878.441	4942
878.568	4782
878.696	4873
878.824	4930
878.951	4961
879.079	5117
879.206	5311
879.333	5128
879.461	4957
879.588	5010
879.715	5060
879.842	5220
879.97	4946
880.097	4767
880.224	4774
880.351	4801
880.478	4812
880.605	4816
880.732	4771
880.859	5140
880.986	4854
881.112	4923
881.239	4786
881.366	4664
881.493	4580
881.619	4569
881.746	4637
881.872	4641
881.999	4630
882.125	4668
882.252	4790
882.378	4831
882.505	4946
882.631	4820
882.757	4641
882.883	4694
883.01	4706
883.136	4630
883.262	4599
883.388	4607
883.514	4812
883.64	4839
883.766	4774
883.892	4653
884.018	4717
884.143	4850
884.269	4976
884.395	4645
884.52	4626
884.646	4649
884.772	4554
884.897	4489
885.023	4618
885.148	4774
885.274	4786
885.399	4809
885.524	4733
885.65	4660
885.775	4729
885.9	4664
886.025	4831
886.15	4748
886.275	4752
886.4	4683
886.525	4733
886.65	4714
886.775	4641
886.9	4858
887.025	4984
887.149	4706
887.274	4675
887.399	4519
887.523	4596
887.648	4535
887.773	4580
887.897	4744
888.021	4759
888.146	4694
888.27	4797
888.395	4858
888.519	4801
888.643	4774
888.767	4831
888.891	4691
889.015	4558
889.139	4683
889.263	4588
889.387	4691
889.511	4854
889.635	4752
889.759	4592
889.883	4656
890.006	4710
890.13	4778
890.254	4615
890.377	4698
890.501	4512
890.624	4527
890.748	4660
890.871	4508
890.995	4379
891.118	4386
891.241	4504
891.364	4558
891.488	4630
891.611	4481
891.734	4504
891.857	4580
891.98	4554
892.103	4649
892.226	4630
892.349	4497
892.471	4409
892.594	4569
892.717	4596
892.839	4569
892.962	4618
893.085	4706
893.207	4565
893.33	4447
893.452	4535
893.575	4687
893.697	4615
893.819	4797
893.941	4854
894.064	4793
894.186	4622
894.308	4588
894.43	4793
894.552	4816
894.674	4805
894.796	4603
894.918	4630
895.04	4580
895.161	4763
895.283	4653
895.405	4641
895.526	4691
895.648	4714
895.769	4702
895.891	4698
896.012	4782
896.134	4740
896.255	4717
896.376	4637
896.498	4630
896.619	4729
896.74	4580
896.861	4736
896.982	4927
897.103	5128
897.224	4850
897.345	4790
897.466	4675
897.587	4790
897.708	4870
897.828	4877
897.949	4683
898.07	4618
898.19	4672
898.311	4831
898.431	4683
898.552	4752
898.672	4847
898.792	4854
898.913	4736
899.033	4641
899.153	4569
899.273	4493
899.393	4569
899.513	4584
899.633	4485
899.753	4558
899.873	4554
899.993	4618
900.113	4546
900.232	4626
900.352	4577
900.472	4504
900.591	4508
900.711	4519
900.83	4504
900.95	4630
901.069	4675
901.189	4588
901.308	4398
901.427	4363
901.546	4470
901.665	4485
901.784	4584
901.904	4409
902.023	4352
902.141	4207
902.26	4242
902.379	4360
902.498	4265
902.617	4242
902.735	4417
902.854	4432
902.973	4363
903.091	4188
903.21	4272
903.328	4344
903.446	4295
903.565	4253
903.683	4394
903.801	4367
903.919	4451
904.038	4485
904.156	4344
904.274	4436
904.392	4428
904.51	4432
904.627	4527
904.745	4637
904.863	4641
904.981	4436
905.098	4428
905.216	4352
905.334	4455
905.451	4451
905.569	4497
905.686	4592
905.803	4603
905.921	4443
906.038	4523
906.155	4428
906.272	4432
906.389	4497
906.506	4436
906.623	4424
906.74	4428
906.857	4360
906.974	4417
907.091	4580
907.208	4717
907.324	4611
907.441	4531
907.557	4352
907.674	4322
907.79	4344
907.907	4424
908.023	4550
908.139	4493
908.256	4489
908.372	4470
908.488	4440
908.604	4436
908.72	4348
908.836	4375
908.952	4379
909.068	4481
909.184	4634
909.3	4474
909.415	4611
909.531	4554
909.647	4386
909.762	4375
909.878	4421
909.993	4459
910.108	4455
910.224	4440
910.339	4538
910.454	4390
910.57	4383
910.685	4386
910.8	4679
910.915	4580
911.03	4527
911.145	4337
911.259	4402
911.374	4383
911.489	4314
911.604	4299
911.718	4200
911.833	4261
911.947	4120
912.062	4055
912.176	4265
912.291	4265
912.405	4310
912.519	4504
912.633	4519
912.748	4367
912.862	4360
912.976	4242
913.09	4124
913.204	4207
913.318	4287
913.431	4383
913.545	4386
913.659	4489
913.772	4375
913.886	4291
914	4265
914.113	4436
914.226	4504
914.34	4421
914.453	4276
914.566	4455
914.68	4322
914.793	4367
914.906	4230
915.019	4116
915.132	4154
915.245	4223
915.358	4234
915.47	4265
915.583	4318
915.696	4314
915.809	4436
915.921	4428
916.034	4295
916.146	4299
916.259	4291
916.371	4409
916.483	4386
916.595	4295
916.708	4409
916.82	4413
916.932	4367
917.044	4363
917.156	4333
917.268	4272
917.38	4299
917.491	4268
917.603	4329
917.715	4474
917.826	4455
917.938	4367
918.049	4322
918.161	4462
918.272	4603
918.384	4500
918.495	4493
918.606	4314
918.717	4272
918.828	4402
918.939	4375
919.05	4272
919.161	4363
919.272	4147
919.383	4280
919.494	4459
919.604	4672
919.715	4459
919.826	4360
919.936	4481
920.047	4561
920.157	4542
920.267	4706
920.378	4603
920.488	4573
920.598	4755
920.708	4972
920.818	4714
920.928	4809
921.038	4965
921.148	4965
921.258	4622
921.368	4603
921.477	4527
921.587	4516
921.697	4375
921.806	4580
921.916	4440
922.025	4322
922.134	4295
922.244	4265
922.353	4322
922.462	4158
922.571	4150
922.68	4021
922.789	4051
922.898	4074
923.007	4048
923.116	4105
923.224	4074
923.333	4090
923.442	4029
923.55	4010
923.659	4040
923.767	4097
923.876	4029
923.984	4116
924.092	4002
924.201	4086
924.309	4147
924.417	4120
924.525	4093
924.633	4135
924.741	5067
924.849	3918
924.956	4128
925.064	3975
925.172	3964
925.279	4021
925.387	4036
925.494	4059
925.602	4242
925.709	4204
925.816	4051
925.924	4131
926.031	4280
926.138	4139
926.245	4211
926.352	4105
926.459	4238
926.566	4272
926.673	4215
926.779	4109
926.886	4135
926.993	3968
927.099	3972
927.206	3975
927.312	3979
927.419	4120
927.525	4059
927.631	4101
927.737	3994
927.843	3960
927.95	3816
928.056	3949
928.162	3998
928.267	4082
928.373	4615
928.479	4139
928.585	3903
928.69	4059
928.796	4097
928.901	3983
929.007	3892
929.112	4010
929.218	3983
929.323	3979
929.428	3968
929.533	4131
929.638	3926
929.743	3949
929.848	4093
929.953	4010
930.058	3968
930.163	3800
930.267	3899
930.372	3956
930.477	3850
930.581	4074
930.685	3956
930.79	3850
930.894	3945
930.998	3831
931.103	4059
931.207	3755
931.311	3709
931.415	3705
931.519	3561
931.623	3584
