Data from test_V78500241_77.txt Node
Date: Fri Mar 25 16:49:32 CST 2022
User: usil
Spectrometer: V785-0024
Trigger mode: 0
Integration Time (sec): 4.000000E-1
Scans to average: 1
Nonlinearity correction enabled: false
Boxcar width: 0
Storing dark spectrum: false
XAxis mode: Wavelengths
Number of Pixels in Spectrum: 1024
>>>>>Begin Spectral Data<<<<<
801.071	8043
801.214	8058
801.356	7925
801.499	7955
801.641	7814
801.783	7841
801.926	8043
802.068	7909
802.211	8077
802.353	8035
802.496	7894
802.638	7921
802.78	7967
802.923	7963
803.065	7852
803.208	7871
803.35	7997
803.492	8020
803.635	8153
803.777	7925
803.919	8111
804.061	8381
804.204	8100
804.346	8031
804.488	7982
804.63	8138
804.773	8031
804.915	8100
805.057	8271
805.199	8111
805.341	8229
805.483	8221
805.626	8202
805.768	8050
805.91	8229
806.052	8210
806.194	8054
806.336	8351
806.478	8100
806.62	8100
806.762	8237
806.904	8286
807.046	8461
807.188	8355
807.33	8286
807.472	8332
807.614	8210
807.756	8138
807.898	8031
808.04	7890
808.182	7963
808.324	7890
808.465	7883
808.607	8054
808.749	8100
808.891	8229
809.033	8282
809.174	8244
809.316	7974
809.458	8039
809.6	7936
809.741	8001
809.883	8126
810.025	8073
810.166	8050
810.308	8058
810.45	8012
810.591	7894
810.733	7742
810.875	7677
811.016	7518
811.158	7499
811.299	7624
811.441	7731
811.582	7780
811.724	7620
811.865	7609
812.007	7655
812.148	7677
812.29	7651
812.431	7792
812.573	7860
812.714	8039
812.855	8202
812.997	8317
813.138	8351
813.279	8240
813.421	8168
813.562	8050
813.703	7902
813.845	7776
813.986	7468
814.127	7285
814.268	7247
814.41	7255
814.551	7251
814.692	7255
814.833	7149
814.974	7206
815.115	7110
815.256	7031
815.397	6996
815.539	6977
815.68	6848
815.821	6779
815.962	6856
816.103	6818
816.244	6745
816.385	6627
816.526	6669
816.666	6532
816.807	6391
816.948	6464
817.089	6502
817.23	6483
817.371	6429
817.512	6384
817.653	6426
817.793	6388
817.934	6445
818.075	6521
818.216	6441
818.356	6437
818.497	6258
818.638	6129
818.778	6209
818.919	6171
819.06	6205
819.2	6418
819.341	6300
819.481	6433
819.622	6570
819.762	6798
819.903	6715
820.043	6654
820.184	6589
820.324	6642
820.465	6715
820.605	6715
820.746	6726
820.886	6536
821.026	6711
821.167	6726
821.307	6821
821.447	6787
821.588	6696
821.728	6589
821.868	6536
822.008	6376
822.149	6418
822.289	6407
822.429	6216
822.569	6068
822.709	6102
822.849	5897
822.99	5973
823.13	5920
823.27	5969
823.41	5790
823.55	5882
823.69	5767
823.83	5798
823.97	5718
824.11	5543
824.25	5528
824.389	5570
824.529	5653
824.669	5524
824.809	5661
824.949	5760
825.089	5657
825.228	5524
825.368	5398
825.508	5364
825.648	5379
825.787	5429
825.927	5398
826.067	5357
826.206	5330
826.346	5406
826.485	5444
826.625	5417
826.765	5604
826.904	5535
827.044	5273
827.183	5174
827.323	5162
827.462	5280
827.601	5178
827.741	5178
827.88	5231
828.02	5159
828.159	5265
828.298	5318
828.437	5410
828.577	5330
828.716	5535
828.855	5322
828.994	5181
829.134	5174
829.273	5193
829.412	5147
829.551	5166
829.69	5113
829.829	5258
829.968	5406
830.107	5239
830.246	5296
830.385	5204
830.524	5159
830.663	5083
830.802	4957
830.941	4908
831.08	4908
831.219	4965
831.357	5018
831.496	5162
831.635	4934
831.774	4835
831.913	4847
832.051	4752
832.19	4790
832.329	4904
832.467	4698
832.606	4641
832.744	4744
832.883	4664
833.022	4714
833.16	4797
833.299	4809
833.437	4862
833.576	4900
833.714	4858
833.852	4862
833.991	4892
834.129	5018
834.267	4984
834.406	4957
834.544	4957
834.682	5010
834.821	5014
834.959	5204
835.097	4991
835.235	5162
835.373	5098
835.511	5132
835.65	5045
835.788	5067
835.926	4946
836.064	4915
836.202	4927
836.34	5181
836.478	5216
836.615	5174
836.753	5220
836.891	5292
837.029	5303
837.167	5220
837.305	5189
837.443	5212
837.58	5121
837.718	5288
837.856	5174
837.993	5155
838.131	5269
838.269	5166
838.406	5269
838.544	5212
838.681	5094
838.819	5003
838.956	4854
839.094	4919
839.231	4972
839.369	5162
839.506	5486
839.643	5368
839.781	5079
839.918	5060
840.055	5113
840.193	5124
840.33	5083
840.467	5189
840.604	5181
840.742	5463
840.879	5067
841.016	5094
841.153	5128
841.29	5398
841.427	5357
841.564	5387
841.701	5383
841.838	5296
841.975	5292
842.112	5296
842.249	5162
842.385	5174
842.522	5395
842.659	5197
842.796	5174
842.933	5227
843.069	5178
843.206	5159
843.343	5288
843.479	5284
843.616	5265
843.752	5045
843.889	4999
844.025	5242
844.162	5029
844.298	5242
844.435	5083
844.571	5079
844.708	5216
844.844	5349
844.98	5337
845.117	5307
845.253	5143
845.389	5136
845.525	5147
845.661	5208
845.798	5056
845.934	5189
846.07	5083
846.206	5212
846.342	5315
846.478	5246
846.614	5060
846.75	5003
846.886	4980
847.022	5170
847.158	5052
847.294	5090
847.429	5136
847.565	5105
847.701	5360
847.837	4915
847.972	4843
848.108	4927
848.244	4946
848.379	4801
848.515	4740
848.65	4786
848.786	4778
848.921	4816
849.057	4873
849.192	4843
849.328	4816
849.463	4892
849.598	4812
849.734	4786
849.869	4744
850.004	4664
850.14	4668
850.275	4641
850.41	4588
850.545	4588
850.68	4622
850.815	4626
850.95	4634
851.085	4908
851.22	4759
851.355	4706
851.49	4634
851.625	4683
851.76	4694
851.895	4561
852.03	4542
852.165	4592
852.299	4763
852.434	4839
852.569	4805
852.703	4759
852.838	4866
852.973	4949
853.107	4904
853.242	4759
853.376	4687
853.511	4565
853.645	4675
853.78	4843
853.914	4710
854.048	4683
854.183	4649
854.317	4774
854.451	4843
854.585	4729
854.72	4660
854.854	4755
854.988	4634
855.122	4660
855.256	4535
855.39	4668
855.524	4786
855.658	4714
855.792	4744
855.926	4793
856.06	4748
856.194	4839
856.327	4736
856.461	4622
856.595	4611
856.729	4626
856.862	4801
856.996	4710
857.13	4771
857.263	4782
857.397	4870
857.53	4694
857.664	4717
857.797	4797
857.931	4801
858.064	4736
858.197	4748
858.331	4672
858.464	4603
858.597	4538
858.731	4660
858.864	4656
858.997	4599
859.13	4683
859.263	4729
859.396	4740
859.529	4637
859.662	4607
859.795	4535
859.928	4668
860.061	4748
860.194	4793
860.327	4630
860.46	4580
860.592	4725
860.725	4790
860.858	4698
860.99	4558
861.123	4546
861.256	4516
861.388	4645
861.521	5330
861.653	4485
861.786	4455
861.918	4424
862.05	4550
862.183	4565
862.315	4599
862.447	4668
862.58	4599
862.712	4421
862.844	4356
862.976	4523
863.108	4432
863.24	4881
863.372	4356
863.504	4421
863.636	4466
863.768	4497
863.9	4443
864.032	4424
864.164	4440
864.296	4512
864.428	4573
864.559	4577
864.691	4599
864.823	4565
864.954	4455
865.086	4531
865.217	4508
865.349	4417
865.48	4478
865.612	4512
865.743	4664
865.875	4508
866.006	4478
866.137	4531
866.269	4466
866.4	4440
866.531	4512
866.662	4413
866.793	4398
866.924	4474
867.055	4527
867.186	4519
867.317	4390
867.448	4413
867.579	4409
867.71	4443
867.841	4371
867.972	4466
868.103	4451
868.233	4470
868.364	4481
868.495	4519
868.625	4698
868.756	4805
868.886	4577
869.017	4664
869.147	4816
869.278	4759
869.408	4706
869.539	4645
869.669	4694
869.799	4721
869.929	4812
870.06	4790
870.19	4991
870.32	4927
870.45	4961
870.58	5010
870.71	5121
870.84	5132
870.97	5010
871.1	4908
871.23	5181
871.36	5159
871.489	5060
871.619	5185
871.749	5136
871.879	5185
872.008	5227
872.138	5102
872.267	5014
872.397	4881
872.526	4816
872.656	4771
872.785	4828
872.915	4930
873.044	5067
873.173	4957
873.303	4980
873.432	4972
873.561	4999
873.69	4908
873.819	4892
873.948	4923
874.077	4816
874.206	4778
874.335	4801
874.464	4911
874.593	5067
874.722	5018
874.851	5151
874.979	5094
875.108	5071
875.237	4923
875.365	4873
875.494	4946
875.623	5006
875.751	4881
875.88	4911
876.008	5014
876.136	5117
876.265	5239
876.393	5322
876.521	5277
876.65	5212
876.778	5181
876.906	5102
877.034	5090
877.162	5067
877.29	5067
877.418	5102
877.546	5105
877.674	5090
877.802	5025
877.93	5048
878.058	4976
878.185	4858
878.313	4995
878.441	4991
878.568	4771
878.696	4915
878.824	4961
878.951	5048
879.079	5239
879.206	5322
879.333	5113
879.461	5006
879.588	5018
879.715	5143
879.842	5208
879.97	5083
880.097	4835
880.224	4793
880.351	4809
880.478	4854
880.605	4835
880.732	4831
880.859	5086
880.986	4961
881.112	4949
881.239	4824
881.366	4675
881.493	4668
881.619	4611
881.746	4653
881.872	4698
881.999	4668
882.125	4771
882.252	4812
882.378	4793
882.505	5018
882.631	4812
882.757	4698
882.883	4755
883.01	4774
883.136	4675
883.262	4634
883.388	4679
883.514	4831
883.64	4843
883.766	4866
883.892	4694
884.018	4771
884.143	4908
884.269	5079
884.395	4675
884.52	4649
884.646	4668
884.772	4554
884.897	4569
885.023	4729
885.148	4805
885.274	4908
885.399	4805
885.524	4714
885.65	4721
885.775	4774
885.9	4767
886.025	4904
886.15	4812
886.275	4736
886.4	4694
886.525	4710
886.65	4744
886.775	4675
886.9	4908
887.025	5079
887.149	4828
887.274	4672
887.399	4546
887.523	4607
887.648	4588
887.773	4672
887.897	4809
888.021	4820
888.146	4675
888.27	4801
888.395	4919
888.519	4854
888.643	4824
888.767	4858
888.891	4725
889.015	4645
889.139	4679
889.263	4592
889.387	4824
889.511	4873
889.635	4809
889.759	4615
889.883	4672
890.006	4812
890.13	4870
890.254	4596
890.377	4717
890.501	4569
890.624	4588
890.748	4656
890.871	4497
890.995	4470
891.118	4421
891.241	4516
891.364	4577
891.488	4687
891.611	4558
891.734	4607
891.857	4596
891.98	4565
892.103	4717
892.226	4649
892.349	4558
892.471	4421
892.594	4569
892.717	4634
892.839	4599
892.962	4611
893.085	4660
893.207	4649
893.33	4470
893.452	4584
893.575	4687
893.697	4569
893.819	4877
893.941	4850
894.064	4786
894.186	4561
894.308	4584
894.43	4755
894.552	4854
894.674	4790
894.796	4569
894.918	4607
895.04	4596
895.161	4729
895.283	4683
895.405	4607
895.526	4660
895.648	4721
895.769	4714
895.891	4702
896.012	4782
896.134	4782
896.255	4691
896.376	4641
896.498	4626
896.619	4679
896.74	4592
896.861	4668
896.982	4927
897.103	5094
897.224	4824
897.345	4706
897.466	4649
897.587	4759
897.708	4892
897.828	4763
897.949	4683
898.07	4584
898.19	4611
898.311	4862
898.431	4698
898.552	4740
898.672	4858
898.792	4835
898.913	4793
899.033	4607
899.153	4569
899.273	4455
899.393	4542
899.513	4550
899.633	4542
899.753	4573
899.873	4538
899.993	4573
900.113	4573
900.232	4538
900.352	4542
900.472	4516
900.591	4462
900.711	4538
900.83	4455
900.95	4668
901.069	4740
901.189	4573
901.308	4440
901.427	4333
901.546	4398
901.665	4459
901.784	4546
901.904	4474
902.023	4329
902.141	4265
902.26	4207
902.379	4303
902.498	4314
902.617	4287
902.735	4436
902.854	4428
902.973	4398
903.091	4268
903.21	4253
903.328	4344
903.446	4344
903.565	4287
903.683	4455
903.801	4348
903.919	4466
904.038	4455
904.156	4424
904.274	4538
904.392	4504
904.51	4535
904.627	4538
904.745	4656
904.863	4702
904.981	4428
905.098	4394
905.216	4421
905.334	4508
905.451	4485
905.569	4519
905.686	4630
905.803	4596
905.921	4500
906.038	4580
906.155	4596
906.272	4466
906.389	4497
906.506	4386
906.623	4428
906.74	4466
906.857	4398
906.974	4500
907.091	4668
907.208	4763
907.324	4664
907.441	4596
907.557	4413
907.674	4394
907.79	4405
907.907	4459
908.023	4588
908.139	4588
908.256	4481
908.372	4535
908.488	4565
908.604	4470
908.72	4360
908.836	4424
908.952	4432
909.068	4500
909.184	4687
909.3	4538
909.415	4645
909.531	4596
909.647	4417
909.762	4440
909.878	4421
909.993	4516
910.108	4500
910.224	4481
910.339	4584
910.454	4466
910.57	4500
910.685	4383
910.8	4725
910.915	4664
911.03	4599
911.145	4405
911.259	4436
911.374	4409
911.489	4386
911.604	4337
911.718	4272
911.833	4287
911.947	4154
912.062	4059
912.176	4329
912.291	4310
912.405	4318
912.519	4516
912.633	4637
912.748	4489
912.862	4394
912.976	4333
913.09	4124
913.204	4242
913.318	4367
913.431	4424
913.545	4436
913.659	4523
913.772	4413
913.886	4333
914	4284
914.113	4474
914.226	4500
914.34	4455
914.453	4322
914.566	4546
914.68	4386
914.793	4417
914.906	4211
915.019	4200
915.132	4162
915.245	4238
915.358	4265
915.47	4303
915.583	4325
915.696	4402
915.809	4455
915.921	4500
916.034	4314
916.146	4352
916.259	4299
916.371	4478
916.483	4421
916.595	4337
916.708	4394
916.82	4402
916.932	4398
917.044	4421
917.156	4390
917.268	4287
917.38	4356
917.491	4337
917.603	4421
917.715	4462
917.826	4554
917.938	4428
918.049	4333
918.161	4462
918.272	4675
918.384	4588
918.495	4527
918.606	4409
918.717	4272
918.828	4447
918.939	4417
919.05	4299
919.161	4386
919.272	4196
919.383	4287
919.494	4546
919.604	4691
919.715	4478
919.826	4413
919.936	4504
920.047	4618
920.157	4573
920.267	4793
920.378	4618
920.488	4596
920.598	4790
920.708	4934
920.818	4835
920.928	4858
921.038	5090
921.148	4999
921.258	4694
921.368	4656
921.477	4577
921.587	4603
921.697	4455
921.806	4615
921.916	4523
922.025	4371
922.134	4367
922.244	4333
922.353	4436
922.462	4268
922.571	4253
922.68	4101
922.789	4040
922.898	4105
923.007	4071
923.116	4246
923.224	4128
923.333	4162
923.442	4124
923.55	4090
923.659	4128
923.767	4207
923.876	4097
923.984	4211
924.092	4112
924.201	4173
924.309	4188
924.417	4234
924.525	4173
924.633	4234
924.741	4984
924.849	4040
924.956	4196
925.064	4071
925.172	3975
925.279	4063
925.387	4109
925.494	4177
925.602	4337
925.709	4261
925.816	4143
925.924	4227
926.031	4299
926.138	4318
926.245	4325
926.352	4215
926.459	4363
926.566	4455
926.673	4223
926.779	4211
926.886	4173
926.993	4090
927.099	4059
927.206	4044
927.312	4029
927.419	4169
927.525	4116
927.631	4177
927.737	4055
927.843	4059
927.95	3968
928.056	4055
928.162	4063
928.267	4173
928.373	4759
928.479	4181
928.585	3945
928.69	4139
928.796	4185
928.901	4044
929.007	3888
929.112	4139
929.218	4090
929.323	4017
929.428	4097
929.533	4238
929.638	3998
929.743	4032
929.848	4139
929.953	4082
930.058	4036
930.163	3884
930.267	3937
930.372	4059
930.477	3896
930.581	4215
930.685	4048
930.79	3949
930.894	4013
930.998	3937
931.103	4131
931.207	3819
931.311	3823
931.415	3732
931.519	3557
931.623	3671
