Data from test_V78500241_667.txt Node
Date: Fri Mar 25 16:53:38 CST 2022
User: usil
Spectrometer: V785-0024
Trigger mode: 0
Integration Time (sec): 4.000000E-1
Scans to average: 1
Nonlinearity correction enabled: false
Boxcar width: 0
Storing dark spectrum: false
XAxis mode: Wavelengths
Number of Pixels in Spectrum: 1024
>>>>>Begin Spectral Data<<<<<
801.071	8073
801.214	8065
801.356	7913
801.499	7837
801.641	7841
801.783	7799
801.926	7967
802.068	7902
802.211	7974
802.353	7959
802.496	7898
802.638	7913
802.78	7967
802.923	7906
803.065	7826
803.208	7902
803.35	7993
803.492	8138
803.635	8199
803.777	8012
803.919	8130
804.061	8454
804.204	8115
804.346	8031
804.488	7951
804.63	8126
804.773	8016
804.915	8126
805.057	8313
805.199	8161
805.341	8214
805.483	8298
805.626	8267
805.768	8176
805.91	8267
806.052	8210
806.194	8039
806.336	8320
806.478	8195
806.62	7997
806.762	8161
806.904	8328
807.046	8454
807.188	8404
807.33	8286
807.472	8362
807.614	8161
807.756	8138
807.898	8031
808.04	7894
808.182	7883
808.324	7871
808.465	7868
808.607	8005
808.749	8142
808.891	8191
809.033	8279
809.174	8199
809.316	8058
809.458	8096
809.6	7967
809.741	8005
809.883	8077
810.025	8050
810.166	8103
810.308	8119
810.45	8054
810.591	7868
810.733	7784
810.875	7761
811.016	7578
811.158	7449
811.299	7624
811.441	7727
811.582	7658
811.724	7540
811.865	7582
812.007	7582
812.148	7597
812.29	7632
812.431	7662
812.573	7913
812.714	7936
812.855	8164
812.997	8210
813.138	8381
813.279	8279
813.421	8183
813.562	8062
813.703	7875
813.845	7814
813.986	7514
814.127	7308
814.268	7274
814.41	7232
814.551	7080
814.692	7160
814.833	7053
814.974	7084
815.115	7080
815.256	7004
815.397	6958
815.539	6970
815.68	6837
815.821	6806
815.962	6913
816.103	6783
816.244	6741
816.385	6654
816.526	6662
816.666	6566
816.807	6308
816.948	6376
817.089	6490
817.23	6422
817.371	6410
817.512	6407
817.653	6433
817.793	6399
817.934	6350
818.075	6513
818.216	6426
818.356	6414
818.497	6251
818.638	6098
818.778	6133
818.919	6068
819.06	6171
819.2	6315
819.341	6311
819.481	6395
819.622	6551
819.762	6757
819.903	6684
820.043	6547
820.184	6582
820.324	6540
820.465	6642
820.605	6696
820.746	6559
820.886	6475
821.026	6639
821.167	6692
821.307	6711
821.447	6700
821.588	6635
821.728	6570
821.868	6513
822.008	6376
822.149	6350
822.289	6407
822.429	6117
822.569	6034
822.709	6064
822.849	5893
822.99	5882
823.13	5870
823.27	5954
823.41	5733
823.55	5737
823.69	5775
823.83	5832
823.97	5668
824.11	5543
824.25	5524
824.389	5585
824.529	5585
824.669	5474
824.809	5627
824.949	5634
825.089	5657
825.228	5554
825.368	5444
825.508	5353
825.648	5334
825.787	5414
825.927	5395
826.067	5296
826.206	5322
826.346	5379
826.485	5436
826.625	5410
826.765	5547
826.904	5501
827.044	5208
827.183	5197
827.323	5178
827.462	5280
827.601	5189
827.741	5277
827.88	5170
828.02	5117
828.159	5239
828.298	5280
828.437	5353
828.577	5315
828.716	5482
828.855	5337
828.994	5201
829.134	5151
829.273	5151
829.412	5147
829.551	5113
829.69	5181
829.829	5254
829.968	5334
830.107	5254
830.246	5334
830.385	5197
830.524	5113
830.663	5162
830.802	4942
830.941	4953
831.08	4896
831.219	4991
831.357	5014
831.496	5147
831.635	4965
831.774	4854
831.913	4824
832.051	4771
832.19	4774
832.329	4850
832.467	4698
832.606	4679
832.744	4733
832.883	4710
833.022	4767
833.16	4809
833.299	4816
833.437	4839
833.576	4877
833.714	4843
833.852	4854
833.991	4942
834.129	4946
834.267	4961
834.406	4881
834.544	5014
834.682	4999
834.821	4995
834.959	5189
835.097	5018
835.235	5140
835.373	5094
835.511	5090
835.65	5067
835.788	5067
835.926	4885
836.064	4911
836.202	4915
836.34	5155
836.478	5216
836.615	5128
836.753	5185
836.891	5318
837.029	5261
837.167	5181
837.305	5235
837.443	5124
837.58	5083
837.718	5269
837.856	5162
837.993	5185
838.131	5246
838.269	5242
838.406	5254
838.544	5170
838.681	5071
838.819	4987
838.956	4934
839.094	4900
839.231	4980
839.369	5109
839.506	5459
839.643	5265
839.781	5033
839.918	5056
840.055	5052
840.193	5117
840.33	5128
840.467	5132
840.604	5170
840.742	5452
840.879	5090
841.016	5079
841.153	5143
841.29	5345
841.427	5372
841.564	5292
841.701	5387
841.838	5258
841.975	5231
842.112	5292
842.249	5136
842.385	5079
842.522	5353
842.659	5223
842.796	5147
842.933	5201
843.069	5155
843.206	5151
843.343	5292
843.479	5250
843.616	5284
843.752	5037
843.889	5041
844.025	5189
844.162	5052
844.298	5204
844.435	5102
844.571	5056
844.708	5208
844.844	5357
844.98	5284
845.117	5303
845.253	5147
845.389	5083
845.525	5124
845.661	5132
845.798	5075
845.934	5162
846.07	5064
846.206	5189
846.342	5311
846.478	5208
846.614	5025
846.75	5003
846.886	4953
847.022	5159
847.158	5029
847.294	5022
847.429	5102
847.565	5083
847.701	5349
847.837	4809
847.972	4847
848.108	4957
848.244	4949
848.379	4759
848.515	4710
848.65	4694
848.786	4801
848.921	4763
849.057	4896
849.192	4828
849.328	4828
849.463	4774
849.598	4839
849.734	4729
849.869	4702
850.004	4626
850.14	4664
850.275	4611
850.41	4542
850.545	4538
850.68	4584
850.815	4588
850.95	4679
851.085	4873
851.22	4782
851.355	4668
851.49	4592
851.625	4653
851.76	4645
851.895	4577
852.03	4584
852.165	4649
852.299	4679
852.434	4771
852.569	4755
852.703	4740
852.838	4824
852.973	4965
853.107	4911
853.242	4744
853.376	4672
853.511	4558
853.645	4656
853.78	4843
853.914	4710
854.048	4691
854.183	4653
854.317	4736
854.451	4896
854.585	4656
854.72	4626
854.854	4733
854.988	4596
855.122	4634
855.256	4516
855.39	4649
855.524	4801
855.658	4725
855.792	4714
855.926	4740
856.06	4736
856.194	4790
856.327	4725
856.461	4653
856.595	4607
856.729	4645
856.862	4767
856.996	4672
857.13	4698
857.263	4752
857.397	4809
857.53	4649
857.664	4740
857.797	4782
857.931	4801
858.064	4733
858.197	4740
858.331	4649
858.464	4660
858.597	4485
858.731	4607
858.864	4683
858.997	4603
859.13	4687
859.263	4672
859.396	4706
859.529	4584
859.662	4565
859.795	4519
859.928	4630
860.061	4748
860.194	4744
860.327	4603
860.46	4565
860.592	4683
860.725	4694
860.858	4736
860.99	4592
861.123	4535
861.256	4508
861.388	4630
861.521	5315
861.653	4485
861.786	4462
861.918	4485
862.05	4519
862.183	4550
862.315	4607
862.447	4649
862.58	4531
862.712	4409
862.844	4352
862.976	4512
863.108	4440
863.24	4873
863.372	4363
863.504	4383
863.636	4383
863.768	4470
863.9	4432
864.032	4295
864.164	4394
864.296	4470
864.428	4481
864.559	4577
864.691	4531
864.823	4523
864.954	4485
865.086	4493
865.217	4405
865.349	4417
865.48	4440
865.612	4527
865.743	4653
865.875	4489
866.006	4386
866.137	4455
866.269	4432
866.4	4455
866.531	4421
866.662	4398
866.793	4390
866.924	4405
867.055	4508
867.186	4462
867.317	4440
867.448	4363
867.579	4409
867.71	4394
867.841	4398
867.972	4470
868.103	4447
868.233	4462
868.364	4466
868.495	4546
868.625	4622
868.756	4744
868.886	4569
869.017	4649
869.147	4714
869.278	4755
869.408	4615
869.539	4656
869.669	4691
869.799	4694
869.929	4714
870.06	4748
870.19	4972
870.32	4946
870.45	4934
870.58	5003
870.71	5090
870.84	5079
870.97	4980
871.1	4923
871.23	5124
871.36	5170
871.489	5075
871.619	5117
871.749	5086
871.879	5124
872.008	5098
872.138	5045
872.267	4961
872.397	4793
872.526	4805
872.656	4649
872.785	4843
872.915	4984
873.044	5094
873.173	4946
873.303	4972
873.432	4976
873.561	4976
873.69	4839
873.819	4885
873.948	4915
874.077	4843
874.206	4744
874.335	4782
874.464	4919
874.593	5086
874.722	4934
874.851	5094
874.979	5060
875.108	5090
875.237	4889
875.365	4896
875.494	4896
875.623	5003
875.751	4816
875.88	4835
876.008	4976
876.136	5018
876.265	5128
876.393	5334
876.521	5250
876.65	5261
876.778	5124
876.906	5109
877.034	5014
877.162	5071
877.29	4976
877.418	5041
877.546	5045
877.674	5045
877.802	5037
877.93	5045
878.058	4953
878.185	4873
878.313	4965
878.441	4927
878.568	4812
878.696	4870
878.824	4965
878.951	4976
879.079	5090
879.206	5277
879.333	5105
879.461	4995
879.588	5022
879.715	5121
879.842	5239
879.97	5014
880.097	4782
880.224	4725
880.351	4763
880.478	4793
880.605	4835
880.732	4744
880.859	5090
880.986	4904
881.112	4900
881.239	4736
881.366	4702
881.493	4588
881.619	4569
881.746	4641
881.872	4634
881.999	4637
882.125	4725
882.252	4797
882.378	4816
882.505	4923
882.631	4786
882.757	4691
882.883	4767
883.01	4694
883.136	4626
883.262	4607
883.388	4592
883.514	4824
883.64	4828
883.766	4771
883.892	4641
884.018	4694
884.143	4908
884.269	4968
884.395	4679
884.52	4611
884.646	4622
884.772	4592
884.897	4558
885.023	4660
885.148	4748
885.274	4843
885.399	4790
885.524	4694
885.65	4664
885.775	4702
885.9	4714
886.025	4889
886.15	4736
886.275	4645
886.4	4660
886.525	4797
886.65	4691
886.775	4649
886.9	4877
887.025	5025
887.149	4797
887.274	4679
887.399	4603
887.523	4542
887.648	4569
887.773	4565
887.897	4717
888.021	4774
888.146	4626
888.27	4816
888.395	4885
888.519	4786
888.643	4786
888.767	4866
888.891	4698
889.015	4645
889.139	4694
889.263	4542
889.387	4786
889.511	4862
889.635	4710
889.759	4649
889.883	4653
890.006	4710
890.13	4816
890.254	4603
890.377	4668
890.501	4519
890.624	4493
890.748	4645
890.871	4519
890.995	4466
891.118	4344
891.241	4481
891.364	4542
891.488	4653
891.611	4493
891.734	4546
891.857	4618
891.98	4527
892.103	4615
892.226	4573
892.349	4500
892.471	4451
892.594	4577
892.717	4577
892.839	4622
892.962	4554
893.085	4645
893.207	4558
893.33	4443
893.452	4550
893.575	4634
893.697	4588
893.819	4820
893.941	4790
894.064	4759
894.186	4538
894.308	4550
894.43	4687
894.552	4778
894.674	4748
894.796	4584
894.918	4607
895.04	4558
895.161	4698
895.283	4698
895.405	4577
895.526	4626
895.648	4694
895.769	4706
895.891	4706
896.012	4752
896.134	4755
896.255	4649
896.376	4618
896.498	4584
896.619	4679
896.74	4611
896.861	4698
896.982	4911
897.103	5113
897.224	4816
897.345	4740
897.466	4653
897.587	4755
897.708	4885
897.828	4786
897.949	4706
898.07	4569
898.19	4626
898.311	4847
898.431	4626
898.552	4717
898.672	4801
898.792	4816
898.913	4744
899.033	4656
899.153	4500
899.273	4432
899.393	4497
899.513	4535
899.633	4531
899.753	4554
899.873	4519
899.993	4573
900.113	4538
900.232	4668
900.352	4565
900.472	4493
900.591	4413
900.711	4500
900.83	4424
900.95	4634
901.069	4721
901.189	4573
901.308	4303
901.427	4325
901.546	4375
901.665	4489
901.784	4489
901.904	4405
902.023	4306
902.141	4200
902.26	4173
902.379	4291
902.498	4265
902.617	4188
902.735	4371
902.854	4371
902.973	4344
903.091	4173
903.21	4238
903.328	4306
903.446	4234
903.565	4257
903.683	4344
903.801	4265
903.919	4405
904.038	4413
904.156	4318
904.274	4409
904.392	4413
904.51	4436
904.627	4455
904.745	4558
904.863	4618
904.981	4390
905.098	4299
905.216	4386
905.334	4398
905.451	4470
905.569	4432
905.686	4504
905.803	4580
905.921	4440
906.038	4516
906.155	4485
906.272	4367
906.389	4447
906.506	4360
906.623	4360
906.74	4432
906.857	4325
906.974	4367
907.091	4596
907.208	4664
907.324	4596
907.441	4516
907.557	4379
907.674	4344
907.79	4268
907.907	4371
908.023	4474
908.139	4455
908.256	4409
908.372	4447
908.488	4478
908.604	4360
908.72	4341
908.836	4360
908.952	4394
909.068	4459
909.184	4588
909.3	4504
909.415	4603
909.531	4546
909.647	4344
909.762	4383
909.878	4306
909.993	4413
910.108	4443
910.224	4421
910.339	4489
910.454	4371
910.57	4325
910.685	4310
910.8	4645
910.915	4584
911.03	4504
911.145	4348
911.259	4352
911.374	4348
911.489	4276
911.604	4303
911.718	4181
911.833	4207
911.947	4051
912.062	4006
912.176	4211
912.291	4261
912.405	4272
912.519	4474
912.633	4489
912.748	4375
912.862	4291
912.976	4215
913.09	4093
913.204	4211
913.318	4227
913.431	4413
913.545	4371
913.659	4447
913.772	4356
913.886	4257
914	4253
914.113	4375
914.226	4459
914.34	4367
914.453	4234
914.566	4409
914.68	4329
914.793	4337
914.906	4143
915.019	4143
915.132	4071
915.245	4200
915.358	4173
915.47	4204
915.583	4276
915.696	4329
915.809	4443
915.921	4417
916.034	4207
916.146	4200
916.259	4265
916.371	4383
916.483	4363
916.595	4265
916.708	4268
916.82	4318
916.932	4306
917.044	4322
917.156	4333
917.268	4219
917.38	4276
917.491	4257
917.603	4337
917.715	4424
917.826	4421
917.938	4379
918.049	4265
918.161	4383
918.272	4493
918.384	4546
918.495	4424
918.606	4299
918.717	4238
918.828	4356
918.939	4402
919.05	4257
919.161	4337
919.272	4131
919.383	4238
919.494	4478
919.604	4653
919.715	4375
919.826	4371
919.936	4386
920.047	4523
920.157	4531
920.267	4710
920.378	4508
920.488	4508
920.598	4698
920.708	4847
920.818	4763
920.928	4793
921.038	4934
921.148	4930
921.258	4607
921.368	4542
921.477	4466
921.587	4424
921.697	4405
921.806	4580
921.916	4443
922.025	4276
922.134	4257
922.244	4249
922.353	4344
922.462	4112
922.571	4143
922.68	4017
922.789	3964
922.898	4002
923.007	3979
923.116	4101
923.224	4067
923.333	4086
923.442	3960
923.55	4021
923.659	4010
923.767	4082
923.876	4044
923.984	4128
924.092	3960
924.201	4101
924.309	4116
924.417	4139
924.525	4120
924.633	4143
924.741	5067
924.849	3949
924.956	4082
925.064	3922
925.172	3922
925.279	3968
925.387	4101
925.494	4071
925.602	4211
925.709	4196
925.816	4025
925.924	4109
926.031	4219
926.138	4169
926.245	4173
926.352	4131
926.459	4261
926.566	4299
926.673	4128
926.779	4131
926.886	4074
926.993	3975
927.099	3972
927.206	3915
927.312	3907
927.419	4032
927.525	4048
927.631	4090
927.737	3975
927.843	3926
927.95	3804
928.056	3960
928.162	4013
928.267	4059
928.373	4637
928.479	4128
928.585	3857
928.69	4029
928.796	4074
928.901	3937
929.007	3857
929.112	3979
929.218	3972
929.323	3968
929.428	3953
929.533	4086
929.638	3892
929.743	3964
929.848	4074
929.953	3975
930.058	3911
930.163	3785
930.267	3857
930.372	3979
930.477	3751
930.581	4063
930.685	4006
930.79	3831
930.894	3903
930.998	3876
931.103	4051
931.207	3698
931.311	3675
931.415	3660
931.519	3515
931.623	3549
