Data from test_V78500241_845.txt Node
Date: Fri Mar 25 16:54:52 CST 2022
User: usil
Spectrometer: V785-0024
Trigger mode: 0
Integration Time (sec): 4.000000E-1
Scans to average: 1
Nonlinearity correction enabled: false
Boxcar width: 0
Storing dark spectrum: false
XAxis mode: Wavelengths
Number of Pixels in Spectrum: 1024
>>>>>Begin Spectral Data<<<<<
801.071	8001
801.214	7989
801.356	7879
801.499	7894
801.641	7826
801.783	7890
801.926	7932
802.068	7898
802.211	8005
802.353	7936
802.496	7898
802.638	7845
802.78	7970
802.923	7890
803.065	7917
803.208	7841
803.35	8039
803.492	8054
803.635	8180
803.777	7993
803.919	8176
804.061	8446
804.204	8138
804.346	8020
804.488	7955
804.63	8111
804.773	8058
804.915	8096
805.057	8263
805.199	8145
805.341	8199
805.483	8366
805.626	8145
805.768	8115
805.91	8172
806.052	8153
806.194	8065
806.336	8263
806.478	8043
806.62	8027
806.762	8069
806.904	8233
807.046	8442
807.188	8404
807.33	8233
807.472	8393
807.614	8119
807.756	8145
807.898	7970
808.04	7845
808.182	7841
808.324	7906
808.465	7921
808.607	8054
808.749	8084
808.891	8183
809.033	8275
809.174	8191
809.316	8069
809.458	8035
809.6	7955
809.741	8016
809.883	7993
810.025	8081
810.166	8073
810.308	8005
810.45	8020
810.591	7875
810.733	7833
810.875	7658
811.016	7575
811.158	7499
811.299	7567
811.441	7731
811.582	7670
811.724	7552
811.865	7544
812.007	7518
812.148	7605
812.29	7624
812.431	7738
812.573	7757
812.714	7932
812.855	8092
812.997	8180
813.138	8301
813.279	8168
813.421	8107
813.562	8020
813.703	7852
813.845	7799
813.986	7495
814.127	7289
814.268	7263
814.41	7187
814.551	7137
814.692	7088
814.833	7008
814.974	7065
815.115	7122
815.256	6894
815.397	6909
815.539	6981
815.68	6901
815.821	6802
815.962	6844
816.103	6848
816.244	6673
816.385	6601
816.526	6589
816.666	6517
816.807	6327
816.948	6433
817.089	6448
817.23	6414
817.371	6376
817.512	6384
817.653	6414
817.793	6346
817.934	6418
818.075	6460
818.216	6395
818.356	6399
818.497	6213
818.638	6121
818.778	6106
818.919	6159
819.06	6159
819.2	6262
819.341	6331
819.481	6308
819.622	6525
819.762	6677
819.903	6677
820.043	6593
820.184	6555
820.324	6559
820.465	6700
820.605	6665
820.746	6608
820.886	6566
821.026	6665
821.167	6722
821.307	6734
821.447	6734
821.588	6593
821.728	6563
821.868	6452
822.008	6281
822.149	6262
822.289	6296
822.429	6110
822.569	6114
822.709	6129
822.849	5897
822.99	5855
823.13	5939
823.27	5889
823.41	5794
823.55	5805
823.69	5790
823.83	5718
823.97	5661
824.11	5482
824.25	5501
824.389	5608
824.529	5577
824.669	5493
824.809	5630
824.949	5592
825.089	5604
825.228	5554
825.368	5398
825.508	5360
825.648	5341
825.787	5395
825.927	5326
826.067	5223
826.206	5284
826.346	5402
826.485	5398
826.625	5391
826.765	5490
826.904	5509
827.044	5246
827.183	5102
827.323	5132
827.462	5250
827.601	5151
827.741	5212
827.88	5231
828.02	5121
828.159	5216
828.298	5277
828.437	5372
828.577	5265
828.716	5471
828.855	5334
828.994	5166
829.134	5121
829.273	5212
829.412	5170
829.551	5140
829.69	5201
829.829	5216
829.968	5357
830.107	5258
830.246	5223
830.385	5166
830.524	5185
830.663	5014
830.802	4946
830.941	4866
831.08	4900
831.219	4965
831.357	5014
831.496	5143
831.635	4896
831.774	4812
831.913	4793
832.051	4679
832.19	4774
832.329	4843
832.467	4641
832.606	4618
832.744	4668
832.883	4679
833.022	4729
833.16	4763
833.299	4824
833.437	4816
833.576	4828
833.714	4870
833.852	4850
833.991	4889
834.129	4976
834.267	4911
834.406	4812
834.544	4942
834.682	4965
834.821	4915
834.959	5147
835.097	5003
835.235	5136
835.373	5071
835.511	5121
835.65	5048
835.788	5025
835.926	4927
836.064	4850
836.202	4946
836.34	5170
836.478	5246
836.615	5060
836.753	5174
836.891	5265
837.029	5246
837.167	5181
837.305	5162
837.443	5132
837.58	5041
837.718	5189
837.856	5189
837.993	5121
838.131	5212
838.269	5216
838.406	5151
838.544	5117
838.681	5037
838.819	4938
838.956	4847
839.094	4896
839.231	5006
839.369	5037
839.506	5383
839.643	5223
839.781	5045
839.918	4980
840.055	5079
840.193	5128
840.33	5121
840.467	5151
840.604	5193
840.742	5444
840.879	5056
841.016	5056
841.153	5155
841.29	5357
841.427	5379
841.564	5299
841.701	5345
841.838	5246
841.975	5231
842.112	5174
842.249	5121
842.385	5060
842.522	5330
842.659	5178
842.796	5121
842.933	5155
843.069	5162
843.206	5098
843.343	5269
843.479	5181
843.616	5265
843.752	5045
843.889	5006
844.025	5212
844.162	5048
844.298	5155
844.435	5090
844.571	5079
844.708	5204
844.844	5303
844.98	5296
845.117	5254
845.253	5147
845.389	5022
845.525	5094
845.661	5204
845.798	4991
845.934	5132
846.07	4984
846.206	5136
846.342	5254
846.478	5174
846.614	5014
846.75	4934
846.886	4934
847.022	5151
847.158	5033
847.294	5037
847.429	5075
847.565	5052
847.701	5349
847.837	4820
847.972	4812
848.108	4915
848.244	4927
848.379	4763
848.515	4714
848.65	4729
848.786	4729
848.921	4752
849.057	4870
849.192	4934
849.328	4812
849.463	4816
849.598	4828
849.734	4740
849.869	4649
850.004	4603
850.14	4645
850.275	4618
850.41	4535
850.545	4565
850.68	4569
850.815	4611
850.95	4660
851.085	4812
851.22	4752
851.355	4668
851.49	4626
851.625	4599
851.76	4615
851.895	4554
852.03	4512
852.165	4611
852.299	4641
852.434	4763
852.569	4740
852.703	4736
852.838	4809
852.973	4919
853.107	4923
853.242	4702
853.376	4588
853.511	4516
853.645	4580
853.78	4767
853.914	4672
854.048	4649
854.183	4637
854.317	4706
854.451	4828
854.585	4622
854.72	4607
854.854	4763
854.988	4561
855.122	4561
855.256	4508
855.39	4687
855.524	4748
855.658	4679
855.792	4641
855.926	4683
856.06	4782
856.194	4801
856.327	4702
856.461	4618
856.595	4626
856.729	4615
856.862	4736
856.996	4691
857.13	4729
857.263	4748
857.397	4820
857.53	4660
857.664	4767
857.797	4733
857.931	4812
858.064	4630
858.197	4691
858.331	4615
858.464	4569
858.597	4500
858.731	4649
858.864	4649
858.997	4611
859.13	4653
859.263	4687
859.396	4675
859.529	4527
859.662	4580
859.795	4516
859.928	4641
860.061	4736
860.194	4748
860.327	4554
860.46	4512
860.592	4672
860.725	4683
860.858	4729
860.99	4550
861.123	4474
861.256	4462
861.388	4573
861.521	5284
861.653	4447
861.786	4455
861.918	4455
862.05	4523
862.183	4538
862.315	4615
862.447	4634
862.58	4554
862.712	4440
862.844	4333
862.976	4466
863.108	4394
863.24	4793
863.372	4371
863.504	4383
863.636	4348
863.768	4459
863.9	4481
864.032	4363
864.164	4386
864.296	4455
864.428	4512
864.559	4527
864.691	4481
864.823	4531
864.954	4481
865.086	4512
865.217	4447
865.349	4375
865.48	4432
865.612	4462
865.743	4584
865.875	4436
866.006	4436
866.137	4440
866.269	4447
866.4	4398
866.531	4390
866.662	4398
866.793	4394
866.924	4383
867.055	4489
867.186	4489
867.317	4428
867.448	4402
867.579	4371
867.71	4405
867.841	4367
867.972	4462
868.103	4459
868.233	4485
868.364	4447
868.495	4447
868.625	4660
868.756	4763
868.886	4558
869.017	4618
869.147	4721
869.278	4809
869.408	4683
869.539	4618
869.669	4675
869.799	4664
869.929	4721
870.06	4725
870.19	4930
870.32	4919
870.45	4889
870.58	4987
870.71	5094
870.84	5090
870.97	4927
871.1	4866
871.23	5178
871.36	5109
871.489	4995
871.619	5033
871.749	5045
871.879	5086
872.008	5185
872.138	5048
872.267	4961
872.397	4862
872.526	4797
872.656	4710
872.785	4786
872.915	4938
873.044	5006
873.173	4904
873.303	4991
873.432	4949
873.561	4976
873.69	4831
873.819	4858
873.948	4877
874.077	4824
874.206	4725
874.335	4786
874.464	4930
874.593	5041
874.722	4881
874.851	5060
874.979	5052
875.108	5022
875.237	4911
875.365	4900
875.494	4866
875.623	4953
875.751	4850
875.88	4908
876.008	4930
876.136	4957
876.265	5223
876.393	5322
876.521	5235
876.65	5239
876.778	5105
876.906	5083
877.034	4995
877.162	5010
877.29	4957
877.418	5010
877.546	5041
877.674	5014
877.802	4968
877.93	5006
878.058	4942
878.185	4850
878.313	4946
878.441	4984
878.568	4790
878.696	4889
878.824	4961
878.951	4991
879.079	5105
879.206	5265
879.333	5124
879.461	4961
879.588	4999
879.715	5117
879.842	5235
879.97	5010
880.097	4801
880.224	4725
880.351	4786
880.478	4854
880.605	4786
880.732	4778
880.859	5086
880.986	4877
881.112	4919
881.239	4755
881.366	4660
881.493	4558
881.619	4603
881.746	4607
881.872	4622
881.999	4653
882.125	4660
882.252	4759
882.378	4809
882.505	4934
882.631	4828
882.757	4672
882.883	4721
883.01	4721
883.136	4645
883.262	4607
883.388	4634
883.514	4831
883.64	4850
883.766	4755
883.892	4683
884.018	4733
884.143	4877
884.269	4984
884.395	4710
884.52	4569
884.646	4668
884.772	4603
884.897	4542
885.023	4660
885.148	4801
885.274	4850
885.399	4809
885.524	4748
885.65	4664
885.775	4748
885.9	4660
886.025	4835
886.15	4812
886.275	4736
886.4	4660
886.525	4691
886.65	4729
886.775	4634
886.9	4911
887.025	5022
887.149	4801
887.274	4634
887.399	4584
887.523	4558
887.648	4565
887.773	4618
887.897	4752
888.021	4774
888.146	4645
888.27	4801
888.395	4908
888.519	4824
888.643	4805
888.767	4820
888.891	4698
889.015	4580
889.139	4618
889.263	4607
889.387	4725
889.511	4828
889.635	4786
889.759	4653
889.883	4592
890.006	4679
890.13	4820
890.254	4580
890.377	4683
890.501	4508
890.624	4538
890.748	4679
890.871	4497
890.995	4447
891.118	4371
891.241	4436
891.364	4508
891.488	4653
891.611	4474
891.734	4531
891.857	4596
891.98	4573
892.103	4672
892.226	4569
892.349	4516
892.471	4409
892.594	4542
892.717	4607
892.839	4519
892.962	4630
893.085	4679
893.207	4637
893.33	4470
893.452	4512
893.575	4626
893.697	4580
893.819	4774
893.941	4828
894.064	4748
894.186	4588
894.308	4561
894.43	4698
894.552	4831
894.674	4774
894.796	4512
894.918	4546
895.04	4550
895.161	4733
895.283	4664
895.405	4603
895.526	4565
895.648	4653
895.769	4702
895.891	4759
896.012	4717
896.134	4729
896.255	4664
896.376	4607
896.498	4592
896.619	4694
896.74	4607
896.861	4622
896.982	4911
897.103	5006
897.224	4797
897.345	4725
897.466	4672
897.587	4694
897.708	4870
897.828	4744
897.949	4672
898.07	4580
898.19	4694
898.311	4805
898.431	4618
898.552	4717
898.672	4824
898.792	4816
898.913	4691
899.033	4702
899.153	4447
899.273	4432
899.393	4478
899.513	4550
899.633	4535
899.753	4516
899.873	4508
899.993	4538
900.113	4527
900.232	4607
900.352	4531
900.472	4497
900.591	4402
900.711	4474
900.83	4436
900.95	4592
901.069	4668
901.189	4550
901.308	4341
901.427	4287
901.546	4375
901.665	4478
901.784	4493
901.904	4375
902.023	4325
902.141	4169
902.26	4143
902.379	4322
902.498	4207
902.617	4173
902.735	4352
902.854	4394
902.973	4344
903.091	4207
903.21	4242
903.328	4253
903.446	4291
903.565	4249
903.683	4325
903.801	4265
903.919	4363
904.038	4424
904.156	4333
904.274	4409
904.392	4383
904.51	4432
904.627	4489
904.745	4622
904.863	4649
904.981	4383
905.098	4284
905.216	4318
905.334	4443
905.451	4462
905.569	4398
905.686	4535
905.803	4573
905.921	4440
906.038	4508
906.155	4519
906.272	4424
906.389	4428
906.506	4341
906.623	4348
906.74	4424
906.857	4325
906.974	4356
907.091	4538
907.208	4687
907.324	4565
907.441	4489
907.557	4379
907.674	4325
907.79	4284
907.907	4344
908.023	4489
908.139	4443
908.256	4432
908.372	4508
908.488	4436
908.604	4371
908.72	4310
908.836	4383
908.952	4344
909.068	4413
909.184	4554
909.3	4455
909.415	4630
909.531	4550
909.647	4348
909.762	4344
909.878	4337
909.993	4383
910.108	4375
910.224	4436
910.339	4405
910.454	4352
910.57	4280
910.685	4295
910.8	4626
910.915	4596
911.03	4489
911.145	4329
911.259	4329
911.374	4341
911.489	4310
911.604	4287
911.718	4147
911.833	4188
911.947	4082
912.062	4032
912.176	4181
912.291	4234
912.405	4230
912.519	4436
912.633	4512
912.748	4348
912.862	4295
912.976	4200
913.09	4082
913.204	4169
913.318	4227
913.431	4360
913.545	4383
913.659	4413
913.772	4287
913.886	4257
914	4242
914.113	4383
914.226	4405
914.34	4379
914.453	4219
914.566	4375
914.68	4284
914.793	4322
914.906	4128
915.019	4128
915.132	4059
915.245	4166
915.358	4204
915.47	4227
915.583	4280
915.696	4261
915.809	4417
915.921	4428
916.034	4265
916.146	4265
916.259	4192
916.371	4367
916.483	4318
916.595	4276
916.708	4284
916.82	4299
916.932	4348
917.044	4322
917.156	4303
917.268	4253
917.38	4303
917.491	4268
917.603	4371
917.715	4417
917.826	4432
917.938	4337
918.049	4219
918.161	4371
918.272	4519
918.384	4497
918.495	4417
918.606	4341
918.717	4188
918.828	4325
918.939	4325
919.05	4257
919.161	4303
919.272	4112
919.383	4219
919.494	4402
919.604	4634
919.715	4375
919.826	4325
919.936	4352
920.047	4474
920.157	4481
920.267	4767
920.378	4523
920.488	4474
920.598	4694
920.708	4881
920.818	4774
920.928	4721
921.038	4984
921.148	4866
921.258	4561
921.368	4535
921.477	4504
921.587	4466
921.697	4318
921.806	4527
921.916	4443
922.025	4242
922.134	4185
922.244	4200
922.353	4310
922.462	4120
922.571	4097
922.68	3972
922.789	4013
922.898	4002
923.007	3983
923.116	4109
923.224	4071
923.333	4040
923.442	3998
923.55	3956
923.659	4040
923.767	4093
923.876	3994
923.984	4147
924.092	3949
924.201	4078
924.309	4063
924.417	4078
924.525	4078
924.633	4086
924.741	4889
924.849	3888
924.956	4101
925.064	3937
925.172	3892
925.279	3941
925.387	4055
925.494	4048
925.602	4177
925.709	4200
925.816	4044
925.924	4128
926.031	4207
926.138	4173
926.245	4181
926.352	4097
926.459	4249
926.566	4261
926.673	4143
926.779	4074
926.886	4090
926.993	3968
927.099	3968
927.206	3899
927.312	3949
927.419	4036
927.525	4010
927.631	4078
927.737	3903
927.843	3926
927.95	3835
928.056	3949
928.162	3987
928.267	4044
928.373	4687
928.479	4097
928.585	3869
928.69	4040
928.796	4029
928.901	3987
929.007	3831
929.112	3994
929.218	3953
929.323	3922
929.428	3953
929.533	4105
929.638	3918
929.743	3975
929.848	4055
929.953	4006
930.058	3918
930.163	3740
930.267	3819
930.372	3972
930.477	3812
930.581	4055
930.685	3941
930.79	3823
930.894	3854
930.998	3835
931.103	4029
931.207	3698
931.311	3679
931.415	3652
931.519	3526
931.623	3561
