Data from test_V78500241_449.txt Node
Date: Fri Mar 25 16:52:07 CST 2022
User: usil
Spectrometer: V785-0024
Trigger mode: 0
Integration Time (sec): 4.000000E-1
Scans to average: 1
Nonlinearity correction enabled: false
Boxcar width: 0
Storing dark spectrum: false
XAxis mode: Wavelengths
Number of Pixels in Spectrum: 1024
>>>>>Begin Spectral Data<<<<<
801.071	8081
801.214	7963
801.356	7955
801.499	7860
801.641	7833
801.783	7890
801.926	7982
802.068	7989
802.211	7993
802.353	7940
802.496	7898
802.638	7940
802.78	7944
802.923	7898
803.065	7894
803.208	7864
803.35	7925
803.492	8039
803.635	8111
803.777	8008
803.919	8202
804.061	8446
804.204	8123
804.346	7989
804.488	7936
804.63	8069
804.773	7967
804.915	8092
805.057	8374
805.199	8138
805.341	8218
805.483	8355
805.626	8229
805.768	8054
805.91	8062
806.052	8138
806.194	8168
806.336	8370
806.478	8119
806.62	8100
806.762	8183
806.904	8233
807.046	8412
807.188	8240
807.33	8248
807.472	8229
807.614	8161
807.756	8145
807.898	8001
808.04	7906
808.182	7932
808.324	7993
808.465	7951
808.607	8103
808.749	8092
808.891	8157
809.033	8328
809.174	8153
809.316	8050
809.458	8058
809.6	8043
809.741	8123
809.883	8008
810.025	8096
810.166	8111
810.308	8100
810.45	8043
810.591	7818
810.733	7784
810.875	7643
811.016	7544
811.158	7540
811.299	7677
811.441	7803
811.582	7742
811.724	7658
811.865	7655
812.007	7609
812.148	7605
812.29	7609
812.431	7746
812.573	7936
812.714	8058
812.855	8187
812.997	8237
813.138	8381
813.279	8218
813.421	8172
813.562	8043
813.703	7959
813.845	7811
813.986	7510
814.127	7373
814.268	7339
814.41	7198
814.551	7217
814.692	7183
814.833	7084
814.974	7095
815.115	7118
815.256	6951
815.397	6890
815.539	7000
815.68	6833
815.821	6764
815.962	6871
816.103	6859
816.244	6776
816.385	6608
816.526	6612
816.666	6547
816.807	6323
816.948	6445
817.089	6490
817.23	6445
817.371	6331
817.512	6384
817.653	6437
817.793	6338
817.934	6426
818.075	6460
818.216	6403
818.356	6380
818.497	6273
818.638	6117
818.778	6178
818.919	6148
819.06	6117
819.2	6296
819.341	6384
819.481	6384
819.622	6502
819.762	6787
819.903	6635
820.043	6612
820.184	6597
820.324	6601
820.465	6707
820.605	6616
820.746	6627
820.886	6521
821.026	6707
821.167	6658
821.307	6802
821.447	6722
821.588	6631
821.728	6551
821.868	6486
822.008	6353
822.149	6311
822.289	6311
822.429	6182
822.569	6076
822.709	6095
822.849	5939
822.99	5870
823.13	5931
823.27	5889
823.41	5756
823.55	5844
823.69	5802
823.83	5752
823.97	5699
824.11	5558
824.25	5528
824.389	5539
824.529	5627
824.669	5592
824.809	5642
824.949	5596
825.089	5642
825.228	5585
825.368	5410
825.508	5311
825.648	5326
825.787	5417
825.927	5345
826.067	5307
826.206	5357
826.346	5383
826.485	5425
826.625	5383
826.765	5543
826.904	5455
827.044	5239
827.183	5201
827.323	5155
827.462	5208
827.601	5178
827.741	5231
827.88	5216
828.02	5109
828.159	5220
828.298	5337
828.437	5311
828.577	5315
828.716	5455
828.855	5315
828.994	5201
829.134	5185
829.273	5258
829.412	5193
829.551	5128
829.69	5197
829.829	5261
829.968	5406
830.107	5223
830.246	5246
830.385	5201
830.524	5204
830.663	5045
830.802	5025
830.941	4923
831.08	4911
831.219	5014
831.357	5010
831.496	5117
831.635	4957
831.774	4786
831.913	4828
832.051	4774
832.19	4748
832.329	4812
832.467	4687
832.606	4698
832.744	4740
832.883	4759
833.022	4694
833.16	4809
833.299	4866
833.437	4835
833.576	4858
833.714	4843
833.852	4889
833.991	4908
834.129	4972
834.267	4934
834.406	4904
834.544	4968
834.682	4987
834.821	4965
834.959	5155
835.097	5003
835.235	5170
835.373	5098
835.511	5140
835.65	5033
835.788	4999
835.926	4870
836.064	4889
836.202	4904
836.34	5170
836.478	5181
836.615	5159
836.753	5208
836.891	5288
837.029	5265
837.167	5185
837.305	5132
837.443	5151
837.58	5128
837.718	5303
837.856	5155
837.993	5128
838.131	5246
838.269	5201
838.406	5239
838.544	5235
838.681	5052
838.819	5045
838.956	4927
839.094	4949
839.231	5014
839.369	5105
839.506	5402
839.643	5273
839.781	5109
839.918	4980
840.055	5083
840.193	5079
840.33	5121
840.467	5170
840.604	5155
840.742	5414
840.879	5132
841.016	5098
841.153	5143
841.29	5345
841.427	5326
841.564	5315
841.701	5372
841.838	5296
841.975	5254
842.112	5231
842.249	5105
842.385	5124
842.522	5353
842.659	5227
842.796	5151
842.933	5216
843.069	5147
843.206	5147
843.343	5269
843.479	5280
843.616	5292
843.752	5105
843.889	5037
844.025	5212
844.162	5048
844.298	5227
844.435	5113
844.571	5102
844.708	5197
844.844	5303
844.98	5307
845.117	5288
845.253	5105
845.389	5136
845.525	5117
845.661	5178
845.798	5060
845.934	5098
846.07	5067
846.206	5254
846.342	5280
846.478	5223
846.614	5006
846.75	5006
846.886	4923
847.022	5136
847.158	5045
847.294	5079
847.429	5105
847.565	5067
847.701	5357
847.837	4854
847.972	4839
848.108	4976
848.244	4946
848.379	4797
848.515	4729
848.65	4675
848.786	4733
848.921	4763
849.057	4847
849.192	4839
849.328	4797
849.463	4858
849.598	4782
849.734	4778
849.869	4679
850.004	4668
850.14	4679
850.275	4618
850.41	4569
850.545	4550
850.68	4637
850.815	4687
850.95	4645
851.085	4881
851.22	4717
851.355	4706
851.49	4596
851.625	4634
851.76	4668
851.895	4618
852.03	4569
852.165	4634
852.299	4736
852.434	4782
852.569	4694
852.703	4793
852.838	4870
852.973	4991
853.107	4930
853.242	4778
853.376	4668
853.511	4611
853.645	4584
853.78	4786
853.914	4675
854.048	4679
854.183	4675
854.317	4714
854.451	4877
854.585	4710
854.72	4637
854.854	4759
854.988	4588
855.122	4630
855.256	4527
855.39	4691
855.524	4797
855.658	4736
855.792	4729
855.926	4694
856.06	4721
856.194	4828
856.327	4729
856.461	4634
856.595	4675
856.729	4634
856.862	4714
856.996	4664
857.13	4717
857.263	4805
857.397	4721
857.53	4649
857.664	4698
857.797	4759
857.931	4736
858.064	4717
858.197	4767
858.331	4645
858.464	4649
858.597	4504
858.731	4599
858.864	4603
858.997	4622
859.13	4668
859.263	4649
859.396	4656
859.529	4573
859.662	4569
859.795	4519
859.928	4592
860.061	4755
860.194	4778
860.327	4599
860.46	4626
860.592	4755
860.725	4736
860.858	4687
860.99	4546
861.123	4531
861.256	4516
861.388	4634
861.521	5440
861.653	4535
861.786	4485
861.918	4428
862.05	4485
862.183	4599
862.315	4641
862.447	4675
862.58	4527
862.712	4371
862.844	4318
862.976	4459
863.108	4451
863.24	4755
863.372	4341
863.504	4428
863.636	4413
863.768	4481
863.9	4466
864.032	4417
864.164	4436
864.296	4459
864.428	4596
864.559	4577
864.691	4481
864.823	4489
864.954	4504
865.086	4512
865.217	4432
865.349	4386
865.48	4485
865.612	4538
865.743	4607
865.875	4447
866.006	4440
866.137	4493
866.269	4462
866.4	4432
866.531	4455
866.662	4421
866.793	4424
866.924	4470
867.055	4504
867.186	4508
867.317	4421
867.448	4402
867.579	4413
867.71	4398
867.841	4371
867.972	4428
868.103	4512
868.233	4459
868.364	4470
868.495	4474
868.625	4649
868.756	4752
868.886	4565
869.017	4656
869.147	4778
869.278	4752
869.408	4637
869.539	4641
869.669	4733
869.799	4653
869.929	4721
870.06	4736
870.19	4984
870.32	4870
870.45	4957
870.58	4995
870.71	5083
870.84	5128
870.97	4953
871.1	4839
871.23	5136
871.36	5155
871.489	4976
871.619	5094
871.749	5090
871.879	5128
872.008	5109
872.138	5029
872.267	4984
872.397	4908
872.526	4839
872.656	4706
872.785	4740
872.915	4980
873.044	5018
873.173	4885
873.303	4942
873.432	4999
873.561	4930
873.69	4873
873.819	4843
873.948	4873
874.077	4835
874.206	4767
874.335	4831
874.464	4968
874.593	5029
874.722	4938
874.851	5083
874.979	5064
875.108	5056
875.237	4873
875.365	4847
875.494	4854
875.623	4968
875.751	4824
875.88	4900
876.008	5006
876.136	5056
876.265	5204
876.393	5395
876.521	5250
876.65	5284
876.778	5185
876.906	5067
877.034	5014
877.162	5029
877.29	5014
877.418	4995
877.546	5048
877.674	5064
877.802	5064
877.93	5014
878.058	4953
878.185	4885
878.313	4991
878.441	4938
878.568	4786
878.696	4877
878.824	4984
878.951	5010
879.079	5147
879.206	5337
879.333	5124
879.461	4987
879.588	4968
879.715	5132
879.842	5254
879.97	5033
880.097	4812
880.224	4767
880.351	4843
880.478	4824
880.605	4767
880.732	4801
880.859	5102
880.986	4927
881.112	4885
881.239	4809
881.366	4641
881.493	4611
881.619	4588
881.746	4634
881.872	4668
881.999	4675
882.125	4675
882.252	4831
882.378	4828
882.505	4930
882.631	4862
882.757	4691
882.883	4653
883.01	4755
883.136	4683
883.262	4603
883.388	4634
883.514	4805
883.64	4843
883.766	4805
883.892	4694
884.018	4698
884.143	4919
884.269	5029
884.395	4694
884.52	4603
884.646	4664
884.772	4607
884.897	4531
885.023	4630
885.148	4831
885.274	4870
885.399	4835
885.524	4736
885.65	4641
885.775	4778
885.9	4706
886.025	4870
886.15	4782
886.275	4706
886.4	4645
886.525	4809
886.65	4683
886.775	4664
886.9	4904
887.025	5029
887.149	4839
887.274	4675
887.399	4588
887.523	4618
887.648	4573
887.773	4584
887.897	4736
888.021	4702
888.146	4679
888.27	4805
888.395	4889
888.519	4847
888.643	4820
888.767	4847
888.891	4668
889.015	4596
889.139	4675
889.263	4558
889.387	4767
889.511	4809
889.635	4801
889.759	4603
889.883	4675
890.006	4714
890.13	4839
890.254	4603
890.377	4672
890.501	4550
890.624	4558
890.748	4641
890.871	4516
890.995	4421
891.118	4417
891.241	4535
891.364	4565
891.488	4626
891.611	4443
891.734	4531
891.857	4611
891.98	4550
892.103	4653
892.226	4596
892.349	4596
892.471	4386
892.594	4550
892.717	4531
892.839	4599
892.962	4561
893.085	4691
893.207	4618
893.33	4451
893.452	4554
893.575	4679
893.697	4618
893.819	4774
893.941	4847
894.064	4793
894.186	4561
894.308	4607
894.43	4736
894.552	4847
894.674	4748
894.796	4577
894.918	4622
895.04	4599
895.161	4694
895.283	4668
895.405	4546
895.526	4656
895.648	4771
895.769	4733
895.891	4675
896.012	4687
896.134	4698
896.255	4736
896.376	4668
896.498	4573
896.619	4683
896.74	4618
896.861	4683
896.982	4927
897.103	5048
897.224	4843
897.345	4774
897.466	4748
897.587	4767
897.708	4889
897.828	4782
897.949	4649
898.07	4592
898.19	4622
898.311	4835
898.431	4615
898.552	4748
898.672	4763
898.792	4816
898.913	4717
899.033	4660
899.153	4478
899.273	4432
899.393	4523
899.513	4577
899.633	4531
899.753	4546
899.873	4489
899.993	4596
900.113	4542
900.232	4592
900.352	4554
900.472	4470
900.591	4455
900.711	4519
900.83	4405
900.95	4611
901.069	4687
901.189	4542
901.308	4417
901.427	4322
901.546	4398
901.665	4466
901.784	4504
901.904	4398
902.023	4310
902.141	4192
902.26	4166
902.379	4306
902.498	4246
902.617	4223
902.735	4386
902.854	4363
902.973	4402
903.091	4200
903.21	4230
903.328	4325
903.446	4284
903.565	4284
903.683	4409
903.801	4344
903.919	4409
904.038	4466
904.156	4325
904.274	4424
904.392	4390
904.51	4375
904.627	4493
904.745	4588
904.863	4607
904.981	4413
905.098	4291
905.216	4367
905.334	4424
905.451	4424
905.569	4455
905.686	4577
905.803	4630
905.921	4394
906.038	4569
906.155	4409
906.272	4386
906.389	4527
906.506	4421
906.623	4367
906.74	4390
906.857	4329
906.974	4417
907.091	4558
907.208	4694
907.324	4577
907.441	4504
907.557	4375
907.674	4291
907.79	4299
907.907	4375
908.023	4485
908.139	4462
908.256	4443
908.372	4447
908.488	4440
908.604	4379
908.72	4310
908.836	4402
908.952	4398
909.068	4413
909.184	4584
909.3	4474
909.415	4569
909.531	4588
909.647	4356
909.762	4360
909.878	4310
909.993	4455
910.108	4432
910.224	4405
910.339	4508
910.454	4421
910.57	4367
910.685	4360
910.8	4660
910.915	4565
911.03	4398
911.145	4325
911.259	4329
911.374	4398
911.489	4280
911.604	4303
911.718	4185
911.833	4188
911.947	4158
912.062	4032
912.176	4242
912.291	4257
912.405	4246
912.519	4462
912.633	4504
912.748	4363
912.862	4318
912.976	4192
913.09	4086
913.204	4166
913.318	4280
913.431	4352
913.545	4352
913.659	4421
913.772	4356
913.886	4265
914	4230
914.113	4383
914.226	4447
914.34	4413
914.453	4253
914.566	4394
914.68	4310
914.793	4348
914.906	4177
915.019	4173
915.132	4120
915.245	4196
915.358	4223
915.47	4211
915.583	4276
915.696	4318
915.809	4432
915.921	4394
916.034	4276
916.146	4265
916.259	4188
916.371	4352
916.483	4314
916.595	4230
916.708	4333
916.82	4352
916.932	4352
917.044	4344
917.156	4295
917.268	4227
917.38	4299
917.491	4268
917.603	4310
917.715	4405
917.826	4462
917.938	4363
918.049	4246
918.161	4371
918.272	4535
918.384	4558
918.495	4470
918.606	4306
918.717	4257
918.828	4360
918.939	4352
919.05	4287
919.161	4348
919.272	4158
919.383	4276
919.494	4402
919.604	4584
919.715	4451
919.826	4356
919.936	4398
920.047	4554
920.157	4493
920.267	4706
920.378	4527
920.488	4516
920.598	4729
920.708	4889
920.818	4782
920.928	4748
921.038	4946
921.148	4919
921.258	4637
921.368	4569
921.477	4500
921.587	4455
921.697	4383
921.806	4615
921.916	4462
922.025	4284
922.134	4272
922.244	4242
922.353	4390
922.462	4150
922.571	4147
922.68	4021
922.789	3953
922.898	4044
923.007	4002
923.116	4093
923.224	4051
923.333	4082
923.442	4010
923.55	4002
923.659	4055
923.767	4109
923.876	4006
923.984	4105
924.092	4013
924.201	4109
924.309	4120
924.417	4150
924.525	4116
924.633	4090
924.741	5056
924.849	3949
924.956	4120
925.064	3945
925.172	3899
925.279	3987
925.387	4078
925.494	4067
925.602	4246
925.709	4181
925.816	4051
925.924	4166
926.031	4257
926.138	4200
926.245	4162
926.352	4116
926.459	4306
926.566	4314
926.673	4147
926.779	4074
926.886	4097
926.993	3953
927.099	3975
927.206	3884
927.312	3915
927.419	4055
927.525	4051
927.631	4116
927.737	4010
927.843	3975
927.95	3819
928.056	3941
928.162	3941
928.267	4082
928.373	4645
928.479	4105
928.585	3846
928.69	4044
928.796	4101
928.901	3975
929.007	3831
929.112	4032
929.218	3960
929.323	3922
929.428	3949
929.533	4101
929.638	3922
929.743	3987
929.848	4063
929.953	4040
930.058	3934
930.163	3797
930.267	3850
930.372	3968
930.477	3819
930.581	4086
930.685	3907
930.79	3823
930.894	3937
930.998	3854
931.103	4071
931.207	3732
931.311	3694
931.415	3682
931.519	3526
931.623	3534
