Data from test_V78500241_1086.txt Node
Date: Fri Mar 25 16:56:33 CST 2022
User: usil
Spectrometer: V785-0024
Trigger mode: 0
Integration Time (sec): 4.000000E-1
Scans to average: 1
Nonlinearity correction enabled: false
Boxcar width: 0
Storing dark spectrum: false
XAxis mode: Wavelengths
Number of Pixels in Spectrum: 1024
>>>>>Begin Spectral Data<<<<<
801.071	8092
801.214	8077
801.356	7932
801.499	7917
801.641	7822
801.783	7822
801.926	7989
802.068	7936
802.211	7951
802.353	7951
802.496	7902
802.638	7909
802.78	7875
802.923	7928
803.065	7947
803.208	7849
803.35	8027
803.492	8134
803.635	8115
803.777	8039
803.919	8130
804.061	8537
804.204	8123
804.346	8050
804.488	7967
804.63	8073
804.773	8012
804.915	8115
805.057	8244
805.199	8168
805.341	8263
805.483	8305
805.626	8202
805.768	8123
805.91	8183
806.052	8180
806.194	8142
806.336	8332
806.478	8111
806.62	8115
806.762	8126
806.904	8275
807.046	8419
807.188	8351
807.33	8279
807.472	8332
807.614	8161
807.756	8107
807.898	8031
808.04	7917
808.182	7928
808.324	7849
808.465	7986
808.607	8054
808.749	8107
808.891	8221
809.033	8240
809.174	8142
809.316	8069
809.458	8103
809.6	7963
809.741	8001
809.883	8005
810.025	8081
810.166	8077
810.308	8012
810.45	8008
810.591	7864
810.733	7761
810.875	7655
811.016	7548
811.158	7506
811.299	7582
811.441	7780
811.582	7700
811.724	7559
811.865	7510
812.007	7651
812.148	7525
812.29	7643
812.431	7769
812.573	7917
812.714	7925
812.855	8172
812.997	8221
813.138	8298
813.279	8256
813.421	8138
813.562	7986
813.703	7921
813.845	7814
813.986	7499
814.127	7308
814.268	7301
814.41	7240
814.551	7175
814.692	7152
814.833	7141
814.974	7179
815.115	7183
815.256	6973
815.397	6909
815.539	6985
815.68	6875
815.821	6772
815.962	6905
816.103	6852
816.244	6776
816.385	6623
816.526	6623
816.666	6460
816.807	6342
816.948	6403
817.089	6471
817.23	6429
817.371	6342
817.512	6418
817.653	6372
817.793	6414
817.934	6407
818.075	6509
818.216	6437
818.356	6384
818.497	6201
818.638	6152
818.778	6205
818.919	6182
819.06	6171
819.2	6331
819.341	6319
819.481	6338
819.622	6544
819.762	6722
819.903	6741
820.043	6646
820.184	6559
820.324	6627
820.465	6711
820.605	6616
820.746	6673
820.886	6467
821.026	6642
821.167	6760
821.307	6783
821.447	6696
821.588	6681
821.728	6589
821.868	6506
822.008	6353
822.149	6350
822.289	6342
822.429	6178
822.569	6098
822.709	6167
822.849	5916
822.99	5923
823.13	5878
823.27	5920
823.41	5767
823.55	5802
823.69	5809
823.83	5794
823.97	5695
824.11	5539
824.25	5520
824.389	5528
824.529	5604
824.669	5532
824.809	5684
824.949	5684
825.089	5668
825.228	5589
825.368	5440
825.508	5376
825.648	5398
825.787	5391
825.927	5421
826.067	5345
826.206	5288
826.346	5410
826.485	5406
826.625	5433
826.765	5528
826.904	5478
827.044	5269
827.183	5162
827.323	5128
827.462	5242
827.601	5121
827.741	5159
827.88	5223
828.02	5075
828.159	5204
828.298	5288
828.437	5379
828.577	5307
828.716	5402
828.855	5337
828.994	5204
829.134	5155
829.273	5147
829.412	5109
829.551	5162
829.69	5147
829.829	5277
829.968	5383
830.107	5258
830.246	5284
830.385	5121
830.524	5124
830.663	5041
830.802	5022
830.941	4870
831.08	4885
831.219	4961
831.357	4991
831.496	5151
831.635	4976
831.774	4839
831.913	4850
832.051	4714
832.19	4767
832.329	4831
832.467	4691
832.606	4668
832.744	4706
832.883	4641
833.022	4679
833.16	4771
833.299	4847
833.437	4843
833.576	4889
833.714	4877
833.852	4877
833.991	4885
834.129	4976
834.267	5010
834.406	4892
834.544	4976
834.682	4976
834.821	4984
834.959	5094
835.097	4991
835.235	5185
835.373	5109
835.511	5132
835.65	5056
835.788	5033
835.926	4866
836.064	4923
836.202	4942
836.34	5140
836.478	5181
836.615	5136
836.753	5201
836.891	5345
837.029	5242
837.167	5223
837.305	5155
837.443	5094
837.58	5090
837.718	5284
837.856	5197
837.993	5166
838.131	5254
838.269	5212
838.406	5208
838.544	5140
838.681	5083
838.819	4976
838.956	4896
839.094	4927
839.231	5006
839.369	5045
839.506	5391
839.643	5288
839.781	5067
839.918	5010
840.055	5128
840.193	5109
840.33	5128
840.467	5159
840.604	5140
840.742	5448
840.879	5056
841.016	5109
841.153	5166
841.29	5353
841.427	5326
841.564	5334
841.701	5284
841.838	5277
841.975	5227
842.112	5280
842.249	5143
842.385	5147
842.522	5322
842.659	5128
842.796	5136
842.933	5151
843.069	5178
843.206	5128
843.343	5299
843.479	5220
843.616	5265
843.752	4999
843.889	4999
844.025	5159
844.162	5022
844.298	5181
844.435	5041
844.571	5109
844.708	5242
844.844	5315
844.98	5318
845.117	5315
845.253	5132
845.389	5048
845.525	5159
845.661	5117
845.798	4987
845.934	5185
846.07	4995
846.206	5201
846.342	5284
846.478	5212
846.614	5010
846.75	4953
846.886	4927
847.022	5124
847.158	5010
847.294	5052
847.429	5067
847.565	5041
847.701	5326
847.837	4847
847.972	4774
848.108	4908
848.244	4957
848.379	4816
848.515	4725
848.65	4710
848.786	4771
848.921	4782
849.057	4862
849.192	4919
849.328	4748
849.463	4824
849.598	4759
849.734	4748
849.869	4717
850.004	4626
850.14	4668
850.275	4615
850.41	4554
850.545	4550
850.68	4577
850.815	4649
850.95	4599
851.085	4858
851.22	4767
851.355	4672
851.49	4649
851.625	4649
851.76	4649
851.895	4527
852.03	4538
852.165	4615
852.299	4725
852.434	4793
852.569	4744
852.703	4748
852.838	4854
852.973	4915
853.107	4965
853.242	4759
853.376	4675
853.511	4577
853.645	4603
853.78	4744
853.914	4660
854.048	4641
854.183	4630
854.317	4717
854.451	4839
854.585	4664
854.72	4668
854.854	4748
854.988	4607
855.122	4656
855.256	4519
855.39	4645
855.524	4793
855.658	4714
855.792	4660
855.926	4710
856.06	4702
856.194	4801
856.327	4672
856.461	4634
856.595	4660
856.729	4637
856.862	4748
856.996	4618
857.13	4698
857.263	4744
857.397	4801
857.53	4615
857.664	4736
857.797	4752
857.931	4748
858.064	4645
858.197	4702
858.331	4675
858.464	4569
858.597	4516
858.731	4618
858.864	4656
858.997	4603
859.13	4626
859.263	4717
859.396	4691
859.529	4538
859.662	4546
859.795	4546
859.928	4611
860.061	4744
860.194	4717
860.327	4596
860.46	4561
860.592	4702
860.725	4740
860.858	4744
860.99	4573
861.123	4470
861.256	4519
861.388	4577
861.521	5322
861.653	4451
861.786	4436
861.918	4474
862.05	4478
862.183	4569
862.315	4611
862.447	4634
862.58	4535
862.712	4459
862.844	4303
862.976	4508
863.108	4455
863.24	4862
863.372	4379
863.504	4413
863.636	4402
863.768	4459
863.9	4462
864.032	4360
864.164	4375
864.296	4413
864.428	4485
864.559	4523
864.691	4546
864.823	4500
864.954	4519
865.086	4470
865.217	4443
865.349	4383
865.48	4402
865.612	4466
865.743	4630
865.875	4443
866.006	4405
866.137	4413
866.269	4436
866.4	4421
866.531	4436
866.662	4325
866.793	4432
866.924	4398
867.055	4432
867.186	4424
867.317	4386
867.448	4356
867.579	4421
867.71	4352
867.841	4333
867.972	4455
868.103	4466
868.233	4455
868.364	4428
868.495	4440
868.625	4649
868.756	4755
868.886	4523
869.017	4584
869.147	4733
869.278	4793
869.408	4656
869.539	4649
869.669	4653
869.799	4675
869.929	4755
870.06	4733
870.19	4934
870.32	4942
870.45	4915
870.58	4987
870.71	5090
870.84	5140
870.97	4946
871.1	4911
871.23	5121
871.36	5105
871.489	5041
871.619	5105
871.749	5052
871.879	5105
872.008	5216
872.138	5113
872.267	4965
872.397	4831
872.526	4816
872.656	4679
872.785	4816
872.915	4900
873.044	5029
873.173	4946
873.303	4995
873.432	4957
873.561	4911
873.69	4866
873.819	4896
873.948	4919
874.077	4820
874.206	4752
874.335	4778
874.464	4934
874.593	5029
874.722	4946
874.851	5098
874.979	5075
875.108	4999
875.237	4812
875.365	4881
875.494	4896
875.623	4953
875.751	4820
875.88	4892
876.008	4942
876.136	5014
876.265	5155
876.393	5277
876.521	5178
876.65	5204
876.778	5151
876.906	5067
877.034	4995
877.162	5041
877.29	4984
877.418	5048
877.546	5083
877.674	5003
877.802	5033
877.93	5018
878.058	4946
878.185	4850
878.313	4919
878.441	4949
878.568	4828
878.696	4847
878.824	4915
878.951	4984
879.079	5098
879.206	5280
879.333	5079
879.461	4934
879.588	4976
879.715	5094
879.842	5201
879.97	4961
880.097	4778
880.224	4752
880.351	4824
880.478	4847
880.605	4805
880.732	4752
880.859	5075
880.986	4866
881.112	4877
881.239	4805
881.366	4687
881.493	4592
881.619	4569
881.746	4653
881.872	4634
881.999	4675
882.125	4698
882.252	4774
882.378	4801
882.505	4961
882.631	4835
882.757	4668
882.883	4733
883.01	4717
883.136	4660
883.262	4584
883.388	4577
883.514	4767
883.64	4889
883.766	4771
883.892	4649
884.018	4668
884.143	4896
884.269	5010
884.395	4679
884.52	4596
884.646	4630
884.772	4599
884.897	4573
885.023	4634
885.148	4759
885.274	4847
885.399	4835
885.524	4755
885.65	4698
885.775	4679
885.9	4710
886.025	4839
886.15	4786
886.275	4736
886.4	4691
886.525	4771
886.65	4656
886.775	4714
886.9	4892
887.025	5025
887.149	4782
887.274	4637
887.399	4569
887.523	4618
887.648	4546
887.773	4607
887.897	4790
888.021	4767
888.146	4675
888.27	4816
888.395	4904
888.519	4759
888.643	4774
888.767	4786
888.891	4683
889.015	4599
889.139	4664
889.263	4577
889.387	4729
889.511	4889
889.635	4797
889.759	4683
889.883	4618
890.006	4710
890.13	4850
890.254	4615
890.377	4702
890.501	4561
890.624	4474
890.748	4634
890.871	4481
890.995	4432
891.118	4375
891.241	4504
891.364	4516
891.488	4649
891.611	4451
891.734	4516
891.857	4565
891.98	4516
892.103	4630
892.226	4569
892.349	4462
892.471	4402
892.594	4573
892.717	4542
892.839	4554
892.962	4592
893.085	4660
893.207	4561
893.33	4443
893.452	4626
893.575	4656
893.697	4592
893.819	4733
893.941	4812
894.064	4805
894.186	4531
894.308	4577
894.43	4748
894.552	4805
894.674	4755
894.796	4542
894.918	4580
895.04	4538
895.161	4698
895.283	4679
895.405	4569
895.526	4672
895.648	4626
895.769	4653
895.891	4706
896.012	4721
896.134	4706
896.255	4664
896.376	4603
896.498	4607
896.619	4611
896.74	4630
896.861	4660
896.982	4892
897.103	5083
897.224	4797
897.345	4725
897.466	4664
897.587	4721
897.708	4873
897.828	4767
897.949	4664
898.07	4561
898.19	4615
898.311	4790
898.431	4698
898.552	4675
898.672	4835
898.792	4778
898.913	4740
899.033	4584
899.153	4455
899.273	4436
899.393	4466
899.513	4485
899.633	4489
899.753	4527
899.873	4474
899.993	4599
900.113	4523
900.232	4554
900.352	4523
900.472	4451
900.591	4409
900.711	4459
900.83	4402
900.95	4607
901.069	4691
901.189	4527
901.308	4421
901.427	4341
901.546	4405
901.665	4462
901.784	4519
901.904	4409
902.023	4291
902.141	4173
902.26	4154
902.379	4280
902.498	4227
902.617	4234
902.735	4333
902.854	4352
902.973	4341
903.091	4223
903.21	4211
903.328	4265
903.446	4291
903.565	4265
903.683	4375
903.801	4291
903.919	4405
904.038	4443
904.156	4310
904.274	4447
904.392	4383
904.51	4428
904.627	4447
904.745	4615
904.863	4637
904.981	4383
905.098	4261
905.216	4295
905.334	4485
905.451	4371
905.569	4402
905.686	4519
905.803	4588
905.921	4413
906.038	4542
906.155	4478
906.272	4413
906.389	4432
906.506	4284
906.623	4383
906.74	4394
906.857	4295
906.974	4379
907.091	4554
907.208	4656
907.324	4546
907.441	4451
907.557	4284
907.674	4303
907.79	4299
907.907	4375
908.023	4462
908.139	4470
908.256	4459
908.372	4462
908.488	4428
908.604	4363
908.72	4314
908.836	4363
908.952	4348
909.068	4421
909.184	4554
909.3	4443
909.415	4596
909.531	4542
909.647	4341
909.762	4383
909.878	4344
909.993	4379
910.108	4428
910.224	4413
910.339	4466
910.454	4398
910.57	4333
910.685	4287
910.8	4618
910.915	4599
911.03	4466
911.145	4287
911.259	4280
911.374	4390
911.489	4310
911.604	4249
911.718	4166
911.833	4185
911.947	4105
912.062	4029
912.176	4230
912.291	4204
912.405	4200
912.519	4451
912.633	4500
912.748	4284
912.862	4310
912.976	4211
913.09	4090
913.204	4154
913.318	4207
913.431	4394
913.545	4337
913.659	4413
913.772	4310
913.886	4227
914	4207
914.113	4402
914.226	4428
914.34	4363
914.453	4238
914.566	4432
914.68	4337
914.793	4306
914.906	4173
915.019	4116
915.132	4086
915.245	4139
915.358	4219
915.47	4223
915.583	4223
915.696	4333
915.809	4417
915.921	4383
916.034	4249
916.146	4280
916.259	4238
916.371	4383
916.483	4322
916.595	4219
916.708	4341
916.82	4303
916.932	4325
917.044	4333
917.156	4299
917.268	4188
917.38	4276
917.491	4276
917.603	4310
917.715	4440
917.826	4421
917.938	4306
918.049	4204
918.161	4383
918.272	4538
918.384	4546
918.495	4383
918.606	4257
918.717	4223
918.828	4318
918.939	4344
919.05	4204
919.161	4268
919.272	4116
919.383	4230
919.494	4428
919.604	4569
919.715	4459
919.826	4299
919.936	4386
920.047	4577
920.157	4504
920.267	4721
920.378	4531
920.488	4478
920.598	4717
920.708	4892
920.818	4721
920.928	4736
921.038	5003
921.148	4881
921.258	4660
921.368	4512
921.477	4459
921.587	4455
921.697	4344
921.806	4550
921.916	4421
922.025	4204
922.134	4295
922.244	4215
922.353	4325
922.462	4135
922.571	4078
922.68	4006
922.789	4002
922.898	4006
923.007	3968
923.116	4101
923.224	4082
923.333	4086
923.442	3979
923.55	3972
923.659	4002
923.767	4059
923.876	3991
923.984	4120
924.092	3960
924.201	4071
924.309	4086
924.417	4147
924.525	4029
924.633	4090
924.741	5045
924.849	3903
924.956	4135
925.064	3937
925.172	3876
925.279	3941
925.387	4032
925.494	4067
925.602	4234
925.709	4169
925.816	4017
925.924	4154
926.031	4207
926.138	4128
926.245	4196
926.352	4093
926.459	4257
926.566	4291
926.673	4105
926.779	4044
926.886	4086
926.993	3972
927.099	3930
927.206	3930
927.312	3945
927.419	4051
927.525	4021
927.631	4097
927.737	3975
927.843	3941
927.95	3816
928.056	3941
928.162	3953
928.267	4074
928.373	4653
928.479	4131
928.585	3861
928.69	4017
928.796	4063
928.901	3975
929.007	3816
929.112	3979
929.218	3983
929.323	3987
929.428	3941
929.533	4109
929.638	3907
929.743	3949
929.848	3956
929.953	4002
930.058	3915
930.163	3755
930.267	3835
930.372	3922
930.477	3774
930.581	4109
930.685	3934
930.79	3854
930.894	3930
930.998	3850
931.103	4071
931.207	3682
931.311	3701
931.415	3644
931.519	3534
931.623	3564
