Data from test_V78500241_1545.txt Node
Date: Fri Mar 25 16:59:44 CST 2022
User: usil
Spectrometer: V785-0024
Trigger mode: 0
Integration Time (sec): 4.000000E-1
Scans to average: 1
Nonlinearity correction enabled: false
Boxcar width: 0
Storing dark spectrum: false
XAxis mode: Wavelengths
Number of Pixels in Spectrum: 1024
>>>>>Begin Spectral Data<<<<<
801.071	8001
801.214	7955
801.356	7890
801.499	7868
801.641	7746
801.783	7860
801.926	7913
802.068	7898
802.211	7970
802.353	7997
802.496	7784
802.638	7887
802.78	7883
802.923	7921
803.065	7803
803.208	7826
803.35	7925
803.492	8088
803.635	8054
803.777	7997
803.919	8172
804.061	8412
804.204	8153
804.346	7986
804.488	7928
804.63	8008
804.773	7955
804.915	8062
805.057	8282
805.199	8100
805.341	8202
805.483	8199
805.626	8187
805.768	8043
805.91	8183
806.052	8248
806.194	8050
806.336	8244
806.478	8161
806.62	8134
806.762	8123
806.904	8225
807.046	8476
807.188	8366
807.33	8244
807.472	8294
807.614	8161
807.756	8199
807.898	7871
808.04	7875
808.182	7841
808.324	7845
808.465	8005
808.607	8062
808.749	8088
808.891	8168
809.033	8271
809.174	8210
809.316	8039
809.458	8031
809.6	7982
809.741	8016
809.883	8024
810.025	8043
810.166	8039
810.308	7932
810.45	7959
810.591	7803
810.733	7757
810.875	7693
811.016	7457
811.158	7460
811.299	7556
811.441	7742
811.582	7647
811.724	7529
811.865	7521
812.007	7548
812.148	7605
812.29	7567
812.431	7769
812.573	7837
812.714	7955
812.855	8058
812.997	8199
813.138	8275
813.279	8191
813.421	8039
813.562	7959
813.703	7776
813.845	7639
813.986	7411
814.127	7202
814.268	7160
814.41	7179
814.551	7171
814.692	7164
814.833	7080
814.974	7156
815.115	7118
815.256	6966
815.397	6939
815.539	6913
815.68	6757
815.821	6779
815.962	6783
816.103	6711
816.244	6696
816.385	6551
816.526	6570
816.666	6464
816.807	6334
816.948	6407
817.089	6437
817.23	6426
817.371	6342
817.512	6410
817.653	6350
817.793	6399
817.934	6414
818.075	6426
818.216	6433
818.356	6353
818.497	6243
818.638	6129
818.778	6144
818.919	6121
819.06	6148
819.2	6319
819.341	6304
819.481	6315
819.622	6555
819.762	6665
819.903	6681
820.043	6585
820.184	6559
820.324	6612
820.465	6692
820.605	6665
820.746	6604
820.886	6460
821.026	6662
821.167	6753
821.307	6692
821.447	6738
821.588	6677
821.728	6544
821.868	6532
822.008	6338
822.149	6410
822.289	6308
822.429	6087
822.569	6038
822.709	6053
822.849	5904
822.99	5851
823.13	5904
823.27	5927
823.41	5771
823.55	5779
823.69	5805
823.83	5752
823.97	5665
824.11	5520
824.25	5562
824.389	5566
824.529	5558
824.669	5539
824.809	5638
824.949	5634
825.089	5634
825.228	5543
825.368	5383
825.508	5357
825.648	5353
825.787	5391
825.927	5406
826.067	5296
826.206	5277
826.346	5436
826.485	5512
826.625	5440
826.765	5520
826.904	5512
827.044	5284
827.183	5246
827.323	5128
827.462	5250
827.601	5185
827.741	5223
827.88	5288
828.02	5162
828.159	5239
828.298	5349
828.437	5387
828.577	5345
828.716	5490
828.855	5368
828.994	5178
829.134	5174
829.273	5170
829.412	5178
829.551	5178
829.69	5204
829.829	5277
829.968	5421
830.107	5265
830.246	5315
830.385	5197
830.524	5140
830.663	5098
830.802	4987
830.941	4911
831.08	4862
831.219	5006
831.357	4968
831.496	5162
831.635	4984
831.774	4889
831.913	4866
832.051	4774
832.19	4790
832.329	4919
832.467	4763
832.606	4702
832.744	4774
832.883	4797
833.022	4733
833.16	4843
833.299	4831
833.437	4889
833.576	4843
833.714	4873
833.852	4847
833.991	4923
834.129	5014
834.267	4942
834.406	4961
834.544	4946
834.682	4968
834.821	5010
834.959	5208
835.097	5029
835.235	5162
835.373	5102
835.511	5124
835.65	5052
835.788	5098
835.926	4885
836.064	4946
836.202	4980
836.34	5189
836.478	5277
836.615	5147
836.753	5246
836.891	5296
837.029	5326
837.167	5197
837.305	5223
837.443	5201
837.58	5109
837.718	5258
837.856	5235
837.993	5193
838.131	5265
838.269	5261
838.406	5197
838.544	5181
838.681	5045
838.819	5029
838.956	4908
839.094	4949
839.231	5056
839.369	5102
839.506	5452
839.643	5311
839.781	5094
839.918	5060
840.055	5121
840.193	5067
840.33	5147
840.467	5166
840.604	5212
840.742	5478
840.879	5140
841.016	5083
841.153	5140
841.29	5402
841.427	5318
841.564	5326
841.701	5410
841.838	5296
841.975	5223
842.112	5315
842.249	5178
842.385	5105
842.522	5379
842.659	5174
842.796	5136
842.933	5246
843.069	5197
843.206	5185
843.343	5277
843.479	5334
843.616	5258
843.752	5003
843.889	5037
844.025	5223
844.162	5048
844.298	5258
844.435	5102
844.571	5086
844.708	5155
844.844	5372
844.98	5376
845.117	5345
845.253	5151
845.389	5102
845.525	5197
845.661	5162
845.798	5014
845.934	5132
846.07	5056
846.206	5231
846.342	5299
846.478	5212
846.614	5052
846.75	4987
846.886	4968
847.022	5189
847.158	5018
847.294	5083
847.429	5102
847.565	5056
847.701	5315
847.837	4858
847.972	4790
848.108	4961
848.244	4938
848.379	4782
848.515	4774
848.65	4755
848.786	4778
848.921	4835
849.057	4881
849.192	4904
849.328	4866
849.463	4892
849.598	4809
849.734	4736
849.869	4725
850.004	4698
850.14	4653
850.275	4618
850.41	4535
850.545	4554
850.68	4588
850.815	4618
850.95	4637
851.085	4889
851.22	4774
851.355	4683
851.49	4668
851.625	4656
851.76	4691
851.895	4580
852.03	4565
852.165	4702
852.299	4736
852.434	4816
852.569	4790
852.703	4767
852.838	4896
852.973	4987
853.107	4923
853.242	4759
853.376	4672
853.511	4565
853.645	4672
853.78	4839
853.914	4725
854.048	4736
854.183	4634
854.317	4744
854.451	4870
854.585	4714
854.72	4668
854.854	4778
854.988	4599
855.122	4694
855.256	4535
855.39	4679
855.524	4771
855.658	4725
855.792	4725
855.926	4771
856.06	4759
856.194	4816
856.327	4736
856.461	4694
856.595	4626
856.729	4653
856.862	4755
856.996	4702
857.13	4744
857.263	4767
857.397	4828
857.53	4660
857.664	4736
857.797	4725
857.931	4805
858.064	4710
858.197	4793
858.331	4691
858.464	4645
858.597	4550
858.731	4641
858.864	4679
858.997	4573
859.13	4702
859.263	4664
859.396	4736
859.529	4599
859.662	4599
859.795	4535
859.928	4645
860.061	4824
860.194	4755
860.327	4653
860.46	4630
860.592	4740
860.725	4702
860.858	4774
860.99	4607
861.123	4538
861.256	4523
861.388	4672
861.521	5326
861.653	4535
861.786	4527
861.918	4489
862.05	4550
862.183	4603
862.315	4592
862.447	4733
862.58	4527
862.712	4405
862.844	4352
862.976	4523
863.108	4485
863.24	4866
863.372	4386
863.504	4497
863.636	4394
863.768	4478
863.9	4409
864.032	4367
864.164	4424
864.296	4485
864.428	4607
864.559	4577
864.691	4504
864.823	4558
864.954	4485
865.086	4550
865.217	4478
865.349	4462
865.48	4489
865.612	4481
865.743	4622
865.875	4493
866.006	4459
866.137	4459
866.269	4447
866.4	4459
866.531	4379
866.662	4436
866.793	4451
866.924	4478
867.055	4523
867.186	4470
867.317	4447
867.448	4379
867.579	4375
867.71	4413
867.841	4383
867.972	4500
868.103	4428
868.233	4489
868.364	4417
868.495	4493
868.625	4694
868.756	4767
868.886	4584
869.017	4599
869.147	4782
869.278	4812
869.408	4679
869.539	4607
869.669	4733
869.799	4675
869.929	4714
870.06	4763
870.19	4949
870.32	4923
870.45	4938
870.58	5029
870.71	5109
870.84	5143
870.97	4934
871.1	4889
871.23	5140
871.36	5121
871.489	5056
871.619	5052
871.749	5113
871.879	5143
872.008	5181
872.138	5025
872.267	5010
872.397	4854
872.526	4801
872.656	4736
872.785	4793
872.915	4984
873.044	5033
873.173	4927
873.303	4987
873.432	4968
873.561	4942
873.69	4919
873.819	4858
873.948	4919
874.077	4820
874.206	4740
874.335	4828
874.464	4965
874.593	5094
874.722	4965
874.851	5109
874.979	5037
875.108	5048
875.237	4953
875.365	4908
875.494	4858
875.623	4961
875.751	4858
875.88	4892
876.008	4999
876.136	5124
876.265	5220
876.393	5376
876.521	5292
876.65	5204
876.778	5151
876.906	5117
877.034	5060
877.162	5041
877.29	4976
877.418	5090
877.546	5102
877.674	5041
877.802	5048
877.93	5037
878.058	4934
878.185	4885
878.313	4946
878.441	5003
878.568	4858
878.696	4858
878.824	4934
878.951	5010
879.079	5170
879.206	5322
879.333	5090
879.461	4991
879.588	5010
879.715	5121
879.842	5239
879.97	5037
880.097	4820
880.224	4717
880.351	4809
880.478	4839
880.605	4778
880.732	4831
880.859	5090
880.986	4885
881.112	4873
881.239	4733
881.366	4664
881.493	4596
881.619	4618
881.746	4641
881.872	4691
881.999	4672
882.125	4698
882.252	4797
882.378	4835
882.505	4953
882.631	4820
882.757	4687
882.883	4714
883.01	4763
883.136	4706
883.262	4607
883.388	4588
883.514	4839
883.64	4896
883.766	4824
883.892	4664
884.018	4683
884.143	4911
884.269	5003
884.395	4679
884.52	4611
884.646	4691
884.772	4592
884.897	4634
885.023	4675
885.148	4778
885.274	4850
885.399	4854
885.524	4729
885.65	4664
885.775	4714
885.9	4744
886.025	4835
886.15	4752
886.275	4733
886.4	4649
886.525	4721
886.65	4679
886.775	4710
886.9	4908
887.025	5029
887.149	4835
887.274	4668
887.399	4580
887.523	4592
887.648	4577
887.773	4565
887.897	4763
888.021	4763
888.146	4683
888.27	4797
888.395	4904
888.519	4816
888.643	4831
888.767	4866
888.891	4710
889.015	4611
889.139	4660
889.263	4611
889.387	4733
889.511	4816
889.635	4812
889.759	4668
889.883	4615
890.006	4679
890.13	4873
890.254	4561
890.377	4717
890.501	4565
890.624	4527
890.748	4641
890.871	4519
890.995	4417
891.118	4363
891.241	4550
891.364	4565
891.488	4656
891.611	4470
891.734	4497
891.857	4599
891.98	4599
892.103	4668
892.226	4618
892.349	4516
892.471	4443
892.594	4603
892.717	4592
892.839	4584
892.962	4668
893.085	4706
893.207	4611
893.33	4527
893.452	4500
893.575	4694
893.697	4558
893.819	4801
893.941	4797
894.064	4790
894.186	4580
894.308	4573
894.43	4771
894.552	4858
894.674	4778
894.796	4565
894.918	4622
895.04	4577
895.161	4710
895.283	4656
895.405	4618
895.526	4626
895.648	4683
895.769	4675
895.891	4748
896.012	4759
896.134	4717
896.255	4660
896.376	4649
896.498	4630
896.619	4683
896.74	4554
896.861	4611
896.982	4927
897.103	5124
897.224	4801
897.345	4721
897.466	4672
897.587	4698
897.708	4870
897.828	4812
897.949	4694
898.07	4550
898.19	4694
898.311	4820
898.431	4691
898.552	4698
898.672	4816
898.792	4767
898.913	4687
899.033	4668
899.153	4466
899.273	4421
899.393	4493
899.513	4531
899.633	4455
899.753	4512
899.873	4478
899.993	4611
900.113	4508
900.232	4603
900.352	4535
900.472	4489
900.591	4394
900.711	4512
900.83	4493
900.95	4634
901.069	4653
901.189	4523
901.308	4341
901.427	4322
901.546	4405
901.665	4466
901.784	4523
901.904	4379
902.023	4333
902.141	4227
902.26	4219
902.379	4303
902.498	4310
902.617	4215
902.735	4383
902.854	4432
902.973	4356
903.091	4200
903.21	4242
903.328	4295
903.446	4265
903.565	4299
903.683	4352
903.801	4268
903.919	4432
904.038	4485
904.156	4352
904.274	4500
904.392	4409
904.51	4497
904.627	4474
904.745	4592
904.863	4679
904.981	4409
905.098	4322
905.216	4451
905.334	4455
905.451	4478
905.569	4459
905.686	4558
905.803	4607
905.921	4546
906.038	4599
906.155	4474
906.272	4413
906.389	4542
906.506	4413
906.623	4417
906.74	4413
906.857	4341
906.974	4390
907.091	4611
907.208	4679
907.324	4596
907.441	4550
907.557	4383
907.674	4390
907.79	4367
907.907	4417
908.023	4550
908.139	4489
908.256	4462
908.372	4512
908.488	4462
908.604	4402
908.72	4356
908.836	4436
908.952	4440
909.068	4440
909.184	4634
909.3	4554
909.415	4596
909.531	4630
909.647	4432
909.762	4424
909.878	4394
909.993	4478
910.108	4428
910.224	4478
910.339	4531
910.454	4447
910.57	4462
910.685	4371
910.8	4702
910.915	4649
911.03	4565
911.145	4333
911.259	4363
911.374	4405
911.489	4394
911.604	4360
911.718	4211
911.833	4230
911.947	4147
912.062	4051
912.176	4234
912.291	4272
912.405	4287
912.519	4519
912.633	4554
912.748	4383
912.862	4363
912.976	4215
913.09	4150
913.204	4230
913.318	4287
913.431	4436
913.545	4417
913.659	4470
913.772	4421
913.886	4318
914	4249
914.113	4394
914.226	4466
914.34	4409
914.453	4265
914.566	4508
914.68	4348
914.793	4367
914.906	4204
915.019	4166
915.132	4112
915.245	4234
915.358	4234
915.47	4257
915.583	4299
915.696	4341
915.809	4447
915.921	4451
916.034	4276
916.146	4261
916.259	4268
916.371	4402
916.483	4413
916.595	4268
916.708	4341
916.82	4379
916.932	4398
917.044	4356
917.156	4363
917.268	4272
917.38	4261
917.491	4314
917.603	4360
917.715	4481
917.826	4489
917.938	4360
918.049	4276
918.161	4466
918.272	4599
918.384	4561
918.495	4516
918.606	4310
918.717	4303
918.828	4413
918.939	4413
919.05	4303
919.161	4325
919.272	4185
919.383	4257
919.494	4443
919.604	4660
919.715	4462
919.826	4386
919.936	4478
920.047	4569
920.157	4565
920.267	4714
920.378	4588
920.488	4508
920.598	4752
920.708	4896
920.818	4843
920.928	4809
921.038	4972
921.148	4927
921.258	4637
921.368	4615
921.477	4546
921.587	4447
921.697	4421
921.806	4588
921.916	4516
922.025	4276
922.134	4329
922.244	4215
922.353	4337
922.462	4230
922.571	4211
922.68	4078
922.789	4029
922.898	4032
923.007	4051
923.116	4105
923.224	4109
923.333	4071
923.442	4044
923.55	4013
923.659	4032
923.767	4105
923.876	4055
923.984	4105
924.092	4029
924.201	4082
924.309	4147
924.417	4162
924.525	4097
924.633	4143
924.741	4881
924.849	3949
924.956	4173
925.064	3979
925.172	3941
925.279	3987
925.387	4116
925.494	4082
925.602	4223
925.709	4238
925.816	4048
925.924	4147
926.031	4246
926.138	4200
926.245	4261
926.352	4105
926.459	4265
926.566	4299
926.673	4139
926.779	4090
926.886	4128
926.993	3987
927.099	3968
927.206	3930
927.312	3964
927.419	4071
927.525	4044
927.631	4109
927.737	3994
927.843	3945
927.95	3873
928.056	3979
928.162	4025
928.267	4105
928.373	4592
928.479	4158
928.585	3922
928.69	4017
928.796	4112
928.901	4010
929.007	3888
929.112	4021
929.218	4006
929.323	3945
929.428	3941
929.533	4131
929.638	3915
929.743	3964
929.848	4021
929.953	4044
930.058	3949
930.163	3808
930.267	3880
930.372	4017
930.477	3835
930.581	4105
930.685	3972
930.79	3873
930.894	3888
930.998	3903
931.103	4040
931.207	3751
931.311	3762
931.415	3698
931.519	3572
931.623	3610
