Data from test_V78500241_713.txt Node
Date: Fri Mar 25 16:53:57 CST 2022
User: usil
Spectrometer: V785-0024
Trigger mode: 0
Integration Time (sec): 4.000000E-1
Scans to average: 1
Nonlinearity correction enabled: false
Boxcar width: 0
Storing dark spectrum: false
XAxis mode: Wavelengths
Number of Pixels in Spectrum: 1024
>>>>>Begin Spectral Data<<<<<
801.071	7982
801.214	8008
801.356	7913
801.499	7833
801.641	7723
801.783	7833
801.926	8008
802.068	8005
802.211	7898
802.353	7944
802.496	7860
802.638	7902
802.78	7875
802.923	7864
803.065	7837
803.208	7845
803.35	7967
803.492	8119
803.635	8172
803.777	8016
803.919	8084
804.061	8358
804.204	8115
804.346	8005
804.488	8016
804.63	8043
804.773	8024
804.915	8046
805.057	8259
805.199	8119
805.341	8168
805.483	8279
805.626	8214
805.768	8103
805.91	8195
806.052	8191
806.194	8031
806.336	8305
806.478	8077
806.62	8088
806.762	8081
806.904	8191
807.046	8427
807.188	8374
807.33	8271
807.472	8320
807.614	8123
807.756	8088
807.898	7955
808.04	7822
808.182	7856
808.324	7890
808.465	7921
808.607	8088
808.749	8073
808.891	8183
809.033	8263
809.174	8199
809.316	8024
809.458	8077
809.6	7959
809.741	8016
809.883	7978
810.025	8126
810.166	8027
810.308	8016
810.45	8027
810.591	7849
810.733	7738
810.875	7639
811.016	7525
811.158	7525
811.299	7590
811.441	7780
811.582	7647
811.724	7613
811.865	7495
812.007	7544
812.148	7518
812.29	7662
812.431	7757
812.573	7928
812.714	7845
812.855	8050
812.997	8157
813.138	8362
813.279	8237
813.421	8096
813.562	8058
813.703	7864
813.845	7788
813.986	7422
814.127	7259
814.268	7190
814.41	7171
814.551	7187
814.692	7122
814.833	7042
814.974	7057
815.115	7137
815.256	6970
815.397	6947
815.539	6943
815.68	6833
815.821	6745
815.962	6867
816.103	6745
816.244	6650
816.385	6612
816.526	6604
816.666	6475
816.807	6266
816.948	6388
817.089	6452
817.23	6448
817.371	6327
817.512	6399
817.653	6391
817.793	6365
817.934	6388
818.075	6448
818.216	6429
818.356	6365
818.497	6175
818.638	6140
818.778	6155
818.919	6095
819.06	6117
819.2	6319
819.341	6266
819.481	6331
819.622	6475
819.762	6722
819.903	6707
820.043	6566
820.184	6536
820.324	6525
820.465	6711
820.605	6589
820.746	6582
820.886	6456
821.026	6582
821.167	6681
821.307	6730
821.447	6734
821.588	6665
821.728	6563
821.868	6441
822.008	6334
822.149	6403
822.289	6346
822.429	6106
822.569	6053
822.709	6098
822.849	5912
822.99	5916
823.13	5851
823.27	5958
823.41	5745
823.55	5760
823.69	5756
823.83	5817
823.97	5653
824.11	5528
824.25	5493
824.389	5573
824.529	5554
824.669	5486
824.809	5676
824.949	5630
825.089	5577
825.228	5570
825.368	5357
825.508	5280
825.648	5284
825.787	5360
825.927	5364
826.067	5288
826.206	5258
826.346	5349
826.485	5421
826.625	5357
826.765	5589
826.904	5421
827.044	5227
827.183	5174
827.323	5117
827.462	5242
827.601	5166
827.741	5151
827.88	5216
828.02	5105
828.159	5242
828.298	5277
828.437	5357
828.577	5254
828.716	5459
828.855	5318
828.994	5132
829.134	5094
829.273	5155
829.412	5109
829.551	5136
829.69	5124
829.829	5174
829.968	5334
830.107	5254
830.246	5280
830.385	5151
830.524	5143
830.663	5052
830.802	4991
830.941	4877
831.08	4816
831.219	4927
831.357	4968
831.496	5166
831.635	4953
831.774	4858
831.913	4843
832.051	4767
832.19	4733
832.329	4820
832.467	4698
832.606	4649
832.744	4656
832.883	4698
833.022	4679
833.16	4778
833.299	4870
833.437	4816
833.576	4816
833.714	4801
833.852	4881
833.991	4873
834.129	4976
834.267	4949
834.406	4900
834.544	4949
834.682	4968
834.821	4957
834.959	5136
835.097	4991
835.235	5147
835.373	5056
835.511	5109
835.65	4991
835.788	5041
835.926	4892
836.064	4862
836.202	4946
836.34	5155
836.478	5193
836.615	5140
836.753	5178
836.891	5250
837.029	5201
837.167	5185
837.305	5132
837.443	5162
837.58	5060
837.718	5220
837.856	5170
837.993	5102
838.131	5193
838.269	5181
838.406	5208
838.544	5151
838.681	5079
838.819	5056
838.956	4904
839.094	4881
839.231	4991
839.369	5098
839.506	5417
839.643	5193
839.781	5075
839.918	4980
840.055	5105
840.193	5105
840.33	5064
840.467	5109
840.604	5117
840.742	5455
840.879	5071
841.016	5109
841.153	5128
841.29	5322
841.427	5326
841.564	5322
841.701	5345
841.838	5254
841.975	5197
842.112	5223
842.249	5159
842.385	5067
842.522	5345
842.659	5208
842.796	5121
842.933	5178
843.069	5178
843.206	5075
843.343	5288
843.479	5201
843.616	5280
843.752	5041
843.889	4949
844.025	5193
844.162	5029
844.298	5181
844.435	5010
844.571	5067
844.708	5170
844.844	5265
844.98	5337
845.117	5322
845.253	5151
845.389	5052
845.525	5155
845.661	5147
845.798	5041
845.934	5109
846.07	5033
846.206	5178
846.342	5227
846.478	5197
846.614	5003
846.75	4957
846.886	4938
847.022	5143
847.158	5067
847.294	5064
847.429	5056
847.565	5010
847.701	5273
847.837	4828
847.972	4820
848.108	4980
848.244	4934
848.379	4774
848.515	4729
848.65	4660
848.786	4755
848.921	4744
849.057	4900
849.192	4858
849.328	4850
849.463	4824
849.598	4805
849.734	4733
849.869	4736
850.004	4615
850.14	4694
850.275	4596
850.41	4523
850.545	4573
850.68	4599
850.815	4603
850.95	4607
851.085	4877
851.22	4687
851.355	4675
851.49	4588
851.625	4660
851.76	4634
851.895	4584
852.03	4538
852.165	4641
852.299	4668
852.434	4778
852.569	4691
852.703	4733
852.838	4847
852.973	4904
853.107	4919
853.242	4725
853.376	4649
853.511	4531
853.645	4634
853.78	4816
853.914	4687
854.048	4653
854.183	4622
854.317	4656
854.451	4828
854.585	4668
854.72	4618
854.854	4752
854.988	4615
855.122	4641
855.256	4504
855.39	4649
855.524	4771
855.658	4740
855.792	4683
855.926	4668
856.06	4736
856.194	4824
856.327	4679
856.461	4588
856.595	4599
856.729	4622
856.862	4729
856.996	4675
857.13	4694
857.263	4778
857.397	4801
857.53	4622
857.664	4714
857.797	4725
857.931	4790
858.064	4679
858.197	4710
858.331	4611
858.464	4588
858.597	4508
858.731	4615
858.864	4660
858.997	4607
859.13	4618
859.263	4683
859.396	4702
859.529	4607
859.662	4550
859.795	4550
859.928	4580
860.061	4767
860.194	4778
860.327	4561
860.46	4565
860.592	4668
860.725	4679
860.858	4687
860.99	4561
861.123	4550
861.256	4478
861.388	4577
861.521	5406
861.653	4470
861.786	4421
861.918	4478
862.05	4508
862.183	4565
862.315	4603
862.447	4599
862.58	4550
862.712	4398
862.844	4322
862.976	4443
863.108	4451
863.24	4892
863.372	4329
863.504	4375
863.636	4405
863.768	4466
863.9	4440
864.032	4363
864.164	4360
864.296	4462
864.428	4546
864.559	4558
864.691	4497
864.823	4466
864.954	4481
865.086	4478
865.217	4409
865.349	4383
865.48	4462
865.612	4459
865.743	4675
865.875	4459
866.006	4413
866.137	4443
866.269	4405
866.4	4405
866.531	4394
866.662	4310
866.793	4405
866.924	4413
867.055	4497
867.186	4462
867.317	4386
867.448	4356
867.579	4394
867.71	4379
867.841	4360
867.972	4447
868.103	4424
868.233	4424
868.364	4436
868.495	4478
868.625	4683
868.756	4759
868.886	4542
869.017	4565
869.147	4763
869.278	4850
869.408	4683
869.539	4645
869.669	4725
869.799	4691
869.929	4755
870.06	4744
870.19	4938
870.32	4908
870.45	4923
870.58	4972
870.71	5090
870.84	5056
870.97	4991
871.1	4904
871.23	5147
871.36	5105
871.489	5022
871.619	5067
871.749	5102
871.879	5124
872.008	5212
872.138	5033
872.267	4919
872.397	4820
872.526	4870
872.656	4740
872.785	4797
872.915	4946
873.044	4987
873.173	4957
873.303	4949
873.432	4911
873.561	4946
873.69	4870
873.819	4900
873.948	4896
874.077	4858
874.206	4679
874.335	4801
874.464	4930
874.593	5033
874.722	4911
874.851	5098
874.979	5056
875.108	5048
875.237	4908
875.365	4900
875.494	4854
875.623	4949
875.751	4824
875.88	4850
876.008	4999
876.136	5003
876.265	5212
876.393	5318
876.521	5254
876.65	5212
876.778	5155
876.906	5052
877.034	5033
877.162	5037
877.29	4972
877.418	5056
877.546	5010
877.674	5033
877.802	5033
877.93	5003
878.058	4961
878.185	4873
878.313	4904
878.441	4984
878.568	4793
878.696	4847
878.824	5010
878.951	4972
879.079	5121
879.206	5231
879.333	5060
879.461	4957
879.588	4999
879.715	5083
879.842	5216
879.97	5025
880.097	4820
880.224	4721
880.351	4797
880.478	4835
880.605	4839
880.732	4805
880.859	5018
880.986	4885
881.112	4908
881.239	4805
881.366	4691
881.493	4607
881.619	4607
881.746	4668
881.872	4637
881.999	4656
882.125	4664
882.252	4809
882.378	4850
882.505	4896
882.631	4782
882.757	4649
882.883	4714
883.01	4759
883.136	4672
883.262	4622
883.388	4660
883.514	4793
883.64	4870
883.766	4744
883.892	4615
884.018	4714
884.143	4828
884.269	4984
884.395	4675
884.52	4660
884.646	4653
884.772	4615
884.897	4535
885.023	4626
885.148	4774
885.274	4862
885.399	4767
885.524	4694
885.65	4710
885.775	4733
885.9	4691
886.025	4843
886.15	4771
886.275	4694
886.4	4672
886.525	4736
886.65	4706
886.775	4660
886.9	4881
887.025	5025
887.149	4809
887.274	4641
887.399	4558
887.523	4554
887.648	4550
887.773	4577
887.897	4748
888.021	4812
888.146	4675
888.27	4805
888.395	4858
888.519	4778
888.643	4767
888.767	4828
888.891	4660
889.015	4561
889.139	4615
889.263	4588
889.387	4725
889.511	4858
889.635	4786
889.759	4637
889.883	4668
890.006	4729
890.13	4809
890.254	4603
890.377	4694
890.501	4607
890.624	4516
890.748	4603
890.871	4497
890.995	4405
891.118	4421
891.241	4531
891.364	4519
891.488	4615
891.611	4516
891.734	4542
891.857	4550
891.98	4580
892.103	4683
892.226	4558
892.349	4542
892.471	4413
892.594	4554
892.717	4580
892.839	4508
892.962	4596
893.085	4653
893.207	4561
893.33	4455
893.452	4500
893.575	4672
893.697	4599
893.819	4748
893.941	4824
894.064	4809
894.186	4580
894.308	4596
894.43	4744
894.552	4820
894.674	4714
894.796	4580
894.918	4577
895.04	4542
895.161	4740
895.283	4664
895.405	4611
895.526	4656
895.648	4679
895.769	4679
895.891	4698
896.012	4744
896.134	4725
896.255	4672
896.376	4683
896.498	4645
896.619	4660
896.74	4603
896.861	4634
896.982	4919
897.103	5052
897.224	4816
897.345	4691
897.466	4645
897.587	4717
897.708	4831
897.828	4759
897.949	4656
898.07	4519
898.19	4618
898.311	4774
898.431	4634
898.552	4748
898.672	4797
898.792	4786
898.913	4752
899.033	4630
899.153	4550
899.273	4440
899.393	4519
899.513	4481
899.633	4523
899.753	4546
899.873	4455
899.993	4542
900.113	4584
900.232	4603
900.352	4546
900.472	4470
900.591	4356
900.711	4485
900.83	4443
900.95	4615
901.069	4691
901.189	4542
901.308	4398
901.427	4287
901.546	4363
901.665	4421
901.784	4474
901.904	4367
902.023	4337
902.141	4223
902.26	4158
902.379	4310
902.498	4242
902.617	4215
902.735	4337
902.854	4413
902.973	4371
903.091	4253
903.21	4223
903.328	4295
903.446	4280
903.565	4257
903.683	4322
903.801	4227
903.919	4386
904.038	4455
904.156	4287
904.274	4405
904.392	4455
904.51	4405
904.627	4459
904.745	4558
904.863	4637
904.981	4360
905.098	4310
905.216	4356
905.334	4436
905.451	4405
905.569	4474
905.686	4577
905.803	4558
905.921	4383
906.038	4535
906.155	4516
906.272	4443
906.389	4424
906.506	4318
906.623	4398
906.74	4417
906.857	4314
906.974	4329
907.091	4580
907.208	4672
907.324	4596
907.441	4516
907.557	4314
907.674	4367
907.79	4329
907.907	4337
908.023	4421
908.139	4462
908.256	4417
908.372	4470
908.488	4436
908.604	4333
908.72	4303
908.836	4341
908.952	4344
909.068	4447
909.184	4489
909.3	4440
909.415	4554
909.531	4573
909.647	4333
909.762	4363
909.878	4367
909.993	4481
910.108	4470
910.224	4379
910.339	4436
910.454	4371
910.57	4318
910.685	4394
910.8	4694
910.915	4584
911.03	4538
911.145	4287
911.259	4325
911.374	4325
911.489	4322
911.604	4306
911.718	4169
911.833	4188
911.947	4059
912.062	3964
912.176	4234
912.291	4234
912.405	4242
912.519	4466
912.633	4500
912.748	4375
912.862	4363
912.976	4215
913.09	4097
913.204	4215
913.318	4291
913.431	4352
913.545	4390
913.659	4424
913.772	4352
913.886	4276
914	4261
914.113	4363
914.226	4451
914.34	4421
914.453	4215
914.566	4405
914.68	4310
914.793	4341
914.906	4158
915.019	4074
915.132	4040
915.245	4147
915.358	4177
915.47	4227
915.583	4265
915.696	4276
915.809	4424
915.921	4386
916.034	4268
916.146	4238
916.259	4287
916.371	4379
916.483	4356
916.595	4215
916.708	4322
916.82	4306
916.932	4303
917.044	4367
917.156	4314
917.268	4196
917.38	4249
917.491	4284
917.603	4322
917.715	4440
917.826	4436
917.938	4363
918.049	4215
918.161	4386
918.272	4497
918.384	4558
918.495	4459
918.606	4333
918.717	4268
918.828	4360
918.939	4405
919.05	4253
919.161	4306
919.272	4120
919.383	4200
919.494	4413
919.604	4611
919.715	4424
919.826	4341
919.936	4428
920.047	4573
920.157	4478
920.267	4656
920.378	4550
920.488	4508
920.598	4691
920.708	4892
920.818	4748
920.928	4729
921.038	4957
921.148	4896
921.258	4645
921.368	4542
921.477	4485
921.587	4447
921.697	4329
921.806	4500
921.916	4436
922.025	4253
922.134	4306
922.244	4253
922.353	4352
922.462	4185
922.571	4124
922.68	4029
922.789	3949
922.898	4029
923.007	3998
923.116	4109
923.224	4063
923.333	4051
923.442	3964
923.55	3956
923.659	4013
923.767	4090
923.876	4017
923.984	4093
924.092	3983
924.201	4071
924.309	4093
924.417	4086
924.525	4063
924.633	4082
924.741	5045
924.849	3930
924.956	4124
925.064	3991
925.172	3915
925.279	3960
925.387	3975
925.494	4071
925.602	4154
925.709	4204
925.816	4071
925.924	4105
926.031	4188
926.138	4196
926.245	4181
926.352	4078
926.459	4276
926.566	4287
926.673	4158
926.779	4055
926.886	4082
926.993	3975
927.099	3907
927.206	3903
927.312	3934
927.419	4059
927.525	4040
927.631	4071
927.737	3953
927.843	3930
927.95	3861
928.056	3915
928.162	3979
928.267	4025
928.373	4691
928.479	4139
928.585	3861
928.69	4040
928.796	4078
928.901	3964
929.007	3880
929.112	3991
929.218	3968
929.323	3945
929.428	3945
929.533	4109
929.638	3896
929.743	3994
929.848	4063
929.953	3972
930.058	3949
930.163	3774
930.267	3865
930.372	3934
930.477	3785
930.581	4067
930.685	3937
930.79	3823
930.894	3903
930.998	3838
931.103	4036
931.207	3770
931.311	3717
931.415	3686
931.519	3523
931.623	3553
