Data from test_V78500241_234.txt Node
Date: Fri Mar 25 16:50:37 CST 2022
User: usil
Spectrometer: V785-0024
Trigger mode: 0
Integration Time (sec): 4.000000E-1
Scans to average: 1
Nonlinearity correction enabled: false
Boxcar width: 0
Storing dark spectrum: false
XAxis mode: Wavelengths
Number of Pixels in Spectrum: 1024
>>>>>Begin Spectral Data<<<<<
801.071	8005
801.214	8020
801.356	7856
801.499	7765
801.641	7788
801.783	7894
801.926	7993
802.068	7967
802.211	7978
802.353	7997
802.496	7837
802.638	7860
802.78	7940
802.923	7932
803.065	7788
803.208	7845
803.35	7970
803.492	8107
803.635	8123
803.777	7982
803.919	8088
804.061	8446
804.204	8145
804.346	8096
804.488	7959
804.63	8046
804.773	7989
804.915	8073
805.057	8259
805.199	8092
805.341	8210
805.483	8168
805.626	8187
805.768	8031
805.91	8195
806.052	8123
806.194	8043
806.336	8339
806.478	8138
806.62	8039
806.762	8065
806.904	8195
807.046	8473
807.188	8396
807.33	8358
807.472	8351
807.614	8062
807.756	8157
807.898	7955
808.04	7879
808.182	7932
808.324	7887
808.465	7936
808.607	8027
808.749	8119
808.891	8187
809.033	8301
809.174	8221
809.316	8043
809.458	8096
809.6	7906
809.741	8020
809.883	7955
810.025	8145
810.166	8149
810.308	7997
810.45	7978
810.591	7868
810.733	7792
810.875	7693
811.016	7540
811.158	7495
811.299	7636
811.441	7734
811.582	7643
811.724	7578
811.865	7567
812.007	7594
812.148	7609
812.29	7689
812.431	7772
812.573	7925
812.714	7989
812.855	8195
812.997	8206
813.138	8305
813.279	8187
813.421	8092
813.562	7978
813.703	7769
813.845	7746
813.986	7453
814.127	7270
814.268	7247
814.41	7240
814.551	7198
814.692	7198
814.833	7091
814.974	7122
815.115	7137
815.256	6973
815.397	6894
815.539	6947
815.68	6791
815.821	6829
815.962	6878
816.103	6779
816.244	6726
816.385	6650
816.526	6654
816.666	6502
816.807	6304
816.948	6471
817.089	6445
817.23	6399
817.371	6388
817.512	6350
817.653	6433
817.793	6323
817.934	6376
818.075	6448
818.216	6467
818.356	6395
818.497	6190
818.638	6060
818.778	6121
818.919	6159
819.06	6152
819.2	6311
819.341	6277
819.481	6346
819.622	6521
819.762	6738
819.903	6635
820.043	6627
820.184	6597
820.324	6597
820.465	6703
820.605	6620
820.746	6623
820.886	6471
821.026	6650
821.167	6696
821.307	6779
821.447	6730
821.588	6662
821.728	6627
821.868	6525
822.008	6323
822.149	6334
822.289	6361
822.429	6171
822.569	6076
822.709	6117
822.849	5939
822.99	5885
823.13	5893
823.27	5920
823.41	5775
823.55	5741
823.69	5771
823.83	5798
823.97	5680
824.11	5562
824.25	5501
824.389	5592
824.529	5585
824.669	5528
824.809	5665
824.949	5634
825.089	5592
825.228	5509
825.368	5391
825.508	5341
825.648	5357
825.787	5402
825.927	5387
826.067	5322
826.206	5292
826.346	5368
826.485	5406
826.625	5372
826.765	5611
826.904	5497
827.044	5231
827.183	5212
827.323	5155
827.462	5231
827.601	5235
827.741	5246
827.88	5239
828.02	5140
828.159	5197
828.298	5288
828.437	5398
828.577	5345
828.716	5448
828.855	5322
828.994	5151
829.134	5155
829.273	5231
829.412	5117
829.551	5136
829.69	5166
829.829	5216
829.968	5376
830.107	5280
830.246	5292
830.385	5178
830.524	5121
830.663	5071
830.802	5022
830.941	4896
831.08	4892
831.219	5006
831.357	4930
831.496	5105
831.635	4904
831.774	4858
831.913	4850
832.051	4698
832.19	4801
832.329	4835
832.467	4683
832.606	4656
832.744	4721
832.883	4691
833.022	4759
833.16	4824
833.299	4786
833.437	4805
833.576	4889
833.714	4892
833.852	4831
833.991	4919
834.129	4976
834.267	4968
834.406	4896
834.544	4965
834.682	4972
834.821	4957
834.959	5178
835.097	5025
835.235	5124
835.373	5056
835.511	5041
835.65	5060
835.788	4999
835.926	4911
836.064	4881
836.202	4877
836.34	5151
836.478	5239
836.615	5113
836.753	5170
836.891	5265
837.029	5239
837.167	5220
837.305	5140
837.443	5189
837.58	5037
837.718	5242
837.856	5178
837.993	5166
838.131	5242
838.269	5258
838.406	5204
838.544	5216
838.681	5041
838.819	5014
838.956	4866
839.094	4900
839.231	4972
839.369	5079
839.506	5463
839.643	5204
839.781	5086
839.918	4999
840.055	5140
840.193	5067
840.33	5090
840.467	5109
840.604	5201
840.742	5417
840.879	5075
841.016	5075
841.153	5151
841.29	5379
841.427	5326
841.564	5337
841.701	5318
841.838	5246
841.975	5204
842.112	5220
842.249	5170
842.385	5113
842.522	5341
842.659	5174
842.796	5159
842.933	5193
843.069	5166
843.206	5159
843.343	5288
843.479	5212
843.616	5280
843.752	5064
843.889	4999
844.025	5185
844.162	5029
844.298	5159
844.435	5121
844.571	5033
844.708	5212
844.844	5303
844.98	5303
845.117	5315
845.253	5143
845.389	5067
845.525	5181
845.661	5181
845.798	5041
845.934	5075
846.07	5010
846.206	5223
846.342	5280
846.478	5223
846.614	5033
846.75	4946
846.886	4923
847.022	5151
847.158	5056
847.294	5060
847.429	5071
847.565	5079
847.701	5288
847.837	4843
847.972	4801
848.108	4976
848.244	4904
848.379	4752
848.515	4702
848.65	4714
848.786	4736
848.921	4816
849.057	4843
849.192	4942
849.328	4782
849.463	4828
849.598	4835
849.734	4748
849.869	4672
850.004	4641
850.14	4702
850.275	4573
850.41	4527
850.545	4561
850.68	4596
850.815	4603
850.95	4637
851.085	4816
851.22	4759
851.355	4653
851.49	4607
851.625	4618
851.76	4588
851.895	4546
852.03	4554
852.165	4710
852.299	4694
852.434	4820
852.569	4748
852.703	4858
852.838	4854
852.973	4972
853.107	4911
853.242	4710
853.376	4698
853.511	4512
853.645	4649
853.78	4771
853.914	4683
854.048	4710
854.183	4607
854.317	4675
854.451	4881
854.585	4679
854.72	4660
854.854	4755
854.988	4615
855.122	4592
855.256	4538
855.39	4626
855.524	4767
855.658	4790
855.792	4698
855.926	4717
856.06	4714
856.194	4824
856.327	4752
856.461	4656
856.595	4596
856.729	4656
856.862	4793
856.996	4672
857.13	4694
857.263	4755
857.397	4797
857.53	4637
857.664	4702
857.797	4805
857.931	4816
858.064	4675
858.197	4717
858.331	4607
858.464	4649
858.597	4561
858.731	4569
858.864	4649
858.997	4634
859.13	4656
859.263	4679
859.396	4725
859.529	4565
859.662	4561
859.795	4538
859.928	4573
860.061	4809
860.194	4820
860.327	4596
860.46	4599
860.592	4702
860.725	4755
860.858	4748
860.99	4653
861.123	4535
861.256	4558
861.388	4580
861.521	5368
861.653	4462
861.786	4470
861.918	4478
862.05	4504
862.183	4554
862.315	4599
862.447	4672
862.58	4554
862.712	4394
862.844	4314
862.976	4531
863.108	4436
863.24	4881
863.372	4272
863.504	4447
863.636	4413
863.768	4451
863.9	4432
864.032	4356
864.164	4424
864.296	4508
864.428	4561
864.559	4577
864.691	4497
864.823	4565
864.954	4485
865.086	4497
865.217	4405
865.349	4462
865.48	4481
865.612	4493
865.743	4580
865.875	4451
866.006	4413
866.137	4459
866.269	4481
866.4	4451
866.531	4428
866.662	4428
866.793	4447
866.924	4424
867.055	4508
867.186	4421
867.317	4424
867.448	4390
867.579	4352
867.71	4394
867.841	4409
867.972	4470
868.103	4481
868.233	4447
868.364	4390
868.495	4523
868.625	4675
868.756	4774
868.886	4584
869.017	4637
869.147	4763
869.278	4771
869.408	4664
869.539	4679
869.669	4710
869.799	4634
869.929	4771
870.06	4710
870.19	4968
870.32	4938
870.45	4949
870.58	5048
870.71	5140
870.84	5090
870.97	4927
871.1	4877
871.23	5098
871.36	5159
871.489	5033
871.619	5102
871.749	5086
871.879	5090
872.008	5193
872.138	5022
872.267	4915
872.397	4828
872.526	4839
872.656	4702
872.785	4877
872.915	4949
873.044	4984
873.173	4946
873.303	4976
873.432	5003
873.561	4923
873.69	4866
873.819	4885
873.948	4896
874.077	4873
874.206	4733
874.335	4816
874.464	4915
874.593	5018
874.722	4972
874.851	5086
874.979	5098
875.108	5075
875.237	4911
875.365	4889
875.494	4862
875.623	4972
875.751	4843
875.88	4870
876.008	5033
876.136	5048
876.265	5159
876.393	5364
876.521	5261
876.65	5250
876.778	5189
876.906	5056
877.034	5048
877.162	5018
877.29	4995
877.418	5075
877.546	5014
877.674	5052
877.802	5060
877.93	4965
878.058	4987
878.185	4862
878.313	4949
878.441	4938
878.568	4866
878.696	4858
878.824	4961
878.951	5041
879.079	5121
879.206	5280
879.333	5124
879.461	5033
879.588	4957
879.715	5098
879.842	5197
879.97	4995
880.097	4752
880.224	4733
880.351	4786
880.478	4771
880.605	4831
880.732	4805
880.859	5102
880.986	4930
881.112	4870
881.239	4767
881.366	4748
881.493	4637
881.619	4596
881.746	4622
881.872	4675
881.999	4668
882.125	4694
882.252	4801
882.378	4782
882.505	4953
882.631	4801
882.757	4698
882.883	4752
883.01	4717
883.136	4687
883.262	4615
883.388	4626
883.514	4774
883.64	4896
883.766	4774
883.892	4691
884.018	4706
884.143	4847
884.269	4999
884.395	4672
884.52	4615
884.646	4622
884.772	4641
884.897	4603
885.023	4653
885.148	4820
885.274	4847
885.399	4812
885.524	4752
885.65	4641
885.775	4744
885.9	4752
886.025	4889
886.15	4828
886.275	4755
886.4	4691
886.525	4721
886.65	4702
886.775	4748
886.9	4896
887.025	5037
887.149	4831
887.274	4660
887.399	4596
887.523	4630
887.648	4584
887.773	4580
887.897	4786
888.021	4774
888.146	4691
888.27	4839
888.395	4965
888.519	4816
888.643	4790
888.767	4828
888.891	4618
889.015	4615
889.139	4687
889.263	4596
889.387	4721
889.511	4889
889.635	4835
889.759	4637
889.883	4675
890.006	4755
890.13	4831
890.254	4618
890.377	4649
890.501	4580
890.624	4531
890.748	4660
890.871	4516
890.995	4424
891.118	4409
891.241	4512
891.364	4542
891.488	4660
891.611	4489
891.734	4531
891.857	4618
891.98	4550
892.103	4656
892.226	4558
892.349	4478
892.471	4432
892.594	4554
892.717	4592
892.839	4588
892.962	4588
893.085	4683
893.207	4573
893.33	4459
893.452	4527
893.575	4675
893.697	4603
893.819	4790
893.941	4843
894.064	4736
894.186	4607
894.308	4580
894.43	4748
894.552	4835
894.674	4774
894.796	4577
894.918	4527
895.04	4565
895.161	4725
895.283	4645
895.405	4596
895.526	4653
895.648	4714
895.769	4729
895.891	4691
896.012	4748
896.134	4755
896.255	4660
896.376	4660
896.498	4630
896.619	4660
896.74	4660
896.861	4660
896.982	4957
897.103	5025
897.224	4904
897.345	4748
897.466	4664
897.587	4729
897.708	4843
897.828	4786
897.949	4672
898.07	4592
898.19	4660
898.311	4801
898.431	4637
898.552	4782
898.672	4790
898.792	4782
898.913	4714
899.033	4626
899.153	4554
899.273	4447
899.393	4531
899.513	4523
899.633	4523
899.753	4580
899.873	4558
899.993	4577
900.113	4531
900.232	4577
900.352	4500
900.472	4451
900.591	4421
900.711	4489
900.83	4451
900.95	4599
901.069	4672
901.189	4535
901.308	4352
901.427	4322
901.546	4379
901.665	4512
901.784	4512
901.904	4398
902.023	4341
902.141	4230
902.26	4158
902.379	4341
902.498	4227
902.617	4227
902.735	4363
902.854	4405
902.973	4375
903.091	4238
903.21	4257
903.328	4333
903.446	4284
903.565	4303
903.683	4363
903.801	4242
903.919	4432
904.038	4455
904.156	4280
904.274	4478
904.392	4386
904.51	4447
904.627	4470
904.745	4592
904.863	4660
904.981	4440
905.098	4314
905.216	4398
905.334	4462
905.451	4455
905.569	4455
905.686	4558
905.803	4592
905.921	4394
906.038	4577
906.155	4474
906.272	4390
906.389	4512
906.506	4356
906.623	4386
906.74	4409
906.857	4268
906.974	4379
907.091	4569
907.208	4641
907.324	4573
907.441	4455
907.557	4352
907.674	4352
907.79	4310
907.907	4398
908.023	4497
908.139	4455
908.256	4432
908.372	4478
908.488	4440
908.604	4398
908.72	4325
908.836	4398
908.952	4405
909.068	4443
909.184	4615
909.3	4523
909.415	4577
909.531	4573
909.647	4405
909.762	4348
909.878	4367
909.993	4470
910.108	4462
910.224	4470
910.339	4466
910.454	4417
910.57	4333
910.685	4299
910.8	4668
910.915	4569
911.03	4516
911.145	4363
911.259	4356
911.374	4402
911.489	4310
911.604	4306
911.718	4177
911.833	4238
911.947	4074
912.062	4074
912.176	4238
912.291	4230
912.405	4265
912.519	4485
912.633	4523
912.748	4402
912.862	4341
912.976	4188
913.09	4097
913.204	4173
913.318	4272
913.431	4386
913.545	4409
913.659	4398
913.772	4390
913.886	4234
914	4169
914.113	4409
914.226	4421
914.34	4398
914.453	4268
914.566	4417
914.68	4272
914.793	4329
914.906	4162
915.019	4143
915.132	4090
915.245	4169
915.358	4188
915.47	4223
915.583	4306
915.696	4295
915.809	4417
915.921	4447
916.034	4306
916.146	4268
916.259	4242
916.371	4383
916.483	4337
916.595	4261
916.708	4352
916.82	4352
916.932	4344
917.044	4363
917.156	4360
917.268	4223
917.38	4291
917.491	4238
917.603	4333
917.715	4409
917.826	4462
917.938	4356
918.049	4257
918.161	4424
918.272	4531
918.384	4500
918.495	4485
918.606	4280
918.717	4196
918.828	4344
918.939	4363
919.05	4291
919.161	4322
919.272	4135
919.383	4230
919.494	4432
919.604	4660
919.715	4413
919.826	4360
919.936	4428
920.047	4538
920.157	4485
920.267	4717
920.378	4558
920.488	4508
920.598	4759
920.708	4854
920.818	4786
920.928	4721
921.038	4953
921.148	4896
921.258	4656
921.368	4516
921.477	4508
921.587	4428
921.697	4386
921.806	4512
921.916	4436
922.025	4310
922.134	4276
922.244	4211
922.353	4375
922.462	4166
922.571	4147
922.68	4002
922.789	3991
922.898	4017
923.007	4002
923.116	4112
923.224	4105
923.333	4105
923.442	3994
923.55	4032
923.659	4051
923.767	4109
923.876	4059
923.984	4120
924.092	3987
924.201	4074
924.309	4090
924.417	4147
924.525	4109
924.633	4139
924.741	5006
924.849	3876
924.956	4150
925.064	3953
925.172	3918
925.279	3983
925.387	4063
925.494	4109
925.602	4253
925.709	4204
925.816	4017
925.924	4139
926.031	4261
926.138	4181
926.245	4246
926.352	4101
926.459	4234
926.566	4261
926.673	4147
926.779	4128
926.886	4082
926.993	3998
927.099	3987
927.206	3953
927.312	3888
927.419	4101
927.525	4044
927.631	4090
927.737	3975
927.843	3918
927.95	3819
928.056	3983
928.162	3987
928.267	4071
928.373	4603
928.479	4120
928.585	3873
928.69	4036
928.796	4093
928.901	4006
929.007	3842
929.112	4021
929.218	3994
929.323	3918
929.428	3945
929.533	4124
929.638	3888
929.743	3930
929.848	4082
929.953	3964
930.058	3930
930.163	3743
930.267	3873
930.372	3972
930.477	3812
930.581	4109
930.685	3949
930.79	3857
930.894	3888
930.998	3865
931.103	4067
931.207	3717
931.311	3751
931.415	3690
931.519	3515
931.623	3561
