Data from test_V78500241_138.txt Node
Date: Fri Mar 25 16:49:57 CST 2022
User: usil
Spectrometer: V785-0024
Trigger mode: 0
Integration Time (sec): 4.000000E-1
Scans to average: 1
Nonlinearity correction enabled: false
Boxcar width: 0
Storing dark spectrum: false
XAxis mode: Wavelengths
Number of Pixels in Spectrum: 1024
>>>>>Begin Spectral Data<<<<<
801.071	8054
801.214	8016
801.356	7887
801.499	7890
801.641	7807
801.783	7826
801.926	7989
802.068	8046
802.211	7978
802.353	7978
802.496	7875
802.638	7909
802.78	7978
802.923	7963
803.065	7849
803.208	7909
803.35	7970
803.492	8058
803.635	8130
803.777	8005
803.919	8123
804.061	8423
804.204	8050
804.346	8024
804.488	7906
804.63	8111
804.773	8073
804.915	8069
805.057	8309
805.199	8100
805.341	8199
805.483	8282
805.626	8157
805.768	8161
805.91	8149
806.052	8214
806.194	8130
806.336	8412
806.478	8077
806.62	8096
806.762	8134
806.904	8240
807.046	8457
807.188	8343
807.33	8244
807.472	8370
807.614	8191
807.756	8111
807.898	8062
808.04	7963
808.182	7925
808.324	7932
808.465	7917
808.607	8050
808.749	8134
808.891	8320
809.033	8282
809.174	8218
809.316	8031
809.458	8020
809.6	7993
809.741	8054
809.883	8020
810.025	8107
810.166	8130
810.308	8005
810.45	8115
810.591	8001
810.733	7742
810.875	7765
811.016	7533
811.158	7518
811.299	7643
811.441	7742
811.582	7708
811.724	7670
811.865	7582
812.007	7685
812.148	7677
812.29	7769
812.431	7875
812.573	7947
812.714	8134
812.855	8237
812.997	8358
813.138	8480
813.279	8244
813.421	8100
813.562	8039
813.703	7967
813.845	7769
813.986	7419
814.127	7236
814.268	7259
814.41	7316
814.551	7190
814.692	7259
814.833	7175
814.974	7194
815.115	7160
815.256	7069
815.397	6970
815.539	7008
815.68	6882
815.821	6798
815.962	6890
816.103	6768
816.244	6757
816.385	6597
816.526	6616
816.666	6566
816.807	6361
816.948	6486
817.089	6551
817.23	6441
817.371	6433
817.512	6369
817.653	6433
817.793	6365
817.934	6437
818.075	6460
818.216	6448
818.356	6460
818.497	6308
818.638	6178
818.778	6163
818.919	6175
819.06	6220
819.2	6361
819.341	6304
819.481	6418
819.622	6506
819.762	6753
819.903	6719
820.043	6601
820.184	6566
820.324	6627
820.465	6692
820.605	6692
820.746	6654
820.886	6517
821.026	6681
821.167	6696
821.307	6856
821.447	6875
821.588	6688
821.728	6620
821.868	6528
822.008	6376
822.149	6414
822.289	6388
822.429	6201
822.569	6125
822.709	6087
822.849	5901
822.99	5939
823.13	5969
823.27	5958
823.41	5847
823.55	5878
823.69	5805
823.83	5813
823.97	5707
824.11	5585
824.25	5547
824.389	5646
824.529	5649
824.669	5551
824.809	5741
824.949	5710
825.089	5615
825.228	5573
825.368	5444
825.508	5345
825.648	5383
825.787	5398
825.927	5414
826.067	5345
826.206	5315
826.346	5383
826.485	5391
826.625	5459
826.765	5512
826.904	5539
827.044	5261
827.183	5178
827.323	5117
827.462	5277
827.601	5159
827.741	5250
827.88	5258
828.02	5174
828.159	5277
828.298	5303
828.437	5326
828.577	5296
828.716	5486
828.855	5364
828.994	5193
829.134	5162
829.273	5204
829.412	5174
829.551	5147
829.69	5147
829.829	5296
829.968	5349
830.107	5280
830.246	5334
830.385	5223
830.524	5189
830.663	5067
830.802	5025
830.941	4923
831.08	4919
831.219	4999
831.357	5037
831.496	5136
831.635	4934
831.774	4915
831.913	4896
832.051	4752
832.19	4782
832.329	4873
832.467	4729
832.606	4679
832.744	4725
832.883	4774
833.022	4755
833.16	4759
833.299	4831
833.437	4862
833.576	4839
833.714	4892
833.852	4908
833.991	4915
834.129	4991
834.267	4961
834.406	4965
834.544	5014
834.682	4972
834.821	4961
834.959	5174
835.097	5029
835.235	5181
835.373	5105
835.511	5086
835.65	5041
835.788	5025
835.926	4961
836.064	4911
836.202	4953
836.34	5166
836.478	5235
836.615	5147
836.753	5242
836.891	5326
837.029	5265
837.167	5254
837.305	5178
837.443	5155
837.58	5140
837.718	5265
837.856	5235
837.993	5189
838.131	5273
838.269	5227
838.406	5273
838.544	5189
838.681	5048
838.819	5029
838.956	4911
839.094	4965
839.231	5006
839.369	5143
839.506	5459
839.643	5265
839.781	5121
839.918	5052
840.055	5067
840.193	5140
840.33	5128
840.467	5162
840.604	5181
840.742	5493
840.879	5060
841.016	5083
841.153	5147
841.29	5414
841.427	5406
841.564	5368
841.701	5452
841.838	5307
841.975	5273
842.112	5292
842.249	5181
842.385	5189
842.522	5349
842.659	5223
842.796	5197
842.933	5181
843.069	5193
843.206	5212
843.343	5372
843.479	5315
843.616	5269
843.752	5113
843.889	5018
844.025	5235
844.162	5045
844.298	5227
844.435	5105
844.571	5090
844.708	5216
844.844	5330
844.98	5334
845.117	5288
845.253	5155
845.389	5098
845.525	5174
845.661	5185
845.798	5056
845.934	5136
846.07	5064
846.206	5162
846.342	5326
846.478	5239
846.614	5025
846.75	4949
846.886	5010
847.022	5162
847.158	5041
847.294	5121
847.429	5151
847.565	5056
847.701	5334
847.837	4900
847.972	4854
848.108	4976
848.244	4919
848.379	4809
848.515	4706
848.65	4714
848.786	4736
848.921	4793
849.057	4915
849.192	4942
849.328	4824
849.463	4828
849.598	4854
849.734	4774
849.869	4729
850.004	4630
850.14	4717
850.275	4641
850.41	4554
850.545	4580
850.68	4660
850.815	4645
850.95	4683
851.085	4892
851.22	4778
851.355	4664
851.49	4641
851.625	4691
851.76	4630
851.895	4584
852.03	4558
852.165	4729
852.299	4706
852.434	4805
852.569	4748
852.703	4759
852.838	4911
852.973	4961
853.107	4938
853.242	4778
853.376	4679
853.511	4580
853.645	4599
853.78	4812
853.914	4710
854.048	4702
854.183	4634
854.317	4729
854.451	4847
854.585	4679
854.72	4656
854.854	4782
854.988	4618
855.122	4664
855.256	4527
855.39	4698
855.524	4805
855.658	4717
855.792	4729
855.926	4740
856.06	4759
856.194	4786
856.327	4668
856.461	4634
856.595	4622
856.729	4584
856.862	4767
856.996	4694
857.13	4714
857.263	4763
857.397	4870
857.53	4653
857.664	4778
857.797	4752
857.931	4740
858.064	4706
858.197	4790
858.331	4668
858.464	4679
858.597	4523
858.731	4653
858.864	4622
858.997	4603
859.13	4721
859.263	4698
859.396	4733
859.529	4630
859.662	4588
859.795	4577
859.928	4653
860.061	4782
860.194	4786
860.327	4607
860.46	4542
860.592	4729
860.725	4733
860.858	4771
860.99	4630
861.123	4508
861.256	4535
861.388	4599
861.521	5364
861.653	4523
861.786	4421
861.918	4500
862.05	4538
862.183	4577
862.315	4626
862.447	4687
862.58	4550
862.712	4443
862.844	4333
862.976	4481
863.108	4462
863.24	4904
863.372	4371
863.504	4455
863.636	4405
863.768	4535
863.9	4390
864.032	4383
864.164	4436
864.296	4493
864.428	4546
864.559	4558
864.691	4584
864.823	4569
864.954	4531
865.086	4535
865.217	4455
865.349	4455
865.48	4424
865.612	4497
865.743	4641
865.875	4504
866.006	4447
866.137	4497
866.269	4466
866.4	4466
866.531	4470
866.662	4413
866.793	4436
866.924	4462
867.055	4500
867.186	4466
867.317	4451
867.448	4390
867.579	4402
867.71	4383
867.841	4310
867.972	4409
868.103	4459
868.233	4478
868.364	4478
868.495	4516
868.625	4664
868.756	4748
868.886	4569
869.017	4618
869.147	4797
869.278	4809
869.408	4725
869.539	4675
869.669	4714
869.799	4691
869.929	4778
870.06	4714
870.19	4999
870.32	4885
870.45	4961
870.58	4995
870.71	5075
870.84	5109
870.97	4972
871.1	4915
871.23	5128
871.36	5105
871.489	5022
871.619	5094
871.749	5086
871.879	5178
872.008	5181
872.138	5056
872.267	5018
872.397	4930
872.526	4820
872.656	4759
872.785	4801
872.915	4965
873.044	5018
873.173	5003
873.303	4961
873.432	4957
873.561	4953
873.69	4885
873.819	4870
873.948	4919
874.077	4824
874.206	4793
874.335	4805
874.464	4938
874.593	5067
874.722	4976
874.851	5105
874.979	5086
875.108	5022
875.237	4927
875.365	4911
875.494	4896
875.623	4987
875.751	4831
875.88	4904
876.008	4968
876.136	5079
876.265	5216
876.393	5360
876.521	5265
876.65	5197
876.778	5162
876.906	5090
877.034	5052
877.162	5079
877.29	5056
877.418	5048
877.546	5052
877.674	5037
877.802	5090
877.93	5060
878.058	4965
878.185	4889
878.313	4972
878.441	4919
878.568	4828
878.696	4908
878.824	4946
878.951	5064
879.079	5121
879.206	5318
879.333	5132
879.461	5014
879.588	5025
879.715	5117
879.842	5235
879.97	5071
880.097	4847
880.224	4744
880.351	4847
880.478	4866
880.605	4786
880.732	4797
880.859	5109
880.986	4915
881.112	4946
881.239	4805
881.366	4683
881.493	4630
881.619	4565
881.746	4641
881.872	4649
881.999	4660
882.125	4675
882.252	4790
882.378	4862
882.505	5006
882.631	4835
882.757	4687
882.883	4790
883.01	4752
883.136	4656
883.262	4641
883.388	4596
883.514	4873
883.64	4923
883.766	4805
883.892	4706
884.018	4714
884.143	4904
884.269	4980
884.395	4694
884.52	4641
884.646	4630
884.772	4592
884.897	4599
885.023	4706
885.148	4812
885.274	4877
885.399	4847
885.524	4759
885.65	4729
885.775	4805
885.9	4721
886.025	4904
886.15	4767
886.275	4763
886.4	4660
886.525	4748
886.65	4736
886.775	4729
886.9	4934
887.025	5117
887.149	4873
887.274	4725
887.399	4596
887.523	4603
887.648	4649
887.773	4580
887.897	4774
888.021	4771
888.146	4714
888.27	4820
888.395	4892
888.519	4793
888.643	4828
888.767	4862
888.891	4630
889.015	4580
889.139	4641
889.263	4622
889.387	4843
889.511	4900
889.635	4801
889.759	4679
889.883	4615
890.006	4763
890.13	4828
890.254	4618
890.377	4714
890.501	4573
890.624	4607
890.748	4672
890.871	4535
890.995	4447
891.118	4443
891.241	4607
891.364	4554
891.488	4694
891.611	4493
891.734	4531
891.857	4622
891.98	4538
892.103	4672
892.226	4599
892.349	4565
892.471	4402
892.594	4554
892.717	4607
892.839	4611
892.962	4622
893.085	4691
893.207	4577
893.33	4478
893.452	4615
893.575	4664
893.697	4603
893.819	4828
893.941	4866
894.064	4793
894.186	4577
894.308	4596
894.43	4736
894.552	4820
894.674	4786
894.796	4596
894.918	4641
895.04	4645
895.161	4782
895.283	4679
895.405	4565
895.526	4668
895.648	4698
895.769	4687
895.891	4744
896.012	4782
896.134	4748
896.255	4721
896.376	4656
896.498	4618
896.619	4683
896.74	4615
896.861	4664
896.982	4934
897.103	5086
897.224	4843
897.345	4782
897.466	4630
897.587	4729
897.708	4866
897.828	4835
897.949	4660
898.07	4596
898.19	4653
898.311	4820
898.431	4759
898.552	4710
898.672	4771
898.792	4793
898.913	4782
899.033	4603
899.153	4535
899.273	4443
899.393	4489
899.513	4577
899.633	4577
899.753	4538
899.873	4542
899.993	4615
900.113	4554
900.232	4565
900.352	4611
900.472	4516
900.591	4428
900.711	4485
900.83	4455
900.95	4603
901.069	4710
901.189	4531
901.308	4394
901.427	4363
901.546	4386
901.665	4504
901.784	4550
901.904	4379
902.023	4341
902.141	4219
902.26	4181
902.379	4325
902.498	4261
902.617	4261
902.735	4386
902.854	4413
902.973	4375
903.091	4253
903.21	4227
903.328	4310
903.446	4318
903.565	4280
903.683	4337
903.801	4333
903.919	4402
904.038	4413
904.156	4325
904.274	4493
904.392	4413
904.51	4424
904.627	4497
904.745	4580
904.863	4607
904.981	4405
905.098	4356
905.216	4337
905.334	4455
905.451	4432
905.569	4481
905.686	4531
905.803	4561
905.921	4447
906.038	4554
906.155	4497
906.272	4451
906.389	4481
906.506	4394
906.623	4409
906.74	4447
906.857	4348
906.974	4405
907.091	4584
907.208	4694
907.324	4588
907.441	4470
907.557	4348
907.674	4314
907.79	4356
907.907	4432
908.023	4481
908.139	4489
908.256	4451
908.372	4455
908.488	4489
908.604	4409
908.72	4291
908.836	4413
908.952	4383
909.068	4424
909.184	4546
909.3	4535
909.415	4592
909.531	4584
909.647	4421
909.762	4394
909.878	4337
909.993	4436
910.108	4432
910.224	4413
910.339	4474
910.454	4413
910.57	4379
910.685	4341
910.8	4637
910.915	4596
911.03	4523
911.145	4318
911.259	4352
911.374	4413
911.489	4268
911.604	4276
911.718	4162
911.833	4223
911.947	4101
912.062	4074
912.176	4215
912.291	4257
912.405	4219
912.519	4504
912.633	4554
912.748	4379
912.862	4329
912.976	4177
913.09	4044
913.204	4211
913.318	4287
913.431	4417
913.545	4344
913.659	4519
913.772	4402
913.886	4249
914	4211
914.113	4409
914.226	4447
914.34	4371
914.453	4280
914.566	4383
914.68	4272
914.793	4344
914.906	4154
915.019	4150
915.132	4059
915.245	4215
915.358	4215
915.47	4265
915.583	4310
915.696	4337
915.809	4436
915.921	4455
916.034	4246
916.146	4246
916.259	4223
916.371	4360
916.483	4360
916.595	4284
916.708	4352
916.82	4371
916.932	4322
917.044	4337
917.156	4333
917.268	4219
917.38	4299
917.491	4287
917.603	4360
917.715	4462
917.826	4424
917.938	4394
918.049	4261
918.161	4375
918.272	4573
918.384	4626
918.495	4424
918.606	4276
918.717	4257
918.828	4344
918.939	4356
919.05	4215
919.161	4329
919.272	4139
919.383	4261
919.494	4531
919.604	4611
919.715	4451
919.826	4363
919.936	4375
920.047	4527
920.157	4546
920.267	4729
920.378	4580
920.488	4519
920.598	4691
920.708	4946
920.818	4729
920.928	4767
921.038	4976
921.148	4927
921.258	4656
921.368	4561
921.477	4504
921.587	4493
921.697	4348
921.806	4523
921.916	4474
922.025	4284
922.134	4268
922.244	4249
922.353	4337
922.462	4185
922.571	4169
922.68	4002
922.789	3956
922.898	4055
923.007	3998
923.116	4093
923.224	4101
923.333	4048
923.442	4021
923.55	4013
923.659	4059
923.767	4147
923.876	4029
923.984	4120
924.092	3994
924.201	4120
924.309	4131
924.417	4177
924.525	4090
924.633	4131
924.741	4828
924.849	3915
924.956	4128
925.064	3949
925.172	3918
925.279	4013
925.387	4074
925.494	4059
925.602	4242
925.709	4204
925.816	4051
925.924	4143
926.031	4265
926.138	4173
926.245	4177
926.352	4124
926.459	4246
926.566	4383
926.673	4177
926.779	4071
926.886	4109
926.993	4017
927.099	4013
927.206	3915
927.312	3903
927.419	4036
927.525	4025
927.631	4109
927.737	3968
927.843	3987
927.95	3857
928.056	3979
928.162	3987
928.267	4078
928.373	4588
928.479	4162
928.585	3899
928.69	4044
928.796	4078
928.901	3987
929.007	3880
929.112	4059
929.218	4002
929.323	3983
929.428	3972
929.533	4082
929.638	3922
929.743	3953
929.848	4078
929.953	4017
930.058	3945
930.163	3778
930.267	3846
930.372	3953
930.477	3781
930.581	4116
930.685	3956
930.79	3835
930.894	3922
930.998	3896
931.103	4044
931.207	3682
931.311	3720
931.415	3694
931.519	3538
931.623	3538
