Data from test_V78500241_757.txt Node
Date: Fri Mar 25 16:54:16 CST 2022
User: usil
Spectrometer: V785-0024
Trigger mode: 0
Integration Time (sec): 4.000000E-1
Scans to average: 1
Nonlinearity correction enabled: false
Boxcar width: 0
Storing dark spectrum: false
XAxis mode: Wavelengths
Number of Pixels in Spectrum: 1024
>>>>>Begin Spectral Data<<<<<
801.071	7909
801.214	7978
801.356	7822
801.499	7871
801.641	7792
801.783	7830
801.926	7955
802.068	7890
802.211	8020
802.353	8005
802.496	7875
802.638	7909
802.78	7989
802.923	7909
803.065	7753
803.208	7879
803.35	8050
803.492	8138
803.635	8244
803.777	8008
803.919	8107
804.061	8324
804.204	8058
804.346	8012
804.488	7993
804.63	8111
804.773	8001
804.915	8123
805.057	8332
805.199	8153
805.341	8233
805.483	8271
805.626	8267
805.768	8103
805.91	8229
806.052	8206
806.194	8084
806.336	8305
806.478	8092
806.62	8039
806.762	8183
806.904	8263
807.046	8423
807.188	8400
807.33	8286
807.472	8252
807.614	8168
807.756	8180
807.898	8024
808.04	7826
808.182	7890
808.324	7906
808.465	7875
808.607	8031
808.749	8138
808.891	8233
809.033	8309
809.174	8263
809.316	8077
809.458	8012
809.6	7993
809.741	8005
809.883	8008
810.025	8046
810.166	8100
810.308	8107
810.45	8012
810.591	7852
810.733	7704
810.875	7693
811.016	7567
811.158	7499
811.299	7537
811.441	7750
811.582	7746
811.724	7529
811.865	7571
812.007	7597
812.148	7563
812.29	7540
812.431	7700
812.573	7826
812.714	7967
812.855	8149
812.997	8214
813.138	8301
813.279	8180
813.421	8069
813.562	8031
813.703	7955
813.845	7788
813.986	7491
814.127	7259
814.268	7232
814.41	7213
814.551	7118
814.692	7137
814.833	7015
814.974	7084
815.115	7095
815.256	6993
815.397	6894
815.539	6981
815.68	6810
815.821	6764
815.962	6863
816.103	6753
816.244	6703
816.385	6700
816.526	6604
816.666	6467
816.807	6323
816.948	6429
817.089	6456
817.23	6380
817.371	6376
817.512	6418
817.653	6384
817.793	6331
817.934	6433
818.075	6426
818.216	6384
818.356	6441
818.497	6258
818.638	6060
818.778	6095
818.919	6110
819.06	6064
819.2	6331
819.341	6266
819.481	6323
819.622	6506
819.762	6715
819.903	6711
820.043	6616
820.184	6551
820.324	6532
820.465	6707
820.605	6658
820.746	6597
820.886	6441
821.026	6597
821.167	6730
821.307	6791
821.447	6730
821.588	6677
821.728	6669
821.868	6426
822.008	6323
822.149	6350
822.289	6395
822.429	6167
822.569	6091
822.709	6114
822.849	5908
822.99	5882
823.13	5946
823.27	5912
823.41	5786
823.55	5794
823.69	5760
823.83	5794
823.97	5680
824.11	5520
824.25	5558
824.389	5577
824.529	5562
824.669	5516
824.809	5596
824.949	5646
825.089	5630
825.228	5547
825.368	5440
825.508	5326
825.648	5322
825.787	5383
825.927	5345
826.067	5280
826.206	5258
826.346	5383
826.485	5357
826.625	5372
826.765	5558
826.904	5448
827.044	5239
827.183	5178
827.323	5155
827.462	5250
827.601	5117
827.741	5231
827.88	5258
828.02	5090
828.159	5227
828.298	5292
828.437	5330
828.577	5315
828.716	5429
828.855	5318
828.994	5113
829.134	5124
829.273	5250
829.412	5185
829.551	5121
829.69	5117
829.829	5235
829.968	5349
830.107	5265
830.246	5277
830.385	5151
830.524	5140
830.663	5117
830.802	5003
830.941	4889
831.08	4866
831.219	4976
831.357	4968
831.496	5193
831.635	4908
831.774	4850
831.913	4862
832.051	4725
832.19	4752
832.329	4824
832.467	4694
832.606	4622
832.744	4702
832.883	4653
833.022	4721
833.16	4828
833.299	4801
833.437	4850
833.576	4774
833.714	4854
833.852	4858
833.991	4885
834.129	4968
834.267	4946
834.406	4904
834.544	4968
834.682	4965
834.821	4934
834.959	5136
835.097	4999
835.235	5159
835.373	5090
835.511	5086
835.65	5018
835.788	5014
835.926	4889
836.064	4850
836.202	4892
836.34	5128
836.478	5254
836.615	5060
836.753	5254
836.891	5277
837.029	5273
837.167	5216
837.305	5132
837.443	5143
837.58	5086
837.718	5242
837.856	5185
837.993	5113
838.131	5212
838.269	5189
838.406	5136
838.544	5166
838.681	5003
838.819	5041
838.956	4870
839.094	4908
839.231	4972
839.369	5079
839.506	5410
839.643	5277
839.781	5086
839.918	4999
840.055	5094
840.193	5071
840.33	5140
840.467	5121
840.604	5181
840.742	5398
840.879	5048
841.016	5086
841.153	5136
841.29	5379
841.427	5364
841.564	5326
841.701	5349
841.838	5284
841.975	5212
842.112	5258
842.249	5132
842.385	5083
842.522	5322
842.659	5170
842.796	5109
842.933	5159
843.069	5162
843.206	5181
843.343	5311
843.479	5216
843.616	5231
843.752	5045
843.889	4946
844.025	5242
844.162	5003
844.298	5235
844.435	5124
844.571	5102
844.708	5155
844.844	5299
844.98	5345
845.117	5303
845.253	5117
845.389	5006
845.525	5124
845.661	5113
845.798	5098
845.934	5132
846.07	5022
846.206	5174
846.342	5280
846.478	5151
846.614	5025
846.75	4987
846.886	4946
847.022	5124
847.158	5003
847.294	5083
847.429	5117
847.565	5075
847.701	5322
847.837	4881
847.972	4786
848.108	4968
848.244	4930
848.379	4801
848.515	4725
848.65	4691
848.786	4698
848.921	4771
849.057	4843
849.192	4904
849.328	4835
849.463	4858
849.598	4767
849.734	4774
849.869	4710
850.004	4622
850.14	4702
850.275	4607
850.41	4478
850.545	4592
850.68	4584
850.815	4653
850.95	4599
851.085	4786
851.22	4774
851.355	4672
851.49	4580
851.625	4637
851.76	4584
851.895	4565
852.03	4516
852.165	4660
852.299	4752
852.434	4771
852.569	4771
852.703	4752
852.838	4824
852.973	4896
853.107	4873
853.242	4721
853.376	4672
853.511	4527
853.645	4641
853.78	4752
853.914	4664
854.048	4664
854.183	4675
854.317	4691
854.451	4828
854.585	4668
854.72	4656
854.854	4744
854.988	4550
855.122	4622
855.256	4554
855.39	4622
855.524	4767
855.658	4763
855.792	4675
855.926	4714
856.06	4714
856.194	4767
856.327	4691
856.461	4611
856.595	4573
856.729	4599
856.862	4748
856.996	4702
857.13	4759
857.263	4759
857.397	4790
857.53	4660
857.664	4755
857.797	4793
857.931	4763
858.064	4668
858.197	4736
858.331	4615
858.464	4603
858.597	4523
858.731	4599
858.864	4653
858.997	4577
859.13	4698
859.263	4645
859.396	4721
859.529	4569
859.662	4611
859.795	4481
859.928	4588
860.061	4767
860.194	4740
860.327	4584
860.46	4554
860.592	4675
860.725	4656
860.858	4706
860.99	4607
861.123	4531
861.256	4504
861.388	4607
861.521	5334
861.653	4474
861.786	4451
861.918	4481
862.05	4531
862.183	4554
862.315	4603
862.447	4683
862.58	4546
862.712	4379
862.844	4325
862.976	4459
863.108	4500
863.24	4908
863.372	4344
863.504	4432
863.636	4379
863.768	4455
863.9	4428
864.032	4386
864.164	4436
864.296	4512
864.428	4569
864.559	4580
864.691	4519
864.823	4538
864.954	4535
865.086	4531
865.217	4440
865.349	4421
865.48	4443
865.612	4512
865.743	4580
865.875	4428
866.006	4417
866.137	4462
866.269	4413
866.4	4440
866.531	4481
866.662	4367
866.793	4409
866.924	4394
867.055	4440
867.186	4409
867.317	4440
867.448	4402
867.579	4379
867.71	4348
867.841	4356
867.972	4424
868.103	4451
868.233	4417
868.364	4470
868.495	4485
868.625	4672
868.756	4740
868.886	4558
869.017	4615
869.147	4797
869.278	4714
869.408	4691
869.539	4611
869.669	4702
869.799	4679
869.929	4782
870.06	4717
870.19	4934
870.32	4911
870.45	4938
870.58	5029
870.71	5052
870.84	5102
870.97	4949
871.1	4885
871.23	5162
871.36	5124
871.489	4957
871.619	5052
871.749	5098
871.879	5117
872.008	5159
872.138	4995
872.267	4953
872.397	4873
872.526	4786
872.656	4721
872.785	4793
872.915	4919
873.044	5060
873.173	4949
873.303	4968
873.432	4923
873.561	4919
873.69	4843
873.819	4862
873.948	4930
874.077	4778
874.206	4759
874.335	4790
874.464	4961
874.593	5079
874.722	4949
874.851	5105
874.979	5056
875.108	5014
875.237	4900
875.365	4881
875.494	4877
875.623	4938
875.751	4847
875.88	4870
876.008	4953
876.136	5029
876.265	5155
876.393	5311
876.521	5204
876.65	5178
876.778	5185
876.906	5102
877.034	5022
877.162	5045
877.29	4961
877.418	5052
877.546	5014
877.674	5029
877.802	5067
877.93	5033
878.058	4900
878.185	4858
878.313	4949
878.441	4927
878.568	4793
878.696	4831
878.824	4892
878.951	4957
879.079	5143
879.206	5277
879.333	5090
879.461	4942
879.588	4995
879.715	5109
879.842	5220
879.97	5052
880.097	4771
880.224	4714
880.351	4850
880.478	4797
880.605	4816
880.732	4736
880.859	5083
880.986	4908
881.112	4866
881.239	4786
881.366	4710
881.493	4668
881.619	4603
881.746	4641
881.872	4626
881.999	4603
882.125	4702
882.252	4793
882.378	4839
882.505	4957
882.631	4759
882.757	4656
882.883	4729
883.01	4755
883.136	4706
883.262	4569
883.388	4649
883.514	4870
883.64	4873
883.766	4759
883.892	4679
884.018	4721
884.143	4885
884.269	5010
884.395	4675
884.52	4618
884.646	4626
884.772	4607
884.897	4573
885.023	4717
885.148	4744
885.274	4847
885.399	4771
885.524	4748
885.65	4649
885.775	4767
885.9	4691
886.025	4824
886.15	4774
886.275	4736
886.4	4668
886.525	4733
886.65	4664
886.775	4683
886.9	4919
887.025	5083
887.149	4744
887.274	4653
887.399	4542
887.523	4538
887.648	4546
887.773	4580
887.897	4717
888.021	4839
888.146	4653
888.27	4831
888.395	4923
888.519	4759
888.643	4790
888.767	4786
888.891	4694
889.015	4554
889.139	4615
889.263	4618
889.387	4702
889.511	4870
889.635	4771
889.759	4577
889.883	4641
890.006	4698
890.13	4820
890.254	4603
890.377	4698
890.501	4565
890.624	4516
890.748	4611
890.871	4508
890.995	4451
891.118	4371
891.241	4531
891.364	4561
891.488	4561
891.611	4481
891.734	4527
891.857	4599
891.98	4538
892.103	4611
892.226	4615
892.349	4535
892.471	4398
892.594	4523
892.717	4596
892.839	4542
892.962	4580
893.085	4630
893.207	4596
893.33	4462
893.452	4561
893.575	4683
893.697	4592
893.819	4744
893.941	4835
894.064	4740
894.186	4569
894.308	4577
894.43	4752
894.552	4877
894.674	4740
894.796	4584
894.918	4554
895.04	4538
895.161	4714
895.283	4660
895.405	4599
895.526	4618
895.648	4641
895.769	4698
895.891	4706
896.012	4748
896.134	4721
896.255	4694
896.376	4637
896.498	4645
896.619	4630
896.74	4641
896.861	4672
896.982	4927
897.103	5079
897.224	4790
897.345	4778
897.466	4637
897.587	4744
897.708	4858
897.828	4801
897.949	4679
898.07	4538
898.19	4618
898.311	4843
898.431	4736
898.552	4790
898.672	4831
898.792	4767
898.913	4698
899.033	4653
899.153	4478
899.273	4367
899.393	4474
899.513	4538
899.633	4558
899.753	4531
899.873	4523
899.993	4603
900.113	4512
900.232	4637
900.352	4519
900.472	4497
900.591	4417
900.711	4493
900.83	4367
900.95	4649
901.069	4653
901.189	4558
901.308	4356
901.427	4303
901.546	4413
901.665	4451
901.784	4512
901.904	4360
902.023	4329
902.141	4185
902.26	4128
902.379	4299
902.498	4246
902.617	4204
902.735	4398
902.854	4390
902.973	4356
903.091	4162
903.21	4238
903.328	4242
903.446	4268
903.565	4200
903.683	4386
903.801	4257
903.919	4379
904.038	4413
904.156	4310
904.274	4417
904.392	4363
904.51	4436
904.627	4485
904.745	4584
904.863	4645
904.981	4383
905.098	4337
905.216	4375
905.334	4421
905.451	4443
905.569	4455
905.686	4554
905.803	4542
905.921	4383
906.038	4485
906.155	4481
906.272	4394
906.389	4436
906.506	4314
906.623	4398
906.74	4383
906.857	4318
906.974	4348
907.091	4527
907.208	4706
907.324	4615
907.441	4500
907.557	4341
907.674	4337
907.79	4295
907.907	4390
908.023	4474
908.139	4474
908.256	4424
908.372	4428
908.488	4432
908.604	4348
908.72	4299
908.836	4341
908.952	4405
909.068	4386
909.184	4542
909.3	4497
909.415	4577
909.531	4558
909.647	4325
909.762	4375
909.878	4329
909.993	4386
910.108	4402
910.224	4428
910.339	4432
910.454	4383
910.57	4390
910.685	4314
910.8	4660
910.915	4519
911.03	4489
911.145	4348
911.259	4314
911.374	4383
911.489	4268
911.604	4284
911.718	4188
911.833	4215
911.947	4116
912.062	4044
912.176	4249
912.291	4211
912.405	4253
912.519	4500
912.633	4493
912.748	4371
912.862	4306
912.976	4204
913.09	4120
913.204	4124
913.318	4265
913.431	4398
913.545	4356
913.659	4417
913.772	4375
913.886	4261
914	4242
914.113	4451
914.226	4394
914.34	4424
914.453	4257
914.566	4428
914.68	4329
914.793	4341
914.906	4139
915.019	4158
915.132	4082
915.245	4181
915.358	4207
915.47	4219
915.583	4234
915.696	4333
915.809	4390
915.921	4443
916.034	4249
916.146	4246
916.259	4211
916.371	4413
916.483	4371
916.595	4204
916.708	4337
916.82	4329
916.932	4303
917.044	4329
917.156	4363
917.268	4223
917.38	4265
917.491	4280
917.603	4383
917.715	4455
917.826	4459
917.938	4303
918.049	4234
918.161	4413
918.272	4554
918.384	4561
918.495	4428
918.606	4276
918.717	4223
918.828	4329
918.939	4383
919.05	4246
919.161	4303
919.272	4101
919.383	4238
919.494	4440
919.604	4584
919.715	4390
919.826	4352
919.936	4341
920.047	4550
920.157	4504
920.267	4645
920.378	4542
920.488	4497
920.598	4717
920.708	4938
920.818	4782
920.928	4763
921.038	4980
921.148	4885
921.258	4626
921.368	4538
921.477	4451
921.587	4421
921.697	4375
921.806	4523
921.916	4451
922.025	4253
922.134	4268
922.244	4188
922.353	4371
922.462	4169
922.571	4120
922.68	4032
922.789	3941
922.898	3994
923.007	3998
923.116	4082
923.224	4051
923.333	4048
923.442	4029
923.55	3987
923.659	3994
923.767	4090
923.876	4025
923.984	4105
924.092	3945
924.201	4036
924.309	4036
924.417	4128
924.525	4074
924.633	4093
924.741	4866
924.849	3930
924.956	4101
925.064	3972
925.172	3922
925.279	3945
925.387	4051
925.494	4017
925.602	4207
925.709	4166
925.816	4048
925.924	4139
926.031	4238
926.138	4154
926.245	4188
926.352	4067
926.459	4215
926.566	4325
926.673	4181
926.779	4071
926.886	4093
926.993	4021
927.099	3968
927.206	3937
927.312	3945
927.419	4063
927.525	4029
927.631	4082
927.737	3937
927.843	3945
927.95	3838
928.056	3975
928.162	4002
928.267	4021
928.373	4717
928.479	4150
928.585	3880
928.69	4006
928.796	4067
928.901	3956
929.007	3827
929.112	3968
929.218	4006
929.323	3968
929.428	3926
929.533	4109
929.638	3865
929.743	3964
929.848	4013
929.953	3979
930.058	3960
930.163	3804
930.267	3823
930.372	3949
930.477	3857
930.581	4036
930.685	3926
930.79	3812
930.894	3850
930.998	3884
931.103	4071
931.207	3679
931.311	3686
931.415	3686
931.519	3481
931.623	3584
