Data from test_V78500241_83.txt Node
Date: Fri Mar 25 16:49:34 CST 2022
User: usil
Spectrometer: V785-0024
Trigger mode: 0
Integration Time (sec): 4.000000E-1
Scans to average: 1
Nonlinearity correction enabled: false
Boxcar width: 0
Storing dark spectrum: false
XAxis mode: Wavelengths
Number of Pixels in Spectrum: 1024
>>>>>Begin Spectral Data<<<<<
801.071	8096
801.214	8084
801.356	7978
801.499	7902
801.641	7883
801.783	7906
801.926	8069
802.068	7982
802.211	8096
802.353	8058
802.496	7913
802.638	8043
802.78	8027
802.923	7997
803.065	7959
803.208	7894
803.35	7944
803.492	8130
803.635	8107
803.777	8012
803.919	8157
804.061	8366
804.204	8153
804.346	8084
804.488	7974
804.63	8123
804.773	7986
804.915	8119
805.057	8267
805.199	8107
805.341	8206
805.483	8320
805.626	8237
805.768	8138
805.91	8195
806.052	8149
806.194	8138
806.336	8358
806.478	8199
806.62	8195
806.762	8282
806.904	8294
807.046	8461
807.188	8415
807.33	8320
807.472	8370
807.614	8252
807.756	8153
807.898	8035
808.04	7951
808.182	7917
808.324	7967
808.465	7928
808.607	8043
808.749	8065
808.891	8214
809.033	8275
809.174	8244
809.316	8031
809.458	8031
809.6	8046
809.741	8005
809.883	8058
810.025	8115
810.166	8046
810.308	8039
810.45	7997
810.591	7940
810.733	7734
810.875	7693
811.016	7605
811.158	7582
811.299	7658
811.441	7803
811.582	7795
811.724	7666
811.865	7628
812.007	7681
812.148	7681
812.29	7715
812.431	7742
812.573	7986
812.714	8024
812.855	8221
812.997	8301
813.138	8396
813.279	8279
813.421	8199
813.562	8043
813.703	7841
813.845	7841
813.986	7460
814.127	7365
814.268	7305
814.41	7247
814.551	7183
814.692	7289
814.833	7171
814.974	7194
815.115	7164
815.256	7019
815.397	6958
815.539	6958
815.68	6795
815.821	6852
815.962	6837
816.103	6871
816.244	6707
816.385	6700
816.526	6608
816.666	6555
816.807	6388
816.948	6506
817.089	6467
817.23	6494
817.371	6407
817.512	6460
817.653	6460
817.793	6448
817.934	6422
818.075	6483
818.216	6521
818.356	6475
818.497	6308
818.638	6224
818.778	6224
818.919	6175
819.06	6148
819.2	6384
819.341	6338
819.481	6429
819.622	6570
819.762	6783
819.903	6768
820.043	6597
820.184	6608
820.324	6593
820.465	6749
820.605	6741
820.746	6715
820.886	6608
821.026	6768
821.167	6787
821.307	6837
821.447	6798
821.588	6662
821.728	6627
821.868	6570
822.008	6391
822.149	6380
822.289	6407
822.429	6232
822.569	6140
822.709	6144
822.849	5916
822.99	5893
823.13	5980
823.27	5950
823.41	5821
823.55	5851
823.69	5866
823.83	5840
823.97	5748
824.11	5623
824.25	5566
824.389	5604
824.529	5577
824.669	5646
824.809	5691
824.949	5741
825.089	5668
825.228	5600
825.368	5391
825.508	5353
825.648	5395
825.787	5417
825.927	5402
826.067	5379
826.206	5364
826.346	5406
826.485	5429
826.625	5459
826.765	5543
826.904	5512
827.044	5261
827.183	5235
827.323	5170
827.462	5231
827.601	5170
827.741	5258
827.88	5246
828.02	5166
828.159	5242
828.298	5322
828.437	5395
828.577	5376
828.716	5497
828.855	5341
828.994	5181
829.134	5147
829.273	5254
829.412	5155
829.551	5143
829.69	5254
829.829	5246
829.968	5398
830.107	5315
830.246	5299
830.385	5227
830.524	5155
830.663	5067
830.802	4995
830.941	4938
831.08	4904
831.219	5071
831.357	4980
831.496	5204
831.635	4953
831.774	4873
831.913	4896
832.051	4782
832.19	4786
832.329	4828
832.467	4729
832.606	4706
832.744	4809
832.883	4759
833.022	4793
833.16	4824
833.299	4831
833.437	4896
833.576	4839
833.714	4896
833.852	4885
833.991	4908
834.129	4999
834.267	4984
834.406	4930
834.544	5010
834.682	5025
834.821	4999
834.959	5288
835.097	5041
835.235	5174
835.373	5113
835.511	5117
835.65	5086
835.788	5041
835.926	4968
836.064	4900
836.202	4987
836.34	5174
836.478	5261
836.615	5121
836.753	5231
836.891	5334
837.029	5258
837.167	5208
837.305	5166
837.443	5132
837.58	5136
837.718	5315
837.856	5220
837.993	5147
838.131	5307
838.269	5204
838.406	5250
838.544	5193
838.681	5086
838.819	5045
838.956	4995
839.094	4915
839.231	5083
839.369	5147
839.506	5463
839.643	5299
839.781	5090
839.918	5086
840.055	5105
840.193	5147
840.33	5140
840.467	5181
840.604	5227
840.742	5486
840.879	5117
841.016	5098
841.153	5181
841.29	5410
841.427	5368
841.564	5391
841.701	5395
841.838	5299
841.975	5284
842.112	5311
842.249	5166
842.385	5128
842.522	5387
842.659	5208
842.796	5193
842.933	5242
843.069	5193
843.206	5143
843.343	5296
843.479	5242
843.616	5280
843.752	5067
843.889	5037
844.025	5273
844.162	5025
844.298	5296
844.435	5166
844.571	5079
844.708	5197
844.844	5334
844.98	5387
845.117	5322
845.253	5189
845.389	5124
845.525	5185
845.661	5170
845.798	5109
845.934	5223
846.07	5048
846.206	5208
846.342	5322
846.478	5174
846.614	5056
846.75	5033
846.886	4991
847.022	5174
847.158	5064
847.294	5124
847.429	5124
847.565	5048
847.701	5357
847.837	4904
847.972	4835
848.108	5010
848.244	4957
848.379	4805
848.515	4717
848.65	4725
848.786	4759
848.921	4805
849.057	4915
849.192	4949
849.328	4816
849.463	4877
849.598	4839
849.734	4805
849.869	4771
850.004	4649
850.14	4710
850.275	4618
850.41	4554
850.545	4634
850.68	4626
850.815	4653
850.95	4653
851.085	4892
851.22	4763
851.355	4694
851.49	4675
851.625	4691
851.76	4668
851.895	4538
852.03	4546
852.165	4706
852.299	4748
852.434	4831
852.569	4797
852.703	4797
852.838	4881
852.973	4968
853.107	4965
853.242	4729
853.376	4710
853.511	4596
853.645	4660
853.78	4858
853.914	4729
854.048	4660
854.183	4645
854.317	4774
854.451	4839
854.585	4694
854.72	4687
854.854	4816
854.988	4626
855.122	4660
855.256	4538
855.39	4672
855.524	4793
855.658	4755
855.792	4714
855.926	4717
856.06	4729
856.194	4824
856.327	4752
856.461	4611
856.595	4637
856.729	4618
856.862	4771
856.996	4725
857.13	4729
857.263	4816
857.397	4843
857.53	4683
857.664	4733
857.797	4828
857.931	4786
858.064	4706
858.197	4729
858.331	4679
858.464	4645
858.597	4588
858.731	4653
858.864	4698
858.997	4645
859.13	4664
859.263	4721
859.396	4736
859.529	4622
859.662	4573
859.795	4607
859.928	4618
860.061	4839
860.194	4858
860.327	4622
860.46	4599
860.592	4729
860.725	4717
860.858	4759
860.99	4622
861.123	4588
861.256	4554
861.388	4637
861.521	5318
861.653	4497
861.786	4485
861.918	4497
862.05	4531
862.183	4538
862.315	4641
862.447	4664
862.58	4611
862.712	4402
862.844	4363
862.976	4489
863.108	4451
863.24	4896
863.372	4405
863.504	4436
863.636	4428
863.768	4504
863.9	4485
864.032	4360
864.164	4424
864.296	4489
864.428	4615
864.559	4653
864.691	4531
864.823	4561
864.954	4512
865.086	4592
865.217	4459
865.349	4421
865.48	4478
865.612	4523
865.743	4683
865.875	4516
866.006	4478
866.137	4531
866.269	4474
866.4	4428
866.531	4421
866.662	4447
866.793	4459
866.924	4451
867.055	4523
867.186	4523
867.317	4451
867.448	4409
867.579	4383
867.71	4459
867.841	4413
867.972	4504
868.103	4443
868.233	4447
868.364	4489
868.495	4481
868.625	4694
868.756	4767
868.886	4618
869.017	4641
869.147	4797
869.278	4771
869.408	4717
869.539	4691
869.669	4759
869.799	4664
869.929	4812
870.06	4744
870.19	5006
870.32	4995
870.45	4946
870.58	5048
870.71	5147
870.84	5098
870.97	4999
871.1	4987
871.23	5170
871.36	5124
871.489	5056
871.619	5128
871.749	5094
871.879	5170
872.008	5246
872.138	5109
872.267	4957
872.397	4870
872.526	4866
872.656	4805
872.785	4847
872.915	5003
873.044	5086
873.173	4942
873.303	4972
873.432	4987
873.561	4968
873.69	4923
873.819	4870
873.948	5014
874.077	4782
874.206	4778
874.335	4862
874.464	4930
874.593	5094
874.722	5025
874.851	5174
874.979	5094
875.108	5056
875.237	4896
875.365	4896
875.494	4896
875.623	5067
875.751	4862
875.88	4892
876.008	5018
876.136	5022
876.265	5254
876.393	5398
876.521	5231
876.65	5246
876.778	5170
876.906	5098
877.034	5048
877.162	5067
877.29	5003
877.418	5136
877.546	5010
877.674	5010
877.802	5102
877.93	5098
878.058	4984
878.185	4904
878.313	4991
878.441	4949
878.568	4816
878.696	4892
878.824	4991
878.951	5033
879.079	5147
879.206	5315
879.333	5083
879.461	4953
879.588	5014
879.715	5132
879.842	5242
879.97	5083
880.097	4835
880.224	4771
880.351	4843
880.478	4820
880.605	4843
880.732	4786
880.859	5102
880.986	4889
881.112	4949
881.239	4782
881.366	4679
881.493	4634
881.619	4622
881.746	4603
881.872	4649
881.999	4679
882.125	4733
882.252	4873
882.378	4839
882.505	4991
882.631	4831
882.757	4733
882.883	4767
883.01	4736
883.136	4717
883.262	4660
883.388	4634
883.514	4835
883.64	4927
883.766	4824
883.892	4675
884.018	4736
884.143	4934
884.269	5033
884.395	4694
884.52	4645
884.646	4656
884.772	4630
884.897	4603
885.023	4668
885.148	4805
885.274	4873
885.399	4736
885.524	4717
885.65	4733
885.775	4858
885.9	4725
886.025	4889
886.15	4805
886.275	4721
886.4	4702
886.525	4763
886.65	4725
886.775	4675
886.9	4930
887.025	5029
887.149	4820
887.274	4679
887.399	4542
887.523	4622
887.648	4615
887.773	4592
887.897	4801
888.021	4835
888.146	4721
888.27	4850
888.395	4946
888.519	4843
888.643	4904
888.767	4847
888.891	4683
889.015	4672
889.139	4687
889.263	4618
889.387	4786
889.511	4911
889.635	4862
889.759	4668
889.883	4653
890.006	4790
890.13	4911
890.254	4622
890.377	4717
890.501	4637
890.624	4603
890.748	4675
890.871	4580
890.995	4474
891.118	4379
891.241	4580
891.364	4569
891.488	4660
891.611	4508
891.734	4531
891.857	4588
891.98	4626
892.103	4679
892.226	4615
892.349	4508
892.471	4478
892.594	4577
892.717	4634
892.839	4554
892.962	4649
893.085	4672
893.207	4607
893.33	4493
893.452	4554
893.575	4675
893.697	4599
893.819	4847
893.941	4870
894.064	4759
894.186	4618
894.308	4596
894.43	4740
894.552	4866
894.674	4820
894.796	4538
894.918	4672
895.04	4618
895.161	4694
895.283	4626
895.405	4622
895.526	4649
895.648	4702
895.769	4694
895.891	4752
896.012	4771
896.134	4759
896.255	4649
896.376	4664
896.498	4592
896.619	4706
896.74	4660
896.861	4675
896.982	4968
897.103	5136
897.224	4854
897.345	4797
897.466	4706
897.587	4744
897.708	4915
897.828	4809
897.949	4729
898.07	4637
898.19	4641
898.311	4870
898.431	4714
898.552	4778
898.672	4854
898.792	4835
898.913	4831
899.033	4649
899.153	4531
899.273	4497
899.393	4527
899.513	4558
899.633	4565
899.753	4588
899.873	4561
899.993	4611
900.113	4558
900.232	4592
900.352	4554
900.472	4535
900.591	4493
900.711	4531
900.83	4443
900.95	4634
901.069	4721
901.189	4535
901.308	4386
901.427	4322
901.546	4474
901.665	4497
901.784	4519
901.904	4402
902.023	4394
902.141	4219
902.26	4139
902.379	4337
902.498	4272
902.617	4257
902.735	4367
902.854	4417
902.973	4409
903.091	4219
903.21	4238
903.328	4322
903.446	4261
903.565	4329
903.683	4352
903.801	4299
903.919	4436
904.038	4462
904.156	4352
904.274	4455
904.392	4417
904.51	4485
904.627	4565
904.745	4630
904.863	4637
904.981	4432
905.098	4344
905.216	4402
905.334	4462
905.451	4462
905.569	4470
905.686	4599
905.803	4580
905.921	4459
906.038	4550
906.155	4519
906.272	4394
906.389	4489
906.506	4371
906.623	4443
906.74	4459
906.857	4348
906.974	4360
907.091	4580
907.208	4717
907.324	4592
907.441	4516
907.557	4375
907.674	4383
907.79	4356
907.907	4413
908.023	4519
908.139	4538
908.256	4470
908.372	4535
908.488	4493
908.604	4405
908.72	4348
908.836	4421
908.952	4417
909.068	4462
909.184	4584
909.3	4481
909.415	4641
909.531	4580
909.647	4371
909.762	4348
909.878	4386
909.993	4485
910.108	4428
910.224	4455
910.339	4485
910.454	4421
910.57	4360
910.685	4344
910.8	4714
910.915	4668
911.03	4497
911.145	4409
911.259	4352
911.374	4398
911.489	4333
911.604	4363
911.718	4192
911.833	4173
911.947	4147
912.062	4071
912.176	4253
912.291	4284
912.405	4276
912.519	4470
912.633	4558
912.748	4432
912.862	4348
912.976	4295
913.09	4074
913.204	4185
913.318	4287
913.431	4413
913.545	4455
913.659	4451
913.772	4371
913.886	4276
914	4238
914.113	4402
914.226	4516
914.34	4424
914.453	4310
914.566	4478
914.68	4360
914.793	4329
914.906	4150
915.019	4124
915.132	4090
915.245	4223
915.358	4272
915.47	4230
915.583	4280
915.696	4325
915.809	4462
915.921	4474
916.034	4276
916.146	4314
916.259	4261
916.371	4363
916.483	4390
916.595	4257
916.708	4322
916.82	4341
916.932	4344
917.044	4367
917.156	4352
917.268	4314
917.38	4333
917.491	4295
917.603	4371
917.715	4497
917.826	4485
917.938	4386
918.049	4280
918.161	4352
918.272	4588
918.384	4531
918.495	4462
918.606	4318
918.717	4261
918.828	4310
918.939	4371
919.05	4295
919.161	4333
919.272	4128
919.383	4246
919.494	4466
919.604	4637
919.715	4447
919.826	4356
919.936	4440
920.047	4546
920.157	4531
920.267	4755
920.378	4580
920.488	4493
920.598	4774
920.708	4923
920.818	4805
920.928	4828
921.038	4987
921.148	4938
921.258	4637
921.368	4584
921.477	4519
921.587	4470
921.697	4421
921.806	4538
921.916	4474
922.025	4303
922.134	4284
922.244	4234
922.353	4356
922.462	4196
922.571	4135
922.68	4002
922.789	3991
922.898	4071
923.007	4032
923.116	4135
923.224	4082
923.333	4090
923.442	4017
923.55	3972
923.659	4051
923.767	4166
923.876	4002
923.984	4147
924.092	4002
924.201	4109
924.309	4112
924.417	4185
924.525	4128
924.633	4143
924.741	4904
924.849	3907
924.956	4173
925.064	3994
925.172	3953
925.279	3979
925.387	4105
925.494	4067
925.602	4253
925.709	4181
925.816	4025
925.924	4143
926.031	4299
926.138	4147
926.245	4185
926.352	4131
926.459	4227
926.566	4363
926.673	4150
926.779	4128
926.886	4105
926.993	3972
927.099	4013
927.206	4017
927.312	4006
927.419	4086
927.525	4055
927.631	4109
927.737	3972
927.843	3899
927.95	3899
928.056	3964
928.162	3991
928.267	4101
928.373	4641
928.479	4147
928.585	3941
928.69	4044
928.796	4120
928.901	4017
929.007	3899
929.112	4044
929.218	3991
929.323	3991
929.428	3941
929.533	4116
929.638	3896
929.743	3994
929.848	4097
929.953	4059
930.058	3934
930.163	3800
930.267	3869
930.372	3972
930.477	3808
930.581	4128
930.685	4006
930.79	3873
930.894	3922
930.998	3884
931.103	4036
931.207	3736
931.311	3713
931.415	3671
931.519	3557
931.623	3545
