Data from test_V78500241_1032.txt Node
Date: Fri Mar 25 16:56:10 CST 2022
User: usil
Spectrometer: V785-0024
Trigger mode: 0
Integration Time (sec): 4.000000E-1
Scans to average: 1
Nonlinearity correction enabled: false
Boxcar width: 0
Storing dark spectrum: false
XAxis mode: Wavelengths
Number of Pixels in Spectrum: 1024
>>>>>Begin Spectral Data<<<<<
801.071	8084
801.214	8065
801.356	7868
801.499	7845
801.641	7765
801.783	7833
801.926	7982
802.068	7921
802.211	7982
802.353	7989
802.496	7849
802.638	7818
802.78	7925
802.923	7883
803.065	7868
803.208	7883
803.35	7978
803.492	8103
803.635	8191
803.777	7989
803.919	8123
804.061	8404
804.204	8123
804.346	8035
804.488	7890
804.63	8077
804.773	8050
804.915	8092
805.057	8309
805.199	8153
805.341	8218
805.483	8233
805.626	8153
805.768	8138
805.91	8176
806.052	8134
806.194	8058
806.336	8366
806.478	8107
806.62	7982
806.762	8145
806.904	8256
807.046	8404
807.188	8282
807.33	8294
807.472	8332
807.614	8145
807.756	8096
807.898	8008
808.04	7887
808.182	7811
808.324	7868
808.465	7887
808.607	8115
808.749	8107
808.891	8153
809.033	8214
809.174	8088
809.316	8058
809.458	8054
809.6	7982
809.741	7997
809.883	8050
810.025	8054
810.166	7993
810.308	8039
810.45	7951
810.591	7890
810.733	7723
810.875	7636
811.016	7483
811.158	7472
811.299	7601
811.441	7719
811.582	7712
811.724	7567
811.865	7480
812.007	7636
812.148	7544
812.29	7613
812.431	7700
812.573	7833
812.714	7963
812.855	8077
812.997	8214
813.138	8237
813.279	8183
813.421	8062
813.562	7959
813.703	7833
813.845	7753
813.986	7415
814.127	7263
814.268	7194
814.41	7160
814.551	7126
814.692	7095
814.833	7084
814.974	7095
815.115	7072
815.256	6966
815.397	6909
815.539	6951
815.68	6738
815.821	6818
815.962	6852
816.103	6833
816.244	6684
816.385	6635
816.526	6582
816.666	6441
816.807	6258
816.948	6456
817.089	6407
817.23	6479
817.371	6384
817.512	6388
817.653	6391
817.793	6372
817.934	6414
818.075	6494
818.216	6433
818.356	6395
818.497	6232
818.638	6110
818.778	6098
818.919	6148
819.06	6133
819.2	6315
819.341	6315
819.481	6369
819.622	6589
819.762	6726
819.903	6677
820.043	6574
820.184	6547
820.324	6528
820.465	6623
820.605	6711
820.746	6589
820.886	6494
821.026	6589
821.167	6688
821.307	6783
821.447	6757
821.588	6616
821.728	6547
821.868	6521
822.008	6308
822.149	6418
822.289	6331
822.429	6182
822.569	6049
822.709	6095
822.849	5889
822.99	5942
823.13	5904
823.27	5878
823.41	5805
823.55	5813
823.69	5771
823.83	5775
823.97	5695
824.11	5482
824.25	5436
824.389	5528
824.529	5543
824.669	5558
824.809	5573
824.949	5573
825.089	5589
825.228	5554
825.368	5368
825.508	5322
825.648	5292
825.787	5315
825.927	5353
826.067	5284
826.206	5299
826.346	5383
826.485	5364
826.625	5414
826.765	5516
826.904	5433
827.044	5254
827.183	5159
827.323	5124
827.462	5250
827.601	5201
827.741	5162
827.88	5220
828.02	5086
828.159	5250
828.298	5277
828.437	5330
828.577	5284
828.716	5490
828.855	5292
828.994	5132
829.134	5162
829.273	5197
829.412	5117
829.551	5159
829.69	5121
829.829	5254
829.968	5322
830.107	5292
830.246	5273
830.385	5132
830.524	5124
830.663	5094
830.802	4980
830.941	4870
831.08	4862
831.219	4911
831.357	4999
831.496	5147
831.635	4930
831.774	4866
831.913	4839
832.051	4714
832.19	4729
832.329	4824
832.467	4733
832.606	4618
832.744	4729
832.883	4748
833.022	4721
833.16	4820
833.299	4812
833.437	4839
833.576	4816
833.714	4824
833.852	4793
833.991	4866
834.129	4919
834.267	4965
834.406	4919
834.544	4946
834.682	4968
834.821	4923
834.959	5075
835.097	4953
835.235	5140
835.373	5041
835.511	5048
835.65	5041
835.788	5014
835.926	4866
836.064	4881
836.202	4900
836.34	5121
836.478	5208
836.615	5151
836.753	5185
836.891	5220
837.029	5235
837.167	5223
837.305	5147
837.443	5155
837.58	5083
837.718	5265
837.856	5124
837.993	5147
838.131	5216
838.269	5174
838.406	5185
838.544	5208
838.681	5052
838.819	5022
838.956	4889
839.094	4862
839.231	4984
839.369	5048
839.506	5326
839.643	5246
839.781	5045
839.918	5052
840.055	5124
840.193	5079
840.33	5105
840.467	5132
840.604	5162
840.742	5463
840.879	5109
841.016	5067
841.153	5155
841.29	5372
841.427	5307
841.564	5299
841.701	5299
841.838	5269
841.975	5223
842.112	5277
842.249	5170
842.385	5079
842.522	5311
842.659	5189
842.796	5121
842.933	5216
843.069	5159
843.206	5155
843.343	5280
843.479	5235
843.616	5239
843.752	5018
843.889	4991
844.025	5185
844.162	4987
844.298	5197
844.435	5060
844.571	4984
844.708	5155
844.844	5284
844.98	5334
845.117	5280
845.253	5086
845.389	5117
845.525	5128
845.661	5136
845.798	4987
845.934	5113
846.07	5003
846.206	5162
846.342	5277
846.478	5193
846.614	5025
846.75	4976
846.886	4900
847.022	5124
847.158	4930
847.294	5029
847.429	5064
847.565	5048
847.701	5307
847.837	4866
847.972	4816
848.108	4927
848.244	4934
848.379	4793
848.515	4694
848.65	4691
848.786	4736
848.921	4771
849.057	4892
849.192	4881
849.328	4835
849.463	4843
849.598	4820
849.734	4786
849.869	4672
850.004	4634
850.14	4672
850.275	4599
850.41	4542
850.545	4558
850.68	4599
850.815	4607
850.95	4603
851.085	4843
851.22	4740
851.355	4683
851.49	4588
851.625	4596
851.76	4637
851.895	4523
852.03	4516
852.165	4626
852.299	4733
852.434	4782
852.569	4694
852.703	4725
852.838	4858
852.973	4896
853.107	4900
853.242	4714
853.376	4660
853.511	4569
853.645	4596
853.78	4809
853.914	4656
854.048	4668
854.183	4656
854.317	4630
854.451	4801
854.585	4672
854.72	4668
854.854	4744
854.988	4523
855.122	4618
855.256	4493
855.39	4694
855.524	4755
855.658	4698
855.792	4710
855.926	4733
856.06	4759
856.194	4767
856.327	4649
856.461	4592
856.595	4607
856.729	4584
856.862	4736
856.996	4634
857.13	4710
857.263	4748
857.397	4778
857.53	4660
857.664	4691
857.797	4744
857.931	4740
858.064	4691
858.197	4725
858.331	4653
858.464	4675
858.597	4535
858.731	4626
858.864	4596
858.997	4577
859.13	4653
859.263	4675
859.396	4691
859.529	4569
859.662	4538
859.795	4531
859.928	4599
860.061	4820
860.194	4714
860.327	4577
860.46	4569
860.592	4710
860.725	4668
860.858	4759
860.99	4561
861.123	4516
861.256	4512
861.388	4561
861.521	5311
861.653	4451
861.786	4398
861.918	4478
862.05	4478
862.183	4531
862.315	4577
862.447	4641
862.58	4535
862.712	4390
862.844	4303
862.976	4462
863.108	4413
863.24	4911
863.372	4295
863.504	4436
863.636	4428
863.768	4447
863.9	4436
864.032	4333
864.164	4394
864.296	4462
864.428	4535
864.559	4561
864.691	4531
864.823	4516
864.954	4508
865.086	4470
865.217	4447
865.349	4390
865.48	4440
865.612	4481
865.743	4577
865.875	4500
866.006	4417
866.137	4489
866.269	4451
866.4	4443
866.531	4432
866.662	4386
866.793	4386
866.924	4386
867.055	4497
867.186	4413
867.317	4394
867.448	4344
867.579	4386
867.71	4390
867.841	4329
867.972	4417
868.103	4447
868.233	4451
868.364	4394
868.495	4470
868.625	4596
868.756	4748
868.886	4523
869.017	4569
869.147	4778
869.278	4748
869.408	4664
869.539	4584
869.669	4694
869.799	4641
869.929	4706
870.06	4698
870.19	4900
870.32	4900
870.45	4984
870.58	4980
870.71	5090
870.84	5064
870.97	4930
871.1	4873
871.23	5155
871.36	5105
871.489	5010
871.619	5067
871.749	5041
871.879	5109
872.008	5155
872.138	5029
872.267	4953
872.397	4873
872.526	4801
872.656	4702
872.785	4736
872.915	4972
873.044	4976
873.173	4930
873.303	4927
873.432	4915
873.561	4908
873.69	4892
873.819	4847
873.948	4908
874.077	4816
874.206	4755
874.335	4858
874.464	4934
874.593	5041
874.722	4930
874.851	5060
874.979	5052
875.108	5014
875.237	4900
875.365	4870
875.494	4816
875.623	4930
875.751	4793
875.88	4839
876.008	4984
876.136	5014
876.265	5128
876.393	5307
876.521	5227
876.65	5170
876.778	5212
876.906	5045
877.034	4972
877.162	5025
877.29	4972
877.418	5018
877.546	5090
877.674	5052
877.802	4987
877.93	5029
878.058	4889
878.185	4877
878.313	4976
878.441	4892
878.568	4812
878.696	4892
878.824	4999
878.951	5018
879.079	5098
879.206	5273
879.333	5121
879.461	4961
879.588	5003
879.715	5105
879.842	5212
879.97	5003
880.097	4786
880.224	4774
880.351	4801
880.478	4793
880.605	4782
880.732	4767
880.859	5071
880.986	4866
881.112	4873
881.239	4729
881.366	4668
881.493	4599
881.619	4592
881.746	4592
881.872	4664
881.999	4649
882.125	4721
882.252	4786
882.378	4786
882.505	4930
882.631	4774
882.757	4668
882.883	4710
883.01	4748
883.136	4694
883.262	4607
883.388	4577
883.514	4790
883.64	4847
883.766	4763
883.892	4649
884.018	4702
884.143	4915
884.269	5052
884.395	4675
884.52	4592
884.646	4637
884.772	4603
884.897	4561
885.023	4672
885.148	4805
885.274	4866
885.399	4778
885.524	4733
885.65	4691
885.775	4710
885.9	4706
886.025	4862
886.15	4729
886.275	4725
886.4	4672
886.525	4721
886.65	4679
886.775	4660
886.9	4873
887.025	5060
887.149	4790
887.274	4649
887.399	4523
887.523	4618
887.648	4561
887.773	4584
887.897	4706
888.021	4778
888.146	4668
888.27	4801
888.395	4885
888.519	4771
888.643	4778
888.767	4843
888.891	4721
889.015	4630
889.139	4649
889.263	4622
889.387	4763
889.511	4873
889.635	4816
889.759	4664
889.883	4603
890.006	4752
890.13	4782
890.254	4588
890.377	4664
890.501	4565
890.624	4531
890.748	4645
890.871	4512
890.995	4443
891.118	4360
891.241	4459
891.364	4565
891.488	4588
891.611	4512
891.734	4512
891.857	4599
891.98	4531
892.103	4637
892.226	4580
892.349	4516
892.471	4402
892.594	4561
892.717	4565
892.839	4569
892.962	4580
893.085	4637
893.207	4561
893.33	4443
893.452	4504
893.575	4607
893.697	4523
893.819	4771
893.941	4736
894.064	4733
894.186	4531
894.308	4542
894.43	4763
894.552	4786
894.674	4767
894.796	4569
894.918	4554
895.04	4481
895.161	4664
895.283	4641
895.405	4584
895.526	4607
895.648	4687
895.769	4675
895.891	4683
896.012	4759
896.134	4706
896.255	4634
896.376	4611
896.498	4664
896.619	4645
896.74	4588
896.861	4668
896.982	4942
897.103	5083
897.224	4812
897.345	4752
897.466	4691
897.587	4691
897.708	4831
897.828	4767
897.949	4675
898.07	4546
898.19	4679
898.311	4805
898.431	4653
898.552	4706
898.672	4828
898.792	4801
898.913	4702
899.033	4599
899.153	4481
899.273	4424
899.393	4512
899.513	4470
899.633	4516
899.753	4588
899.873	4485
899.993	4573
900.113	4493
900.232	4603
900.352	4577
900.472	4470
900.591	4375
900.711	4500
900.83	4443
900.95	4607
901.069	4691
901.189	4558
901.308	4325
901.427	4314
901.546	4360
901.665	4478
901.784	4523
901.904	4367
902.023	4287
902.141	4204
902.26	4207
902.379	4276
902.498	4291
902.617	4207
902.735	4379
902.854	4398
902.973	4344
903.091	4196
903.21	4257
903.328	4314
903.446	4234
903.565	4223
903.683	4344
903.801	4242
903.919	4379
904.038	4398
904.156	4299
904.274	4421
904.392	4333
904.51	4451
904.627	4478
904.745	4550
904.863	4611
904.981	4405
905.098	4295
905.216	4398
905.334	4398
905.451	4390
905.569	4424
905.686	4527
905.803	4577
905.921	4428
906.038	4516
906.155	4504
906.272	4405
906.389	4432
906.506	4367
906.623	4325
906.74	4394
906.857	4322
906.974	4318
907.091	4588
907.208	4622
907.324	4577
907.441	4493
907.557	4371
907.674	4348
907.79	4295
907.907	4421
908.023	4470
908.139	4432
908.256	4432
908.372	4459
908.488	4432
908.604	4341
908.72	4367
908.836	4398
908.952	4371
909.068	4413
909.184	4497
909.3	4481
909.415	4565
909.531	4542
909.647	4367
909.762	4375
909.878	4371
909.993	4432
910.108	4390
910.224	4413
910.339	4436
910.454	4375
910.57	4356
910.685	4314
910.8	4599
910.915	4577
911.03	4474
911.145	4333
911.259	4322
911.374	4325
911.489	4284
911.604	4223
911.718	4169
911.833	4158
911.947	4055
912.062	4071
912.176	4215
912.291	4257
912.405	4242
912.519	4462
912.633	4500
912.748	4363
912.862	4287
912.976	4207
913.09	4067
913.204	4150
913.318	4238
913.431	4367
913.545	4329
913.659	4470
913.772	4375
913.886	4223
914	4219
914.113	4375
914.226	4413
914.34	4383
914.453	4234
914.566	4421
914.68	4291
914.793	4322
914.906	4135
915.019	4086
915.132	4101
915.245	4143
915.358	4223
915.47	4268
915.583	4257
915.696	4276
915.809	4390
915.921	4443
916.034	4238
916.146	4234
916.259	4207
916.371	4363
916.483	4306
916.595	4276
916.708	4272
916.82	4268
916.932	4352
917.044	4360
917.156	4333
917.268	4219
917.38	4249
917.491	4246
917.603	4325
917.715	4459
917.826	4383
917.938	4329
918.049	4230
918.161	4409
918.272	4599
918.384	4508
918.495	4417
918.606	4287
918.717	4196
918.828	4284
918.939	4348
919.05	4234
919.161	4314
919.272	4147
919.383	4200
919.494	4459
919.604	4611
919.715	4417
919.826	4325
919.936	4405
920.047	4523
920.157	4481
920.267	4664
920.378	4569
920.488	4466
920.598	4714
920.708	4831
920.818	4717
920.928	4759
921.038	4961
921.148	4908
921.258	4611
921.368	4550
921.477	4493
921.587	4443
921.697	4371
921.806	4596
921.916	4413
922.025	4261
922.134	4242
922.244	4211
922.353	4299
922.462	4223
922.571	4128
922.68	4036
922.789	3968
922.898	4013
923.007	3998
923.116	4082
923.224	4025
923.333	4067
923.442	3983
923.55	3956
923.659	4025
923.767	4055
923.876	4006
923.984	4093
924.092	3949
924.201	4040
924.309	4090
924.417	4131
924.525	4093
924.633	4112
924.741	5075
924.849	3896
924.956	4082
925.064	3945
925.172	3926
925.279	3922
925.387	4021
925.494	4032
925.602	4211
925.709	4173
925.816	4017
925.924	4090
926.031	4242
926.138	4109
926.245	4211
926.352	4059
926.459	4242
926.566	4318
926.673	4143
926.779	4078
926.886	4124
926.993	3975
927.099	3918
927.206	3915
927.312	3926
927.419	4036
927.525	4013
927.631	4036
927.737	3937
927.843	3937
927.95	3804
928.056	3930
928.162	3941
928.267	4032
928.373	4687
928.479	4135
928.585	3892
928.69	3998
928.796	4067
928.901	3994
929.007	3823
929.112	4017
929.218	3953
929.323	3865
929.428	3930
929.533	4124
929.638	3926
929.743	3979
929.848	4029
929.953	3983
930.058	3941
930.163	3747
930.267	3808
930.372	3941
930.477	3778
930.581	4082
930.685	3949
930.79	3827
930.894	3880
930.998	3869
931.103	4017
931.207	3705
931.311	3641
931.415	3656
931.519	3530
931.623	3534
