Data from test_V78500241_1850.txt Node
Date: Fri Mar 25 17:01:51 CST 2022
User: usil
Spectrometer: V785-0024
Trigger mode: 0
Integration Time (sec): 4.000000E-1
Scans to average: 1
Nonlinearity correction enabled: false
Boxcar width: 0
Storing dark spectrum: false
XAxis mode: Wavelengths
Number of Pixels in Spectrum: 1024
>>>>>Begin Spectral Data<<<<<
801.071	8050
801.214	8100
801.356	7860
801.499	7784
801.641	7822
801.783	7841
801.926	8001
802.068	7944
802.211	8001
802.353	8043
802.496	7875
802.638	7868
802.78	7837
802.923	7909
803.065	7807
803.208	7807
803.35	8005
803.492	8145
803.635	8145
803.777	8012
803.919	8111
804.061	8446
804.204	8164
804.346	8024
804.488	7955
804.63	8088
804.773	7997
804.915	8043
805.057	8294
805.199	8157
805.341	8229
805.483	8275
805.626	8138
805.768	8058
805.91	8229
806.052	8199
806.194	8134
806.336	8279
806.478	8058
806.62	8081
806.762	7993
806.904	8256
807.046	8442
807.188	8320
807.33	8259
807.472	8313
807.614	8176
807.756	8092
807.898	8001
808.04	7845
808.182	7898
808.324	7788
808.465	7875
808.607	8069
808.749	8107
808.891	8183
809.033	8317
809.174	8199
809.316	8126
809.458	8065
809.6	7997
809.741	8088
809.883	8035
810.025	8088
810.166	8046
810.308	7986
810.45	7989
810.591	7814
810.733	7719
810.875	7738
811.016	7457
811.158	7537
811.299	7586
811.441	7708
811.582	7639
811.724	7552
811.865	7525
812.007	7586
812.148	7575
812.29	7620
812.431	7746
812.573	7887
812.714	7989
812.855	8229
812.997	8172
813.138	8298
813.279	8172
813.421	8084
813.562	7967
813.703	7788
813.845	7765
813.986	7400
814.127	7194
814.268	7225
814.41	7217
814.551	7133
814.692	7213
814.833	7149
814.974	7110
815.115	7129
815.256	6970
815.397	6878
815.539	6954
815.68	6825
815.821	6738
815.962	6867
816.103	6764
816.244	6654
816.385	6627
816.526	6597
816.666	6528
816.807	6346
816.948	6433
817.089	6509
817.23	6414
817.371	6395
817.512	6384
817.653	6323
817.793	6372
817.934	6361
818.075	6433
818.216	6380
818.356	6376
818.497	6270
818.638	6098
818.778	6098
818.919	6186
819.06	6155
819.2	6289
819.341	6296
819.481	6357
819.622	6517
819.762	6665
819.903	6734
820.043	6631
820.184	6566
820.324	6578
820.465	6688
820.605	6692
820.746	6665
820.886	6551
821.026	6650
821.167	6654
821.307	6802
821.447	6738
821.588	6688
821.728	6582
821.868	6475
822.008	6327
822.149	6403
822.289	6346
822.429	6133
822.569	6129
822.709	6140
822.849	5927
822.99	5851
823.13	5923
823.27	5878
823.41	5726
823.55	5798
823.69	5767
823.83	5798
823.97	5668
824.11	5463
824.25	5459
824.389	5570
824.529	5547
824.669	5570
824.809	5581
824.949	5611
825.089	5577
825.228	5589
825.368	5372
825.508	5360
825.648	5337
825.787	5345
825.927	5387
826.067	5273
826.206	5261
826.346	5318
826.485	5387
826.625	5395
826.765	5516
826.904	5436
827.044	5239
827.183	5220
827.323	5128
827.462	5303
827.601	5155
827.741	5193
827.88	5204
828.02	5079
828.159	5235
828.298	5254
828.437	5345
828.577	5284
828.716	5471
828.855	5277
828.994	5178
829.134	5155
829.273	5178
829.412	5102
829.551	5136
829.69	5193
829.829	5227
829.968	5372
830.107	5261
830.246	5258
830.385	5113
830.524	5124
830.663	5010
830.802	4957
830.941	4892
831.08	4873
831.219	4999
831.357	4980
831.496	5147
831.635	4923
831.774	4774
831.913	4877
832.051	4691
832.19	4714
832.329	4870
832.467	4653
832.606	4626
832.744	4702
832.883	4721
833.022	4714
833.16	4755
833.299	4854
833.437	4782
833.576	4839
833.714	4805
833.852	4866
833.991	4885
834.129	4953
834.267	4942
834.406	4942
834.544	4987
834.682	4976
834.821	4923
834.959	5178
835.097	4999
835.235	5113
835.373	5033
835.511	5132
835.65	5010
835.788	4984
835.926	4873
836.064	4885
836.202	4946
836.34	5159
836.478	5197
836.615	5151
836.753	5246
836.891	5258
837.029	5265
837.167	5166
837.305	5181
837.443	5178
837.58	5079
837.718	5208
837.856	5181
837.993	5162
838.131	5223
838.269	5220
838.406	5170
838.544	5193
838.681	5025
838.819	4984
838.956	4900
839.094	4919
839.231	4915
839.369	5060
839.506	5410
839.643	5288
839.781	5029
839.918	5056
840.055	5102
840.193	5064
840.33	5098
840.467	5132
840.604	5140
840.742	5387
840.879	5102
841.016	5075
841.153	5109
841.29	5364
841.427	5307
841.564	5311
841.701	5372
841.838	5212
841.975	5189
842.112	5284
842.249	5098
842.385	5143
842.522	5345
842.659	5208
842.796	5136
842.933	5178
843.069	5151
843.206	5132
843.343	5277
843.479	5258
843.616	5235
843.752	5010
843.889	5041
844.025	5197
844.162	5010
844.298	5174
844.435	5090
844.571	5071
844.708	5147
844.844	5296
844.98	5326
845.117	5341
845.253	5170
845.389	5109
845.525	5151
845.661	5140
845.798	5022
845.934	5159
846.07	5064
846.206	5235
846.342	5288
846.478	5201
846.614	5014
846.75	4968
846.886	4892
847.022	5128
847.158	4968
847.294	5010
847.429	5113
847.565	5022
847.701	5315
847.837	4824
847.972	4790
848.108	4968
848.244	4885
848.379	4736
848.515	4698
848.65	4714
848.786	4698
848.921	4774
849.057	4847
849.192	4885
849.328	4828
849.463	4877
849.598	4782
849.734	4740
849.869	4702
850.004	4634
850.14	4607
850.275	4580
850.41	4550
850.545	4599
850.68	4569
850.815	4592
850.95	4641
851.085	4820
851.22	4710
851.355	4649
851.49	4603
851.625	4599
851.76	4645
851.895	4546
852.03	4527
852.165	4653
852.299	4675
852.434	4774
852.569	4755
852.703	4744
852.838	4862
852.973	4881
853.107	4892
853.242	4706
853.376	4634
853.511	4565
853.645	4599
853.78	4816
853.914	4675
854.048	4645
854.183	4637
854.317	4683
854.451	4835
854.585	4641
854.72	4664
854.854	4774
854.988	4599
855.122	4637
855.256	4538
855.39	4656
855.524	4820
855.658	4744
855.792	4668
855.926	4744
856.06	4831
856.194	4774
856.327	4698
856.461	4615
856.595	4611
856.729	4630
856.862	4763
856.996	4656
857.13	4694
857.263	4763
857.397	4782
857.53	4611
857.664	4778
857.797	4714
857.931	4797
858.064	4729
858.197	4714
858.331	4637
858.464	4626
858.597	4516
858.731	4599
858.864	4584
858.997	4561
859.13	4622
859.263	4664
859.396	4710
859.529	4561
859.662	4565
859.795	4535
859.928	4592
860.061	4744
860.194	4698
860.327	4584
860.46	4531
860.592	4687
860.725	4694
860.858	4698
860.99	4531
861.123	4481
861.256	4512
861.388	4561
861.521	5391
861.653	4462
861.786	4424
861.918	4443
862.05	4497
862.183	4580
862.315	4637
862.447	4618
862.58	4546
862.712	4390
862.844	4272
862.976	4481
863.108	4447
863.24	4828
863.372	4337
863.504	4417
863.636	4413
863.768	4497
863.9	4424
864.032	4363
864.164	4402
864.296	4432
864.428	4519
864.559	4546
864.691	4573
864.823	4535
864.954	4462
865.086	4462
865.217	4466
865.349	4470
865.48	4436
865.612	4504
865.743	4588
865.875	4508
866.006	4451
866.137	4436
866.269	4409
866.4	4459
866.531	4398
866.662	4421
866.793	4474
866.924	4390
867.055	4481
867.186	4451
867.317	4405
867.448	4398
867.579	4383
867.71	4424
867.841	4325
867.972	4459
868.103	4470
868.233	4421
868.364	4432
868.495	4470
868.625	4660
868.756	4752
868.886	4592
869.017	4607
869.147	4752
869.278	4786
869.408	4653
869.539	4611
869.669	4694
869.799	4634
869.929	4717
870.06	4793
870.19	4938
870.32	4881
870.45	4942
870.58	5014
870.71	5113
870.84	5079
870.97	4965
871.1	4896
871.23	5098
871.36	5140
871.489	5037
871.619	5079
871.749	5086
871.879	5113
872.008	5174
872.138	5052
872.267	4930
872.397	4881
872.526	4793
872.656	4752
872.785	4797
872.915	4968
873.044	5041
873.173	4919
873.303	4957
873.432	4930
873.561	4965
873.69	4847
873.819	4831
873.948	4930
874.077	4831
874.206	4721
874.335	4778
874.464	4877
874.593	5048
874.722	4946
874.851	5147
874.979	5060
875.108	5029
875.237	4904
875.365	4889
875.494	4862
875.623	4965
875.751	4816
875.88	4858
876.008	4923
876.136	5010
876.265	5151
876.393	5315
876.521	5258
876.65	5174
876.778	5151
876.906	5075
877.034	5064
877.162	4976
877.29	4987
877.418	5132
877.546	5048
877.674	5048
877.802	5041
877.93	4987
878.058	4915
878.185	4885
878.313	4976
878.441	4972
878.568	4831
878.696	4862
878.824	4965
878.951	4972
879.079	5075
879.206	5280
879.333	5124
879.461	4961
879.588	4984
879.715	5079
879.842	5193
879.97	4999
880.097	4778
880.224	4763
880.351	4828
880.478	4828
880.605	4812
880.732	4759
880.859	5056
880.986	4866
881.112	4908
881.239	4710
881.366	4660
881.493	4656
881.619	4561
881.746	4645
881.872	4660
881.999	4634
882.125	4622
882.252	4714
882.378	4801
882.505	4927
882.631	4755
882.757	4641
882.883	4740
883.01	4706
883.136	4675
883.262	4580
883.388	4577
883.514	4820
883.64	4828
883.766	4786
883.892	4660
884.018	4736
884.143	4896
884.269	4968
884.395	4679
884.52	4592
884.646	4596
884.772	4558
884.897	4546
885.023	4637
885.148	4744
885.274	4908
885.399	4771
885.524	4710
885.65	4634
885.775	4725
885.9	4675
886.025	4858
886.15	4755
886.275	4740
886.4	4630
886.525	4740
886.65	4641
886.775	4691
886.9	4915
887.025	5025
887.149	4820
887.274	4626
887.399	4569
887.523	4565
887.648	4523
887.773	4580
887.897	4767
888.021	4771
888.146	4664
888.27	4828
888.395	4885
888.519	4839
888.643	4801
888.767	4862
888.891	4683
889.015	4596
889.139	4615
889.263	4550
889.387	4733
889.511	4889
889.635	4767
889.759	4618
889.883	4653
890.006	4755
890.13	4824
890.254	4611
890.377	4675
890.501	4489
890.624	4527
890.748	4607
890.871	4497
890.995	4421
891.118	4398
891.241	4489
891.364	4542
891.488	4603
891.611	4546
891.734	4596
891.857	4599
891.98	4535
892.103	4672
892.226	4558
892.349	4565
892.471	4440
892.594	4527
892.717	4561
892.839	4558
892.962	4569
893.085	4653
893.207	4622
893.33	4432
893.452	4508
893.575	4683
893.697	4592
893.819	4778
893.941	4824
894.064	4755
894.186	4584
894.308	4516
894.43	4736
894.552	4816
894.674	4736
894.796	4584
894.918	4637
895.04	4554
895.161	4717
895.283	4618
895.405	4546
895.526	4634
895.648	4641
895.769	4653
895.891	4702
896.012	4710
896.134	4729
896.255	4649
896.376	4622
896.498	4569
896.619	4714
896.74	4634
896.861	4622
896.982	4934
897.103	5052
897.224	4763
897.345	4687
897.466	4626
897.587	4721
897.708	4820
897.828	4782
897.949	4653
898.07	4577
898.19	4645
898.311	4805
898.431	4653
898.552	4740
898.672	4790
898.792	4805
898.913	4717
899.033	4558
899.153	4546
899.273	4405
899.393	4493
899.513	4554
899.633	4474
899.753	4478
899.873	4481
899.993	4588
900.113	4558
900.232	4630
900.352	4561
900.472	4474
900.591	4413
900.711	4512
900.83	4405
900.95	4645
901.069	4649
901.189	4519
901.308	4379
901.427	4337
901.546	4367
901.665	4542
901.784	4504
901.904	4367
902.023	4318
902.141	4185
902.26	4181
902.379	4367
902.498	4230
902.617	4238
902.735	4421
902.854	4409
902.973	4375
903.091	4219
903.21	4268
903.328	4329
903.446	4284
903.565	4371
903.683	4386
903.801	4325
903.919	4440
904.038	4436
904.156	4356
904.274	4459
904.392	4440
904.51	4447
904.627	4497
904.745	4618
904.863	4668
904.981	4436
905.098	4344
905.216	4383
905.334	4432
905.451	4493
905.569	4447
905.686	4592
905.803	4592
905.921	4466
906.038	4558
906.155	4584
906.272	4462
906.389	4474
906.506	4379
906.623	4367
906.74	4436
906.857	4405
906.974	4417
907.091	4641
907.208	4672
907.324	4626
907.441	4554
907.557	4398
907.674	4398
907.79	4383
907.907	4451
908.023	4470
908.139	4523
908.256	4447
908.372	4512
908.488	4455
908.604	4363
908.72	4367
908.836	4424
908.952	4424
909.068	4466
909.184	4611
909.3	4519
909.415	4615
909.531	4626
909.647	4440
909.762	4386
909.878	4443
909.993	4451
910.108	4451
910.224	4451
910.339	4497
910.454	4451
910.57	4443
910.685	4344
910.8	4691
910.915	4637
911.03	4542
911.145	4352
911.259	4344
911.374	4409
911.489	4310
911.604	4253
911.718	4196
911.833	4257
911.947	4112
912.062	4021
912.176	4249
912.291	4268
912.405	4322
912.519	4519
912.633	4500
912.748	4405
912.862	4314
912.976	4211
913.09	4147
913.204	4238
913.318	4287
913.431	4432
913.545	4379
913.659	4470
913.772	4405
913.886	4257
914	4192
914.113	4413
914.226	4474
914.34	4424
914.453	4257
914.566	4375
914.68	4356
914.793	4333
914.906	4204
915.019	4223
915.132	4169
915.245	4227
915.358	4207
915.47	4242
915.583	4299
915.696	4325
915.809	4447
915.921	4451
916.034	4318
916.146	4299
916.259	4242
916.371	4409
916.483	4405
916.595	4337
916.708	4402
916.82	4363
916.932	4325
917.044	4352
917.156	4405
917.268	4261
917.38	4299
917.491	4306
917.603	4356
917.715	4440
917.826	4478
917.938	4318
918.049	4265
918.161	4375
918.272	4599
918.384	4596
918.495	4470
918.606	4280
918.717	4306
918.828	4341
918.939	4402
919.05	4242
919.161	4318
919.272	4166
919.383	4261
919.494	4470
919.604	4565
919.715	4421
919.826	4363
919.936	4451
920.047	4565
920.157	4519
920.267	4710
920.378	4592
920.488	4577
920.598	4729
920.708	4881
920.818	4752
920.928	4763
921.038	4965
921.148	4965
921.258	4675
921.368	4596
921.477	4565
921.587	4485
921.697	4432
921.806	4577
921.916	4443
922.025	4303
922.134	4371
922.244	4238
922.353	4367
922.462	4207
922.571	4173
922.68	4032
922.789	4051
922.898	4044
923.007	4013
923.116	4109
923.224	4086
923.333	4139
923.442	4021
923.55	4021
923.659	4067
923.767	4139
923.876	4021
923.984	4158
924.092	4032
924.201	4097
924.309	4090
924.417	4173
924.525	4082
924.633	4154
924.741	5060
924.849	3930
924.956	4143
925.064	3964
925.172	3949
925.279	3941
925.387	4067
925.494	4090
925.602	4234
925.709	4177
925.816	4067
925.924	4181
926.031	4265
926.138	4223
926.245	4215
926.352	4135
926.459	4265
926.566	4322
926.673	4173
926.779	4097
926.886	4074
926.993	4013
927.099	3979
927.206	3968
927.312	3956
927.419	4093
927.525	4051
927.631	4124
927.737	4010
927.843	3994
927.95	3869
928.056	3960
928.162	4048
928.267	4086
928.373	4596
928.479	4173
928.585	3907
928.69	4032
928.796	4109
928.901	3979
929.007	3899
929.112	4040
929.218	4017
929.323	3968
929.428	3937
929.533	4131
929.638	3937
929.743	3998
929.848	4067
929.953	3991
930.058	3964
930.163	3816
930.267	3846
930.372	3987
930.477	3846
930.581	4097
930.685	3991
930.79	3865
930.894	3937
930.998	3896
931.103	4097
931.207	3793
931.311	3736
931.415	3701
931.519	3561
931.623	3564
