Data from test_V78500241_2586.txt Node
Date: Fri Mar 25 17:06:59 CST 2022
User: usil
Spectrometer: V785-0024
Trigger mode: 0
Integration Time (sec): 4.000000E-1
Scans to average: 1
Nonlinearity correction enabled: false
Boxcar width: 0
Storing dark spectrum: false
XAxis mode: Wavelengths
Number of Pixels in Spectrum: 1024
>>>>>Begin Spectral Data<<<<<
801.071	7989
801.214	8043
801.356	7917
801.499	7864
801.641	7826
801.783	7833
801.926	7997
802.068	8005
802.211	7993
802.353	8039
802.496	7917
802.638	7871
802.78	7921
802.923	8027
803.065	7917
803.208	7913
803.35	7936
803.492	8134
803.635	8168
803.777	8103
803.919	8153
804.061	8469
804.204	8237
804.346	8103
804.488	7989
804.63	8016
804.773	8077
804.915	8164
805.057	8279
805.199	8206
805.341	8248
805.483	8366
805.626	8225
805.768	8180
805.91	8240
806.052	8187
806.194	8145
806.336	8317
806.478	8111
806.62	8096
806.762	8202
806.904	8324
807.046	8507
807.188	8351
807.33	8374
807.472	8267
807.614	8195
807.756	8172
807.898	7978
808.04	7902
808.182	7879
808.324	7864
808.465	7963
808.607	8054
808.749	8168
808.891	8229
809.033	8362
809.174	8218
809.316	8054
809.458	8077
809.6	8035
809.741	8069
809.883	7978
810.025	8123
810.166	8027
810.308	8008
810.45	8039
810.591	7822
810.733	7757
810.875	7643
811.016	7552
811.158	7537
811.299	7651
811.441	7738
811.582	7704
811.724	7655
811.865	7594
812.007	7616
812.148	7605
812.29	7636
812.431	7708
812.573	7887
812.714	8050
812.855	8138
812.997	8195
813.138	8343
813.279	8176
813.421	8130
813.562	7959
813.703	7822
813.845	7826
813.986	7460
814.127	7213
814.268	7217
814.41	7240
814.551	7171
814.692	7187
814.833	7137
814.974	7133
815.115	7141
815.256	7034
815.397	6970
815.539	6954
815.68	6798
815.821	6863
815.962	6848
816.103	6848
816.244	6692
816.385	6669
816.526	6620
816.666	6509
816.807	6357
816.948	6479
817.089	6506
817.23	6494
817.371	6353
817.512	6460
817.653	6418
817.793	6365
817.934	6464
818.075	6486
818.216	6437
818.356	6376
818.497	6247
818.638	6144
818.778	6186
818.919	6163
819.06	6163
819.2	6357
819.341	6388
819.481	6399
819.622	6559
819.762	6703
819.903	6719
820.043	6623
820.184	6525
820.324	6566
820.465	6726
820.605	6684
820.746	6688
820.886	6623
821.026	6715
821.167	6764
821.307	6894
821.447	6726
821.588	6749
821.728	6597
821.868	6555
822.008	6391
822.149	6357
822.289	6445
822.429	6167
822.569	6136
822.709	6171
822.849	5927
822.99	5916
823.13	5988
823.27	5977
823.41	5821
823.55	5790
823.69	5790
823.83	5821
823.97	5649
824.11	5551
824.25	5547
824.389	5532
824.529	5646
824.669	5562
824.809	5581
824.949	5642
825.089	5668
825.228	5604
825.368	5357
825.508	5360
825.648	5337
825.787	5368
825.927	5360
826.067	5303
826.206	5299
826.346	5368
826.485	5387
826.625	5337
826.765	5547
826.904	5539
827.044	5246
827.183	5261
827.323	5117
827.462	5269
827.601	5201
827.741	5212
827.88	5250
828.02	5090
828.159	5181
828.298	5326
828.437	5383
828.577	5261
828.716	5516
828.855	5345
828.994	5201
829.134	5208
829.273	5220
829.412	5121
829.551	5117
829.69	5132
829.829	5258
829.968	5353
830.107	5231
830.246	5212
830.385	5204
830.524	5105
830.663	5048
830.802	4942
830.941	4900
831.08	4892
831.219	4980
831.357	4972
831.496	5143
831.635	4919
831.774	4839
831.913	4870
832.051	4744
832.19	4721
832.329	4828
832.467	4691
832.606	4645
832.744	4683
832.883	4752
833.022	4763
833.16	4824
833.299	4839
833.437	4858
833.576	4816
833.714	4850
833.852	4816
833.991	4934
834.129	4995
834.267	4968
834.406	4889
834.544	4946
834.682	5029
834.821	4961
834.959	5151
835.097	4995
835.235	5086
835.373	5121
835.511	5075
835.65	5067
835.788	5086
835.926	4904
836.064	4881
836.202	4949
836.34	5117
836.478	5216
836.615	5147
836.753	5216
836.891	5299
837.029	5216
837.167	5189
837.305	5174
837.443	5151
837.58	5109
837.718	5250
837.856	5147
837.993	5162
838.131	5288
838.269	5227
838.406	5216
838.544	5216
838.681	4999
838.819	5014
838.956	4904
839.094	4915
839.231	4942
839.369	5090
839.506	5471
839.643	5296
839.781	5071
839.918	5052
840.055	5033
840.193	5025
840.33	5079
840.467	5162
840.604	5197
840.742	5436
840.879	5079
841.016	5098
841.153	5136
841.29	5383
841.427	5360
841.564	5315
841.701	5360
841.838	5299
841.975	5201
842.112	5189
842.249	5102
842.385	5086
842.522	5345
842.659	5181
842.796	5151
842.933	5212
843.069	5162
843.206	5159
843.343	5265
843.479	5201
843.616	5258
843.752	5060
843.889	5018
844.025	5204
844.162	5045
844.298	5185
844.435	5045
844.571	5029
844.708	5178
844.844	5288
844.98	5349
845.117	5288
845.253	5140
845.389	5102
845.525	5151
845.661	5174
845.798	5025
845.934	5155
846.07	5018
846.206	5235
846.342	5246
846.478	5162
846.614	4949
846.75	4999
846.886	4949
847.022	5109
847.158	5041
847.294	5045
847.429	5094
847.565	5025
847.701	5284
847.837	4873
847.972	4793
848.108	4915
848.244	4957
848.379	4793
848.515	4748
848.65	4725
848.786	4771
848.921	4809
849.057	4820
849.192	4866
849.328	4866
849.463	4858
849.598	4801
849.734	4771
849.869	4736
850.004	4653
850.14	4668
850.275	4599
850.41	4478
850.545	4596
850.68	4626
850.815	4626
850.95	4664
851.085	4873
851.22	4786
851.355	4641
851.49	4558
851.625	4615
851.76	4660
851.895	4561
852.03	4561
852.165	4592
852.299	4694
852.434	4774
852.569	4786
852.703	4771
852.838	4812
852.973	4934
853.107	4957
853.242	4778
853.376	4668
853.511	4542
853.645	4675
853.78	4824
853.914	4717
854.048	4694
854.183	4660
854.317	4687
854.451	4820
854.585	4687
854.72	4630
854.854	4752
854.988	4588
855.122	4641
855.256	4550
855.39	4702
855.524	4755
855.658	4740
855.792	4679
855.926	4790
856.06	4725
856.194	4835
856.327	4702
856.461	4592
856.595	4618
856.729	4672
856.862	4771
856.996	4702
857.13	4717
857.263	4759
857.397	4831
857.53	4615
857.664	4733
857.797	4759
857.931	4774
858.064	4660
858.197	4744
858.331	4641
858.464	4577
858.597	4504
858.731	4698
858.864	4622
858.997	4645
859.13	4634
859.263	4694
859.396	4710
859.529	4577
859.662	4558
859.795	4512
859.928	4687
860.061	4801
860.194	4733
860.327	4618
860.46	4535
860.592	4706
860.725	4721
860.858	4744
860.99	4584
861.123	4561
861.256	4481
861.388	4618
861.521	5341
861.653	4481
861.786	4485
861.918	4440
862.05	4523
862.183	4573
862.315	4615
862.447	4634
862.58	4519
862.712	4386
862.844	4333
862.976	4478
863.108	4512
863.24	4767
863.372	4386
863.504	4386
863.636	4428
863.768	4531
863.9	4466
864.032	4386
864.164	4447
864.296	4474
864.428	4558
864.559	4538
864.691	4512
864.823	4474
864.954	4462
865.086	4512
865.217	4440
865.349	4455
865.48	4413
865.612	4497
865.743	4618
865.875	4474
866.006	4421
866.137	4440
866.269	4443
866.4	4455
866.531	4447
866.662	4390
866.793	4394
866.924	4409
867.055	4504
867.186	4493
867.317	4424
867.448	4402
867.579	4390
867.71	4398
867.841	4371
867.972	4489
868.103	4462
868.233	4481
868.364	4508
868.495	4519
868.625	4714
868.756	4763
868.886	4550
869.017	4653
869.147	4725
869.278	4816
869.408	4683
869.539	4656
869.669	4725
869.799	4660
869.929	4763
870.06	4717
870.19	4946
870.32	4965
870.45	4942
870.58	5010
870.71	5075
870.84	5094
870.97	4923
871.1	4892
871.23	5159
871.36	5117
871.489	5060
871.619	5033
871.749	5121
871.879	5128
872.008	5201
872.138	5090
872.267	4942
872.397	4885
872.526	4786
872.656	4706
872.785	4797
872.915	4938
873.044	4991
873.173	4953
873.303	4961
873.432	4972
873.561	4946
873.69	4919
873.819	4885
873.948	4911
874.077	4812
874.206	4763
874.335	4793
874.464	4927
874.593	5083
874.722	4953
874.851	5086
874.979	5037
875.108	4995
875.237	4915
875.365	4927
875.494	4862
875.623	4968
875.751	4820
875.88	4904
876.008	5003
876.136	5064
876.265	5147
876.393	5368
876.521	5280
876.65	5216
876.778	5143
876.906	5052
877.034	4965
877.162	5014
877.29	4968
877.418	5014
877.546	5052
877.674	5018
877.802	5022
877.93	5067
878.058	4984
878.185	4892
878.313	4968
878.441	4968
878.568	4828
878.696	4839
878.824	4953
878.951	5033
879.079	5159
879.206	5303
879.333	5109
879.461	4991
879.588	5045
879.715	5159
879.842	5220
879.97	4976
880.097	4763
880.224	4755
880.351	4812
880.478	4866
880.605	4801
880.732	4812
880.859	5079
880.986	4927
881.112	4934
881.239	4835
881.366	4702
881.493	4634
881.619	4588
881.746	4618
881.872	4668
881.999	4634
882.125	4733
882.252	4774
882.378	4820
882.505	4961
882.631	4801
882.757	4694
882.883	4809
883.01	4767
883.136	4698
883.262	4626
883.388	4611
883.514	4824
883.64	4816
883.766	4828
883.892	4645
884.018	4729
884.143	4854
884.269	5045
884.395	4721
884.52	4649
884.646	4672
884.772	4615
884.897	4588
885.023	4664
885.148	4759
885.274	4858
885.399	4835
885.524	4733
885.65	4702
885.775	4774
885.9	4694
886.025	4824
886.15	4771
886.275	4748
886.4	4656
886.525	4706
886.65	4717
886.775	4702
886.9	4885
887.025	5083
887.149	4782
887.274	4675
887.399	4580
887.523	4615
887.648	4618
887.773	4649
887.897	4721
888.021	4725
888.146	4675
888.27	4797
888.395	4934
888.519	4778
888.643	4850
888.767	4847
888.891	4706
889.015	4580
889.139	4702
889.263	4626
889.387	4790
889.511	4900
889.635	4774
889.759	4637
889.883	4660
890.006	4786
890.13	4866
890.254	4626
890.377	4683
890.501	4504
890.624	4565
890.748	4649
890.871	4554
890.995	4417
891.118	4432
891.241	4512
891.364	4580
891.488	4596
891.611	4512
891.734	4531
891.857	4573
891.98	4542
892.103	4618
892.226	4569
892.349	4516
892.471	4405
892.594	4504
892.717	4603
892.839	4580
892.962	4550
893.085	4645
893.207	4615
893.33	4440
893.452	4493
893.575	4641
893.697	4569
893.819	4733
893.941	4797
894.064	4771
894.186	4603
894.308	4573
894.43	4736
894.552	4847
894.674	4725
894.796	4554
894.918	4618
895.04	4607
895.161	4706
895.283	4660
895.405	4607
895.526	4634
895.648	4694
895.769	4634
895.891	4706
896.012	4771
896.134	4733
896.255	4660
896.376	4599
896.498	4599
896.619	4687
896.74	4596
896.861	4626
896.982	4904
897.103	5075
897.224	4824
897.345	4767
897.466	4653
897.587	4763
897.708	4858
897.828	4790
897.949	4645
898.07	4596
898.19	4649
898.311	4831
898.431	4687
898.552	4748
898.672	4847
898.792	4793
898.913	4714
899.033	4641
899.153	4523
899.273	4432
899.393	4493
899.513	4531
899.633	4474
899.753	4550
899.873	4516
899.993	4565
900.113	4527
900.232	4558
900.352	4542
900.472	4478
900.591	4417
900.711	4485
900.83	4443
900.95	4599
901.069	4702
901.189	4535
901.308	4352
901.427	4341
901.546	4383
901.665	4466
901.784	4516
901.904	4409
902.023	4310
902.141	4188
902.26	4196
902.379	4280
902.498	4238
902.617	4192
902.735	4329
902.854	4379
902.973	4405
903.091	4207
903.21	4246
903.328	4276
903.446	4280
903.565	4261
903.683	4344
903.801	4295
903.919	4383
904.038	4367
904.156	4295
904.274	4394
904.392	4371
904.51	4466
904.627	4497
904.745	4554
904.863	4679
904.981	4421
905.098	4314
905.216	4363
905.334	4424
905.451	4402
905.569	4447
905.686	4573
905.803	4542
905.921	4375
906.038	4504
906.155	4493
906.272	4440
906.389	4432
906.506	4337
906.623	4375
906.74	4432
906.857	4291
906.974	4375
907.091	4500
907.208	4664
907.324	4584
907.441	4459
907.557	4287
907.674	4325
907.79	4287
907.907	4398
908.023	4443
908.139	4447
908.256	4390
908.372	4478
908.488	4493
908.604	4363
908.72	4341
908.836	4402
908.952	4356
909.068	4394
909.184	4565
909.3	4466
909.415	4569
909.531	4565
909.647	4371
909.762	4379
909.878	4341
909.993	4409
910.108	4386
910.224	4413
910.339	4508
910.454	4398
910.57	4314
910.685	4306
910.8	4607
910.915	4596
911.03	4462
911.145	4318
911.259	4356
911.374	4371
911.489	4253
911.604	4268
911.718	4173
911.833	4211
911.947	4109
912.062	3998
912.176	4204
912.291	4272
912.405	4249
912.519	4497
912.633	4538
912.748	4375
912.862	4268
912.976	4207
913.09	4071
913.204	4185
913.318	4253
913.431	4352
913.545	4371
913.659	4386
913.772	4356
913.886	4227
914	4234
914.113	4394
914.226	4440
914.34	4375
914.453	4242
914.566	4443
914.68	4348
914.793	4341
914.906	4124
915.019	4147
915.132	4093
915.245	4177
915.358	4204
915.47	4261
915.583	4249
915.696	4303
915.809	4405
915.921	4405
916.034	4276
916.146	4238
916.259	4223
916.371	4386
916.483	4325
916.595	4265
916.708	4268
916.82	4291
916.932	4310
917.044	4329
917.156	4318
917.268	4242
917.38	4295
917.491	4238
917.603	4329
917.715	4428
917.826	4424
917.938	4360
918.049	4242
918.161	4386
918.272	4592
918.384	4535
918.495	4462
918.606	4314
918.717	4227
918.828	4329
918.939	4390
919.05	4268
919.161	4348
919.272	4158
919.383	4249
919.494	4493
919.604	4599
919.715	4421
919.826	4325
919.936	4386
920.047	4497
920.157	4493
920.267	4698
920.378	4516
920.488	4500
920.598	4740
920.708	4850
920.818	4721
920.928	4797
921.038	4953
921.148	4881
921.258	4596
921.368	4531
921.477	4516
921.587	4421
921.697	4383
921.806	4554
921.916	4443
922.025	4268
922.134	4219
922.244	4238
922.353	4322
922.462	4162
922.571	4097
922.68	4017
922.789	3945
922.898	4017
923.007	3953
923.116	4101
923.224	4086
923.333	4048
923.442	4021
923.55	3975
923.659	4036
923.767	4143
923.876	4048
923.984	4112
924.092	4025
924.201	4086
924.309	4101
924.417	4120
924.525	4013
924.633	4112
924.741	5045
924.849	3926
924.956	4139
925.064	3994
925.172	3903
925.279	3972
925.387	4055
925.494	4059
925.602	4204
925.709	4150
925.816	4040
925.924	4082
926.031	4265
926.138	4215
926.245	4211
926.352	4120
926.459	4242
926.566	4306
926.673	4109
926.779	4063
926.886	4078
926.993	3975
927.099	3972
927.206	3964
927.312	3956
927.419	3983
927.525	4032
927.631	4097
927.737	3968
927.843	3945
927.95	3880
928.056	3930
928.162	3964
928.267	4135
928.373	4626
928.479	4105
928.585	3899
928.69	4029
928.796	4055
928.901	3956
929.007	3865
929.112	4017
929.218	3956
929.323	3918
929.428	3964
929.533	4120
929.638	3926
929.743	3994
929.848	4071
929.953	4010
930.058	3934
930.163	3804
930.267	3823
930.372	3998
930.477	3842
930.581	4116
930.685	3934
930.79	3827
930.894	3896
930.998	3903
931.103	4040
931.207	3709
931.311	3694
931.415	3660
931.519	3488
931.623	3561
