Data from test_V78500241_448.txt Node
Date: Fri Mar 25 16:52:07 CST 2022
User: usil
Spectrometer: V785-0024
Trigger mode: 0
Integration Time (sec): 4.000000E-1
Scans to average: 1
Nonlinearity correction enabled: false
Boxcar width: 0
Storing dark spectrum: false
XAxis mode: Wavelengths
Number of Pixels in Spectrum: 1024
>>>>>Begin Spectral Data<<<<<
801.071	8058
801.214	8031
801.356	7875
801.499	7921
801.641	7814
801.783	7909
801.926	7989
802.068	7921
802.211	7989
802.353	7947
802.496	7822
802.638	7932
802.78	7830
802.923	7955
803.065	7879
803.208	7841
803.35	7936
803.492	8046
803.635	8100
803.777	8001
803.919	8103
804.061	8374
804.204	8225
804.346	8043
804.488	7940
804.63	8069
804.773	8024
804.915	8096
805.057	8298
805.199	8202
805.341	8199
805.483	8263
805.626	8164
805.768	8016
805.91	8199
806.052	8149
806.194	8138
806.336	8317
806.478	8111
806.62	8119
806.762	8142
806.904	8237
807.046	8377
807.188	8263
807.33	8191
807.472	8259
807.614	8168
807.756	8126
807.898	7997
808.04	7887
808.182	7944
808.324	7989
808.465	7917
808.607	8065
808.749	8081
808.891	8210
809.033	8282
809.174	8161
809.316	8043
809.458	8100
809.6	7936
809.741	8046
809.883	7978
810.025	8054
810.166	8046
810.308	8058
810.45	7986
810.591	7906
810.733	7753
810.875	7666
811.016	7563
811.158	7480
811.299	7620
811.441	7795
811.582	7731
811.724	7578
811.865	7533
812.007	7590
812.148	7624
812.29	7662
812.431	7693
812.573	7906
812.714	8046
812.855	8168
812.997	8248
813.138	8309
813.279	8229
813.421	8115
813.562	8027
813.703	7963
813.845	7753
813.986	7495
814.127	7369
814.268	7350
814.41	7232
814.551	7126
814.692	7141
814.833	7080
814.974	7149
815.115	7133
815.256	6973
815.397	6909
815.539	6947
815.68	6844
815.821	6844
815.962	6909
816.103	6928
816.244	6795
816.385	6650
816.526	6616
816.666	6528
816.807	6296
816.948	6433
817.089	6513
817.23	6479
817.371	6418
817.512	6346
817.653	6376
817.793	6410
817.934	6403
818.075	6422
818.216	6426
818.356	6414
818.497	6232
818.638	6121
818.778	6117
818.919	6144
819.06	6114
819.2	6281
819.341	6338
819.481	6384
819.622	6502
819.762	6741
819.903	6696
820.043	6589
820.184	6585
820.324	6578
820.465	6673
820.605	6703
820.746	6620
820.886	6513
821.026	6635
821.167	6734
821.307	6810
821.447	6726
821.588	6665
821.728	6623
821.868	6490
822.008	6323
822.149	6361
822.289	6327
822.429	6182
822.569	6068
822.709	6049
822.849	5893
822.99	5897
823.13	5893
823.27	5923
823.41	5794
823.55	5805
823.69	5756
823.83	5775
823.97	5672
824.11	5535
824.25	5551
824.389	5551
824.529	5615
824.669	5528
824.809	5668
824.949	5649
825.089	5615
825.228	5532
825.368	5406
825.508	5315
825.648	5326
825.787	5387
825.927	5387
826.067	5292
826.206	5334
826.346	5360
826.485	5360
826.625	5395
826.765	5512
826.904	5474
827.044	5296
827.183	5204
827.323	5166
827.462	5239
827.601	5159
827.741	5201
827.88	5208
828.02	5105
828.159	5242
828.298	5318
828.437	5391
828.577	5269
828.716	5452
828.855	5353
828.994	5147
829.134	5147
829.273	5223
829.412	5094
829.551	5147
829.69	5140
829.829	5181
829.968	5387
830.107	5239
830.246	5364
830.385	5193
830.524	5155
830.663	5060
830.802	4953
830.941	4908
831.08	4805
831.219	4999
831.357	4972
831.496	5124
831.635	4881
831.774	4870
831.913	4828
832.051	4649
832.19	4717
832.329	4843
832.467	4702
832.606	4637
832.744	4710
832.883	4717
833.022	4687
833.16	4805
833.299	4824
833.437	4850
833.576	4805
833.714	4866
833.852	4862
833.991	4930
834.129	4915
834.267	4976
834.406	4911
834.544	4946
834.682	4965
834.821	4953
834.959	5231
835.097	4980
835.235	5155
835.373	5052
835.511	5086
835.65	5033
835.788	4953
835.926	4881
836.064	4866
836.202	4904
836.34	5136
836.478	5220
836.615	5132
836.753	5204
836.891	5261
837.029	5269
837.167	5227
837.305	5121
837.443	5113
837.58	5064
837.718	5231
837.856	5124
837.993	5174
838.131	5162
838.269	5220
838.406	5185
838.544	5159
838.681	5064
838.819	4987
838.956	4877
839.094	4927
839.231	4953
839.369	5086
839.506	5436
839.643	5258
839.781	5098
839.918	5033
840.055	5124
840.193	5128
840.33	5117
840.467	5075
840.604	5178
840.742	5433
840.879	5064
841.016	5094
841.153	5166
841.29	5322
841.427	5337
841.564	5322
841.701	5292
841.838	5273
841.975	5269
842.112	5273
842.249	5117
842.385	5083
842.522	5357
842.659	5204
842.796	5090
842.933	5201
843.069	5132
843.206	5124
843.343	5292
843.479	5212
843.616	5197
843.752	4999
843.889	5071
844.025	5231
844.162	5041
844.298	5189
844.435	5052
844.571	5067
844.708	5223
844.844	5303
844.98	5307
845.117	5307
845.253	5117
845.389	5052
845.525	5117
845.661	5113
845.798	4999
845.934	5124
846.07	5052
846.206	5174
846.342	5246
846.478	5166
846.614	5067
846.75	4976
846.886	4908
847.022	5159
847.158	4991
847.294	4995
847.429	5086
847.565	5014
847.701	5307
847.837	4881
847.972	4782
848.108	4908
848.244	4946
848.379	4797
848.515	4694
848.65	4744
848.786	4736
848.921	4778
849.057	4881
849.192	4892
849.328	4771
849.463	4820
849.598	4771
849.734	4733
849.869	4653
850.004	4615
850.14	4679
850.275	4630
850.41	4535
850.545	4584
850.68	4645
850.815	4588
850.95	4592
851.085	4873
851.22	4793
851.355	4649
851.49	4641
851.625	4615
851.76	4618
851.895	4527
852.03	4596
852.165	4637
852.299	4710
852.434	4771
852.569	4752
852.703	4828
852.838	4854
852.973	4976
853.107	4953
853.242	4797
853.376	4702
853.511	4660
853.645	4668
853.78	4820
853.914	4691
854.048	4660
854.183	4634
854.317	4729
854.451	4847
854.585	4698
854.72	4645
854.854	4797
854.988	4615
855.122	4653
855.256	4634
855.39	4706
855.524	4797
855.658	4767
855.792	4736
855.926	4782
856.06	4824
856.194	4835
856.327	4721
856.461	4649
856.595	4668
856.729	4714
856.862	4767
856.996	4714
857.13	4774
857.263	4809
857.397	4870
857.53	4714
857.664	4835
857.797	4847
857.931	4824
858.064	4744
858.197	4786
858.331	4717
858.464	4641
858.597	4550
858.731	4660
858.864	4687
858.997	4630
859.13	4744
859.263	4710
859.396	4679
859.529	4634
859.662	4588
859.795	4599
859.928	4664
860.061	4809
860.194	4790
860.327	4664
860.46	4626
860.592	4733
860.725	4683
860.858	4778
860.99	4668
861.123	4561
861.256	4592
861.388	4660
861.521	5436
861.653	4542
861.786	4462
861.918	4516
862.05	4546
862.183	4618
862.315	4630
862.447	4691
862.58	4592
862.712	4451
862.844	4367
862.976	4516
863.108	4489
863.24	4820
863.372	4402
863.504	4531
863.636	4466
863.768	4512
863.9	4474
864.032	4428
864.164	4440
864.296	4497
864.428	4599
864.559	4577
864.691	4599
864.823	4588
864.954	4561
865.086	4573
865.217	4470
865.349	4443
865.48	4500
865.612	4546
865.743	4668
865.875	4516
866.006	4432
866.137	4485
866.269	4489
866.4	4455
866.531	4451
866.662	4424
866.793	4443
866.924	4485
867.055	4523
867.186	4497
867.317	4436
867.448	4424
867.579	4413
867.71	4394
867.841	4424
867.972	4459
868.103	4500
868.233	4500
868.364	4489
868.495	4497
868.625	4664
868.756	4778
868.886	4584
869.017	4622
869.147	4786
869.278	4816
869.408	4717
869.539	4687
869.669	4733
869.799	4725
869.929	4793
870.06	4782
870.19	4953
870.32	4946
870.45	4987
870.58	5052
870.71	5075
870.84	5181
870.97	4976
871.1	4957
871.23	5159
871.36	5117
871.489	5067
871.619	5124
871.749	5159
871.879	5155
872.008	5242
872.138	5117
872.267	5022
872.397	4908
872.526	4870
872.656	4748
872.785	4820
872.915	4995
873.044	5094
873.173	4949
873.303	4976
873.432	4991
873.561	4961
873.69	4938
873.819	4949
873.948	4930
874.077	4850
874.206	4812
874.335	4778
874.464	5029
874.593	5075
874.722	5014
874.851	5162
874.979	5086
875.108	5105
875.237	4900
875.365	4953
875.494	4938
875.623	5010
875.751	4904
875.88	4923
876.008	5018
876.136	5071
876.265	5220
876.393	5341
876.521	5265
876.65	5239
876.778	5204
876.906	5159
877.034	5067
877.162	5147
877.29	5033
877.418	5105
877.546	5075
877.674	5113
877.802	5090
877.93	5079
878.058	4987
878.185	4934
878.313	5041
878.441	5014
878.568	4824
878.696	4938
878.824	5003
878.951	5060
879.079	5201
879.206	5208
879.333	5166
879.461	4995
879.588	5064
879.715	5166
879.842	5235
879.97	4995
880.097	4885
880.224	4748
880.351	4877
880.478	4908
880.605	4870
880.732	4809
880.859	5105
880.986	4915
881.112	5003
881.239	4809
881.366	4702
881.493	4645
881.619	4584
881.746	4675
881.872	4691
881.999	4710
882.125	4710
882.252	4870
882.378	4862
882.505	5018
882.631	4831
882.757	4733
882.883	4793
883.01	4763
883.136	4717
883.262	4645
883.388	4668
883.514	4850
883.64	4885
883.766	4839
883.892	4721
884.018	4717
884.143	4930
884.269	5067
884.395	4744
884.52	4664
884.646	4664
884.772	4630
884.897	4615
885.023	4717
885.148	4816
885.274	4915
885.399	4847
885.524	4763
885.65	4771
885.775	4782
885.9	4744
886.025	4866
886.15	4866
886.275	4767
886.4	4622
886.525	4771
886.65	4698
886.775	4694
886.9	4930
887.025	5083
887.149	4839
887.274	4725
887.399	4618
887.523	4626
887.648	4622
887.773	4607
887.897	4740
888.021	4797
888.146	4710
888.27	4812
888.395	4930
888.519	4831
888.643	4862
888.767	4873
888.891	4691
889.015	4656
889.139	4679
889.263	4592
889.387	4809
889.511	4908
889.635	4809
889.759	4675
889.883	4656
890.006	4763
890.13	4831
890.254	4645
890.377	4698
890.501	4645
890.624	4565
890.748	4721
890.871	4538
890.995	4489
891.118	4459
891.241	4565
891.364	4584
891.488	4691
891.611	4478
891.734	4577
891.857	4656
891.98	4573
892.103	4694
892.226	4649
892.349	4599
892.471	4432
892.594	4569
892.717	4641
892.839	4637
892.962	4622
893.085	4698
893.207	4618
893.33	4527
893.452	4584
893.575	4721
893.697	4618
893.819	4812
893.941	4889
894.064	4778
894.186	4634
894.308	4573
894.43	4805
894.552	4835
894.674	4816
894.796	4615
894.918	4630
895.04	4683
895.161	4733
895.283	4729
895.405	4626
895.526	4630
895.648	4714
895.769	4721
895.891	4717
896.012	4786
896.134	4733
896.255	4706
896.376	4626
896.498	4630
896.619	4702
896.74	4554
896.861	4714
896.982	4972
897.103	5136
897.224	4866
897.345	4752
897.466	4698
897.587	4714
897.708	4835
897.828	4839
897.949	4675
898.07	4607
898.19	4717
898.311	4862
898.431	4694
898.552	4740
898.672	4854
898.792	4809
898.913	4725
899.033	4668
899.153	4531
899.273	4443
899.393	4500
899.513	4550
899.633	4531
899.753	4542
899.873	4516
899.993	4615
900.113	4531
900.232	4611
900.352	4546
900.472	4538
900.591	4466
900.711	4523
900.83	4459
900.95	4630
901.069	4759
901.189	4618
901.308	4356
901.427	4348
901.546	4405
901.665	4516
901.784	4531
901.904	4394
902.023	4375
902.141	4211
902.26	4196
902.379	4310
902.498	4265
902.617	4268
902.735	4367
902.854	4394
902.973	4344
903.091	4211
903.21	4227
903.328	4333
903.446	4280
903.565	4268
903.683	4386
903.801	4287
903.919	4424
904.038	4481
904.156	4333
904.274	4462
904.392	4451
904.51	4485
904.627	4485
904.745	4584
904.863	4698
904.981	4424
905.098	4337
905.216	4421
905.334	4500
905.451	4489
905.569	4478
905.686	4607
905.803	4584
905.921	4413
906.038	4584
906.155	4462
906.272	4405
906.389	4470
906.506	4352
906.623	4371
906.74	4398
906.857	4344
906.974	4402
907.091	4584
907.208	4691
907.324	4645
907.441	4500
907.557	4371
907.674	4360
907.79	4344
907.907	4409
908.023	4538
908.139	4508
908.256	4451
908.372	4527
908.488	4478
908.604	4367
908.72	4310
908.836	4390
908.952	4363
909.068	4432
909.184	4546
909.3	4489
909.415	4622
909.531	4550
909.647	4379
909.762	4383
909.878	4360
909.993	4440
910.108	4478
910.224	4417
910.339	4504
910.454	4417
910.57	4379
910.685	4325
910.8	4637
910.915	4618
911.03	4470
911.145	4265
911.259	4356
911.374	4383
911.489	4325
911.604	4291
911.718	4169
911.833	4230
911.947	4067
912.062	4055
912.176	4215
912.291	4234
912.405	4265
912.519	4447
912.633	4546
912.748	4409
912.862	4363
912.976	4268
913.09	4101
913.204	4234
913.318	4268
913.431	4337
913.545	4341
913.659	4409
913.772	4363
913.886	4280
914	4211
914.113	4421
914.226	4424
914.34	4394
914.453	4246
914.566	4432
914.68	4329
914.793	4333
914.906	4234
915.019	4109
915.132	4040
915.245	4200
915.358	4192
915.47	4276
915.583	4265
915.696	4257
915.809	4367
915.921	4428
916.034	4284
916.146	4268
916.259	4234
916.371	4356
916.483	4417
916.595	4268
916.708	4356
916.82	4322
916.932	4344
917.044	4352
917.156	4322
917.268	4261
917.38	4291
917.491	4265
917.603	4405
917.715	4432
917.826	4462
917.938	4322
918.049	4280
918.161	4409
918.272	4519
918.384	4546
918.495	4466
918.606	4306
918.717	4249
918.828	4325
918.939	4367
919.05	4284
919.161	4341
919.272	4169
919.383	4261
919.494	4478
919.604	4679
919.715	4440
919.826	4379
919.936	4424
920.047	4603
920.157	4538
920.267	4706
920.378	4615
920.488	4531
920.598	4759
920.708	4904
920.818	4801
920.928	4812
921.038	5041
921.148	4915
921.258	4618
921.368	4630
921.477	4569
921.587	4508
921.697	4478
921.806	4588
921.916	4421
922.025	4284
922.134	4306
922.244	4284
922.353	4371
922.462	4219
922.571	4162
922.68	4044
922.789	4025
922.898	4048
923.007	4067
923.116	4124
923.224	4131
923.333	4169
923.442	4021
923.55	4021
923.659	4082
923.767	4128
923.876	4067
923.984	4185
924.092	4006
924.201	4166
924.309	4219
924.417	4196
924.525	4166
924.633	4173
924.741	5113
924.849	3964
924.956	4150
925.064	4048
925.172	3968
925.279	3983
925.387	4097
925.494	4109
925.602	4265
925.709	4204
925.816	4124
925.924	4150
926.031	4280
926.138	4204
926.245	4268
926.352	4150
926.459	4284
926.566	4344
926.673	4223
926.779	4090
926.886	4105
926.993	4074
927.099	4036
927.206	4051
927.312	3964
927.419	4120
927.525	4093
927.631	4162
927.737	4021
927.843	4021
927.95	3892
928.056	3991
928.162	4078
928.267	4101
928.373	4771
928.479	4173
928.585	3926
928.69	4090
928.796	4105
928.901	4029
929.007	3892
929.112	4051
929.218	4048
929.323	3945
929.428	3994
929.533	4181
929.638	3972
929.743	3964
929.848	4082
929.953	4067
930.058	3960
930.163	3861
930.267	3880
930.372	3998
930.477	3892
930.581	4135
930.685	4013
930.79	3831
930.894	3934
930.998	3899
931.103	4086
931.207	3800
931.311	3755
931.415	3690
931.519	3576
931.623	3587
