Data from test_V78500241_315.txt Node
Date: Fri Mar 25 16:51:11 CST 2022
User: usil
Spectrometer: V785-0024
Trigger mode: 0
Integration Time (sec): 4.000000E-1
Scans to average: 1
Nonlinearity correction enabled: false
Boxcar width: 0
Storing dark spectrum: false
XAxis mode: Wavelengths
Number of Pixels in Spectrum: 1024
>>>>>Begin Spectral Data<<<<<
801.071	8142
801.214	8092
801.356	7974
801.499	7928
801.641	7856
801.783	7871
801.926	8027
802.068	8054
802.211	8016
802.353	8058
802.496	7906
802.638	7936
802.78	7986
802.923	8046
803.065	7951
803.208	7936
803.35	8050
803.492	8134
803.635	8206
803.777	8012
803.919	8252
804.061	8560
804.204	8214
804.346	8145
804.488	8031
804.63	8164
804.773	8065
804.915	8084
805.057	8343
805.199	8183
805.341	8279
805.483	8233
805.626	8195
805.768	8103
805.91	8161
806.052	8271
806.194	8138
806.336	8286
806.478	8176
806.62	8153
806.762	8244
806.904	8339
807.046	8469
807.188	8396
807.33	8366
807.472	8298
807.614	8187
807.756	8157
807.898	8027
808.04	7993
808.182	7986
808.324	7986
808.465	7993
808.607	8111
808.749	8153
808.891	8206
809.033	8317
809.174	8225
809.316	8119
809.458	8115
809.6	8043
809.741	8001
809.883	8103
810.025	8134
810.166	8043
810.308	8103
810.45	8153
810.591	7913
810.733	7826
810.875	7651
811.016	7578
811.158	7518
811.299	7658
811.441	7738
811.582	7753
811.724	7597
811.865	7620
812.007	7601
812.148	7643
812.29	7670
812.431	7822
812.573	7928
812.714	7909
812.855	8134
812.997	8263
813.138	8324
813.279	8214
813.421	8073
813.562	8077
813.703	7909
813.845	7776
813.986	7483
814.127	7320
814.268	7285
814.41	7255
814.551	7255
814.692	7236
814.833	7118
814.974	7072
815.115	7095
815.256	6996
815.397	6932
815.539	7023
815.68	6852
815.821	6833
815.962	6840
816.103	6867
816.244	6768
816.385	6688
816.526	6688
816.666	6528
816.807	6380
816.948	6475
817.089	6532
817.23	6452
817.371	6410
817.512	6365
817.653	6376
817.793	6464
817.934	6456
818.075	6479
818.216	6498
818.356	6445
818.497	6311
818.638	6155
818.778	6167
818.919	6148
819.06	6178
819.2	6357
819.341	6308
819.481	6399
819.622	6566
819.762	6806
819.903	6806
820.043	6612
820.184	6566
820.324	6601
820.465	6673
820.605	6677
820.746	6620
820.886	6540
821.026	6696
821.167	6715
821.307	6776
821.447	6787
821.588	6673
821.728	6692
821.868	6502
822.008	6418
822.149	6388
822.289	6410
822.429	6194
822.569	6110
822.709	6213
822.849	5977
822.99	5965
823.13	5965
823.27	5984
823.41	5809
823.55	5851
823.69	5771
823.83	5836
823.97	5775
824.11	5562
824.25	5551
824.389	5585
824.529	5707
824.669	5554
824.809	5661
824.949	5695
825.089	5699
825.228	5547
825.368	5455
825.508	5455
825.648	5337
825.787	5376
825.927	5433
826.067	5303
826.206	5364
826.346	5433
826.485	5459
826.625	5448
826.765	5592
826.904	5558
827.044	5261
827.183	5250
827.323	5201
827.462	5280
827.601	5208
827.741	5242
827.88	5223
828.02	5121
828.159	5227
828.298	5318
828.437	5417
828.577	5368
828.716	5520
828.855	5376
828.994	5208
829.134	5117
829.273	5208
829.412	5143
829.551	5170
829.69	5227
829.829	5296
829.968	5448
830.107	5322
830.246	5330
830.385	5227
830.524	5166
830.663	5037
830.802	4987
830.941	4896
831.08	4889
831.219	4976
831.357	5010
831.496	5201
831.635	4953
831.774	4904
831.913	4885
832.051	4740
832.19	4748
832.329	4843
832.467	4675
832.606	4607
832.744	4767
832.883	4729
833.022	4786
833.16	4793
833.299	4850
833.437	4866
833.576	4843
833.714	4835
833.852	4881
833.991	4911
834.129	5033
834.267	4930
834.406	4946
834.544	5029
834.682	5041
834.821	4987
834.959	5235
835.097	5037
835.235	5212
835.373	5124
835.511	5159
835.65	5079
835.788	5048
835.926	4915
836.064	4911
836.202	4968
836.34	5197
836.478	5273
836.615	5143
836.753	5235
836.891	5292
837.029	5288
837.167	5212
837.305	5155
837.443	5193
837.58	5086
837.718	5288
837.856	5254
837.993	5147
838.131	5318
838.269	5201
838.406	5299
838.544	5204
838.681	5056
838.819	5071
838.956	4923
839.094	4976
839.231	5029
839.369	5041
839.506	5474
839.643	5315
839.781	5083
839.918	5060
840.055	5178
840.193	5124
840.33	5159
840.467	5117
840.604	5227
840.742	5474
840.879	5117
841.016	5155
841.153	5212
841.29	5376
841.427	5376
841.564	5334
841.701	5330
841.838	5330
841.975	5254
842.112	5296
842.249	5136
842.385	5105
842.522	5349
842.659	5223
842.796	5174
842.933	5254
843.069	5185
843.206	5128
843.343	5372
843.479	5258
843.616	5261
843.752	5045
843.889	4991
844.025	5269
844.162	5079
844.298	5220
844.435	5136
844.571	5067
844.708	5227
844.844	5307
844.98	5353
845.117	5318
845.253	5140
845.389	5064
845.525	5174
845.661	5162
845.798	5041
845.934	5178
846.07	5064
846.206	5208
846.342	5292
846.478	5208
846.614	5052
846.75	4991
846.886	5003
847.022	5140
847.158	5094
847.294	5067
847.429	5128
847.565	5041
847.701	5368
847.837	4927
847.972	4866
848.108	5029
848.244	4965
848.379	4812
848.515	4782
848.65	4698
848.786	4740
848.921	4790
849.057	4919
849.192	4881
849.328	4847
849.463	4824
849.598	4824
849.734	4824
849.869	4729
850.004	4630
850.14	4660
850.275	4687
850.41	4573
850.545	4641
850.68	4618
850.815	4634
850.95	4687
851.085	4892
851.22	4771
851.355	4721
851.49	4641
851.625	4637
851.76	4622
851.895	4599
852.03	4554
852.165	4656
852.299	4752
852.434	4778
852.569	4763
852.703	4782
852.838	4771
852.973	4961
853.107	4961
853.242	4698
853.376	4672
853.511	4561
853.645	4599
853.78	4816
853.914	4687
854.048	4744
854.183	4656
854.317	4714
854.451	4805
854.585	4687
854.72	4702
854.854	4763
854.988	4634
855.122	4664
855.256	4554
855.39	4721
855.524	4782
855.658	4767
855.792	4714
855.926	4729
856.06	4771
856.194	4786
856.327	4782
856.461	4649
856.595	4649
856.729	4634
856.862	4797
856.996	4729
857.13	4767
857.263	4782
857.397	4763
857.53	4679
857.664	4752
857.797	4835
857.931	4797
858.064	4687
858.197	4744
858.331	4645
858.464	4675
858.597	4516
858.731	4634
858.864	4656
858.997	4565
859.13	4691
859.263	4694
859.396	4694
859.529	4607
859.662	4618
859.795	4569
859.928	4656
860.061	4733
860.194	4812
860.327	4603
860.46	4611
860.592	4733
860.725	4771
860.858	4740
860.99	4603
861.123	4523
861.256	4577
861.388	4637
861.521	5345
861.653	4451
861.786	4459
861.918	4478
862.05	4531
862.183	4573
862.315	4664
862.447	4687
862.58	4569
862.712	4455
862.844	4352
862.976	4451
863.108	4459
863.24	4881
863.372	4325
863.504	4413
863.636	4424
863.768	4470
863.9	4413
864.032	4402
864.164	4443
864.296	4535
864.428	4611
864.559	4504
864.691	4603
864.823	4569
864.954	4603
865.086	4527
865.217	4466
865.349	4443
865.48	4470
865.612	4538
865.743	4637
865.875	4489
866.006	4432
866.137	4512
866.269	4470
866.4	4447
866.531	4409
866.662	4409
866.793	4421
866.924	4451
867.055	4527
867.186	4459
867.317	4428
867.448	4379
867.579	4375
867.71	4379
867.841	4390
867.972	4470
868.103	4500
868.233	4497
868.364	4440
868.495	4512
868.625	4691
868.756	4721
868.886	4573
869.017	4645
869.147	4793
869.278	4771
869.408	4710
869.539	4653
869.669	4706
869.799	4691
869.929	4812
870.06	4721
870.19	4980
870.32	4968
870.45	4961
870.58	5033
870.71	5109
870.84	5067
870.97	4946
871.1	4930
871.23	5140
871.36	5113
871.489	5029
871.619	5174
871.749	5113
871.879	5147
872.008	5155
872.138	5025
872.267	4976
872.397	4881
872.526	4782
872.656	4771
872.785	4816
872.915	4953
873.044	5052
873.173	4908
873.303	4991
873.432	5006
873.561	5010
873.69	4847
873.819	4835
873.948	4930
874.077	4850
874.206	4835
874.335	4812
874.464	4938
874.593	5041
874.722	4946
874.851	5121
874.979	5037
875.108	5064
875.237	4927
875.365	4873
875.494	4889
875.623	4976
875.751	4866
875.88	4896
876.008	4999
876.136	5056
876.265	5208
876.393	5299
876.521	5269
876.65	5231
876.778	5181
876.906	5102
877.034	5033
877.162	5071
877.29	4980
877.418	5086
877.546	5037
877.674	5033
877.802	5075
877.93	5018
878.058	4919
878.185	4873
878.313	4946
878.441	4923
878.568	4816
878.696	4866
878.824	4919
878.951	5003
879.079	5098
879.206	5292
879.333	5037
879.461	5014
879.588	4965
879.715	5132
879.842	5220
879.97	5025
880.097	4858
880.224	4714
880.351	4854
880.478	4831
880.605	4809
880.732	4717
880.859	5094
880.986	4915
881.112	4904
881.239	4835
881.366	4645
881.493	4599
881.619	4573
881.746	4702
881.872	4721
881.999	4672
882.125	4740
882.252	4820
882.378	4885
882.505	4972
882.631	4824
882.757	4656
882.883	4733
883.01	4748
883.136	4645
883.262	4645
883.388	4649
883.514	4816
883.64	4923
883.766	4797
883.892	4710
884.018	4755
884.143	4892
884.269	5033
884.395	4740
884.52	4649
884.646	4660
884.772	4607
884.897	4577
885.023	4660
885.148	4809
885.274	4873
885.399	4793
885.524	4679
885.65	4710
885.775	4793
885.9	4706
886.025	4892
886.15	4816
886.275	4706
886.4	4637
886.525	4729
886.65	4660
886.775	4653
886.9	4930
887.025	5060
887.149	4839
887.274	4675
887.399	4626
887.523	4634
887.648	4611
887.773	4584
887.897	4725
888.021	4801
888.146	4656
888.27	4828
888.395	4908
888.519	4824
888.643	4835
888.767	4850
888.891	4721
889.015	4611
889.139	4675
889.263	4615
889.387	4759
889.511	4911
889.635	4763
889.759	4675
889.883	4702
890.006	4744
890.13	4816
890.254	4603
890.377	4679
890.501	4516
890.624	4531
890.748	4599
890.871	4519
890.995	4421
891.118	4375
891.241	4523
891.364	4561
891.488	4626
891.611	4508
891.734	4538
891.857	4634
891.98	4588
892.103	4672
892.226	4592
892.349	4542
892.471	4413
892.594	4565
892.717	4630
892.839	4611
892.962	4596
893.085	4630
893.207	4607
893.33	4485
893.452	4516
893.575	4660
893.697	4580
893.819	4816
893.941	4831
894.064	4744
894.186	4599
894.308	4519
894.43	4725
894.552	4847
894.674	4782
894.796	4531
894.918	4588
895.04	4603
895.161	4721
895.283	4660
895.405	4577
895.526	4656
895.648	4736
895.769	4733
895.891	4706
896.012	4714
896.134	4759
896.255	4702
896.376	4599
896.498	4618
896.619	4683
896.74	4615
896.861	4653
896.982	4923
897.103	5102
897.224	4824
897.345	4774
897.466	4660
897.587	4725
897.708	4850
897.828	4786
897.949	4679
898.07	4611
898.19	4630
898.311	4824
898.431	4630
898.552	4725
898.672	4858
898.792	4866
898.913	4790
899.033	4660
899.153	4504
899.273	4470
899.393	4527
899.513	4519
899.633	4538
899.753	4565
899.873	4542
899.993	4615
900.113	4542
900.232	4569
900.352	4519
900.472	4478
900.591	4417
900.711	4478
900.83	4394
900.95	4687
901.069	4683
901.189	4569
901.308	4379
901.427	4310
901.546	4413
901.665	4459
901.784	4519
901.904	4424
902.023	4303
902.141	4177
902.26	4139
902.379	4325
902.498	4268
902.617	4230
902.735	4367
902.854	4413
902.973	4363
903.091	4223
903.21	4219
903.328	4299
903.446	4265
903.565	4238
903.683	4367
903.801	4318
903.919	4398
904.038	4413
904.156	4325
904.274	4417
904.392	4413
904.51	4455
904.627	4489
904.745	4565
904.863	4660
904.981	4344
905.098	4265
905.216	4386
905.334	4474
905.451	4489
905.569	4432
905.686	4550
905.803	4538
905.921	4405
906.038	4554
906.155	4485
906.272	4379
906.389	4455
906.506	4310
906.623	4352
906.74	4424
906.857	4303
906.974	4356
907.091	4550
907.208	4656
907.324	4592
907.441	4512
907.557	4367
907.674	4371
907.79	4291
907.907	4398
908.023	4497
908.139	4516
908.256	4451
908.372	4489
908.488	4474
908.604	4341
908.72	4318
908.836	4379
908.952	4348
909.068	4428
909.184	4577
909.3	4519
909.415	4535
909.531	4554
909.647	4398
909.762	4367
909.878	4322
909.993	4451
910.108	4398
910.224	4405
910.339	4504
910.454	4405
910.57	4341
910.685	4341
910.8	4645
910.915	4569
911.03	4519
911.145	4333
911.259	4356
911.374	4352
911.489	4272
911.604	4287
911.718	4166
911.833	4211
911.947	4093
912.062	4055
912.176	4265
912.291	4196
912.405	4234
912.519	4432
912.633	4519
912.748	4383
912.862	4303
912.976	4249
913.09	4124
913.204	4181
913.318	4246
913.431	4398
913.545	4432
913.659	4459
913.772	4356
913.886	4219
914	4211
914.113	4421
914.226	4512
914.34	4405
914.453	4238
914.566	4405
914.68	4287
914.793	4329
914.906	4215
915.019	4105
915.132	4071
915.245	4185
915.358	4223
915.47	4287
915.583	4272
915.696	4318
915.809	4417
915.921	4421
916.034	4249
916.146	4246
916.259	4200
916.371	4322
916.483	4367
916.595	4215
916.708	4348
916.82	4325
916.932	4344
917.044	4322
917.156	4341
917.268	4215
917.38	4341
917.491	4242
917.603	4417
917.715	4398
917.826	4417
917.938	4375
918.049	4276
918.161	4348
918.272	4489
918.384	4538
918.495	4440
918.606	4287
918.717	4204
918.828	4344
918.939	4405
919.05	4234
919.161	4325
919.272	4139
919.383	4192
919.494	4436
919.604	4622
919.715	4413
919.826	4341
919.936	4443
920.047	4519
920.157	4466
920.267	4710
920.378	4569
920.488	4500
920.598	4683
920.708	4862
920.818	4740
920.928	4755
921.038	4987
921.148	4938
921.258	4577
921.368	4592
921.477	4443
921.587	4531
921.697	4356
921.806	4573
921.916	4440
922.025	4230
922.134	4329
922.244	4211
922.353	4344
922.462	4169
922.571	4120
922.68	4044
922.789	3968
922.898	4029
923.007	3998
923.116	4063
923.224	4048
923.333	4090
923.442	4010
923.55	3979
923.659	4036
923.767	4063
923.876	3972
923.984	4112
924.092	3998
924.201	4051
924.309	4093
924.417	4105
924.525	4078
924.633	4105
924.741	4839
924.849	3915
924.956	4109
925.064	3926
925.172	3934
925.279	3926
925.387	4040
925.494	4059
925.602	4154
925.709	4200
925.816	4021
925.924	4059
926.031	4204
926.138	4166
926.245	4196
926.352	4112
926.459	4253
926.566	4253
926.673	4158
926.779	4101
926.886	4124
926.993	3991
927.099	3979
927.206	3934
927.312	3968
927.419	4021
927.525	4010
927.631	4025
927.737	3911
927.843	3953
927.95	3846
928.056	3934
928.162	4006
928.267	4090
928.373	4733
928.479	4131
928.585	3873
928.69	4074
928.796	4074
928.901	3945
929.007	3850
929.112	3991
929.218	4002
929.323	3956
929.428	3987
929.533	4162
929.638	3915
929.743	3964
929.848	4017
929.953	4010
930.058	3907
930.163	3759
930.267	3842
930.372	3968
930.477	3785
930.581	4093
930.685	3953
930.79	3869
930.894	3941
930.998	3827
931.103	4040
931.207	3717
931.311	3682
931.415	3709
931.519	3523
931.623	3557
