Data from test_V78500241_646.txt Node
Date: Fri Mar 25 16:53:29 CST 2022
User: usil
Spectrometer: V785-0024
Trigger mode: 0
Integration Time (sec): 4.000000E-1
Scans to average: 1
Nonlinearity correction enabled: false
Boxcar width: 0
Storing dark spectrum: false
XAxis mode: Wavelengths
Number of Pixels in Spectrum: 1024
>>>>>Begin Spectral Data<<<<<
801.071	8035
801.214	7993
801.356	7913
801.499	7871
801.641	7849
801.783	7833
801.926	8031
802.068	8016
802.211	8073
802.353	8005
802.496	7936
802.638	7967
802.78	7921
802.923	7932
803.065	7830
803.208	7818
803.35	8005
803.492	8084
803.635	8183
803.777	8054
803.919	8138
804.061	8419
804.204	8107
804.346	8039
804.488	8008
804.63	8073
804.773	7997
804.915	8054
805.057	8282
805.199	8237
805.341	8229
805.483	8324
805.626	8259
805.768	8005
805.91	8157
806.052	8195
806.194	8100
806.336	8275
806.478	8138
806.62	8062
806.762	8123
806.904	8286
807.046	8454
807.188	8419
807.33	8298
807.472	8313
807.614	8138
807.756	8183
807.898	8012
808.04	7917
808.182	7944
808.324	7906
808.465	7978
808.607	8024
808.749	8073
808.891	8252
809.033	8393
809.174	8176
809.316	8027
809.458	8069
809.6	8001
809.741	8005
809.883	7993
810.025	8126
810.166	8130
810.308	8035
810.45	8001
810.591	7868
810.733	7750
810.875	7628
811.016	7537
811.158	7563
811.299	7605
811.441	7757
811.582	7731
811.724	7525
811.865	7525
812.007	7578
812.148	7575
812.29	7582
812.431	7750
812.573	7849
812.714	7970
812.855	8115
812.997	8130
813.138	8332
813.279	8267
813.421	8183
813.562	8062
813.703	7932
813.845	7788
813.986	7529
814.127	7324
814.268	7297
814.41	7209
814.551	7194
814.692	7179
814.833	7080
814.974	7069
815.115	7141
815.256	6947
815.397	6905
815.539	7000
815.68	6871
815.821	6825
815.962	6897
816.103	6875
816.244	6757
816.385	6631
816.526	6639
816.666	6506
816.807	6327
816.948	6418
817.089	6471
817.23	6441
817.371	6380
817.512	6323
817.653	6380
817.793	6300
817.934	6414
818.075	6452
818.216	6376
818.356	6384
818.497	6175
818.638	6106
818.778	6121
818.919	6155
819.06	6163
819.2	6304
819.341	6365
819.481	6369
819.622	6506
819.762	6700
819.903	6677
820.043	6532
820.184	6574
820.324	6536
820.465	6658
820.605	6639
820.746	6578
820.886	6521
821.026	6608
821.167	6673
821.307	6779
821.447	6779
821.588	6650
821.728	6479
821.868	6448
822.008	6304
822.149	6361
822.289	6308
822.429	6129
822.569	6076
822.709	6186
822.849	5855
822.99	5931
823.13	5897
823.27	5912
823.41	5832
823.55	5824
823.69	5775
823.83	5786
823.97	5653
824.11	5490
824.25	5554
824.389	5570
824.529	5566
824.669	5535
824.809	5585
824.949	5680
825.089	5665
825.228	5558
825.368	5376
825.508	5387
825.648	5353
825.787	5337
825.927	5417
826.067	5292
826.206	5337
826.346	5368
826.485	5376
826.625	5459
826.765	5497
826.904	5493
827.044	5242
827.183	5242
827.323	5136
827.462	5204
827.601	5124
827.741	5189
827.88	5220
828.02	5071
828.159	5231
828.298	5307
828.437	5368
828.577	5261
828.716	5478
828.855	5372
828.994	5189
829.134	5170
829.273	5208
829.412	5162
829.551	5170
829.69	5193
829.829	5250
829.968	5341
830.107	5265
830.246	5299
830.385	5197
830.524	5124
830.663	5067
830.802	5006
830.941	4866
831.08	4930
831.219	4938
831.357	4965
831.496	5166
831.635	4858
831.774	4828
831.913	4801
832.051	4793
832.19	4778
832.329	4824
832.467	4672
832.606	4603
832.744	4771
832.883	4675
833.022	4721
833.16	4774
833.299	4797
833.437	4809
833.576	4809
833.714	4870
833.852	4881
833.991	4885
834.129	4972
834.267	4987
834.406	4896
834.544	4953
834.682	4999
834.821	4942
834.959	5201
835.097	4984
835.235	5143
835.373	5075
835.511	5143
835.65	5075
835.788	4995
835.926	4949
836.064	4881
836.202	4915
836.34	5136
836.478	5185
836.615	5094
836.753	5201
836.891	5307
837.029	5242
837.167	5204
837.305	5143
837.443	5102
837.58	4984
837.718	5246
837.856	5140
837.993	5193
838.131	5193
838.269	5162
838.406	5197
838.544	5220
838.681	5037
838.819	5041
838.956	4908
839.094	4908
839.231	4995
839.369	5102
839.506	5414
839.643	5208
839.781	5064
839.918	4976
840.055	5060
840.193	5098
840.33	5094
840.467	5117
840.604	5155
840.742	5474
840.879	5052
841.016	5075
841.153	5102
841.29	5364
841.427	5330
841.564	5353
841.701	5368
841.838	5231
841.975	5208
842.112	5284
842.249	5162
842.385	5124
842.522	5345
842.659	5193
842.796	5159
842.933	5220
843.069	5159
843.206	5132
843.343	5246
843.479	5254
843.616	5292
843.752	4987
843.889	4942
844.025	5235
844.162	4980
844.298	5178
844.435	5094
844.571	4999
844.708	5216
844.844	5315
844.98	5303
845.117	5288
845.253	5124
845.389	5151
845.525	5151
845.661	5193
845.798	5064
845.934	5098
846.07	4995
846.206	5193
846.342	5269
846.478	5159
846.614	5029
846.75	4968
846.886	4896
847.022	5102
847.158	5033
847.294	5041
847.429	5102
847.565	5029
847.701	5318
847.837	4873
847.972	4801
848.108	4953
848.244	4934
848.379	4786
848.515	4679
848.65	4721
848.786	4748
848.921	4778
849.057	4862
849.192	4820
849.328	4892
849.463	4858
849.598	4809
849.734	4790
849.869	4672
850.004	4641
850.14	4645
850.275	4561
850.41	4546
850.545	4535
850.68	4607
850.815	4634
850.95	4653
851.085	4809
851.22	4752
851.355	4645
851.49	4622
851.625	4656
851.76	4649
851.895	4580
852.03	4512
852.165	4672
852.299	4710
852.434	4771
852.569	4744
852.703	4767
852.838	4820
852.973	4900
853.107	4957
853.242	4694
853.376	4664
853.511	4542
853.645	4622
853.78	4782
853.914	4675
854.048	4668
854.183	4634
854.317	4691
854.451	4839
854.585	4611
854.72	4660
854.854	4790
854.988	4656
855.122	4603
855.256	4500
855.39	4630
855.524	4733
855.658	4649
855.792	4702
855.926	4771
856.06	4725
856.194	4805
856.327	4698
856.461	4634
856.595	4626
856.729	4603
856.862	4721
856.996	4683
857.13	4744
857.263	4774
857.397	4843
857.53	4664
857.664	4687
857.797	4786
857.931	4809
858.064	4679
858.197	4771
858.331	4672
858.464	4626
858.597	4516
858.731	4668
858.864	4611
858.997	4527
859.13	4618
859.263	4618
859.396	4679
859.529	4592
859.662	4531
859.795	4588
859.928	4641
860.061	4744
860.194	4694
860.327	4649
860.46	4592
860.592	4679
860.725	4725
860.858	4752
860.99	4607
861.123	4478
861.256	4523
861.388	4637
861.521	5337
861.653	4485
861.786	4413
861.918	4459
862.05	4519
862.183	4538
862.315	4599
862.447	4630
862.58	4519
862.712	4428
862.844	4325
862.976	4497
863.108	4428
863.24	4850
863.372	4390
863.504	4428
863.636	4421
863.768	4459
863.9	4409
864.032	4333
864.164	4394
864.296	4440
864.428	4542
864.559	4573
864.691	4550
864.823	4531
864.954	4478
865.086	4500
865.217	4478
865.349	4405
865.48	4455
865.612	4493
865.743	4630
865.875	4485
866.006	4383
866.137	4421
866.269	4436
866.4	4447
866.531	4413
866.662	4455
866.793	4428
866.924	4443
867.055	4493
867.186	4493
867.317	4413
867.448	4341
867.579	4333
867.71	4409
867.841	4348
867.972	4459
868.103	4497
868.233	4428
868.364	4447
868.495	4497
868.625	4630
868.756	4725
868.886	4607
869.017	4637
869.147	4717
869.278	4767
869.408	4634
869.539	4580
869.669	4733
869.799	4675
869.929	4755
870.06	4717
870.19	4995
870.32	4885
870.45	4961
870.58	4984
870.71	5143
870.84	5094
870.97	4934
871.1	4896
871.23	5128
871.36	5102
871.489	5060
871.619	5071
871.749	5060
871.879	5166
872.008	5193
872.138	5071
872.267	4991
872.397	4870
872.526	4790
872.656	4729
872.785	4820
872.915	4900
873.044	4999
873.173	4915
873.303	4915
873.432	4938
873.561	4961
873.69	4839
873.819	4881
873.948	4984
874.077	4782
874.206	4744
874.335	4774
874.464	4919
874.593	5033
874.722	4987
874.851	5113
874.979	5048
875.108	5052
875.237	4904
875.365	4881
875.494	4873
875.623	4976
875.751	4862
875.88	4908
876.008	5010
876.136	5056
876.265	5159
876.393	5330
876.521	5208
876.65	5231
876.778	5197
876.906	5052
877.034	4968
877.162	5033
877.29	4946
877.418	5079
877.546	5075
877.674	5075
877.802	5056
877.93	5033
878.058	4946
878.185	4877
878.313	5006
878.441	4980
878.568	4793
878.696	4908
878.824	4953
878.951	5025
879.079	5113
879.206	5318
879.333	5113
879.461	4976
879.588	5033
879.715	5128
879.842	5254
879.97	4961
880.097	4725
880.224	4778
880.351	4820
880.478	4839
880.605	4797
880.732	4763
880.859	5128
880.986	4904
881.112	4915
881.239	4801
881.366	4675
881.493	4634
881.619	4577
881.746	4634
881.872	4672
881.999	4653
882.125	4687
882.252	4824
882.378	4790
882.505	4968
882.631	4805
882.757	4641
882.883	4691
883.01	4782
883.136	4679
883.262	4607
883.388	4660
883.514	4870
883.64	4870
883.766	4812
883.892	4664
884.018	4714
884.143	4847
884.269	5056
884.395	4702
884.52	4660
884.646	4653
884.772	4634
884.897	4558
885.023	4626
885.148	4771
885.274	4854
885.399	4809
885.524	4744
885.65	4675
885.775	4736
885.9	4717
886.025	4820
886.15	4733
886.275	4710
886.4	4672
886.525	4694
886.65	4668
886.775	4706
886.9	4938
887.025	5010
887.149	4786
887.274	4660
887.399	4584
887.523	4542
887.648	4527
887.773	4611
887.897	4752
888.021	4744
888.146	4698
888.27	4843
888.395	4949
888.519	4790
888.643	4824
888.767	4831
888.891	4694
889.015	4596
889.139	4588
889.263	4622
889.387	4740
889.511	4866
889.635	4847
889.759	4615
889.883	4649
890.006	4740
890.13	4873
890.254	4599
890.377	4702
890.501	4550
890.624	4500
890.748	4634
890.871	4466
890.995	4428
891.118	4409
891.241	4497
891.364	4554
891.488	4603
891.611	4500
891.734	4500
891.857	4615
891.98	4554
892.103	4672
892.226	4565
892.349	4531
892.471	4451
892.594	4512
892.717	4618
892.839	4592
892.962	4634
893.085	4668
893.207	4546
893.33	4432
893.452	4500
893.575	4641
893.697	4599
893.819	4782
893.941	4831
894.064	4763
894.186	4584
894.308	4611
894.43	4740
894.552	4793
894.674	4782
894.796	4538
894.918	4577
895.04	4588
895.161	4660
895.283	4622
895.405	4554
895.526	4653
895.648	4748
895.769	4687
895.891	4683
896.012	4755
896.134	4725
896.255	4694
896.376	4622
896.498	4580
896.619	4641
896.74	4615
896.861	4630
896.982	4934
897.103	5060
897.224	4812
897.345	4767
897.466	4679
897.587	4694
897.708	4828
897.828	4752
897.949	4687
898.07	4580
898.19	4660
898.311	4881
898.431	4679
898.552	4736
898.672	4797
898.792	4793
898.913	4710
899.033	4672
899.153	4523
899.273	4424
899.393	4485
899.513	4485
899.633	4504
899.753	4538
899.873	4550
899.993	4580
900.113	4580
900.232	4554
900.352	4535
900.472	4497
900.591	4386
900.711	4493
900.83	4421
900.95	4672
901.069	4660
901.189	4535
901.308	4383
901.427	4367
901.546	4394
901.665	4474
901.784	4512
901.904	4402
902.023	4322
902.141	4169
902.26	4173
902.379	4299
902.498	4219
902.617	4242
902.735	4375
902.854	4367
902.973	4333
903.091	4238
903.21	4204
903.328	4310
903.446	4280
903.565	4238
903.683	4318
903.801	4246
903.919	4409
904.038	4436
904.156	4310
904.274	4398
904.392	4348
904.51	4451
904.627	4470
904.745	4588
904.863	4637
904.981	4402
905.098	4337
905.216	4390
905.334	4447
905.451	4443
905.569	4421
905.686	4580
905.803	4535
905.921	4417
906.038	4538
906.155	4466
906.272	4409
906.389	4451
906.506	4360
906.623	4383
906.74	4402
906.857	4276
906.974	4394
907.091	4588
907.208	4675
907.324	4592
907.441	4527
907.557	4356
907.674	4333
907.79	4303
907.907	4363
908.023	4497
908.139	4459
908.256	4440
908.372	4485
908.488	4462
908.604	4303
908.72	4329
908.836	4383
908.952	4375
909.068	4440
909.184	4565
909.3	4504
909.415	4565
909.531	4607
909.647	4322
909.762	4371
909.878	4291
909.993	4455
910.108	4405
910.224	4440
910.339	4462
910.454	4432
910.57	4379
910.685	4303
910.8	4618
910.915	4584
911.03	4516
911.145	4329
911.259	4329
911.374	4363
911.489	4280
911.604	4295
911.718	4185
911.833	4166
911.947	4101
912.062	4006
912.176	4219
912.291	4249
912.405	4246
912.519	4417
912.633	4519
912.748	4413
912.862	4344
912.976	4200
913.09	4105
913.204	4166
913.318	4242
913.431	4383
913.545	4348
913.659	4409
913.772	4375
913.886	4234
914	4219
914.113	4394
914.226	4417
914.34	4413
914.453	4227
914.566	4451
914.68	4325
914.793	4333
914.906	4143
915.019	4090
915.132	4120
915.245	4196
915.358	4196
915.47	4185
915.583	4284
915.696	4318
915.809	4409
915.921	4398
916.034	4276
916.146	4265
916.259	4192
916.371	4405
916.483	4398
916.595	4242
916.708	4310
916.82	4318
916.932	4337
917.044	4325
917.156	4333
917.268	4268
917.38	4272
917.491	4253
917.603	4383
917.715	4478
917.826	4409
917.938	4356
918.049	4246
918.161	4341
918.272	4508
918.384	4561
918.495	4421
918.606	4284
918.717	4223
918.828	4371
918.939	4405
919.05	4253
919.161	4325
919.272	4124
919.383	4204
919.494	4443
919.604	4603
919.715	4451
919.826	4367
919.936	4390
920.047	4523
920.157	4519
920.267	4664
920.378	4596
920.488	4493
920.598	4679
920.708	4904
920.818	4801
920.928	4740
921.038	4953
921.148	4915
921.258	4603
921.368	4577
921.477	4497
921.587	4519
921.697	4344
921.806	4565
921.916	4436
922.025	4211
922.134	4261
922.244	4207
922.353	4310
922.462	4238
922.571	4135
922.68	4006
922.789	4010
922.898	4017
923.007	4010
923.116	4063
923.224	4048
923.333	4097
923.442	4025
923.55	4002
923.659	4040
923.767	4093
923.876	3998
923.984	4131
924.092	3953
924.201	4063
924.309	4097
924.417	4128
924.525	4086
924.633	4078
924.741	5048
924.849	3907
924.956	4109
925.064	3949
925.172	3918
925.279	3941
925.387	4029
925.494	4059
925.602	4192
925.709	4196
925.816	4059
925.924	4109
926.031	4253
926.138	4158
926.245	4185
926.352	4040
926.459	4295
926.566	4276
926.673	4154
926.779	4093
926.886	4067
926.993	3953
927.099	3934
927.206	3941
927.312	3987
927.419	4051
927.525	4044
927.631	4074
927.737	3953
927.843	3907
927.95	3873
928.056	3968
928.162	3994
928.267	4078
928.373	4645
928.479	4131
928.585	3896
928.69	4006
928.796	4090
928.901	3975
929.007	3842
929.112	4006
929.218	3953
929.323	3960
929.428	3934
929.533	4074
929.638	3918
929.743	3972
929.848	4093
929.953	4002
930.058	3949
930.163	3819
930.267	3762
930.372	3983
930.477	3827
930.581	4101
930.685	3960
930.79	3865
930.894	3926
930.998	3854
931.103	4040
931.207	3682
931.311	3717
931.415	3663
931.519	3496
931.623	3534
