Data from test_V78500241_1848.txt Node
Date: Fri Mar 25 17:01:51 CST 2022
User: usil
Spectrometer: V785-0024
Trigger mode: 0
Integration Time (sec): 4.000000E-1
Scans to average: 1
Nonlinearity correction enabled: false
Boxcar width: 0
Storing dark spectrum: false
XAxis mode: Wavelengths
Number of Pixels in Spectrum: 1024
>>>>>Begin Spectral Data<<<<<
801.071	8016
801.214	7963
801.356	7921
801.499	7830
801.641	7765
801.783	7868
801.926	7921
802.068	7951
802.211	8027
802.353	8058
802.496	7822
802.638	7841
802.78	7932
802.923	7963
803.065	7856
803.208	7833
803.35	7906
803.492	8039
803.635	8176
803.777	8020
803.919	8123
804.061	8454
804.204	8153
804.346	8058
804.488	8008
804.63	8092
804.773	8027
804.915	8176
805.057	8267
805.199	8180
805.341	8191
805.483	8282
805.626	8298
805.768	8107
805.91	8267
806.052	8225
806.194	8096
806.336	8301
806.478	8073
806.62	8058
806.762	8187
806.904	8309
807.046	8484
807.188	8339
807.33	8339
807.472	8317
807.614	8202
807.756	8187
807.898	8027
808.04	7883
808.182	7902
808.324	7860
808.465	7974
808.607	8107
808.749	8142
808.891	8202
809.033	8294
809.174	8164
809.316	8088
809.458	8126
809.6	7974
809.741	8073
809.883	8012
810.025	8115
810.166	8096
810.308	7982
810.45	8001
810.591	7811
810.733	7742
810.875	7700
811.016	7586
811.158	7460
811.299	7571
811.441	7681
811.582	7681
811.724	7616
811.865	7537
812.007	7601
812.148	7578
812.29	7651
812.431	7723
812.573	7894
812.714	7986
812.855	8195
812.997	8290
813.138	8347
813.279	8225
813.421	8123
813.562	7944
813.703	7871
813.845	7708
813.986	7422
814.127	7240
814.268	7168
814.41	7187
814.551	7198
814.692	7301
814.833	7095
814.974	7137
815.115	7141
815.256	6985
815.397	6913
815.539	6916
815.68	6871
815.821	6749
815.962	6905
816.103	6837
816.244	6665
816.385	6604
816.526	6593
816.666	6506
816.807	6346
816.948	6445
817.089	6414
817.23	6460
817.371	6369
817.512	6342
817.653	6380
817.793	6353
817.934	6445
818.075	6437
818.216	6448
818.356	6399
818.497	6190
818.638	6125
818.778	6102
818.919	6095
819.06	6152
819.2	6296
819.341	6380
819.481	6376
819.622	6513
819.762	6719
819.903	6711
820.043	6650
820.184	6578
820.324	6574
820.465	6677
820.605	6764
820.746	6662
820.886	6582
821.026	6703
821.167	6684
821.307	6764
821.447	6776
821.588	6654
821.728	6582
821.868	6445
822.008	6300
822.149	6350
822.289	6433
822.429	6167
822.569	6072
822.709	6102
822.849	5923
822.99	5866
823.13	5992
823.27	5908
823.41	5821
823.55	5748
823.69	5802
823.83	5745
823.97	5676
824.11	5562
824.25	5486
824.389	5528
824.529	5627
824.669	5505
824.809	5570
824.949	5665
825.089	5619
825.228	5497
825.368	5372
825.508	5326
825.648	5330
825.787	5395
825.927	5406
826.067	5299
826.206	5299
826.346	5349
826.485	5429
826.625	5421
826.765	5528
826.904	5554
827.044	5280
827.183	5201
827.323	5132
827.462	5212
827.601	5189
827.741	5193
827.88	5155
828.02	5098
828.159	5239
828.298	5296
828.437	5387
828.577	5311
828.716	5501
828.855	5303
828.994	5143
829.134	5128
829.273	5185
829.412	5162
829.551	5140
829.69	5174
829.829	5258
829.968	5353
830.107	5239
830.246	5265
830.385	5159
830.524	5140
830.663	5071
830.802	5018
830.941	4911
831.08	4896
831.219	4999
831.357	4999
831.496	5162
831.635	4927
831.774	4835
831.913	4816
832.051	4752
832.19	4755
832.329	4862
832.467	4656
832.606	4622
832.744	4748
832.883	4714
833.022	4706
833.16	4782
833.299	4850
833.437	4801
833.576	4805
833.714	4908
833.852	4847
833.991	4915
834.129	4915
834.267	4934
834.406	4881
834.544	4984
834.682	4961
834.821	4976
834.959	5132
835.097	4984
835.235	5121
835.373	5117
835.511	5079
835.65	4980
835.788	5018
835.926	4900
836.064	4843
836.202	4889
836.34	5155
836.478	5254
836.615	5159
836.753	5193
836.891	5322
837.029	5239
837.167	5155
837.305	5189
837.443	5143
837.58	5083
837.718	5261
837.856	5201
837.993	5132
838.131	5197
838.269	5239
838.406	5151
838.544	5181
838.681	5056
838.819	4968
838.956	4908
839.094	4908
839.231	5010
839.369	5079
839.506	5452
839.643	5250
839.781	5060
839.918	4987
840.055	5109
840.193	5083
840.33	5086
840.467	5162
840.604	5242
840.742	5421
840.879	5052
841.016	5098
841.153	5113
841.29	5326
841.427	5296
841.564	5280
841.701	5311
841.838	5265
841.975	5201
842.112	5265
842.249	5102
842.385	5079
842.522	5376
842.659	5178
842.796	5124
842.933	5227
843.069	5170
843.206	5170
843.343	5315
843.479	5220
843.616	5292
843.752	4991
843.889	5014
844.025	5197
844.162	4961
844.298	5216
844.435	5064
844.571	5052
844.708	5140
844.844	5349
844.98	5334
845.117	5288
845.253	5117
845.389	5067
845.525	5201
845.661	5113
845.798	4995
845.934	5132
846.07	5067
846.206	5181
846.342	5231
846.478	5197
846.614	5010
846.75	4957
846.886	4930
847.022	5117
847.158	4987
847.294	5060
847.429	5090
847.565	5060
847.701	5345
847.837	4854
847.972	4767
848.108	4999
848.244	4930
848.379	4744
848.515	4736
848.65	4679
848.786	4729
848.921	4725
849.057	4854
849.192	4934
849.328	4828
849.463	4831
849.598	4786
849.734	4790
849.869	4656
850.004	4641
850.14	4675
850.275	4618
850.41	4519
850.545	4516
850.68	4599
850.815	4577
850.95	4615
851.085	4790
851.22	4771
851.355	4660
851.49	4618
851.625	4672
851.76	4588
851.895	4565
852.03	4558
852.165	4683
852.299	4698
852.434	4744
852.569	4725
852.703	4801
852.838	4812
852.973	4915
853.107	4919
853.242	4729
853.376	4675
853.511	4470
853.645	4630
853.78	4820
853.914	4645
854.048	4687
854.183	4637
854.317	4698
854.451	4801
854.585	4725
854.72	4618
854.854	4771
854.988	4573
855.122	4653
855.256	4470
855.39	4664
855.524	4805
855.658	4744
855.792	4675
855.926	4691
856.06	4755
856.194	4793
856.327	4668
856.461	4641
856.595	4622
856.729	4679
856.862	4778
856.996	4691
857.13	4702
857.263	4687
857.397	4778
857.53	4641
857.664	4710
857.797	4752
857.931	4759
858.064	4710
858.197	4729
858.331	4645
858.464	4603
858.597	4527
858.731	4672
858.864	4622
858.997	4550
859.13	4698
859.263	4683
859.396	4694
859.529	4615
859.662	4554
859.795	4554
859.928	4645
860.061	4793
860.194	4797
860.327	4645
860.46	4546
860.592	4675
860.725	4687
860.858	4733
860.99	4577
861.123	4470
861.256	4531
861.388	4588
861.521	5341
861.653	4516
861.786	4512
861.918	4512
862.05	4481
862.183	4535
862.315	4607
862.447	4607
862.58	4561
862.712	4360
862.844	4299
862.976	4459
863.108	4451
863.24	4847
863.372	4325
863.504	4421
863.636	4413
863.768	4497
863.9	4424
864.032	4341
864.164	4424
864.296	4443
864.428	4516
864.559	4584
864.691	4485
864.823	4561
864.954	4500
865.086	4508
865.217	4470
865.349	4409
865.48	4470
865.612	4527
865.743	4653
865.875	4459
866.006	4413
866.137	4474
866.269	4474
866.4	4402
866.531	4424
866.662	4356
866.793	4432
866.924	4394
867.055	4447
867.186	4500
867.317	4363
867.448	4390
867.579	4394
867.71	4390
867.841	4371
867.972	4466
868.103	4459
868.233	4421
868.364	4474
868.495	4470
868.625	4660
868.756	4763
868.886	4561
869.017	4611
869.147	4729
869.278	4752
869.408	4641
869.539	4664
869.669	4679
869.799	4694
869.929	4782
870.06	4744
870.19	5003
870.32	4889
870.45	4938
870.58	5018
870.71	5113
870.84	5117
870.97	4885
871.1	4949
871.23	5162
871.36	5098
871.489	5045
871.619	5067
871.749	5140
871.879	5155
872.008	5208
872.138	5018
872.267	5025
872.397	4831
872.526	4801
872.656	4733
872.785	4752
872.915	4984
873.044	4999
873.173	4923
873.303	4980
873.432	4923
873.561	4904
873.69	4843
873.819	4870
873.948	4885
874.077	4809
874.206	4759
874.335	4812
874.464	4930
874.593	5033
874.722	4953
874.851	5098
874.979	5025
875.108	5033
875.237	4835
875.365	4870
875.494	4858
875.623	5006
875.751	4839
875.88	4934
876.008	4984
876.136	4980
876.265	5166
876.393	5372
876.521	5216
876.65	5178
876.778	5216
876.906	5067
877.034	4976
877.162	5067
877.29	4976
877.418	5029
877.546	5025
877.674	5033
877.802	5014
877.93	4984
878.058	4896
878.185	4881
878.313	4999
878.441	4942
878.568	4866
878.696	4854
878.824	4934
878.951	4949
879.079	5105
879.206	5273
879.333	5067
879.461	4953
879.588	4972
879.715	5090
879.842	5208
879.97	4980
880.097	4752
880.224	4714
880.351	4797
880.478	4790
880.605	4748
880.732	4755
880.859	5098
880.986	4927
881.112	4919
881.239	4790
881.366	4615
881.493	4618
881.619	4565
881.746	4634
881.872	4607
881.999	4626
882.125	4679
882.252	4759
882.378	4835
882.505	4927
882.631	4793
882.757	4641
882.883	4683
883.01	4721
883.136	4687
883.262	4626
883.388	4584
883.514	4790
883.64	4919
883.766	4763
883.892	4645
884.018	4702
884.143	4877
884.269	4949
884.395	4668
884.52	4599
884.646	4679
884.772	4607
884.897	4584
885.023	4622
885.148	4809
885.274	4881
885.399	4816
885.524	4694
885.65	4698
885.775	4733
885.9	4694
886.025	4877
886.15	4797
886.275	4698
886.4	4645
886.525	4725
886.65	4706
886.775	4649
886.9	4896
887.025	5041
887.149	4763
887.274	4649
887.399	4596
887.523	4603
887.648	4550
887.773	4596
887.897	4736
888.021	4752
888.146	4596
888.27	4778
888.395	4892
888.519	4805
888.643	4820
888.767	4847
888.891	4679
889.015	4569
889.139	4641
889.263	4607
889.387	4782
889.511	4873
889.635	4752
889.759	4641
889.883	4634
890.006	4778
890.13	4786
890.254	4618
890.377	4710
890.501	4527
890.624	4462
890.748	4588
890.871	4538
890.995	4443
891.118	4394
891.241	4519
891.364	4546
891.488	4626
891.611	4523
891.734	4542
891.857	4565
891.98	4527
892.103	4645
892.226	4592
892.349	4508
892.471	4470
892.594	4531
892.717	4672
892.839	4592
892.962	4637
893.085	4645
893.207	4565
893.33	4455
893.452	4561
893.575	4656
893.697	4519
893.819	4767
893.941	4820
894.064	4793
894.186	4565
894.308	4546
894.43	4717
894.552	4816
894.674	4752
894.796	4542
894.918	4569
895.04	4538
895.161	4687
895.283	4660
895.405	4577
895.526	4607
895.648	4729
895.769	4729
895.891	4641
896.012	4717
896.134	4740
896.255	4694
896.376	4649
896.498	4637
896.619	4694
896.74	4569
896.861	4618
896.982	4946
897.103	5025
897.224	4835
897.345	4778
897.466	4691
897.587	4656
897.708	4870
897.828	4809
897.949	4683
898.07	4558
898.19	4641
898.311	4786
898.431	4660
898.552	4767
898.672	4831
898.792	4824
898.913	4744
899.033	4611
899.153	4508
899.273	4462
899.393	4478
899.513	4542
899.633	4535
899.753	4577
899.873	4474
899.993	4599
900.113	4554
900.232	4637
900.352	4538
900.472	4455
900.591	4409
900.711	4508
900.83	4455
900.95	4607
901.069	4679
901.189	4538
901.308	4341
901.427	4306
901.546	4375
901.665	4485
901.784	4535
901.904	4375
902.023	4314
902.141	4162
902.26	4169
902.379	4303
902.498	4223
902.617	4196
902.735	4356
902.854	4383
902.973	4383
903.091	4215
903.21	4204
903.328	4268
903.446	4291
903.565	4306
903.683	4333
903.801	4257
903.919	4402
904.038	4417
904.156	4306
904.274	4428
904.392	4394
904.51	4447
904.627	4481
904.745	4584
904.863	4603
904.981	4344
905.098	4329
905.216	4363
905.334	4424
905.451	4428
905.569	4443
905.686	4542
905.803	4538
905.921	4440
906.038	4611
906.155	4489
906.272	4344
906.389	4443
906.506	4341
906.623	4413
906.74	4417
906.857	4303
906.974	4371
907.091	4519
907.208	4653
907.324	4630
907.441	4455
907.557	4348
907.674	4348
907.79	4299
907.907	4375
908.023	4485
908.139	4466
908.256	4417
908.372	4451
908.488	4474
908.604	4352
908.72	4352
908.836	4352
908.952	4367
909.068	4440
909.184	4569
909.3	4455
909.415	4588
909.531	4577
909.647	4379
909.762	4356
909.878	4337
909.993	4451
910.108	4405
910.224	4394
910.339	4485
910.454	4386
910.57	4390
910.685	4329
910.8	4630
910.915	4656
911.03	4500
911.145	4375
911.259	4318
911.374	4363
911.489	4280
911.604	4265
911.718	4154
911.833	4196
911.947	4090
912.062	4055
912.176	4223
912.291	4227
912.405	4246
912.519	4500
912.633	4538
912.748	4356
912.862	4287
912.976	4207
913.09	4093
913.204	4150
913.318	4268
913.431	4379
913.545	4375
913.659	4424
913.772	4329
913.886	4303
914	4246
914.113	4363
914.226	4394
914.34	4424
914.453	4223
914.566	4455
914.68	4295
914.793	4352
914.906	4169
915.019	4166
915.132	4074
915.245	4162
915.358	4185
915.47	4230
915.583	4246
915.696	4268
915.809	4424
915.921	4371
916.034	4268
916.146	4261
916.259	4219
916.371	4348
916.483	4337
916.595	4230
916.708	4295
916.82	4325
916.932	4299
917.044	4337
917.156	4303
917.268	4272
917.38	4303
917.491	4249
917.603	4314
917.715	4375
917.826	4443
917.938	4352
918.049	4257
918.161	4379
918.272	4508
918.384	4565
918.495	4409
918.606	4261
918.717	4257
918.828	4344
918.939	4341
919.05	4284
919.161	4325
919.272	4128
919.383	4280
919.494	4443
919.604	4649
919.715	4394
919.826	4383
919.936	4409
920.047	4497
920.157	4508
920.267	4687
920.378	4580
920.488	4504
920.598	4725
920.708	4870
920.818	4752
920.928	4710
921.038	4965
921.148	4896
921.258	4615
921.368	4592
921.477	4500
921.587	4424
921.697	4421
921.806	4512
921.916	4440
922.025	4249
922.134	4234
922.244	4272
922.353	4291
922.462	4147
922.571	4112
922.68	3987
922.789	3945
922.898	4059
923.007	3972
923.116	4124
923.224	4090
923.333	4044
923.442	3975
923.55	3983
923.659	4025
923.767	4067
923.876	3968
923.984	4135
924.092	4063
924.201	4059
924.309	4074
924.417	4082
924.525	4040
924.633	4090
924.741	5056
924.849	3941
924.956	4143
925.064	3934
925.172	3876
925.279	3972
925.387	4040
925.494	4078
925.602	4169
925.709	4154
925.816	4040
925.924	4139
926.031	4238
926.138	4192
926.245	4158
926.352	4097
926.459	4253
926.566	4284
926.673	4120
926.779	4059
926.886	4040
926.993	3987
927.099	3975
927.206	3964
927.312	3930
927.419	4002
927.525	3987
927.631	4101
927.737	3937
927.843	3930
927.95	3854
928.056	3949
928.162	3983
928.267	4078
928.373	4584
928.479	4082
928.585	3888
928.69	4002
928.796	4051
928.901	3968
929.007	3880
929.112	3960
929.218	3972
929.323	3937
929.428	3941
929.533	4109
929.638	3953
929.743	3934
929.848	4059
929.953	4006
930.058	3899
930.163	3770
930.267	3842
930.372	3983
930.477	3846
930.581	4078
930.685	3941
930.79	3819
930.894	3846
930.998	3865
931.103	4017
931.207	3705
931.311	3698
931.415	3641
931.519	3519
931.623	3519
