Data from test_V78500241_1541.txt Node
Date: Fri Mar 25 16:59:42 CST 2022
User: usil
Spectrometer: V785-0024
Trigger mode: 0
Integration Time (sec): 4.000000E-1
Scans to average: 1
Nonlinearity correction enabled: false
Boxcar width: 0
Storing dark spectrum: false
XAxis mode: Wavelengths
Number of Pixels in Spectrum: 1024
>>>>>Begin Spectral Data<<<<<
801.071	7989
801.214	8008
801.356	7913
801.499	7780
801.641	7746
801.783	7769
801.926	7925
802.068	7951
802.211	7906
802.353	7963
802.496	7795
802.638	7860
802.78	7879
802.923	7936
803.065	7849
803.208	7795
803.35	7936
803.492	8039
803.635	8126
803.777	7989
803.919	8115
804.061	8377
804.204	8195
804.346	8092
804.488	7894
804.63	8065
804.773	7978
804.915	8065
805.057	8275
805.199	8195
805.341	8252
805.483	8298
805.626	8164
805.768	8130
805.91	8161
806.052	8149
806.194	8069
806.336	8282
806.478	8039
806.62	7993
806.762	8073
806.904	8317
807.046	8530
807.188	8377
807.33	8248
807.472	8271
807.614	8206
807.756	8126
807.898	8073
808.04	7909
808.182	7921
808.324	7849
808.465	7921
808.607	8103
808.749	8161
808.891	8103
809.033	8282
809.174	8164
809.316	8062
809.458	8046
809.6	8065
809.741	8039
809.883	8016
810.025	8142
810.166	8065
810.308	8050
810.45	8039
810.591	7814
810.733	7670
810.875	7647
811.016	7537
811.158	7514
811.299	7605
811.441	7704
811.582	7681
811.724	7567
811.865	7525
812.007	7597
812.148	7521
812.29	7613
812.431	7780
812.573	7906
812.714	7997
812.855	8130
812.997	8206
813.138	8286
813.279	8183
813.421	8027
813.562	7974
813.703	7845
813.845	7753
813.986	7468
814.127	7217
814.268	7198
814.41	7149
814.551	7129
814.692	7206
814.833	7023
814.974	7042
815.115	7080
815.256	6962
815.397	6973
815.539	6947
815.68	6779
815.821	6795
815.962	6814
816.103	6783
816.244	6722
816.385	6521
816.526	6612
816.666	6456
816.807	6243
816.948	6456
817.089	6464
817.23	6452
817.371	6350
817.512	6414
817.653	6384
817.793	6304
817.934	6433
818.075	6433
818.216	6395
818.356	6399
818.497	6289
818.638	6129
818.778	6159
818.919	6133
819.06	6152
819.2	6342
819.341	6346
819.481	6319
819.622	6566
819.762	6757
819.903	6696
820.043	6597
820.184	6544
820.324	6589
820.465	6677
820.605	6700
820.746	6662
820.886	6532
821.026	6631
821.167	6738
821.307	6741
821.447	6829
821.588	6646
821.728	6551
821.868	6540
822.008	6281
822.149	6380
822.289	6304
822.429	6152
822.569	6125
822.709	6064
822.849	5927
822.99	5893
823.13	5904
823.27	5908
823.41	5783
823.55	5748
823.69	5798
823.83	5775
823.97	5646
824.11	5543
824.25	5509
824.389	5543
824.529	5551
824.669	5535
824.809	5619
824.949	5649
825.089	5585
825.228	5604
825.368	5364
825.508	5353
825.648	5349
825.787	5406
825.927	5330
826.067	5280
826.206	5299
826.346	5345
826.485	5433
826.625	5391
826.765	5596
826.904	5532
827.044	5269
827.183	5136
827.323	5170
827.462	5231
827.601	5174
827.741	5208
827.88	5189
828.02	5147
828.159	5193
828.298	5284
828.437	5277
828.577	5330
828.716	5452
828.855	5368
828.994	5162
829.134	5170
829.273	5242
829.412	5105
829.551	5170
829.69	5162
829.829	5277
829.968	5337
830.107	5299
830.246	5231
830.385	5189
830.524	5075
830.663	5037
830.802	4987
830.941	4809
831.08	4892
831.219	4961
831.357	4984
831.496	5159
831.635	4854
831.774	4828
831.913	4809
832.051	4714
832.19	4729
832.329	4801
832.467	4675
832.606	4611
832.744	4714
832.883	4675
833.022	4717
833.16	4774
833.299	4786
833.437	4843
833.576	4828
833.714	4809
833.852	4873
833.991	4904
834.129	4938
834.267	4953
834.406	4870
834.544	4946
834.682	4968
834.821	4961
834.959	5140
835.097	4987
835.235	5155
835.373	5045
835.511	5079
835.65	4999
835.788	4987
835.926	4934
836.064	4805
836.202	4942
836.34	5132
836.478	5231
836.615	5143
836.753	5189
836.891	5284
837.029	5231
837.167	5166
837.305	5136
837.443	5155
837.58	5064
837.718	5250
837.856	5189
837.993	5136
838.131	5185
838.269	5193
838.406	5159
838.544	5143
838.681	4987
838.819	4965
838.956	4904
839.094	4915
839.231	5006
839.369	5090
839.506	5395
839.643	5246
839.781	5075
839.918	5052
840.055	5052
840.193	5090
840.33	5060
840.467	5094
840.604	5174
840.742	5433
840.879	5067
841.016	5143
841.153	5143
841.29	5425
841.427	5330
841.564	5254
841.701	5326
841.838	5292
841.975	5265
842.112	5292
842.249	5140
842.385	5117
842.522	5349
842.659	5147
842.796	5155
842.933	5181
843.069	5174
843.206	5113
843.343	5280
843.479	5166
843.616	5265
843.752	5045
843.889	4957
844.025	5212
844.162	5003
844.298	5159
844.435	5102
844.571	5041
844.708	5201
844.844	5265
844.98	5258
845.117	5292
845.253	5121
845.389	5067
845.525	5105
845.661	5102
845.798	4999
845.934	5147
846.07	5094
846.206	5174
846.342	5280
846.478	5159
846.614	4946
846.75	4942
846.886	4904
847.022	5136
847.158	5029
847.294	5018
847.429	5083
847.565	5022
847.701	5307
847.837	4900
847.972	4778
848.108	4923
848.244	4953
848.379	4763
848.515	4717
848.65	4733
848.786	4740
848.921	4755
849.057	4858
849.192	4919
849.328	4824
849.463	4839
849.598	4797
849.734	4755
849.869	4694
850.004	4634
850.14	4679
850.275	4584
850.41	4542
850.545	4569
850.68	4588
850.815	4630
850.95	4675
851.085	4778
851.22	4752
851.355	4653
851.49	4641
851.625	4637
851.76	4615
851.895	4531
852.03	4531
852.165	4664
852.299	4649
852.434	4759
852.569	4721
852.703	4702
852.838	4847
852.973	4946
853.107	4866
853.242	4710
853.376	4630
853.511	4527
853.645	4653
853.78	4797
853.914	4656
854.048	4679
854.183	4634
854.317	4698
854.451	4767
854.585	4656
854.72	4649
854.854	4706
854.988	4588
855.122	4649
855.256	4565
855.39	4656
855.524	4752
855.658	4679
855.792	4683
855.926	4744
856.06	4714
856.194	4755
856.327	4683
856.461	4607
856.595	4592
856.729	4626
856.862	4752
856.996	4668
857.13	4733
857.263	4755
857.397	4801
857.53	4641
857.664	4679
857.797	4729
857.931	4717
858.064	4656
858.197	4729
858.331	4626
858.464	4611
858.597	4542
858.731	4577
858.864	4618
858.997	4615
859.13	4626
859.263	4653
859.396	4706
859.529	4558
859.662	4573
859.795	4474
859.928	4615
860.061	4752
860.194	4706
860.327	4588
860.46	4565
860.592	4660
860.725	4717
860.858	4725
860.99	4569
861.123	4512
861.256	4512
861.388	4618
861.521	5315
861.653	4512
861.786	4436
861.918	4451
862.05	4569
862.183	4573
862.315	4580
862.447	4664
862.58	4561
862.712	4386
862.844	4344
862.976	4478
863.108	4405
863.24	4771
863.372	4280
863.504	4341
863.636	4413
863.768	4508
863.9	4424
864.032	4394
864.164	4424
864.296	4440
864.428	4527
864.559	4519
864.691	4531
864.823	4542
864.954	4470
865.086	4459
865.217	4409
865.349	4375
865.48	4443
865.612	4512
865.743	4634
865.875	4455
866.006	4451
866.137	4485
866.269	4485
866.4	4363
866.531	4386
866.662	4379
866.793	4417
866.924	4432
867.055	4485
867.186	4447
867.317	4375
867.448	4375
867.579	4405
867.71	4398
867.841	4352
867.972	4478
868.103	4481
868.233	4440
868.364	4432
868.495	4447
868.625	4615
868.756	4801
868.886	4519
869.017	4599
869.147	4774
869.278	4740
869.408	4637
869.539	4637
869.669	4702
869.799	4618
869.929	4748
870.06	4729
870.19	4942
870.32	4881
870.45	4938
870.58	4976
870.71	5067
870.84	5086
870.97	4923
871.1	4850
871.23	5113
871.36	5064
871.489	5022
871.619	5079
871.749	5086
871.879	5117
872.008	5159
872.138	5064
872.267	4968
872.397	4854
872.526	4831
872.656	4683
872.785	4797
872.915	4980
873.044	5060
873.173	4980
873.303	4923
873.432	4984
873.561	4961
873.69	4858
873.819	4858
873.948	4892
874.077	4816
874.206	4793
874.335	4774
874.464	4953
874.593	5010
874.722	4908
874.851	5083
874.979	5064
875.108	5048
875.237	4812
875.365	4870
875.494	4870
875.623	4957
875.751	4812
875.88	4908
876.008	4991
876.136	5037
876.265	5189
876.393	5303
876.521	5239
876.65	5212
876.778	5189
876.906	5083
877.034	5052
877.162	5022
877.29	4980
877.418	5010
877.546	5003
877.674	4984
877.802	4995
877.93	5010
878.058	4968
878.185	4812
878.313	4942
878.441	4938
878.568	4831
878.696	4896
878.824	4942
878.951	5018
879.079	5128
879.206	5284
879.333	5105
879.461	4972
879.588	4949
879.715	5094
879.842	5204
879.97	5003
880.097	4748
880.224	4733
880.351	4752
880.478	4774
880.605	4752
880.732	4763
880.859	5045
880.986	4850
881.112	4889
881.239	4786
881.366	4668
881.493	4611
881.619	4580
881.746	4622
881.872	4596
881.999	4622
882.125	4645
882.252	4774
882.378	4831
882.505	4949
882.631	4763
882.757	4634
882.883	4691
883.01	4744
883.136	4714
883.262	4558
883.388	4580
883.514	4801
883.64	4828
883.766	4744
883.892	4672
884.018	4698
884.143	4892
884.269	5010
884.395	4672
884.52	4584
884.646	4645
884.772	4599
884.897	4558
885.023	4653
885.148	4740
885.274	4877
885.399	4801
885.524	4721
885.65	4698
885.775	4729
885.9	4687
886.025	4843
886.15	4752
886.275	4725
886.4	4653
886.525	4755
886.65	4687
886.775	4744
886.9	4889
887.025	5033
887.149	4828
887.274	4611
887.399	4577
887.523	4584
887.648	4580
887.773	4607
887.897	4744
888.021	4831
888.146	4675
888.27	4843
888.395	4915
888.519	4828
888.643	4786
888.767	4824
888.891	4660
889.015	4546
889.139	4645
889.263	4565
889.387	4755
889.511	4835
889.635	4793
889.759	4603
889.883	4679
890.006	4744
890.13	4843
890.254	4607
890.377	4679
890.501	4497
890.624	4516
890.748	4592
890.871	4508
890.995	4428
891.118	4344
891.241	4523
891.364	4554
891.488	4607
891.611	4531
891.734	4561
891.857	4592
891.98	4542
892.103	4630
892.226	4584
892.349	4516
892.471	4428
892.594	4512
892.717	4538
892.839	4512
892.962	4554
893.085	4656
893.207	4596
893.33	4432
893.452	4523
893.575	4660
893.697	4584
893.819	4740
893.941	4835
894.064	4771
894.186	4592
894.308	4500
894.43	4725
894.552	4797
894.674	4729
894.796	4603
894.918	4573
895.04	4588
895.161	4721
895.283	4599
895.405	4588
895.526	4588
895.648	4691
895.769	4683
895.891	4675
896.012	4706
896.134	4740
896.255	4683
896.376	4664
896.498	4626
896.619	4649
896.74	4634
896.861	4622
896.982	4919
897.103	5075
897.224	4793
897.345	4752
897.466	4668
897.587	4691
897.708	4843
897.828	4752
897.949	4675
898.07	4554
898.19	4599
898.311	4790
898.431	4664
898.552	4752
898.672	4790
898.792	4778
898.913	4748
899.033	4653
899.153	4516
899.273	4440
899.393	4432
899.513	4516
899.633	4478
899.753	4569
899.873	4485
899.993	4599
900.113	4523
900.232	4618
900.352	4527
900.472	4470
900.591	4398
900.711	4436
900.83	4436
900.95	4630
901.069	4672
901.189	4569
901.308	4352
901.427	4310
901.546	4371
901.665	4504
901.784	4535
901.904	4371
902.023	4291
902.141	4196
902.26	4105
902.379	4303
902.498	4234
902.617	4230
902.735	4352
902.854	4363
902.973	4352
903.091	4200
903.21	4211
903.328	4291
903.446	4272
903.565	4215
903.683	4314
903.801	4280
903.919	4367
904.038	4447
904.156	4257
904.274	4405
904.392	4421
904.51	4402
904.627	4462
904.745	4546
904.863	4626
904.981	4379
905.098	4295
905.216	4371
905.334	4447
905.451	4424
905.569	4455
905.686	4516
905.803	4611
905.921	4409
906.038	4538
906.155	4470
906.272	4375
906.389	4405
906.506	4341
906.623	4367
906.74	4413
906.857	4360
906.974	4375
907.091	4550
907.208	4630
907.324	4584
907.441	4531
907.557	4303
907.674	4318
907.79	4287
907.907	4371
908.023	4474
908.139	4481
908.256	4462
908.372	4428
908.488	4421
908.604	4367
908.72	4303
908.836	4379
908.952	4379
909.068	4386
909.184	4569
909.3	4478
909.415	4565
909.531	4554
909.647	4291
909.762	4356
909.878	4356
909.993	4447
910.108	4367
910.224	4413
910.339	4497
910.454	4440
910.57	4371
910.685	4261
910.8	4630
910.915	4584
911.03	4512
911.145	4333
911.259	4371
911.374	4371
911.489	4295
911.604	4291
911.718	4158
911.833	4185
911.947	4093
912.062	4025
912.176	4196
912.291	4200
912.405	4223
912.519	4443
912.633	4489
912.748	4405
912.862	4325
912.976	4150
913.09	4071
913.204	4158
913.318	4223
913.431	4360
913.545	4325
913.659	4402
913.772	4363
913.886	4249
914	4276
914.113	4383
914.226	4417
914.34	4417
914.453	4265
914.566	4417
914.68	4325
914.793	4348
914.906	4112
915.019	4093
915.132	4090
915.245	4162
915.358	4196
915.47	4276
915.583	4280
915.696	4322
915.809	4413
915.921	4424
916.034	4276
916.146	4242
916.259	4204
916.371	4363
916.483	4329
916.595	4280
916.708	4352
916.82	4280
916.932	4272
917.044	4322
917.156	4306
917.268	4268
917.38	4242
917.491	4234
917.603	4299
917.715	4500
917.826	4383
917.938	4367
918.049	4253
918.161	4386
918.272	4504
918.384	4535
918.495	4459
918.606	4261
918.717	4268
918.828	4318
918.939	4363
919.05	4227
919.161	4303
919.272	4135
919.383	4227
919.494	4402
919.604	4626
919.715	4474
919.826	4333
919.936	4398
920.047	4489
920.157	4432
920.267	4679
920.378	4550
920.488	4504
920.598	4714
920.708	4870
920.818	4763
920.928	4740
921.038	4908
921.148	4862
921.258	4607
921.368	4546
921.477	4478
921.587	4489
921.697	4402
921.806	4569
921.916	4443
922.025	4306
922.134	4280
922.244	4196
922.353	4344
922.462	4166
922.571	4097
922.68	4010
922.789	3956
922.898	4040
923.007	3987
923.116	4051
923.224	4021
923.333	4074
923.442	3979
923.55	3941
923.659	4010
923.767	4112
923.876	3979
923.984	4116
924.092	3994
924.201	4097
924.309	4078
924.417	4090
924.525	4044
924.633	4086
924.741	4885
924.849	3915
924.956	4135
925.064	3937
925.172	3876
925.279	3964
925.387	4032
925.494	4040
925.602	4192
925.709	4162
925.816	4025
925.924	4131
926.031	4196
926.138	4169
926.245	4219
926.352	4116
926.459	4238
926.566	4341
926.673	4169
926.779	4090
926.886	4063
926.993	3994
927.099	3949
927.206	3972
927.312	3945
927.419	4040
927.525	4029
927.631	4090
927.737	3998
927.843	3907
927.95	3846
928.056	3960
928.162	3998
928.267	4048
928.373	4554
928.479	4116
928.585	3861
928.69	4002
928.796	4078
928.901	3964
929.007	3850
929.112	4017
929.218	3960
929.323	3934
929.428	3949
929.533	4116
929.638	3892
929.743	3934
929.848	4048
929.953	3975
930.058	3926
930.163	3800
930.267	3793
930.372	3964
930.477	3781
930.581	4097
930.685	3937
930.79	3842
930.894	3903
930.998	3831
931.103	4036
931.207	3694
931.311	3667
931.415	3641
931.519	3496
931.623	3542
