Data from test_V78500241_71.txt Node
Date: Fri Mar 25 16:49:29 CST 2022
User: usil
Spectrometer: V785-0024
Trigger mode: 0
Integration Time (sec): 4.000000E-1
Scans to average: 1
Nonlinearity correction enabled: false
Boxcar width: 0
Storing dark spectrum: false
XAxis mode: Wavelengths
Number of Pixels in Spectrum: 1024
>>>>>Begin Spectral Data<<<<<
801.071	8031
801.214	8046
801.356	7959
801.499	7970
801.641	7906
801.783	7898
801.926	8069
802.068	7936
802.211	8027
802.353	8024
802.496	7875
802.638	7978
802.78	8001
802.923	8081
803.065	7871
803.208	7875
803.35	7974
803.492	8065
803.635	8225
803.777	7940
803.919	8050
804.061	8507
804.204	8130
804.346	8043
804.488	7978
804.63	8065
804.773	7997
804.915	8062
805.057	8248
805.199	8149
805.341	8199
805.483	8240
805.626	8191
805.768	8058
805.91	8176
806.052	8206
806.194	8164
806.336	8355
806.478	8195
806.62	8172
806.762	8256
806.904	8324
807.046	8484
807.188	8343
807.33	8313
807.472	8427
807.614	8176
807.756	8259
807.898	8024
808.04	7913
808.182	7917
808.324	7875
808.465	7875
808.607	7970
808.749	8134
808.891	8111
809.033	8206
809.174	8130
809.316	8107
809.458	8035
809.6	8016
809.741	8016
809.883	8005
810.025	8119
810.166	8111
810.308	8115
810.45	8077
810.591	7871
810.733	7750
810.875	7769
811.016	7624
811.158	7540
811.299	7647
811.441	7761
811.582	7693
811.724	7628
811.865	7540
812.007	7677
812.148	7636
812.29	7651
812.431	7746
812.573	7940
812.714	8035
812.855	8195
812.997	8248
813.138	8336
813.279	8176
813.421	8138
813.562	8005
813.703	7879
813.845	7772
813.986	7381
814.127	7301
814.268	7251
814.41	7194
814.551	7255
814.692	7209
814.833	7160
814.974	7198
815.115	7194
815.256	6977
815.397	6985
815.539	6985
815.68	6810
815.821	6798
815.962	6932
816.103	6776
816.244	6764
816.385	6623
816.526	6620
816.666	6467
816.807	6391
816.948	6509
817.089	6456
817.23	6513
817.371	6384
817.512	6388
817.653	6422
817.793	6384
817.934	6471
818.075	6483
818.216	6509
818.356	6448
818.497	6228
818.638	6117
818.778	6178
818.919	6171
819.06	6235
819.2	6277
819.341	6384
819.481	6399
819.622	6593
819.762	6764
819.903	6726
820.043	6593
820.184	6623
820.324	6604
820.465	6662
820.605	6726
820.746	6658
820.886	6601
821.026	6700
821.167	6715
821.307	6795
821.447	6791
821.588	6681
821.728	6555
821.868	6570
822.008	6372
822.149	6380
822.289	6346
822.429	6186
822.569	6178
822.709	6087
822.849	5973
822.99	5931
823.13	5927
823.27	5923
823.41	5821
823.55	5889
823.69	5836
823.83	5794
823.97	5733
824.11	5604
824.25	5547
824.389	5581
824.529	5581
824.669	5619
824.809	5653
824.949	5718
825.089	5722
825.228	5600
825.368	5459
825.508	5398
825.648	5444
825.787	5402
825.927	5383
826.067	5288
826.206	5349
826.346	5414
826.485	5482
826.625	5452
826.765	5611
826.904	5493
827.044	5239
827.183	5220
827.323	5204
827.462	5330
827.601	5235
827.741	5242
827.88	5239
828.02	5166
828.159	5292
828.298	5372
828.437	5402
828.577	5307
828.716	5509
828.855	5357
828.994	5242
829.134	5201
829.273	5220
829.412	5201
829.551	5185
829.69	5235
829.829	5311
829.968	5440
830.107	5357
830.246	5383
830.385	5246
830.524	5166
830.663	5178
830.802	5083
830.941	4968
831.08	4904
831.219	5052
831.357	5052
831.496	5227
831.635	5056
831.774	4942
831.913	4911
832.051	4824
832.19	4812
832.329	4942
832.467	4759
832.606	4687
832.744	4786
832.883	4767
833.022	4790
833.16	4892
833.299	4896
833.437	4828
833.576	4873
833.714	4965
833.852	4980
833.991	4915
834.129	5056
834.267	5014
834.406	4995
834.544	5067
834.682	5079
834.821	5075
834.959	5220
835.097	5025
835.235	5273
835.373	5220
835.511	5162
835.65	5124
835.788	5117
835.926	4976
836.064	4923
836.202	4934
836.34	5231
836.478	5277
836.615	5197
836.753	5292
836.891	5364
837.029	5376
837.167	5231
837.305	5258
837.443	5212
837.58	5136
837.718	5368
837.856	5269
837.993	5216
838.131	5284
838.269	5277
838.406	5216
838.544	5208
838.681	5098
838.819	5147
838.956	4946
839.094	4995
839.231	5052
839.369	5143
839.506	5490
839.643	5326
839.781	5159
839.918	5033
840.055	5170
840.193	5155
840.33	5162
840.467	5220
840.604	5258
840.742	5493
840.879	5166
841.016	5140
841.153	5242
841.29	5425
841.427	5410
841.564	5353
841.701	5402
841.838	5368
841.975	5258
842.112	5383
842.249	5242
842.385	5109
842.522	5391
842.659	5174
842.796	5223
842.933	5223
843.069	5185
843.206	5220
843.343	5402
843.479	5280
843.616	5372
843.752	5128
843.889	5105
844.025	5239
844.162	5121
844.298	5273
844.435	5162
844.571	5136
844.708	5307
844.844	5410
844.98	5353
845.117	5341
845.253	5193
845.389	5136
845.525	5220
845.661	5136
845.798	5098
845.934	5181
846.07	5075
846.206	5216
846.342	5360
846.478	5193
846.614	5090
846.75	5064
846.886	5037
847.022	5181
847.158	5056
847.294	5155
847.429	5128
847.565	5140
847.701	5379
847.837	4938
847.972	4866
848.108	5037
848.244	5052
848.379	4873
848.515	4771
848.65	4755
848.786	4816
848.921	4828
849.057	4862
849.192	4965
849.328	4892
849.463	4873
849.598	4896
849.734	4805
849.869	4729
850.004	4752
850.14	4714
850.275	4694
850.41	4618
850.545	4573
850.68	4634
850.815	4725
850.95	4706
851.085	4877
851.22	4782
851.355	4710
851.49	4706
851.625	4744
851.76	4729
851.895	4611
852.03	4577
852.165	4721
852.299	4771
852.434	4831
852.569	4839
852.703	4835
852.838	4953
852.973	4957
853.107	4957
853.242	4809
853.376	4736
853.511	4622
853.645	4679
853.78	4835
853.914	4774
854.048	4771
854.183	4679
854.317	4763
854.451	4953
854.585	4721
854.72	4672
854.854	4824
854.988	4660
855.122	4721
855.256	4607
855.39	4714
855.524	4870
855.658	4755
855.792	4744
855.926	4820
856.06	4820
856.194	4816
856.327	4755
856.461	4668
856.595	4675
856.729	4660
856.862	4805
856.996	4767
857.13	4755
857.263	4850
857.397	4892
857.53	4721
857.664	4729
857.797	4790
857.931	4847
858.064	4748
858.197	4809
858.331	4702
858.464	4694
858.597	4523
858.731	4740
858.864	4668
858.997	4634
859.13	4733
859.263	4714
859.396	4793
859.529	4626
859.662	4607
859.795	4630
859.928	4664
860.061	4831
860.194	4801
860.327	4706
860.46	4607
860.592	4759
860.725	4759
860.858	4824
860.99	4668
861.123	4558
861.256	4565
861.388	4641
861.521	5341
861.653	4508
861.786	4470
861.918	4519
862.05	4569
862.183	4607
862.315	4660
862.447	4691
862.58	4603
862.712	4447
862.844	4356
862.976	4561
863.108	4519
863.24	5029
863.372	4386
863.504	4481
863.636	4493
863.768	4542
863.9	4497
864.032	4432
864.164	4451
864.296	4470
864.428	4596
864.559	4611
864.691	4588
864.823	4603
864.954	4565
865.086	4546
865.217	4512
865.349	4432
865.48	4538
865.612	4558
865.743	4759
865.875	4481
866.006	4459
866.137	4500
866.269	4504
866.4	4443
866.531	4466
866.662	4432
866.793	4440
866.924	4508
867.055	4554
867.186	4485
867.317	4474
867.448	4440
867.579	4470
867.71	4440
867.841	4417
867.972	4542
868.103	4542
868.233	4531
868.364	4493
868.495	4546
868.625	4744
868.756	4816
868.886	4607
869.017	4675
869.147	4828
869.278	4816
869.408	4694
869.539	4736
869.669	4744
869.799	4710
869.929	4843
870.06	4771
870.19	4980
870.32	4930
870.45	5003
870.58	5056
870.71	5143
870.84	5121
870.97	4995
871.1	4957
871.23	5162
871.36	5227
871.489	5056
871.619	5151
871.749	5098
871.879	5212
872.008	5273
872.138	5155
872.267	5025
872.397	4915
872.526	4892
872.656	4801
872.785	4862
872.915	5014
873.044	5102
873.173	4976
873.303	5037
873.432	5075
873.561	4980
873.69	4927
873.819	4927
873.948	4946
874.077	4812
874.206	4744
874.335	4889
874.464	5003
874.593	5155
874.722	4999
874.851	5132
874.979	5166
875.108	5124
875.237	4908
875.365	4927
875.494	4972
875.623	5045
875.751	4881
875.88	4873
876.008	5064
876.136	5109
876.265	5277
876.393	5387
876.521	5311
876.65	5216
876.778	5216
876.906	5083
877.034	5071
877.162	5113
877.29	5048
877.418	5155
877.546	5071
877.674	5071
877.802	5067
877.93	5014
878.058	5014
878.185	4957
878.313	5022
878.441	4991
878.568	4828
878.696	4877
878.824	5006
878.951	5006
879.079	5136
879.206	5334
879.333	5086
879.461	5052
879.588	5022
879.715	5159
879.842	5296
879.97	5067
880.097	4801
880.224	4816
880.351	4828
880.478	4843
880.605	4873
880.732	4793
880.859	5117
880.986	4984
881.112	4984
881.239	4805
881.366	4744
881.493	4683
881.619	4656
881.746	4668
881.872	4706
881.999	4687
882.125	4744
882.252	4797
882.378	4870
882.505	5003
882.631	4873
882.757	4759
882.883	4774
883.01	4755
883.136	4683
883.262	4641
883.388	4672
883.514	4843
883.64	4908
883.766	4854
883.892	4679
884.018	4790
884.143	4911
884.269	5041
884.395	4710
884.52	4668
884.646	4683
884.772	4611
884.897	4618
885.023	4755
885.148	4831
885.274	4953
885.399	4854
885.524	4782
885.65	4733
885.775	4809
885.9	4706
886.025	4915
886.15	4858
886.275	4763
886.4	4733
886.525	4805
886.65	4752
886.775	4736
886.9	4965
887.025	5094
887.149	4862
887.274	4721
887.399	4634
887.523	4660
887.648	4668
887.773	4649
887.897	4870
888.021	4843
888.146	4740
888.27	4862
888.395	4930
888.519	4885
888.643	4881
888.767	4896
888.891	4736
889.015	4649
889.139	4702
889.263	4611
889.387	4782
889.511	4881
889.635	4850
889.759	4702
889.883	4717
890.006	4771
890.13	4824
890.254	4656
890.377	4748
890.501	4603
890.624	4577
890.748	4668
890.871	4607
890.995	4462
891.118	4470
891.241	4573
891.364	4554
891.488	4683
891.611	4569
891.734	4634
891.857	4683
891.98	4634
892.103	4717
892.226	4637
892.349	4592
892.471	4485
892.594	4596
892.717	4588
892.839	4611
892.962	4622
893.085	4691
893.207	4679
893.33	4519
893.452	4550
893.575	4774
893.697	4653
893.819	4839
893.941	4877
894.064	4831
894.186	4668
894.308	4603
894.43	4698
894.552	4839
894.674	4793
894.796	4615
894.918	4603
895.04	4584
895.161	4759
895.283	4714
895.405	4618
895.526	4656
895.648	4725
895.769	4710
895.891	4706
896.012	4740
896.134	4736
896.255	4664
896.376	4725
896.498	4660
896.619	4694
896.74	4675
896.861	4653
896.982	4938
897.103	5113
897.224	4835
897.345	4778
897.466	4748
897.587	4831
897.708	4930
897.828	4809
897.949	4755
898.07	4588
898.19	4641
898.311	4900
898.431	4763
898.552	4812
898.672	4862
898.792	4809
898.913	4748
899.033	4691
899.153	4561
899.273	4459
899.393	4535
899.513	4546
899.633	4561
899.753	4550
899.873	4554
899.993	4622
900.113	4569
900.232	4634
900.352	4565
900.472	4538
900.591	4500
900.711	4478
900.83	4497
900.95	4656
901.069	4759
901.189	4607
901.308	4424
901.427	4348
901.546	4455
901.665	4535
901.784	4558
901.904	4424
902.023	4436
902.141	4268
902.26	4265
902.379	4367
902.498	4287
902.617	4284
902.735	4462
902.854	4398
902.973	4440
903.091	4261
903.21	4318
903.328	4367
903.446	4322
903.565	4295
903.683	4375
903.801	4329
903.919	4470
904.038	4519
904.156	4394
904.274	4447
904.392	4481
904.51	4519
904.627	4546
904.745	4675
904.863	4672
904.981	4455
905.098	4383
905.216	4497
905.334	4546
905.451	4512
905.569	4493
905.686	4645
905.803	4634
905.921	4504
906.038	4626
906.155	4569
906.272	4504
906.389	4565
906.506	4413
906.623	4497
906.74	4493
906.857	4363
906.974	4470
907.091	4649
907.208	4710
907.324	4660
907.441	4607
907.557	4451
907.674	4417
907.79	4424
907.907	4466
908.023	4573
908.139	4573
908.256	4512
908.372	4573
908.488	4573
908.604	4379
908.72	4428
908.836	4447
908.952	4440
909.068	4508
909.184	4687
909.3	4542
909.415	4660
909.531	4660
909.647	4447
909.762	4455
909.878	4383
909.993	4516
910.108	4459
910.224	4485
910.339	4558
910.454	4485
910.57	4432
910.685	4344
910.8	4778
910.915	4664
911.03	4565
911.145	4455
911.259	4398
911.374	4478
911.489	4398
911.604	4333
911.718	4276
911.833	4265
911.947	4128
912.062	4086
912.176	4318
912.291	4329
912.405	4276
912.519	4546
912.633	4588
912.748	4371
912.862	4375
912.976	4280
913.09	4116
913.204	4242
913.318	4284
913.431	4421
913.545	4462
913.659	4497
913.772	4417
913.886	4318
914	4253
914.113	4436
914.226	4500
914.34	4493
914.453	4322
914.566	4493
914.68	4462
914.793	4402
914.906	4196
915.019	4223
915.132	4093
915.245	4246
915.358	4295
915.47	4291
915.583	4303
915.696	4325
915.809	4470
915.921	4443
916.034	4344
916.146	4356
916.259	4257
916.371	4459
916.483	4470
916.595	4318
916.708	4375
916.82	4390
916.932	4447
917.044	4394
917.156	4390
917.268	4268
917.38	4363
917.491	4360
917.603	4413
917.715	4497
917.826	4489
917.938	4383
918.049	4360
918.161	4489
918.272	4607
918.384	4550
918.495	4493
918.606	4303
918.717	4284
918.828	4421
918.939	4466
919.05	4322
919.161	4371
919.272	4188
919.383	4322
919.494	4538
919.604	4752
919.715	4516
919.826	4409
919.936	4481
920.047	4584
920.157	4554
920.267	4793
920.378	4599
920.488	4542
920.598	4786
920.708	4965
920.818	4793
920.928	4831
921.038	5029
921.148	4961
921.258	4717
921.368	4603
921.477	4592
921.587	4531
921.697	4447
921.806	4649
921.916	4512
922.025	4352
922.134	4333
922.244	4295
922.353	4379
922.462	4207
922.571	4238
922.68	4086
922.789	4040
922.898	4116
923.007	4021
923.116	4162
923.224	4105
923.333	4135
923.442	4044
923.55	4029
923.659	4090
923.767	4143
923.876	4017
923.984	4177
924.092	4090
924.201	4177
924.309	4120
924.417	4196
924.525	4128
924.633	4124
924.741	4919
924.849	3972
924.956	4169
925.064	4036
925.172	3972
925.279	4051
925.387	4120
925.494	4093
925.602	4291
925.709	4261
925.816	4150
925.924	4223
926.031	4272
926.138	4230
926.245	4242
926.352	4101
926.459	4325
926.566	4398
926.673	4230
926.779	4192
926.886	4143
926.993	4059
927.099	4021
927.206	4036
927.312	3987
927.419	4097
927.525	4086
927.631	4147
927.737	4025
927.843	4006
927.95	3903
928.056	4074
928.162	4048
928.267	4128
928.373	4771
928.479	4181
928.585	3956
928.69	4071
928.796	4105
928.901	4017
929.007	3926
929.112	4048
929.218	4044
929.323	4010
929.428	3991
929.533	4181
929.638	3987
929.743	3960
929.848	4048
929.953	4021
930.058	3991
930.163	3770
930.267	3865
930.372	4044
930.477	3827
930.581	4135
930.685	4029
930.79	3835
930.894	3937
930.998	3899
931.103	4059
931.207	3797
931.311	3709
931.415	3709
931.519	3618
931.623	3599
