Data from test_V78500241_2271.txt Node
Date: Fri Mar 25 17:04:47 CST 2022
User: usil
Spectrometer: V785-0024
Trigger mode: 0
Integration Time (sec): 4.000000E-1
Scans to average: 1
Nonlinearity correction enabled: false
Boxcar width: 0
Storing dark spectrum: false
XAxis mode: Wavelengths
Number of Pixels in Spectrum: 1024
>>>>>Begin Spectral Data<<<<<
801.071	7997
801.214	7970
801.356	7875
801.499	7833
801.641	7750
801.783	7860
801.926	7959
802.068	7921
802.211	7963
802.353	7989
802.496	7788
802.638	7864
802.78	7932
802.923	7909
803.065	7841
803.208	7868
803.35	7963
803.492	8115
803.635	8100
803.777	7978
803.919	8077
804.061	8454
804.204	8248
804.346	8062
804.488	7974
804.63	8134
804.773	8046
804.915	8138
805.057	8328
805.199	8115
805.341	8092
805.483	8309
805.626	8240
805.768	8126
805.91	8161
806.052	8206
806.194	8092
806.336	8279
806.478	8138
806.62	8081
806.762	8126
806.904	8313
807.046	8484
807.188	8381
807.33	8385
807.472	8298
807.614	8142
807.756	8149
807.898	8024
808.04	7898
808.182	7909
808.324	7890
808.465	7932
808.607	7959
808.749	8138
808.891	8202
809.033	8339
809.174	8290
809.316	8039
809.458	8043
809.6	8016
809.741	8065
809.883	8050
810.025	8168
810.166	8084
810.308	7986
810.45	7959
810.591	7833
810.733	7765
810.875	7639
811.016	7548
811.158	7449
811.299	7594
811.441	7734
811.582	7624
811.724	7582
811.865	7563
812.007	7556
812.148	7620
812.29	7632
812.431	7708
812.573	7879
812.714	7970
812.855	8103
812.997	8210
813.138	8305
813.279	8149
813.421	8035
813.562	7894
813.703	7837
813.845	7727
813.986	7407
814.127	7266
814.268	7156
814.41	7187
814.551	7171
814.692	7217
814.833	7171
814.974	7072
815.115	7137
815.256	6943
815.397	6939
815.539	6916
815.68	6745
815.821	6806
815.962	6920
816.103	6818
816.244	6684
816.385	6589
816.526	6604
816.666	6555
816.807	6285
816.948	6456
817.089	6422
817.23	6395
817.371	6372
817.512	6376
817.653	6376
817.793	6300
817.934	6422
818.075	6464
818.216	6433
818.356	6410
818.497	6228
818.638	6072
818.778	6159
818.919	6178
819.06	6117
819.2	6315
819.341	6300
819.481	6353
819.622	6601
819.762	6745
819.903	6677
820.043	6662
820.184	6544
820.324	6532
820.465	6700
820.605	6692
820.746	6612
820.886	6532
821.026	6631
821.167	6734
821.307	6837
821.447	6738
821.588	6730
821.728	6555
821.868	6479
822.008	6346
822.149	6403
822.289	6346
822.429	6159
822.569	6076
822.709	6117
822.849	5882
822.99	5878
823.13	5958
823.27	5923
823.41	5794
823.55	5783
823.69	5726
823.83	5764
823.97	5653
824.11	5539
824.25	5505
824.389	5520
824.529	5520
824.669	5562
824.809	5630
824.949	5684
825.089	5638
825.228	5474
825.368	5376
825.508	5383
825.648	5326
825.787	5360
825.927	5383
826.067	5284
826.206	5288
826.346	5391
826.485	5429
826.625	5379
826.765	5486
826.904	5471
827.044	5326
827.183	5239
827.323	5124
827.462	5269
827.601	5166
827.741	5201
827.88	5197
828.02	5075
828.159	5189
828.298	5261
828.437	5364
828.577	5307
828.716	5493
828.855	5337
828.994	5132
829.134	5166
829.273	5239
829.412	5197
829.551	5124
829.69	5132
829.829	5254
829.968	5379
830.107	5292
830.246	5254
830.385	5201
830.524	5143
830.663	5075
830.802	4995
830.941	4904
831.08	4892
831.219	4946
831.357	4923
831.496	5132
831.635	4946
831.774	4862
831.913	4881
832.051	4691
832.19	4733
832.329	4847
832.467	4710
832.606	4634
832.744	4736
832.883	4679
833.022	4755
833.16	4793
833.299	4786
833.437	4828
833.576	4812
833.714	4889
833.852	4854
833.991	4870
834.129	4961
834.267	4949
834.406	4927
834.544	4953
834.682	4972
834.821	4934
834.959	5181
835.097	4957
835.235	5159
835.373	5090
835.511	5113
835.65	5037
835.788	5033
835.926	4892
836.064	4850
836.202	4911
836.34	5143
836.478	5269
836.615	5136
836.753	5155
836.891	5296
837.029	5265
837.167	5227
837.305	5128
837.443	5128
837.58	5060
837.718	5265
837.856	5166
837.993	5170
838.131	5201
838.269	5201
838.406	5189
838.544	5197
838.681	5067
838.819	5029
838.956	4881
839.094	4927
839.231	5003
839.369	5079
839.506	5398
839.643	5284
839.781	5014
839.918	4995
840.055	5105
840.193	5060
840.33	5109
840.467	5174
840.604	5204
840.742	5414
840.879	5079
841.016	5132
841.153	5147
841.29	5406
841.427	5299
841.564	5318
841.701	5353
841.838	5277
841.975	5208
842.112	5242
842.249	5128
842.385	5056
842.522	5326
842.659	5197
842.796	5128
842.933	5204
843.069	5132
843.206	5174
843.343	5269
843.479	5254
843.616	5261
843.752	5037
843.889	5014
844.025	5216
844.162	5018
844.298	5181
844.435	5060
844.571	5029
844.708	5170
844.844	5292
844.98	5299
845.117	5273
845.253	5136
845.389	5086
845.525	5147
845.661	5143
845.798	5056
845.934	5132
846.07	5014
846.206	5197
846.342	5258
846.478	5181
846.614	5003
846.75	4965
846.886	4930
847.022	5117
847.158	5018
847.294	5037
847.429	5060
847.565	5052
847.701	5292
847.837	4877
847.972	4786
848.108	4946
848.244	4946
848.379	4809
848.515	4733
848.65	4733
848.786	4790
848.921	4778
849.057	4854
849.192	4904
849.328	4774
849.463	4881
849.598	4774
849.734	4782
849.869	4691
850.004	4577
850.14	4653
850.275	4618
850.41	4478
850.545	4561
850.68	4599
850.815	4649
850.95	4622
851.085	4767
851.22	4755
851.355	4687
851.49	4618
851.625	4596
851.76	4649
851.895	4546
852.03	4527
852.165	4641
852.299	4725
852.434	4782
852.569	4752
852.703	4786
852.838	4824
852.973	4938
853.107	4919
853.242	4725
853.376	4702
853.511	4516
853.645	4596
853.78	4809
853.914	4656
854.048	4664
854.183	4672
854.317	4679
854.451	4793
854.585	4691
854.72	4611
854.854	4793
854.988	4577
855.122	4630
855.256	4546
855.39	4656
855.524	4759
855.658	4729
855.792	4649
855.926	4767
856.06	4759
856.194	4767
856.327	4630
856.461	4634
856.595	4634
856.729	4607
856.862	4763
856.996	4698
857.13	4771
857.263	4767
857.397	4774
857.53	4664
857.664	4740
857.797	4778
857.931	4778
858.064	4664
858.197	4683
858.331	4668
858.464	4607
858.597	4516
858.731	4596
858.864	4603
858.997	4588
859.13	4687
859.263	4656
859.396	4694
859.529	4508
859.662	4569
859.795	4550
859.928	4634
860.061	4759
860.194	4782
860.327	4588
860.46	4558
860.592	4649
860.725	4748
860.858	4691
860.99	4592
861.123	4516
861.256	4478
861.388	4637
861.521	5250
861.653	4462
861.786	4417
861.918	4474
862.05	4538
862.183	4516
862.315	4596
862.447	4603
862.58	4497
862.712	4413
862.844	4325
862.976	4508
863.108	4466
863.24	4843
863.372	4329
863.504	4413
863.636	4383
863.768	4470
863.9	4436
864.032	4409
864.164	4379
864.296	4466
864.428	4565
864.559	4561
864.691	4550
864.823	4531
864.954	4550
865.086	4531
865.217	4447
865.349	4440
865.48	4424
865.612	4455
865.743	4656
865.875	4478
866.006	4424
866.137	4451
866.269	4424
866.4	4413
866.531	4459
866.662	4405
866.793	4375
866.924	4413
867.055	4481
867.186	4413
867.317	4405
867.448	4398
867.579	4367
867.71	4379
867.841	4383
867.972	4470
868.103	4459
868.233	4440
868.364	4436
868.495	4466
868.625	4618
868.756	4812
868.886	4573
869.017	4649
869.147	4778
869.278	4706
869.408	4683
869.539	4656
869.669	4717
869.799	4626
869.929	4752
870.06	4698
870.19	4980
870.32	4889
870.45	4930
870.58	5045
870.71	5071
870.84	5140
870.97	4930
871.1	4911
871.23	5086
871.36	5102
871.489	5056
871.619	5090
871.749	5128
871.879	5071
872.008	5162
872.138	5033
872.267	5018
872.397	4812
872.526	4847
872.656	4702
872.785	4828
872.915	4942
873.044	5018
873.173	4953
873.303	4965
873.432	4949
873.561	4980
873.69	4892
873.819	4911
873.948	4938
874.077	4797
874.206	4797
874.335	4854
874.464	4911
874.593	5025
874.722	4995
874.851	5121
874.979	5018
875.108	5071
875.237	4904
875.365	4908
875.494	4904
875.623	4934
875.751	4778
875.88	4877
876.008	4953
876.136	5022
876.265	5212
876.393	5353
876.521	5284
876.65	5254
876.778	5143
876.906	5018
877.034	5025
877.162	5010
877.29	4995
877.418	5086
877.546	5052
877.674	5060
877.802	5064
877.93	5048
878.058	4911
878.185	4873
878.313	4938
878.441	4984
878.568	4824
878.696	4877
878.824	4900
878.951	4991
879.079	5159
879.206	5273
879.333	5052
879.461	5045
879.588	5018
879.715	5105
879.842	5166
879.97	4999
880.097	4797
880.224	4687
880.351	4843
880.478	4790
880.605	4835
880.732	4805
880.859	5086
880.986	4881
881.112	4915
881.239	4778
881.366	4694
881.493	4649
881.619	4569
881.746	4656
881.872	4641
881.999	4679
882.125	4698
882.252	4748
882.378	4797
882.505	4976
882.631	4782
882.757	4649
882.883	4710
883.01	4763
883.136	4771
883.262	4592
883.388	4618
883.514	4809
883.64	4870
883.766	4736
883.892	4656
884.018	4675
884.143	4892
884.269	5003
884.395	4626
884.52	4622
884.646	4637
884.772	4577
884.897	4546
885.023	4637
885.148	4778
885.274	4843
885.399	4801
885.524	4710
885.65	4721
885.775	4820
885.9	4687
886.025	4870
886.15	4805
886.275	4687
886.4	4645
886.525	4691
886.65	4706
886.775	4622
886.9	4870
887.025	5014
887.149	4782
887.274	4675
887.399	4592
887.523	4611
887.648	4542
887.773	4607
887.897	4706
888.021	4774
888.146	4653
888.27	4805
888.395	4862
888.519	4790
888.643	4793
888.767	4790
888.891	4668
889.015	4603
889.139	4691
889.263	4592
889.387	4752
889.511	4847
889.635	4774
889.759	4634
889.883	4672
890.006	4706
890.13	4820
890.254	4634
890.377	4637
890.501	4516
890.624	4512
890.748	4660
890.871	4466
890.995	4451
891.118	4363
891.241	4546
891.364	4565
891.488	4584
891.611	4508
891.734	4508
891.857	4584
891.98	4588
892.103	4622
892.226	4573
892.349	4500
892.471	4371
892.594	4558
892.717	4592
892.839	4535
892.962	4561
893.085	4664
893.207	4596
893.33	4447
893.452	4512
893.575	4694
893.697	4592
893.819	4729
893.941	4843
894.064	4744
894.186	4607
894.308	4580
894.43	4755
894.552	4870
894.674	4763
894.796	4599
894.918	4538
895.04	4489
895.161	4691
895.283	4653
895.405	4573
895.526	4592
895.648	4668
895.769	4630
895.891	4778
896.012	4717
896.134	4714
896.255	4687
896.376	4660
896.498	4626
896.619	4683
896.74	4599
896.861	4637
896.982	4915
897.103	5048
897.224	4839
897.345	4721
897.466	4656
897.587	4675
897.708	4824
897.828	4752
897.949	4664
898.07	4550
898.19	4672
898.311	4797
898.431	4622
898.552	4725
898.672	4828
898.792	4816
898.913	4759
899.033	4626
899.153	4497
899.273	4443
899.393	4500
899.513	4523
899.633	4493
899.753	4538
899.873	4485
899.993	4588
900.113	4565
900.232	4603
900.352	4504
900.472	4470
900.591	4348
900.711	4478
900.83	4432
900.95	4588
901.069	4637
901.189	4584
901.308	4383
901.427	4303
901.546	4386
901.665	4447
901.784	4538
901.904	4360
902.023	4314
902.141	4162
902.26	4135
902.379	4352
902.498	4242
902.617	4204
902.735	4363
902.854	4363
902.973	4333
903.091	4196
903.21	4234
903.328	4306
903.446	4280
903.565	4223
903.683	4341
903.801	4287
903.919	4390
904.038	4398
904.156	4314
904.274	4474
904.392	4459
904.51	4398
904.627	4443
904.745	4577
904.863	4580
904.981	4383
905.098	4322
905.216	4348
905.334	4405
905.451	4428
905.569	4466
905.686	4550
905.803	4546
905.921	4421
906.038	4550
906.155	4500
906.272	4394
906.389	4493
906.506	4352
906.623	4371
906.74	4375
906.857	4287
906.974	4352
907.091	4569
907.208	4630
907.324	4603
907.441	4493
907.557	4363
907.674	4299
907.79	4284
907.907	4344
908.023	4538
908.139	4470
908.256	4424
908.372	4466
908.488	4489
908.604	4383
908.72	4291
908.836	4329
908.952	4348
909.068	4466
909.184	4538
909.3	4470
909.415	4550
909.531	4550
909.647	4386
909.762	4394
909.878	4352
909.993	4421
910.108	4443
910.224	4390
910.339	4466
910.454	4413
910.57	4329
910.685	4268
910.8	4611
910.915	4637
911.03	4516
911.145	4314
911.259	4265
911.374	4386
911.489	4341
911.604	4291
911.718	4135
911.833	4219
911.947	4120
912.062	4036
912.176	4211
912.291	4215
912.405	4246
912.519	4455
912.633	4535
912.748	4363
912.862	4333
912.976	4219
913.09	4078
913.204	4185
913.318	4242
913.431	4341
913.545	4367
913.659	4424
913.772	4363
913.886	4211
914	4234
914.113	4409
914.226	4424
914.34	4344
914.453	4223
914.566	4432
914.68	4322
914.793	4333
914.906	4097
915.019	4112
915.132	4105
915.245	4177
915.358	4207
915.47	4188
915.583	4303
915.696	4276
915.809	4360
915.921	4348
916.034	4242
916.146	4249
916.259	4204
916.371	4394
916.483	4348
916.595	4242
916.708	4314
916.82	4337
916.932	4337
917.044	4306
917.156	4284
917.268	4223
917.38	4265
917.491	4322
917.603	4314
917.715	4421
917.826	4398
917.938	4322
918.049	4257
918.161	4402
918.272	4523
918.384	4546
918.495	4436
918.606	4306
918.717	4230
918.828	4280
918.939	4348
919.05	4287
919.161	4306
919.272	4150
919.383	4230
919.494	4402
919.604	4611
919.715	4455
919.826	4360
919.936	4398
920.047	4538
920.157	4462
920.267	4668
920.378	4580
920.488	4478
920.598	4698
920.708	4885
920.818	4774
920.928	4752
921.038	4930
921.148	4942
921.258	4645
921.368	4538
921.477	4497
921.587	4474
921.697	4363
921.806	4531
921.916	4421
922.025	4280
922.134	4261
922.244	4200
922.353	4360
922.462	4139
922.571	4120
922.68	4048
922.789	3983
922.898	4017
923.007	3956
923.116	4078
923.224	4059
923.333	4097
923.442	3998
923.55	3945
923.659	4040
923.767	4082
923.876	3991
923.984	4135
924.092	3987
924.201	4048
924.309	4086
924.417	4071
924.525	4078
924.633	4074
924.741	5067
924.849	3915
924.956	4128
925.064	3956
925.172	3915
925.279	3922
925.387	4032
925.494	4055
925.602	4219
925.709	4158
925.816	4040
925.924	4128
926.031	4234
926.138	4169
926.245	4219
926.352	4101
926.459	4268
926.566	4291
926.673	4166
926.779	4032
926.886	4071
926.993	3979
927.099	3960
927.206	3949
927.312	3949
927.419	4086
927.525	4059
927.631	4048
927.737	3949
927.843	3911
927.95	3804
928.056	3975
928.162	4006
928.267	4078
928.373	4679
928.479	4143
928.585	3838
928.69	4051
928.796	4074
928.901	3956
929.007	3857
929.112	3994
929.218	3956
929.323	3922
929.428	3922
929.533	4093
929.638	3903
929.743	3930
929.848	4051
929.953	3975
930.058	3937
930.163	3740
930.267	3842
930.372	3930
930.477	3827
930.581	4090
930.685	3934
930.79	3819
930.894	3869
930.998	3884
931.103	3983
931.207	3743
931.311	3713
931.415	3694
931.519	3496
931.623	3549
