Data from test_V78500241_2238.txt Node
Date: Fri Mar 25 17:04:33 CST 2022
User: usil
Spectrometer: V785-0024
Trigger mode: 0
Integration Time (sec): 4.000000E-1
Scans to average: 1
Nonlinearity correction enabled: false
Boxcar width: 0
Storing dark spectrum: false
XAxis mode: Wavelengths
Number of Pixels in Spectrum: 1024
>>>>>Begin Spectral Data<<<<<
801.071	8016
801.214	7917
801.356	7864
801.499	7856
801.641	7765
801.783	7849
801.926	7936
802.068	7951
802.211	7928
802.353	8050
802.496	7902
802.638	7864
802.78	7955
802.923	7864
803.065	7860
803.208	7830
803.35	7997
803.492	8115
803.635	8183
803.777	7963
803.919	8130
804.061	8484
804.204	8107
804.346	8058
804.488	7997
804.63	8046
804.773	7944
804.915	8096
805.057	8317
805.199	8168
805.341	8233
805.483	8339
805.626	8244
805.768	8145
805.91	8229
806.052	8240
806.194	8077
806.336	8279
806.478	8084
806.62	8027
806.762	8134
806.904	8279
807.046	8408
807.188	8358
807.33	8290
807.472	8244
807.614	8199
807.756	8153
807.898	7947
808.04	7841
808.182	7837
808.324	7875
808.465	7902
808.607	8001
808.749	8134
808.891	8240
809.033	8263
809.174	8206
809.316	8065
809.458	8054
809.6	8024
809.741	8027
809.883	8062
810.025	8103
810.166	8115
810.308	7967
810.45	8031
810.591	7807
810.733	7731
810.875	7643
811.016	7518
811.158	7434
811.299	7597
811.441	7727
811.582	7715
811.724	7578
811.865	7567
812.007	7594
812.148	7578
812.29	7632
812.431	7700
812.573	7856
812.714	8039
812.855	8123
812.997	8229
813.138	8313
813.279	8218
813.421	8069
813.562	7936
813.703	7841
813.845	7788
813.986	7403
814.127	7251
814.268	7168
814.41	7187
814.551	7149
814.692	7251
814.833	7133
814.974	7072
815.115	7050
815.256	6901
815.397	6966
815.539	6924
815.68	6821
815.821	6745
815.962	6821
816.103	6810
816.244	6654
816.385	6585
816.526	6563
816.666	6467
816.807	6292
816.948	6372
817.089	6525
817.23	6456
817.371	6338
817.512	6342
817.653	6399
817.793	6292
817.934	6384
818.075	6437
818.216	6353
818.356	6384
818.497	6270
818.638	6167
818.778	6140
818.919	6129
819.06	6148
819.2	6323
819.341	6319
819.481	6353
819.622	6540
819.762	6719
819.903	6612
820.043	6525
820.184	6570
820.324	6574
820.465	6665
820.605	6658
820.746	6658
820.886	6544
821.026	6620
821.167	6734
821.307	6783
821.447	6745
821.588	6688
821.728	6513
821.868	6464
822.008	6315
822.149	6380
822.289	6388
822.429	6186
822.569	6110
822.709	6117
822.849	5916
822.99	5946
823.13	5908
823.27	6011
823.41	5775
823.55	5821
823.69	5794
823.83	5745
823.97	5649
824.11	5539
824.25	5501
824.389	5566
824.529	5581
824.669	5532
824.809	5532
824.949	5657
825.089	5630
825.228	5528
825.368	5383
825.508	5421
825.648	5326
825.787	5395
825.927	5379
826.067	5258
826.206	5273
826.346	5372
826.485	5349
826.625	5414
826.765	5512
826.904	5497
827.044	5307
827.183	5197
827.323	5147
827.462	5181
827.601	5162
827.741	5189
827.88	5227
828.02	5162
828.159	5201
828.298	5292
828.437	5353
828.577	5254
828.716	5482
828.855	5318
828.994	5143
829.134	5124
829.273	5189
829.412	5105
829.551	5117
829.69	5159
829.829	5277
829.968	5417
830.107	5235
830.246	5277
830.385	5132
830.524	5105
830.663	5094
830.802	4968
830.941	4919
831.08	4854
831.219	4999
831.357	4949
831.496	5178
831.635	4911
831.774	4835
831.913	4824
832.051	4717
832.19	4706
832.329	4793
832.467	4755
832.606	4584
832.744	4691
832.883	4721
833.022	4778
833.16	4782
833.299	4801
833.437	4797
833.576	4850
833.714	4889
833.852	4862
833.991	4892
834.129	4915
834.267	4949
834.406	4885
834.544	4976
834.682	4961
834.821	5018
834.959	5151
835.097	4984
835.235	5105
835.373	5033
835.511	5102
835.65	4999
835.788	5018
835.926	4961
836.064	4881
836.202	4949
836.34	5162
836.478	5227
836.615	5090
836.753	5178
836.891	5265
837.029	5201
837.167	5246
837.305	5140
837.443	5143
837.58	5083
837.718	5246
837.856	5151
837.993	5140
838.131	5254
838.269	5212
838.406	5197
838.544	5140
838.681	5045
838.819	5025
838.956	4934
839.094	4870
839.231	4965
839.369	5018
839.506	5406
839.643	5254
839.781	5071
839.918	5006
840.055	5090
840.193	5045
840.33	5102
840.467	5147
840.604	5166
840.742	5425
840.879	5060
841.016	5098
841.153	5113
841.29	5353
841.427	5334
841.564	5284
841.701	5353
841.838	5322
841.975	5250
842.112	5235
842.249	5143
842.385	5094
842.522	5334
842.659	5174
842.796	5113
842.933	5193
843.069	5155
843.206	5136
843.343	5235
843.479	5239
843.616	5280
843.752	5018
843.889	5010
844.025	5235
844.162	5018
844.298	5162
844.435	5025
844.571	5075
844.708	5185
844.844	5292
844.98	5326
845.117	5318
845.253	5162
845.389	5033
845.525	5193
845.661	5113
845.798	5045
845.934	5143
846.07	5041
846.206	5197
846.342	5242
846.478	5155
846.614	5041
846.75	5010
846.886	4930
847.022	5136
847.158	5014
847.294	5010
847.429	5109
847.565	5010
847.701	5307
847.837	4797
847.972	4839
848.108	4900
848.244	4904
848.379	4733
848.515	4714
848.65	4736
848.786	4714
848.921	4759
849.057	4828
849.192	4923
849.328	4812
849.463	4843
849.598	4805
849.734	4733
849.869	4664
850.004	4611
850.14	4668
850.275	4618
850.41	4481
850.545	4554
850.68	4577
850.815	4626
850.95	4641
851.085	4862
851.22	4763
851.355	4668
851.49	4611
851.625	4641
851.76	4675
851.895	4569
852.03	4538
852.165	4668
852.299	4694
852.434	4786
852.569	4702
852.703	4797
852.838	4862
852.973	4862
853.107	4892
853.242	4740
853.376	4691
853.511	4535
853.645	4630
853.78	4820
853.914	4672
854.048	4679
854.183	4641
854.317	4702
854.451	4885
854.585	4717
854.72	4603
854.854	4736
854.988	4653
855.122	4615
855.256	4497
855.39	4645
855.524	4767
855.658	4698
855.792	4702
855.926	4767
856.06	4812
856.194	4767
856.327	4668
856.461	4596
856.595	4630
856.729	4580
856.862	4729
856.996	4668
857.13	4755
857.263	4763
857.397	4767
857.53	4675
857.664	4763
857.797	4744
857.931	4763
858.064	4710
858.197	4698
858.331	4630
858.464	4607
858.597	4527
858.731	4622
858.864	4634
858.997	4596
859.13	4672
859.263	4668
859.396	4691
859.529	4558
859.662	4550
859.795	4569
859.928	4618
860.061	4755
860.194	4736
860.327	4599
860.46	4569
860.592	4717
860.725	4679
860.858	4679
860.99	4538
861.123	4531
861.256	4504
861.388	4596
861.521	5284
861.653	4466
861.786	4428
861.918	4497
862.05	4508
862.183	4577
862.315	4599
862.447	4634
862.58	4535
862.712	4421
862.844	4322
862.976	4432
863.108	4481
863.24	4908
863.372	4322
863.504	4398
863.636	4371
863.768	4485
863.9	4413
864.032	4325
864.164	4398
864.296	4428
864.428	4584
864.559	4512
864.691	4535
864.823	4527
864.954	4493
865.086	4512
865.217	4466
865.349	4386
865.48	4470
865.612	4512
865.743	4622
865.875	4409
866.006	4481
866.137	4413
866.269	4405
866.4	4500
866.531	4440
866.662	4417
866.793	4428
866.924	4398
867.055	4459
867.186	4447
867.317	4432
867.448	4383
867.579	4379
867.71	4386
867.841	4344
867.972	4462
868.103	4474
868.233	4394
868.364	4447
868.495	4443
868.625	4656
868.756	4706
868.886	4542
869.017	4615
869.147	4786
869.278	4774
869.408	4660
869.539	4645
869.669	4733
869.799	4637
869.929	4744
870.06	4778
870.19	4957
870.32	4946
870.45	4923
870.58	5006
870.71	5124
870.84	5045
870.97	4976
871.1	4915
871.23	5132
871.36	5155
871.489	5052
871.619	5113
871.749	5105
871.879	5109
872.008	5159
872.138	5060
872.267	5025
872.397	4908
872.526	4805
872.656	4752
872.785	4797
872.915	4957
873.044	4995
873.173	4980
873.303	4915
873.432	4908
873.561	4900
873.69	4862
873.819	4858
873.948	4873
874.077	4847
874.206	4782
874.335	4835
874.464	4847
874.593	5056
874.722	4930
874.851	5064
874.979	5041
875.108	5064
875.237	4889
875.365	4866
875.494	4900
875.623	4949
875.751	4828
875.88	4877
876.008	4930
876.136	5010
876.265	5193
876.393	5345
876.521	5227
876.65	5181
876.778	5113
876.906	5102
877.034	5037
877.162	5041
877.29	4949
877.418	5037
877.546	5003
877.674	5025
877.802	5006
877.93	4995
878.058	4904
878.185	4866
878.313	4976
878.441	4949
878.568	4816
878.696	4854
878.824	4919
878.951	5010
879.079	5132
879.206	5258
879.333	5022
879.461	4991
879.588	4984
879.715	5083
879.842	5231
879.97	5029
880.097	4786
880.224	4710
880.351	4812
880.478	4805
880.605	4816
880.732	4721
880.859	5052
880.986	4881
881.112	4938
881.239	4824
881.366	4626
881.493	4561
881.619	4565
881.746	4618
881.872	4588
881.999	4596
882.125	4649
882.252	4816
882.378	4801
882.505	4953
882.631	4793
882.757	4645
882.883	4683
883.01	4710
883.136	4672
883.262	4615
883.388	4603
883.514	4793
883.64	4870
883.766	4790
883.892	4649
884.018	4710
884.143	4877
884.269	4976
884.395	4660
884.52	4615
884.646	4717
884.772	4558
884.897	4523
885.023	4630
885.148	4801
885.274	4900
885.399	4816
885.524	4748
885.65	4660
885.775	4755
885.9	4656
886.025	4820
886.15	4744
886.275	4664
886.4	4675
886.525	4729
886.65	4656
886.775	4702
886.9	4889
887.025	5022
887.149	4774
887.274	4664
887.399	4554
887.523	4596
887.648	4558
887.773	4634
887.897	4752
888.021	4755
888.146	4691
888.27	4801
888.395	4911
888.519	4831
888.643	4782
888.767	4801
888.891	4618
889.015	4603
889.139	4626
889.263	4592
889.387	4733
889.511	4809
889.635	4740
889.759	4615
889.883	4622
890.006	4691
890.13	4835
890.254	4592
890.377	4672
890.501	4516
890.624	4508
890.748	4660
890.871	4489
890.995	4428
891.118	4356
891.241	4508
891.364	4569
891.488	4618
891.611	4478
891.734	4580
891.857	4569
891.98	4558
892.103	4603
892.226	4596
892.349	4459
892.471	4432
892.594	4527
892.717	4535
892.839	4516
892.962	4637
893.085	4653
893.207	4588
893.33	4481
893.452	4519
893.575	4653
893.697	4569
893.819	4733
893.941	4858
894.064	4771
894.186	4569
894.308	4512
894.43	4683
894.552	4786
894.674	4816
894.796	4584
894.918	4554
895.04	4554
895.161	4733
895.283	4637
895.405	4577
895.526	4622
895.648	4641
895.769	4691
895.891	4706
896.012	4725
896.134	4736
896.255	4626
896.376	4641
896.498	4611
896.619	4702
896.74	4656
896.861	4656
896.982	4908
897.103	5060
897.224	4854
897.345	4790
897.466	4641
897.587	4702
897.708	4828
897.828	4797
897.949	4694
898.07	4546
898.19	4653
898.311	4835
898.431	4645
898.552	4729
898.672	4835
898.792	4866
898.913	4774
899.033	4637
899.153	4516
899.273	4485
899.393	4550
899.513	4546
899.633	4504
899.753	4573
899.873	4504
899.993	4637
900.113	4577
900.232	4653
900.352	4573
900.472	4504
900.591	4428
900.711	4500
900.83	4485
900.95	4607
901.069	4710
901.189	4561
901.308	4405
901.427	4383
901.546	4405
901.665	4508
901.784	4546
901.904	4417
902.023	4363
902.141	4188
902.26	4185
902.379	4299
902.498	4314
902.617	4257
902.735	4443
902.854	4443
902.973	4428
903.091	4185
903.21	4265
903.328	4318
903.446	4341
903.565	4295
903.683	4405
903.801	4303
903.919	4417
904.038	4462
904.156	4386
904.274	4493
904.392	4436
904.51	4455
904.627	4523
904.745	4596
904.863	4660
904.981	4413
905.098	4352
905.216	4402
905.334	4447
905.451	4462
905.569	4459
905.686	4573
905.803	4626
905.921	4428
906.038	4569
906.155	4512
906.272	4417
906.389	4485
906.506	4405
906.623	4455
906.74	4474
906.857	4386
906.974	4440
907.091	4580
907.208	4702
907.324	4577
907.441	4478
907.557	4402
907.674	4379
907.79	4379
907.907	4440
908.023	4489
908.139	4519
908.256	4470
908.372	4538
908.488	4531
908.604	4398
908.72	4356
908.836	4443
908.952	4413
909.068	4432
909.184	4558
909.3	4516
909.415	4611
909.531	4577
909.647	4413
909.762	4390
909.878	4379
909.993	4508
910.108	4455
910.224	4432
910.339	4508
910.454	4428
910.57	4417
910.685	4356
910.8	4736
910.915	4664
911.03	4512
911.145	4375
911.259	4344
911.374	4413
911.489	4356
911.604	4299
911.718	4188
911.833	4242
911.947	4097
912.062	4124
912.176	4223
912.291	4261
912.405	4257
912.519	4481
912.633	4550
912.748	4367
912.862	4363
912.976	4249
913.09	4181
913.204	4162
913.318	4333
913.431	4371
913.545	4409
913.659	4489
913.772	4390
913.886	4261
914	4306
914.113	4402
914.226	4470
914.34	4413
914.453	4276
914.566	4428
914.68	4344
914.793	4360
914.906	4185
915.019	4158
915.132	4128
915.245	4234
915.358	4249
915.47	4253
915.583	4303
915.696	4337
915.809	4421
915.921	4428
916.034	4287
916.146	4303
916.259	4261
916.371	4402
916.483	4344
916.595	4272
916.708	4383
916.82	4356
916.932	4303
917.044	4360
917.156	4402
917.268	4265
917.38	4253
917.491	4360
917.603	4398
917.715	4462
917.826	4421
917.938	4417
918.049	4314
918.161	4413
918.272	4558
918.384	4523
918.495	4516
918.606	4333
918.717	4257
918.828	4379
918.939	4432
919.05	4295
919.161	4390
919.272	4169
919.383	4238
919.494	4443
919.604	4660
919.715	4451
919.826	4398
919.936	4451
920.047	4573
920.157	4516
920.267	4721
920.378	4577
920.488	4561
920.598	4717
920.708	4866
920.818	4816
920.928	4809
921.038	4984
921.148	4877
921.258	4649
921.368	4611
921.477	4508
921.587	4527
921.697	4428
921.806	4538
921.916	4443
922.025	4310
922.134	4284
922.244	4246
922.353	4341
922.462	4188
922.571	4135
922.68	4017
922.789	3991
922.898	4051
923.007	3998
923.116	4120
923.224	4063
923.333	4097
923.442	4032
923.55	4021
923.659	4063
923.767	4169
923.876	4036
923.984	4173
924.092	4025
924.201	4131
924.309	4150
924.417	4109
924.525	4078
924.633	4154
924.741	5048
924.849	3926
924.956	4196
925.064	3975
925.172	3964
925.279	3964
925.387	4109
925.494	4071
925.602	4238
925.709	4185
925.816	4067
925.924	4158
926.031	4265
926.138	4230
926.245	4200
926.352	4097
926.459	4268
926.566	4295
926.673	4181
926.779	4147
926.886	4154
926.993	3979
927.099	3953
927.206	3968
927.312	3918
927.419	4078
927.525	4128
927.631	4097
927.737	3979
927.843	3983
927.95	3880
928.056	3987
928.162	4029
928.267	4067
928.373	4778
928.479	4147
928.585	3903
928.69	4013
928.796	4097
928.901	3991
929.007	3854
929.112	4032
929.218	3987
929.323	3994
929.428	3945
929.533	4139
929.638	3941
929.743	3983
929.848	4036
929.953	4017
930.058	3949
930.163	3785
930.267	3838
930.372	4025
930.477	3816
930.581	4120
930.685	4002
930.79	3873
930.894	3884
930.998	3903
931.103	4071
931.207	3698
931.311	3701
931.415	3720
931.519	3580
931.623	3591
