Data from test_V78500241_1622.txt Node
Date: Fri Mar 25 17:00:16 CST 2022
User: usil
Spectrometer: V785-0024
Trigger mode: 0
Integration Time (sec): 4.000000E-1
Scans to average: 1
Nonlinearity correction enabled: false
Boxcar width: 0
Storing dark spectrum: false
XAxis mode: Wavelengths
Number of Pixels in Spectrum: 1024
>>>>>Begin Spectral Data<<<<<
801.071	8008
801.214	7997
801.356	7902
801.499	7841
801.641	7814
801.783	7776
801.926	7963
802.068	7928
802.211	7997
802.353	7986
802.496	7868
802.638	7921
802.78	7898
802.923	7967
803.065	7795
803.208	7807
803.35	7909
803.492	8046
803.635	8157
803.777	7993
803.919	8119
804.061	8480
804.204	8199
804.346	8081
804.488	7951
804.63	8039
804.773	8050
804.915	8145
805.057	8271
805.199	8123
805.341	8210
805.483	8237
805.626	8294
805.768	8134
805.91	8218
806.052	8294
806.194	8138
806.336	8248
806.478	8138
806.62	8062
806.762	8161
806.904	8290
807.046	8526
807.188	8442
807.33	8393
807.472	8370
807.614	8176
807.756	8088
807.898	8027
808.04	7917
808.182	7917
808.324	7887
808.465	8001
808.607	8084
808.749	8073
808.891	8259
809.033	8279
809.174	8290
809.316	8145
809.458	8172
809.6	8054
809.741	8043
809.883	8050
810.025	8126
810.166	8100
810.308	8050
810.45	7989
810.591	7932
810.733	7818
810.875	7693
811.016	7590
811.158	7514
811.299	7586
811.441	7742
811.582	7658
811.724	7533
811.865	7556
812.007	7643
812.148	7620
812.29	7655
812.431	7750
812.573	7913
812.714	7967
812.855	8142
812.997	8267
813.138	8305
813.279	8240
813.421	8126
813.562	7967
813.703	7757
813.845	7776
813.986	7460
814.127	7266
814.268	7202
814.41	7179
814.551	7171
814.692	7232
814.833	7129
814.974	7099
815.115	7236
815.256	7023
815.397	6966
815.539	6958
815.68	6875
815.821	6829
815.962	6916
816.103	6814
816.244	6722
816.385	6642
816.526	6646
816.666	6471
816.807	6285
816.948	6433
817.089	6494
817.23	6437
817.371	6403
817.512	6407
817.653	6414
817.793	6410
817.934	6475
818.075	6429
818.216	6391
818.356	6369
818.497	6315
818.638	6121
818.778	6171
818.919	6201
819.06	6205
819.2	6361
819.341	6327
819.481	6426
819.622	6521
819.762	6753
819.903	6715
820.043	6639
820.184	6650
820.324	6597
820.465	6745
820.605	6730
820.746	6684
820.886	6559
821.026	6646
821.167	6673
821.307	6791
821.447	6818
821.588	6677
821.728	6585
821.868	6582
822.008	6361
822.149	6426
822.289	6376
822.429	6175
822.569	6106
822.709	6129
822.849	5939
822.99	5901
823.13	5946
823.27	5923
823.41	5809
823.55	5809
823.69	5813
823.83	5798
823.97	5634
824.11	5520
824.25	5444
824.389	5493
824.529	5577
824.669	5566
824.809	5630
824.949	5665
825.089	5592
825.228	5528
825.368	5368
825.508	5353
825.648	5330
825.787	5410
825.927	5406
826.067	5330
826.206	5315
826.346	5337
826.485	5429
826.625	5436
826.765	5520
826.904	5543
827.044	5265
827.183	5231
827.323	5155
827.462	5242
827.601	5170
827.741	5235
827.88	5204
828.02	5128
828.159	5254
828.298	5299
828.437	5444
828.577	5242
828.716	5512
828.855	5398
828.994	5185
829.134	5201
829.273	5277
829.412	5162
829.551	5174
829.69	5143
829.829	5231
829.968	5379
830.107	5292
830.246	5288
830.385	5181
830.524	5159
830.663	5094
830.802	4957
830.941	4866
831.08	4904
831.219	4930
831.357	4938
831.496	5197
831.635	4911
831.774	4862
831.913	4858
832.051	4702
832.19	4774
832.329	4839
832.467	4679
832.606	4626
832.744	4698
832.883	4755
833.022	4733
833.16	4835
833.299	4850
833.437	4793
833.576	4854
833.714	4850
833.852	4900
833.991	4915
834.129	4965
834.267	4923
834.406	4896
834.544	5003
834.682	5060
834.821	4930
834.959	5155
835.097	5014
835.235	5181
835.373	5090
835.511	5079
835.65	5029
835.788	5025
835.926	4892
836.064	4881
836.202	4942
836.34	5189
836.478	5216
836.615	5162
836.753	5216
836.891	5261
837.029	5254
837.167	5155
837.305	5212
837.443	5121
837.58	5083
837.718	5231
837.856	5254
837.993	5193
838.131	5280
838.269	5208
838.406	5235
838.544	5193
838.681	5033
838.819	5060
838.956	4885
839.094	4965
839.231	5006
839.369	5098
839.506	5383
839.643	5326
839.781	5064
839.918	5025
840.055	5151
840.193	5052
840.33	5090
840.467	5185
840.604	5170
840.742	5421
840.879	5128
841.016	5102
841.153	5124
841.29	5410
841.427	5353
841.564	5334
841.701	5406
841.838	5269
841.975	5250
842.112	5242
842.249	5162
842.385	5140
842.522	5330
842.659	5140
842.796	5204
842.933	5223
843.069	5178
843.206	5128
843.343	5326
843.479	5284
843.616	5254
843.752	5033
843.889	5014
844.025	5239
844.162	5041
844.298	5231
844.435	5071
844.571	5037
844.708	5242
844.844	5326
844.98	5402
845.117	5341
845.253	5178
845.389	5071
845.525	5136
845.661	5136
845.798	5041
845.934	5143
846.07	5083
846.206	5159
846.342	5292
846.478	5181
846.614	5045
846.75	4991
846.886	4961
847.022	5132
847.158	5056
847.294	5086
847.429	5155
847.565	5079
847.701	5277
847.837	4854
847.972	4839
848.108	4995
848.244	4946
848.379	4778
848.515	4736
848.65	4698
848.786	4744
848.921	4805
849.057	4908
849.192	4889
849.328	4774
849.463	4919
849.598	4786
849.734	4767
849.869	4687
850.004	4694
850.14	4694
850.275	4634
850.41	4519
850.545	4641
850.68	4561
850.815	4611
850.95	4656
851.085	4862
851.22	4771
851.355	4687
851.49	4656
851.625	4641
851.76	4607
851.895	4565
852.03	4558
852.165	4679
852.299	4752
852.434	4824
852.569	4725
852.703	4831
852.838	4900
852.973	4934
853.107	4938
853.242	4774
853.376	4740
853.511	4550
853.645	4622
853.78	4870
853.914	4698
854.048	4668
854.183	4687
854.317	4733
854.451	4858
854.585	4653
854.72	4687
854.854	4774
854.988	4603
855.122	4653
855.256	4535
855.39	4687
855.524	4778
855.658	4752
855.792	4752
855.926	4733
856.06	4763
856.194	4835
856.327	4710
856.461	4653
856.595	4618
856.729	4660
856.862	4755
856.996	4675
857.13	4755
857.263	4759
857.397	4812
857.53	4672
857.664	4793
857.797	4759
857.931	4774
858.064	4717
858.197	4748
858.331	4660
858.464	4565
858.597	4535
858.731	4641
858.864	4607
858.997	4630
859.13	4656
859.263	4672
859.396	4683
859.529	4565
859.662	4565
859.795	4599
859.928	4637
860.061	4755
860.194	4801
860.327	4611
860.46	4592
860.592	4721
860.725	4687
860.858	4740
860.99	4603
861.123	4546
861.256	4542
861.388	4672
861.521	5185
861.653	4516
861.786	4398
861.918	4516
862.05	4538
862.183	4588
862.315	4599
862.447	4698
862.58	4512
862.712	4417
862.844	4356
862.976	4447
863.108	4478
863.24	4782
863.372	4390
863.504	4436
863.636	4447
863.768	4500
863.9	4447
864.032	4329
864.164	4447
864.296	4478
864.428	4561
864.559	4569
864.691	4538
864.823	4569
864.954	4523
865.086	4516
865.217	4466
865.349	4440
865.48	4451
865.612	4478
865.743	4653
865.875	4466
866.006	4428
866.137	4451
866.269	4478
866.4	4402
866.531	4440
866.662	4333
866.793	4409
866.924	4402
867.055	4554
867.186	4440
867.317	4428
867.448	4386
867.579	4405
867.71	4398
867.841	4424
867.972	4474
868.103	4493
868.233	4470
868.364	4451
868.495	4493
868.625	4683
868.756	4725
868.886	4596
869.017	4596
869.147	4782
869.278	4759
869.408	4656
869.539	4622
869.669	4721
869.799	4679
869.929	4729
870.06	4778
870.19	4953
870.32	4949
870.45	4908
870.58	5003
870.71	5117
870.84	5105
870.97	4968
871.1	4870
871.23	5147
871.36	5132
871.489	5029
871.619	5071
871.749	5102
871.879	5124
872.008	5178
872.138	5041
872.267	4972
872.397	4854
872.526	4847
872.656	4729
872.785	4797
872.915	4965
873.044	4999
873.173	4980
873.303	4987
873.432	4946
873.561	4904
873.69	4843
873.819	4889
873.948	4953
874.077	4839
874.206	4771
874.335	4847
874.464	4957
874.593	5071
874.722	4972
874.851	5102
874.979	5109
875.108	5010
875.237	4957
875.365	4870
875.494	4889
875.623	5010
875.751	4809
875.88	4858
876.008	4965
876.136	5014
876.265	5181
876.393	5345
876.521	5227
876.65	5170
876.778	5189
876.906	5048
877.034	5006
877.162	5067
877.29	5003
877.418	5018
877.546	5029
877.674	5048
877.802	5037
877.93	5014
878.058	4942
878.185	4892
878.313	4972
878.441	4987
878.568	4835
878.696	4850
878.824	4972
878.951	4991
879.079	5155
879.206	5303
879.333	5185
879.461	4961
879.588	4980
879.715	5197
879.842	5254
879.97	4995
880.097	4843
880.224	4752
880.351	4831
880.478	4831
880.605	4797
880.732	4812
880.859	5121
880.986	4915
881.112	4927
881.239	4831
881.366	4706
881.493	4691
881.619	4653
881.746	4733
881.872	4691
881.999	4694
882.125	4706
882.252	4843
882.378	4847
882.505	5006
882.631	4831
882.757	4675
882.883	4774
883.01	4763
883.136	4717
883.262	4645
883.388	4675
883.514	4862
883.64	4873
883.766	4831
883.892	4714
884.018	4778
884.143	4919
884.269	5075
884.395	4733
884.52	4672
884.646	4698
884.772	4637
884.897	4607
885.023	4736
885.148	4812
885.274	4942
885.399	4812
885.524	4752
885.65	4698
885.775	4771
885.9	4774
886.025	4919
886.15	4873
886.275	4729
886.4	4714
886.525	4763
886.65	4691
886.775	4736
886.9	4949
887.025	5105
887.149	4847
887.274	4736
887.399	4611
887.523	4679
887.648	4660
887.773	4622
887.897	4759
888.021	4862
888.146	4729
888.27	4828
888.395	4965
888.519	4816
888.643	4854
888.767	4885
888.891	4702
889.015	4672
889.139	4729
889.263	4637
889.387	4797
889.511	4923
889.635	4809
889.759	4710
889.883	4645
890.006	4755
890.13	4820
890.254	4622
890.377	4725
890.501	4554
890.624	4596
890.748	4687
890.871	4603
890.995	4500
891.118	4413
891.241	4561
891.364	4599
891.488	4656
891.611	4531
891.734	4569
891.857	4630
891.98	4584
892.103	4733
892.226	4611
892.349	4558
892.471	4421
892.594	4580
892.717	4668
892.839	4561
892.962	4603
893.085	4645
893.207	4603
893.33	4554
893.452	4607
893.575	4679
893.697	4668
893.819	4786
893.941	4805
894.064	4820
894.186	4622
894.308	4584
894.43	4748
894.552	4824
894.674	4820
894.796	4649
894.918	4645
895.04	4615
895.161	4763
895.283	4656
895.405	4615
895.526	4626
895.648	4717
895.769	4691
895.891	4752
896.012	4763
896.134	4740
896.255	4706
896.376	4717
896.498	4660
896.619	4641
896.74	4656
896.861	4668
896.982	4934
897.103	5113
897.224	4881
897.345	4767
897.466	4698
897.587	4740
897.708	4866
897.828	4843
897.949	4672
898.07	4592
898.19	4714
898.311	4835
898.431	4683
898.552	4740
898.672	4847
898.792	4831
898.913	4752
899.033	4672
899.153	4546
899.273	4485
899.393	4512
899.513	4527
899.633	4580
899.753	4577
899.873	4523
899.993	4592
900.113	4573
900.232	4603
900.352	4577
900.472	4500
900.591	4478
900.711	4519
900.83	4413
900.95	4641
901.069	4767
901.189	4554
901.308	4386
901.427	4337
901.546	4398
901.665	4455
901.784	4573
901.904	4421
902.023	4363
902.141	4207
902.26	4181
902.379	4371
902.498	4268
902.617	4242
902.735	4447
902.854	4459
902.973	4341
903.091	4230
903.21	4242
903.328	4314
903.446	4291
903.565	4265
903.683	4375
903.801	4284
903.919	4421
904.038	4474
904.156	4337
904.274	4504
904.392	4459
904.51	4459
904.627	4489
904.745	4607
904.863	4672
904.981	4443
905.098	4360
905.216	4432
905.334	4500
905.451	4428
905.569	4512
905.686	4550
905.803	4599
905.921	4421
906.038	4565
906.155	4504
906.272	4402
906.389	4451
906.506	4383
906.623	4413
906.74	4409
906.857	4337
906.974	4417
907.091	4573
907.208	4675
907.324	4634
907.441	4538
907.557	4386
907.674	4402
907.79	4306
907.907	4432
908.023	4527
908.139	4516
908.256	4523
908.372	4527
908.488	4432
908.604	4386
908.72	4318
908.836	4379
908.952	4386
909.068	4428
909.184	4561
909.3	4474
909.415	4584
909.531	4558
909.647	4379
909.762	4390
909.878	4337
909.993	4394
910.108	4428
910.224	4455
910.339	4504
910.454	4417
910.57	4337
910.685	4318
910.8	4668
910.915	4622
911.03	4531
911.145	4367
911.259	4356
911.374	4409
911.489	4352
911.604	4303
911.718	4211
911.833	4207
911.947	4169
912.062	4082
912.176	4238
912.291	4272
912.405	4257
912.519	4516
912.633	4500
912.748	4405
912.862	4344
912.976	4230
913.09	4143
913.204	4150
913.318	4268
913.431	4363
913.545	4398
913.659	4451
913.772	4363
913.886	4287
914	4238
914.113	4443
914.226	4504
914.34	4413
914.453	4295
914.566	4447
914.68	4310
914.793	4390
914.906	4196
915.019	4128
915.132	4139
915.245	4192
915.358	4261
915.47	4253
915.583	4284
915.696	4299
915.809	4440
915.921	4470
916.034	4253
916.146	4268
916.259	4204
916.371	4394
916.483	4383
916.595	4287
916.708	4344
916.82	4325
916.932	4386
917.044	4348
917.156	4310
917.268	4246
917.38	4257
917.491	4276
917.603	4394
917.715	4451
917.826	4451
917.938	4356
918.049	4261
918.161	4421
918.272	4599
918.384	4592
918.495	4436
918.606	4295
918.717	4200
918.828	4337
918.939	4409
919.05	4284
919.161	4356
919.272	4128
919.383	4268
919.494	4516
919.604	4637
919.715	4443
919.826	4379
919.936	4428
920.047	4519
920.157	4459
920.267	4698
920.378	4599
920.488	4531
920.598	4767
920.708	4919
920.818	4748
920.928	4812
921.038	4995
921.148	4923
921.258	4645
921.368	4607
921.477	4527
921.587	4516
921.697	4367
921.806	4569
921.916	4462
922.025	4341
922.134	4287
922.244	4227
922.353	4371
922.462	4207
922.571	4173
922.68	4025
922.789	3987
922.898	4063
923.007	4002
923.116	4097
923.224	4086
923.333	4105
923.442	3964
923.55	4040
923.659	4059
923.767	4059
923.876	3968
923.984	4162
924.092	3972
924.201	4055
924.309	4097
924.417	4147
924.525	4059
924.633	4177
924.741	4858
924.849	3964
924.956	4139
925.064	3998
925.172	3934
925.279	3972
925.387	4044
925.494	4093
925.602	4215
925.709	4192
925.816	4055
925.924	4181
926.031	4211
926.138	4177
926.245	4227
926.352	4139
926.459	4257
926.566	4322
926.673	4143
926.779	4090
926.886	4101
926.993	3991
927.099	3956
927.206	3937
927.312	3945
927.419	4082
927.525	4029
927.631	4131
927.737	3987
927.843	3979
927.95	3835
928.056	4006
928.162	4013
928.267	4097
928.373	4622
928.479	4128
928.585	3915
928.69	4002
928.796	4086
928.901	3934
929.007	3850
929.112	3994
929.218	3975
929.323	3941
929.428	3896
929.533	4128
929.638	3953
929.743	4010
929.848	4074
929.953	4025
930.058	3937
930.163	3816
930.267	3812
930.372	3994
930.477	3823
930.581	4105
930.685	3956
930.79	3846
930.894	3915
930.998	3873
931.103	4040
931.207	3736
931.311	3713
931.415	3694
931.519	3538
931.623	3534
