Data from test_V78500241_1263.txt Node
Date: Fri Mar 25 16:57:47 CST 2022
User: usil
Spectrometer: V785-0024
Trigger mode: 0
Integration Time (sec): 4.000000E-1
Scans to average: 1
Nonlinearity correction enabled: false
Boxcar width: 0
Storing dark spectrum: false
XAxis mode: Wavelengths
Number of Pixels in Spectrum: 1024
>>>>>Begin Spectral Data<<<<<
801.071	8035
801.214	8020
801.356	7845
801.499	7784
801.641	7765
801.783	7769
801.926	7947
802.068	7906
802.211	7928
802.353	7974
802.496	7837
802.638	7921
802.78	7837
802.923	7940
803.065	7879
803.208	7883
803.35	8008
803.492	8077
803.635	8164
803.777	7970
803.919	8130
804.061	8343
804.204	8145
804.346	8092
804.488	7947
804.63	8164
804.773	8016
804.915	8138
805.057	8290
805.199	8187
805.341	8263
805.483	8313
805.626	8168
805.768	8180
805.91	8244
806.052	8206
806.194	8130
806.336	8210
806.478	8088
806.62	8012
806.762	8111
806.904	8206
807.046	8484
807.188	8332
807.33	8309
807.472	8290
807.614	8149
807.756	8046
807.898	7913
808.04	7887
808.182	7902
808.324	7913
808.465	7902
808.607	8046
808.749	8096
808.891	8187
809.033	8161
809.174	8191
809.316	8077
809.458	8012
809.6	8001
809.741	8039
809.883	8065
810.025	8119
810.166	8020
810.308	8050
810.45	8001
810.591	7849
810.733	7723
810.875	7662
811.016	7533
811.158	7506
811.299	7552
811.441	7693
811.582	7677
811.724	7628
811.865	7518
812.007	7601
812.148	7594
812.29	7605
812.431	7666
812.573	7959
812.714	7940
812.855	8035
812.997	8191
813.138	8324
813.279	8145
813.421	8081
813.562	7928
813.703	7898
813.845	7769
813.986	7441
814.127	7247
814.268	7202
814.41	7206
814.551	7129
814.692	7129
814.833	7000
814.974	7084
815.115	7080
815.256	7004
815.397	6928
815.539	7034
815.68	6818
815.821	6798
815.962	6886
816.103	6787
816.244	6646
816.385	6574
816.526	6582
816.666	6464
816.807	6258
816.948	6414
817.089	6486
817.23	6456
817.371	6346
817.512	6407
817.653	6384
817.793	6369
817.934	6365
818.075	6414
818.216	6426
818.356	6346
818.497	6228
818.638	6068
818.778	6114
818.919	6087
819.06	6167
819.2	6311
819.341	6258
819.481	6300
819.622	6467
819.762	6688
819.903	6665
820.043	6593
820.184	6593
820.324	6570
820.465	6700
820.605	6631
820.746	6662
820.886	6525
821.026	6623
821.167	6696
821.307	6741
821.447	6711
821.588	6669
821.728	6540
821.868	6479
822.008	6327
822.149	6391
822.289	6292
822.429	6167
822.569	6072
822.709	6098
822.849	5939
822.99	5870
823.13	5874
823.27	5901
823.41	5756
823.55	5737
823.69	5802
823.83	5748
823.97	5714
824.11	5528
824.25	5493
824.389	5539
824.529	5566
824.669	5570
824.809	5577
824.949	5619
825.089	5558
825.228	5566
825.368	5387
825.508	5307
825.648	5280
825.787	5395
825.927	5345
826.067	5242
826.206	5307
826.346	5337
826.485	5376
826.625	5440
826.765	5478
826.904	5436
827.044	5132
827.183	5128
827.323	5121
827.462	5303
827.601	5140
827.741	5140
827.88	5166
828.02	5102
828.159	5212
828.298	5269
828.437	5345
828.577	5269
828.716	5444
828.855	5360
828.994	5124
829.134	5166
829.273	5185
829.412	5124
829.551	5075
829.69	5124
829.829	5284
829.968	5303
830.107	5273
830.246	5296
830.385	5185
830.524	5083
830.663	5079
830.802	4957
830.941	4892
831.08	4831
831.219	4957
831.357	4953
831.496	5128
831.635	4900
831.774	4816
831.913	4816
832.051	4706
832.19	4706
832.329	4835
832.467	4725
832.606	4607
832.744	4748
832.883	4725
833.022	4660
833.16	4828
833.299	4812
833.437	4805
833.576	4793
833.714	4809
833.852	4835
833.991	4870
834.129	4896
834.267	4919
834.406	4908
834.544	4934
834.682	4946
834.821	4953
834.959	5132
835.097	4980
835.235	5098
835.373	5075
835.511	5109
835.65	5029
835.788	5025
835.926	4908
836.064	4850
836.202	4938
836.34	5181
836.478	5170
836.615	5124
836.753	5178
836.891	5250
837.029	5280
837.167	5246
837.305	5170
837.443	5079
837.58	5079
837.718	5265
837.856	5170
837.993	5143
838.131	5212
838.269	5124
838.406	5189
838.544	5239
838.681	4991
838.819	4995
838.956	4885
839.094	4896
839.231	4995
839.369	5094
839.506	5372
839.643	5246
839.781	5045
839.918	4984
840.055	5056
840.193	5067
840.33	5102
840.467	5132
840.604	5162
840.742	5410
840.879	5147
841.016	5067
841.153	5109
841.29	5360
841.427	5349
841.564	5292
841.701	5379
841.838	5227
841.975	5227
842.112	5258
842.249	5170
842.385	5098
842.522	5299
842.659	5151
842.796	5136
842.933	5136
843.069	5098
843.206	5132
843.343	5330
843.479	5204
843.616	5220
843.752	5010
843.889	5022
844.025	5216
844.162	5014
844.298	5178
844.435	5071
844.571	5029
844.708	5170
844.844	5322
844.98	5330
845.117	5269
845.253	5151
845.389	5075
845.525	5094
845.661	5117
845.798	5045
845.934	5064
846.07	5067
846.206	5197
846.342	5261
846.478	5140
846.614	5037
846.75	4942
846.886	4938
847.022	5083
847.158	5056
847.294	5022
847.429	5128
847.565	4987
847.701	5269
847.837	4896
847.972	4793
848.108	4972
848.244	4938
848.379	4740
848.515	4744
848.65	4744
848.786	4675
848.921	4774
849.057	4843
849.192	4873
849.328	4767
849.463	4866
849.598	4691
849.734	4706
849.869	4656
850.004	4588
850.14	4641
850.275	4630
850.41	4500
850.545	4531
850.68	4596
850.815	4580
850.95	4615
851.085	4831
851.22	4725
851.355	4656
851.49	4584
851.625	4634
851.76	4603
851.895	4558
852.03	4497
852.165	4615
852.299	4706
852.434	4801
852.569	4714
852.703	4748
852.838	4824
852.973	4908
853.107	4938
853.242	4774
853.376	4729
853.511	4527
853.645	4653
853.78	4809
853.914	4721
854.048	4698
854.183	4679
854.317	4710
854.451	4870
854.585	4725
854.72	4668
854.854	4801
854.988	4641
855.122	4645
855.256	4584
855.39	4687
855.524	4809
855.658	4714
855.792	4736
855.926	4733
856.06	4752
856.194	4801
856.327	4729
856.461	4653
856.595	4634
856.729	4645
856.862	4774
856.996	4683
857.13	4725
857.263	4759
857.397	4835
857.53	4675
857.664	4740
857.797	4759
857.931	4835
858.064	4752
858.197	4767
858.331	4714
858.464	4634
858.597	4516
858.731	4653
858.864	4675
858.997	4618
859.13	4672
859.263	4721
859.396	4694
859.529	4573
859.662	4596
859.795	4584
859.928	4687
860.061	4748
860.194	4790
860.327	4641
860.46	4618
860.592	4717
860.725	4801
860.858	4714
860.99	4596
861.123	4554
861.256	4554
861.388	4664
861.521	5288
861.653	4474
861.786	4417
861.918	4500
862.05	4577
862.183	4618
862.315	4626
862.447	4698
862.58	4569
862.712	4459
862.844	4348
862.976	4497
863.108	4508
863.24	4942
863.372	4367
863.504	4485
863.636	4474
863.768	4519
863.9	4466
864.032	4409
864.164	4466
864.296	4489
864.428	4637
864.559	4592
864.691	4596
864.823	4535
864.954	4519
865.086	4561
865.217	4516
865.349	4466
865.48	4462
865.612	4516
865.743	4660
865.875	4504
866.006	4436
866.137	4508
866.269	4443
866.4	4470
866.531	4481
866.662	4402
866.793	4451
866.924	4451
867.055	4512
867.186	4481
867.317	4466
867.448	4390
867.579	4432
867.71	4383
867.841	4390
867.972	4481
868.103	4516
868.233	4455
868.364	4447
868.495	4550
868.625	4706
868.756	4771
868.886	4611
869.017	4653
869.147	4755
869.278	4782
869.408	4710
869.539	4668
869.669	4729
869.799	4710
869.929	4782
870.06	4706
870.19	4968
870.32	4927
870.45	4949
870.58	4984
870.71	5090
870.84	5071
870.97	4930
871.1	4927
871.23	5109
871.36	5113
871.489	5037
871.619	5045
871.749	5124
871.879	5143
872.008	5140
872.138	5083
872.267	4991
872.397	4881
872.526	4793
872.656	4752
872.785	4771
872.915	4991
873.044	5029
873.173	4968
873.303	4953
873.432	4972
873.561	4999
873.69	4900
873.819	4911
873.948	4923
874.077	4870
874.206	4790
874.335	4824
874.464	4946
874.593	5083
874.722	5003
874.851	5109
874.979	5033
875.108	5014
875.237	4942
875.365	4904
875.494	4896
875.623	4942
875.751	4854
875.88	4934
876.008	5022
876.136	5075
876.265	5181
876.393	5372
876.521	5254
876.65	5197
876.778	5220
876.906	5083
877.034	5083
877.162	5075
877.29	4991
877.418	5064
877.546	5067
877.674	5094
877.802	5052
877.93	5025
878.058	4942
878.185	4908
878.313	4961
878.441	4991
878.568	4793
878.696	4896
878.824	4980
878.951	4984
879.079	5197
879.206	5318
879.333	5136
879.461	5003
879.588	5010
879.715	5109
879.842	5280
879.97	5056
880.097	4812
880.224	4774
880.351	4850
880.478	4828
880.605	4793
880.732	4847
880.859	5067
880.986	4877
881.112	4953
881.239	4797
881.366	4706
881.493	4637
881.619	4630
881.746	4653
881.872	4615
881.999	4687
882.125	4721
882.252	4793
882.378	4885
882.505	5010
882.631	4892
882.757	4736
882.883	4790
883.01	4744
883.136	4714
883.262	4656
883.388	4656
883.514	4843
883.64	4854
883.766	4850
883.892	4721
884.018	4755
884.143	4938
884.269	5025
884.395	4733
884.52	4664
884.646	4660
884.772	4607
884.897	4588
885.023	4683
885.148	4793
885.274	4885
885.399	4847
885.524	4767
885.65	4702
885.775	4759
885.9	4725
886.025	4835
886.15	4805
886.275	4748
886.4	4687
886.525	4721
886.65	4736
886.775	4691
886.9	4904
887.025	5037
887.149	4847
887.274	4714
887.399	4615
887.523	4634
887.648	4626
887.773	4603
887.897	4752
888.021	4778
888.146	4744
888.27	4828
888.395	4942
888.519	4793
888.643	4801
888.767	4858
888.891	4653
889.015	4653
889.139	4694
889.263	4630
889.387	4721
889.511	4843
889.635	4816
889.759	4634
889.883	4668
890.006	4763
890.13	4866
890.254	4596
890.377	4656
890.501	4538
890.624	4519
890.748	4630
890.871	4527
890.995	4455
891.118	4428
891.241	4542
891.364	4554
891.488	4675
891.611	4519
891.734	4550
891.857	4607
891.98	4588
892.103	4622
892.226	4607
892.349	4554
892.471	4405
892.594	4538
892.717	4615
892.839	4542
892.962	4630
893.085	4660
893.207	4611
893.33	4504
893.452	4500
893.575	4714
893.697	4577
893.819	4778
893.941	4820
894.064	4774
894.186	4615
894.308	4592
894.43	4694
894.552	4835
894.674	4774
894.796	4599
894.918	4641
895.04	4569
895.161	4714
895.283	4675
895.405	4622
895.526	4622
895.648	4706
895.769	4672
895.891	4740
896.012	4767
896.134	4691
896.255	4683
896.376	4660
896.498	4588
896.619	4675
896.74	4596
896.861	4653
896.982	4892
897.103	5060
897.224	4858
897.345	4774
897.466	4714
897.587	4740
897.708	4839
897.828	4809
897.949	4675
898.07	4580
898.19	4653
898.311	4812
898.431	4717
898.552	4755
898.672	4858
898.792	4771
898.913	4797
899.033	4683
899.153	4527
899.273	4451
899.393	4459
899.513	4561
899.633	4527
899.753	4516
899.873	4504
899.993	4558
900.113	4535
900.232	4592
900.352	4577
900.472	4508
900.591	4390
900.711	4565
900.83	4474
900.95	4615
901.069	4637
901.189	4519
901.308	4394
901.427	4299
901.546	4405
901.665	4485
901.784	4535
901.904	4413
902.023	4318
902.141	4185
902.26	4204
902.379	4306
902.498	4306
902.617	4280
902.735	4405
902.854	4424
902.973	4363
903.091	4230
903.21	4265
903.328	4295
903.446	4314
903.565	4276
903.683	4371
903.801	4356
903.919	4413
904.038	4462
904.156	4333
904.274	4424
904.392	4398
904.51	4413
904.627	4500
904.745	4611
904.863	4588
904.981	4405
905.098	4303
905.216	4409
905.334	4455
905.451	4424
905.569	4424
905.686	4599
905.803	4577
905.921	4402
906.038	4573
906.155	4523
906.272	4428
906.389	4466
906.506	4390
906.623	4390
906.74	4398
906.857	4295
906.974	4383
907.091	4592
907.208	4675
907.324	4626
907.441	4519
907.557	4329
907.674	4402
907.79	4257
907.907	4405
908.023	4497
908.139	4474
908.256	4455
908.372	4481
908.488	4413
908.604	4367
908.72	4325
908.836	4394
908.952	4348
909.068	4459
909.184	4561
909.3	4504
909.415	4546
909.531	4618
909.647	4390
909.762	4344
909.878	4363
909.993	4440
910.108	4421
910.224	4413
910.339	4516
910.454	4478
910.57	4443
910.685	4344
910.8	4675
910.915	4584
911.03	4538
911.145	4310
911.259	4329
911.374	4413
911.489	4291
911.604	4272
911.718	4169
911.833	4196
911.947	4093
912.062	4067
912.176	4230
912.291	4280
912.405	4227
912.519	4474
912.633	4519
912.748	4402
912.862	4371
912.976	4185
913.09	4116
913.204	4158
913.318	4200
913.431	4409
913.545	4360
913.659	4386
913.772	4386
913.886	4272
914	4215
914.113	4405
914.226	4455
914.34	4409
914.453	4295
914.566	4413
914.68	4314
914.793	4310
914.906	4139
915.019	4128
915.132	4021
915.245	4204
915.358	4238
915.47	4207
915.583	4284
915.696	4337
915.809	4398
915.921	4432
916.034	4280
916.146	4314
916.259	4219
916.371	4356
916.483	4352
916.595	4299
916.708	4333
916.82	4329
916.932	4325
917.044	4287
917.156	4344
917.268	4272
917.38	4246
917.491	4303
917.603	4371
917.715	4443
917.826	4466
917.938	4363
918.049	4268
918.161	4421
918.272	4527
918.384	4512
918.495	4447
918.606	4265
918.717	4238
918.828	4344
918.939	4367
919.05	4257
919.161	4314
919.272	4185
919.383	4257
919.494	4504
919.604	4641
919.715	4440
919.826	4329
919.936	4424
920.047	4550
920.157	4504
920.267	4714
920.378	4538
920.488	4516
920.598	4725
920.708	4908
920.818	4809
920.928	4748
921.038	4957
921.148	4908
921.258	4603
921.368	4550
921.477	4508
921.587	4516
921.697	4421
921.806	4588
921.916	4443
922.025	4325
922.134	4272
922.244	4299
922.353	4386
922.462	4192
922.571	4143
922.68	4025
922.789	4029
922.898	4109
923.007	4059
923.116	4173
923.224	4124
923.333	4124
923.442	4044
923.55	4078
923.659	4090
923.767	4143
923.876	4017
923.984	4166
924.092	4013
924.201	4116
924.309	4135
924.417	4150
924.525	4067
924.633	4143
924.741	5071
924.849	3979
924.956	4135
925.064	4021
925.172	3964
925.279	4036
925.387	4063
925.494	4082
925.602	4219
925.709	4265
925.816	4090
925.924	4166
926.031	4249
926.138	4215
926.245	4249
926.352	4128
926.459	4291
926.566	4379
926.673	4204
926.779	4124
926.886	4143
926.993	3994
927.099	3987
927.206	3983
927.312	4013
927.419	4078
927.525	4040
927.631	4112
927.737	3994
927.843	3983
927.95	3857
928.056	3991
928.162	4017
928.267	4063
928.373	4698
928.479	4188
928.585	3926
928.69	4051
928.796	4093
928.901	3934
929.007	3884
929.112	4036
929.218	3987
929.323	3979
929.428	3934
929.533	4204
929.638	3945
929.743	4021
929.848	4071
929.953	4040
930.058	3994
930.163	3827
930.267	3884
930.372	4021
930.477	3816
930.581	4093
930.685	3983
930.79	3880
930.894	3899
930.998	3956
931.103	4048
931.207	3778
931.311	3701
931.415	3728
931.519	3564
931.623	3542
