Data from test_V78500241_2060.txt Node
Date: Fri Mar 25 17:03:19 CST 2022
User: usil
Spectrometer: V785-0024
Trigger mode: 0
Integration Time (sec): 4.000000E-1
Scans to average: 1
Nonlinearity correction enabled: false
Boxcar width: 0
Storing dark spectrum: false
XAxis mode: Wavelengths
Number of Pixels in Spectrum: 1024
>>>>>Begin Spectral Data<<<<<
801.071	7986
801.214	8027
801.356	7921
801.499	7917
801.641	7803
801.783	7784
801.926	7936
802.068	7868
802.211	7978
802.353	7982
802.496	7894
802.638	7887
802.78	7860
802.923	7902
803.065	7928
803.208	7875
803.35	7967
803.492	8130
803.635	8145
803.777	8031
803.919	8138
804.061	8492
804.204	8180
804.346	8130
804.488	8043
804.63	8157
804.773	7989
804.915	8088
805.057	8313
805.199	8157
805.341	8183
805.483	8320
805.626	8199
805.768	8119
805.91	8225
806.052	8172
806.194	8130
806.336	8355
806.478	8069
806.62	8062
806.762	8191
806.904	8301
807.046	8514
807.188	8393
807.33	8358
807.472	8313
807.614	8252
807.756	8176
807.898	8088
808.04	7845
808.182	7883
808.324	7902
808.465	7921
808.607	8043
808.749	8107
808.891	8183
809.033	8374
809.174	8237
809.316	8092
809.458	8065
809.6	8005
809.741	8073
809.883	7982
810.025	8096
810.166	8024
810.308	8043
810.45	8012
810.591	7799
810.733	7715
810.875	7685
811.016	7521
811.158	7506
811.299	7567
811.441	7666
811.582	7696
811.724	7559
811.865	7525
812.007	7616
812.148	7632
812.29	7651
812.431	7772
812.573	7913
812.714	8050
812.855	8176
812.997	8195
813.138	8290
813.279	8157
813.421	8054
813.562	7940
813.703	7894
813.845	7788
813.986	7434
814.127	7308
814.268	7244
814.41	7255
814.551	7206
814.692	7198
814.833	7141
814.974	7137
815.115	7149
815.256	7034
815.397	6951
815.539	6981
815.68	6798
815.821	6719
815.962	6856
816.103	6802
816.244	6757
816.385	6650
816.526	6662
816.666	6525
816.807	6365
816.948	6490
817.089	6547
817.23	6498
817.371	6380
817.512	6380
817.653	6433
817.793	6365
817.934	6445
818.075	6464
818.216	6441
818.356	6452
818.497	6270
818.638	6159
818.778	6133
818.919	6106
819.06	6171
819.2	6369
819.341	6346
819.481	6418
819.622	6620
819.762	6795
819.903	6703
820.043	6642
820.184	6589
820.324	6620
820.465	6745
820.605	6696
820.746	6673
820.886	6494
821.026	6719
821.167	6681
821.307	6844
821.447	6779
821.588	6730
821.728	6692
821.868	6555
822.008	6308
822.149	6384
822.289	6441
822.429	6159
822.569	6060
822.709	6144
822.849	5927
822.99	5939
823.13	6015
823.27	5942
823.41	5893
823.55	5847
823.69	5802
823.83	5798
823.97	5714
824.11	5600
824.25	5524
824.389	5649
824.529	5562
824.669	5493
824.809	5665
824.949	5703
825.089	5661
825.228	5562
825.368	5463
825.508	5417
825.648	5337
825.787	5357
825.927	5368
826.067	5315
826.206	5284
826.346	5421
826.485	5379
826.625	5379
826.765	5535
826.904	5543
827.044	5307
827.183	5242
827.323	5102
827.462	5284
827.601	5174
827.741	5166
827.88	5250
828.02	5132
828.159	5261
828.298	5334
828.437	5383
828.577	5292
828.716	5478
828.855	5318
828.994	5143
829.134	5212
829.273	5239
829.412	5174
829.551	5143
829.69	5174
829.829	5269
829.968	5402
830.107	5246
830.246	5292
830.385	5189
830.524	5181
830.663	5056
830.802	5029
830.941	4919
831.08	4923
831.219	5006
831.357	5014
831.496	5220
831.635	4965
831.774	4843
831.913	4820
832.051	4675
832.19	4812
832.329	4885
832.467	4706
832.606	4656
832.744	4729
832.883	4748
833.022	4725
833.16	4778
833.299	4870
833.437	4858
833.576	4843
833.714	4885
833.852	4904
833.991	4873
834.129	4976
834.267	4946
834.406	4942
834.544	4999
834.682	4953
834.821	4980
834.959	5193
835.097	5018
835.235	5216
835.373	5098
835.511	5060
835.65	5067
835.788	5041
835.926	4911
836.064	4896
836.202	4927
836.34	5181
836.478	5261
836.615	5159
836.753	5223
836.891	5318
837.029	5250
837.167	5185
837.305	5197
837.443	5151
837.58	5098
837.718	5208
837.856	5189
837.993	5132
838.131	5254
838.269	5201
838.406	5204
838.544	5189
838.681	5060
838.819	5067
838.956	4873
839.094	4919
839.231	5025
839.369	5117
839.506	5429
839.643	5250
839.781	5045
839.918	5041
840.055	5056
840.193	5102
840.33	5109
840.467	5151
840.604	5231
840.742	5444
840.879	5075
841.016	5102
841.153	5136
841.29	5376
841.427	5368
841.564	5353
841.701	5345
841.838	5269
841.975	5201
842.112	5223
842.249	5132
842.385	5079
842.522	5379
842.659	5193
842.796	5201
842.933	5220
843.069	5193
843.206	5197
843.343	5330
843.479	5280
843.616	5299
843.752	5071
843.889	5025
844.025	5231
844.162	5071
844.298	5220
844.435	5083
844.571	5052
844.708	5220
844.844	5345
844.98	5334
845.117	5292
845.253	5204
845.389	5102
845.525	5159
845.661	5132
845.798	5113
845.934	5140
846.07	5064
846.206	5189
846.342	5220
846.478	5159
846.614	4972
846.75	5003
846.886	4995
847.022	5181
847.158	5022
847.294	5041
847.429	5102
847.565	5071
847.701	5345
847.837	4927
847.972	4812
848.108	4911
848.244	4957
848.379	4782
848.515	4744
848.65	4733
848.786	4782
848.921	4774
849.057	4862
849.192	4877
849.328	4824
849.463	4911
849.598	4778
849.734	4759
849.869	4774
850.004	4645
850.14	4687
850.275	4588
850.41	4577
850.545	4596
850.68	4599
850.815	4626
850.95	4630
851.085	4843
851.22	4782
851.355	4660
851.49	4645
851.625	4687
851.76	4618
851.895	4592
852.03	4561
852.165	4675
852.299	4710
852.434	4812
852.569	4725
852.703	4710
852.838	4839
852.973	4972
853.107	4885
853.242	4736
853.376	4672
853.511	4596
853.645	4607
853.78	4831
853.914	4687
854.048	4668
854.183	4649
854.317	4706
854.451	4847
854.585	4679
854.72	4599
854.854	4752
854.988	4607
855.122	4702
855.256	4584
855.39	4641
855.524	4790
855.658	4759
855.792	4672
855.926	4752
856.06	4763
856.194	4778
856.327	4683
856.461	4611
856.595	4698
856.729	4656
856.862	4752
856.996	4691
857.13	4721
857.263	4763
857.397	4858
857.53	4702
857.664	4744
857.797	4774
857.931	4793
858.064	4675
858.197	4786
858.331	4645
858.464	4615
858.597	4538
858.731	4664
858.864	4626
858.997	4618
859.13	4660
859.263	4653
859.396	4694
859.529	4546
859.662	4580
859.795	4542
859.928	4641
860.061	4805
860.194	4786
860.327	4645
860.46	4580
860.592	4729
860.725	4660
860.858	4733
860.99	4622
861.123	4497
861.256	4538
861.388	4603
861.521	5277
861.653	4485
861.786	4451
861.918	4447
862.05	4527
862.183	4565
862.315	4618
862.447	4622
862.58	4527
862.712	4413
862.844	4314
862.976	4504
863.108	4550
863.24	4767
863.372	4329
863.504	4462
863.636	4341
863.768	4497
863.9	4428
864.032	4371
864.164	4402
864.296	4519
864.428	4554
864.559	4565
864.691	4531
864.823	4558
864.954	4527
865.086	4489
865.217	4428
865.349	4466
865.48	4470
865.612	4535
865.743	4645
865.875	4542
866.006	4466
866.137	4455
866.269	4447
866.4	4424
866.531	4455
866.662	4386
866.793	4402
866.924	4424
867.055	4466
867.186	4485
867.317	4398
867.448	4337
867.579	4394
867.71	4417
867.841	4440
867.972	4440
868.103	4424
868.233	4474
868.364	4474
868.495	4504
868.625	4660
868.756	4717
868.886	4542
869.017	4618
869.147	4812
869.278	4816
869.408	4694
869.539	4664
869.669	4706
869.799	4656
869.929	4767
870.06	4733
870.19	4915
870.32	4900
870.45	4938
870.58	5003
870.71	5071
870.84	5033
870.97	4957
871.1	4908
871.23	5143
871.36	5151
871.489	5010
871.619	5071
871.749	5102
871.879	5162
872.008	5185
872.138	5010
872.267	4938
872.397	4870
872.526	4816
872.656	4740
872.785	4801
872.915	4972
873.044	5052
873.173	4968
873.303	4995
873.432	4961
873.561	4961
873.69	4908
873.819	4892
873.948	4938
874.077	4854
874.206	4752
874.335	4824
874.464	4968
874.593	5048
874.722	4965
874.851	5052
874.979	5060
875.108	5045
875.237	4904
875.365	4862
875.494	4854
875.623	4987
875.751	4816
875.88	4862
876.008	4968
876.136	5060
876.265	5212
876.393	5353
876.521	5246
876.65	5212
876.778	5223
876.906	5083
877.034	5060
877.162	5041
877.29	4987
877.418	5018
877.546	5090
877.674	5045
877.802	5033
877.93	5006
878.058	4896
878.185	4911
878.313	4980
878.441	4923
878.568	4839
878.696	4877
878.824	4938
878.951	5060
879.079	5147
879.206	5277
879.333	5075
879.461	4991
879.588	4991
879.715	5121
879.842	5239
879.97	4999
880.097	4805
880.224	4771
880.351	4793
880.478	4866
880.605	4809
880.732	4797
880.859	5041
880.986	4896
881.112	4908
881.239	4816
881.366	4649
881.493	4622
881.619	4607
881.746	4622
881.872	4653
881.999	4744
882.125	4653
882.252	4748
882.378	4809
882.505	4949
882.631	4820
882.757	4626
882.883	4710
883.01	4710
883.136	4668
883.262	4580
883.388	4626
883.514	4839
883.64	4866
883.766	4828
883.892	4687
884.018	4721
884.143	4889
884.269	5010
884.395	4694
884.52	4599
884.646	4706
884.772	4535
884.897	4516
885.023	4664
885.148	4805
885.274	4839
885.399	4847
885.524	4721
885.65	4675
885.775	4729
885.9	4710
886.025	4870
886.15	4782
886.275	4752
886.4	4618
886.525	4698
886.65	4687
886.775	4725
886.9	4892
887.025	4976
887.149	4797
887.274	4702
887.399	4565
887.523	4618
887.648	4569
887.773	4577
887.897	4778
888.021	4786
888.146	4675
888.27	4786
888.395	4877
888.519	4771
888.643	4839
888.767	4809
888.891	4687
889.015	4580
889.139	4649
889.263	4649
889.387	4752
889.511	4866
889.635	4793
889.759	4668
889.883	4622
890.006	4721
890.13	4828
890.254	4611
890.377	4672
890.501	4577
890.624	4519
890.748	4641
890.871	4500
890.995	4462
891.118	4432
891.241	4470
891.364	4489
891.488	4615
891.611	4512
891.734	4546
891.857	4577
891.98	4550
892.103	4653
892.226	4615
892.349	4516
892.471	4402
892.594	4516
892.717	4580
892.839	4565
892.962	4637
893.085	4675
893.207	4561
893.33	4489
893.452	4519
893.575	4611
893.697	4535
893.819	4797
893.941	4831
894.064	4816
894.186	4592
894.308	4542
894.43	4729
894.552	4733
894.674	4733
894.796	4535
894.918	4596
895.04	4653
895.161	4714
895.283	4664
895.405	4577
895.526	4656
895.648	4679
895.769	4660
895.891	4714
896.012	4763
896.134	4691
896.255	4656
896.376	4717
896.498	4592
896.619	4634
896.74	4550
896.861	4611
896.982	4938
897.103	5060
897.224	4820
897.345	4763
897.466	4672
897.587	4717
897.708	4866
897.828	4752
897.949	4691
898.07	4538
898.19	4637
898.311	4790
898.431	4717
898.552	4672
898.672	4771
898.792	4831
898.913	4710
899.033	4637
899.153	4508
899.273	4413
899.393	4470
899.513	4508
899.633	4550
899.753	4527
899.873	4470
899.993	4531
900.113	4493
900.232	4611
900.352	4481
900.472	4466
900.591	4428
900.711	4440
900.83	4428
900.95	4615
901.069	4645
901.189	4497
901.308	4375
901.427	4360
901.546	4390
901.665	4409
901.784	4512
901.904	4356
902.023	4314
902.141	4188
902.26	4196
902.379	4287
902.498	4261
902.617	4242
902.735	4390
902.854	4371
902.973	4322
903.091	4215
903.21	4257
903.328	4333
903.446	4280
903.565	4295
903.683	4363
903.801	4272
903.919	4394
904.038	4398
904.156	4325
904.274	4424
904.392	4367
904.51	4424
904.627	4428
904.745	4561
904.863	4637
904.981	4383
905.098	4337
905.216	4314
905.334	4466
905.451	4436
905.569	4443
905.686	4546
905.803	4592
905.921	4363
906.038	4531
906.155	4512
906.272	4409
906.389	4459
906.506	4371
906.623	4383
906.74	4348
906.857	4299
906.974	4360
907.091	4584
907.208	4687
907.324	4588
907.441	4489
907.557	4352
907.674	4314
907.79	4303
907.907	4394
908.023	4485
908.139	4470
908.256	4462
908.372	4459
908.488	4432
908.604	4318
908.72	4329
908.836	4363
908.952	4379
909.068	4421
909.184	4546
909.3	4447
909.415	4615
909.531	4497
909.647	4333
909.762	4314
909.878	4352
909.993	4451
910.108	4443
910.224	4428
910.339	4504
910.454	4356
910.57	4314
910.685	4325
910.8	4569
910.915	4596
911.03	4466
911.145	4284
911.259	4318
911.374	4371
911.489	4299
911.604	4261
911.718	4150
911.833	4227
911.947	4105
912.062	4002
912.176	4219
912.291	4219
912.405	4215
912.519	4470
912.633	4481
912.748	4405
912.862	4348
912.976	4177
913.09	4105
913.204	4169
913.318	4242
913.431	4356
913.545	4360
913.659	4436
913.772	4390
913.886	4234
914	4188
914.113	4402
914.226	4379
914.34	4363
914.453	4234
914.566	4405
914.68	4325
914.793	4303
914.906	4135
915.019	4166
915.132	4055
915.245	4181
915.358	4242
915.47	4230
915.583	4295
915.696	4303
915.809	4375
915.921	4455
916.034	4249
916.146	4303
916.259	4196
916.371	4379
916.483	4367
916.595	4265
916.708	4310
916.82	4356
916.932	4284
917.044	4303
917.156	4386
917.268	4234
917.38	4299
917.491	4280
917.603	4371
917.715	4379
917.826	4390
917.938	4363
918.049	4265
918.161	4352
918.272	4569
918.384	4546
918.495	4462
918.606	4284
918.717	4234
918.828	4333
918.939	4325
919.05	4265
919.161	4341
919.272	4135
919.383	4234
919.494	4405
919.604	4649
919.715	4455
919.826	4352
919.936	4413
920.047	4538
920.157	4470
920.267	4729
920.378	4554
920.488	4485
920.598	4748
920.708	4904
920.818	4771
920.928	4759
921.038	4949
921.148	4965
921.258	4645
921.368	4569
921.477	4519
921.587	4459
921.697	4363
921.806	4489
921.916	4436
922.025	4234
922.134	4268
922.244	4181
922.353	4303
922.462	4207
922.571	4112
922.68	3994
922.789	3975
922.898	3983
923.007	3998
923.116	4074
923.224	4059
923.333	4078
923.442	3991
923.55	3956
923.659	4002
923.767	4063
923.876	3994
923.984	4116
924.092	3972
924.201	4055
924.309	4101
924.417	4154
924.525	4032
924.633	4109
924.741	5006
924.849	3903
924.956	4143
925.064	3979
925.172	3911
925.279	3968
925.387	4067
925.494	4032
925.602	4143
925.709	4166
925.816	4051
925.924	4071
926.031	4215
926.138	4169
926.245	4211
926.352	4120
926.459	4238
926.566	4272
926.673	4162
926.779	4074
926.886	4074
926.993	3964
927.099	3934
927.206	3899
927.312	3922
927.419	4044
927.525	4051
927.631	4093
927.737	3956
927.843	3960
927.95	3831
928.056	3930
928.162	3949
928.267	4051
928.373	4569
928.479	4055
928.585	3892
928.69	4044
928.796	4078
928.901	3941
929.007	3812
929.112	3960
929.218	3998
929.323	3918
929.428	3907
929.533	4074
929.638	3903
929.743	3964
929.848	4040
929.953	3956
930.058	3907
930.163	3705
930.267	3823
930.372	4010
930.477	3816
930.581	4124
930.685	3964
930.79	3800
930.894	3915
930.998	3880
931.103	4040
931.207	3690
931.311	3660
931.415	3625
931.519	3485
931.623	3530
