Data from test_V78500241_1956.txt Node
Date: Fri Mar 25 17:02:36 CST 2022
User: usil
Spectrometer: V785-0024
Trigger mode: 0
Integration Time (sec): 4.000000E-1
Scans to average: 1
Nonlinearity correction enabled: false
Boxcar width: 0
Storing dark spectrum: false
XAxis mode: Wavelengths
Number of Pixels in Spectrum: 1024
>>>>>Begin Spectral Data<<<<<
801.071	7997
801.214	7986
801.356	7856
801.499	7849
801.641	7803
801.783	7799
801.926	7894
802.068	7894
802.211	7970
802.353	8008
802.496	7792
802.638	7841
802.78	7860
802.923	7864
803.065	7814
803.208	7776
803.35	7925
803.492	8138
803.635	8115
803.777	7989
803.919	8115
804.061	8450
804.204	8153
804.346	8024
804.488	7997
804.63	8065
804.773	8001
804.915	8024
805.057	8263
805.199	8115
805.341	8191
805.483	8191
805.626	8115
805.768	8157
805.91	8183
806.052	8233
806.194	8084
806.336	8275
806.478	8096
806.62	8092
806.762	8161
806.904	8305
807.046	8457
807.188	8393
807.33	8286
807.472	8351
807.614	8168
807.756	8134
807.898	8027
808.04	7833
808.182	7909
808.324	7864
808.465	8001
808.607	7989
808.749	8081
808.891	8187
809.033	8298
809.174	8229
809.316	8031
809.458	8069
809.6	8077
809.741	8039
809.883	8024
810.025	8039
810.166	8073
810.308	7997
810.45	8020
810.591	7879
810.733	7723
810.875	7651
811.016	7502
811.158	7468
811.299	7582
811.441	7685
811.582	7700
811.724	7582
811.865	7502
812.007	7544
812.148	7567
812.29	7689
812.431	7765
812.573	7898
812.714	7970
812.855	8027
812.997	8183
813.138	8263
813.279	8138
813.421	8092
813.562	7982
813.703	7826
813.845	7719
813.986	7453
814.127	7190
814.268	7225
814.41	7190
814.551	7122
814.692	7202
814.833	7091
814.974	7107
815.115	7110
815.256	6989
815.397	6894
815.539	6913
815.68	6798
815.821	6745
815.962	6909
816.103	6795
816.244	6692
816.385	6650
816.526	6585
816.666	6494
816.807	6300
816.948	6433
817.089	6414
817.23	6376
817.371	6365
817.512	6372
817.653	6410
817.793	6353
817.934	6403
818.075	6414
818.216	6418
818.356	6384
818.497	6270
818.638	6155
818.778	6155
818.919	6129
819.06	6129
819.2	6334
819.341	6315
819.481	6369
819.622	6566
819.762	6715
819.903	6692
820.043	6563
820.184	6597
820.324	6559
820.465	6669
820.605	6658
820.746	6620
820.886	6490
821.026	6703
821.167	6669
821.307	6749
821.447	6768
821.588	6623
821.728	6589
821.868	6494
822.008	6285
822.149	6395
822.289	6308
822.429	6186
822.569	6140
822.709	6144
822.849	5931
822.99	5912
823.13	5859
823.27	5889
823.41	5824
823.55	5779
823.69	5771
823.83	5779
823.97	5653
824.11	5547
824.25	5497
824.389	5532
824.529	5570
824.669	5516
824.809	5592
824.949	5672
825.089	5623
825.228	5532
825.368	5402
825.508	5357
825.648	5337
825.787	5303
825.927	5364
826.067	5273
826.206	5303
826.346	5391
826.485	5463
826.625	5455
826.765	5535
826.904	5448
827.044	5216
827.183	5231
827.323	5124
827.462	5258
827.601	5147
827.741	5231
827.88	5181
828.02	5094
828.159	5261
828.298	5254
828.437	5337
828.577	5254
828.716	5482
828.855	5307
828.994	5189
829.134	5098
829.273	5185
829.412	5102
829.551	5083
829.69	5170
829.829	5273
829.968	5364
830.107	5299
830.246	5269
830.385	5189
830.524	5121
830.663	5102
830.802	4957
830.941	4850
831.08	4881
831.219	4984
831.357	4923
831.496	5117
831.635	4892
831.774	4854
831.913	4850
832.051	4736
832.19	4710
832.329	4850
832.467	4679
832.606	4611
832.744	4725
832.883	4710
833.022	4717
833.16	4763
833.299	4809
833.437	4809
833.576	4843
833.714	4896
833.852	4881
833.991	4885
834.129	4949
834.267	4949
834.406	4919
834.544	4984
834.682	4953
834.821	4972
834.959	5143
835.097	4976
835.235	5170
835.373	5045
835.511	5090
835.65	5064
835.788	5022
835.926	4820
836.064	4858
836.202	4942
836.34	5166
836.478	5204
836.615	5140
836.753	5185
836.891	5231
837.029	5246
837.167	5151
837.305	5197
837.443	5181
837.58	5090
837.718	5235
837.856	5166
837.993	5140
838.131	5181
838.269	5204
838.406	5212
838.544	5136
838.681	5067
838.819	5010
838.956	4862
839.094	4885
839.231	4965
839.369	5060
839.506	5478
839.643	5277
839.781	5067
839.918	4999
840.055	5067
840.193	5132
840.33	5067
840.467	5124
840.604	5170
840.742	5444
840.879	5041
841.016	5048
841.153	5109
841.29	5341
841.427	5337
841.564	5353
841.701	5299
841.838	5296
841.975	5235
842.112	5254
842.249	5117
842.385	5018
842.522	5315
842.659	5220
842.796	5121
842.933	5201
843.069	5140
843.206	5174
843.343	5357
843.479	5216
843.616	5227
843.752	5010
843.889	4984
844.025	5189
844.162	4999
844.298	5235
844.435	5124
844.571	5048
844.708	5208
844.844	5303
844.98	5292
845.117	5242
845.253	5185
845.389	5113
845.525	5151
845.661	5124
845.798	5064
845.934	5086
846.07	5048
846.206	5174
846.342	5269
846.478	5162
846.614	5003
846.75	4965
846.886	4889
847.022	5128
847.158	4999
847.294	4999
847.429	5124
847.565	5083
847.701	5280
847.837	4854
847.972	4805
848.108	4949
848.244	4911
848.379	4782
848.515	4679
848.65	4664
848.786	4774
848.921	4767
849.057	4889
849.192	4828
849.328	4790
849.463	4835
849.598	4812
849.734	4736
849.869	4698
850.004	4573
850.14	4679
850.275	4645
850.41	4554
850.545	4580
850.68	4584
850.815	4607
850.95	4679
851.085	4820
851.22	4721
851.355	4630
851.49	4615
851.625	4653
851.76	4660
851.895	4630
852.03	4508
852.165	4622
852.299	4717
852.434	4736
852.569	4755
852.703	4828
852.838	4835
852.973	4915
853.107	4900
853.242	4740
853.376	4683
853.511	4519
853.645	4599
853.78	4793
853.914	4679
854.048	4694
854.183	4622
854.317	4740
854.451	4828
854.585	4649
854.72	4672
854.854	4774
854.988	4577
855.122	4611
855.256	4493
855.39	4634
855.524	4809
855.658	4702
855.792	4721
855.926	4725
856.06	4786
856.194	4782
856.327	4691
856.461	4592
856.595	4565
856.729	4634
856.862	4790
856.996	4649
857.13	4672
857.263	4782
857.397	4812
857.53	4691
857.664	4691
857.797	4702
857.931	4752
858.064	4668
858.197	4702
858.331	4611
858.464	4569
858.597	4561
858.731	4622
858.864	4672
858.997	4607
859.13	4649
859.263	4702
859.396	4687
859.529	4577
859.662	4527
859.795	4519
859.928	4641
860.061	4752
860.194	4763
860.327	4622
860.46	4565
860.592	4630
860.725	4687
860.858	4687
860.99	4561
861.123	4485
861.256	4519
861.388	4573
861.521	5250
861.653	4504
861.786	4462
861.918	4462
862.05	4519
862.183	4519
862.315	4577
862.447	4641
862.58	4523
862.712	4455
862.844	4337
862.976	4455
863.108	4409
863.24	4744
863.372	4318
863.504	4417
863.636	4394
863.768	4447
863.9	4436
864.032	4310
864.164	4417
864.296	4440
864.428	4561
864.559	4500
864.691	4535
864.823	4516
864.954	4516
865.086	4519
865.217	4451
865.349	4367
865.48	4421
865.612	4516
865.743	4569
865.875	4447
866.006	4462
866.137	4489
866.269	4455
866.4	4413
866.531	4409
866.662	4352
866.793	4375
866.924	4424
867.055	4424
867.186	4447
867.317	4360
867.448	4371
867.579	4375
867.71	4386
867.841	4402
867.972	4447
868.103	4455
868.233	4432
868.364	4485
868.495	4493
868.625	4656
868.756	4771
868.886	4599
869.017	4599
869.147	4740
869.278	4786
869.408	4702
869.539	4577
869.669	4694
869.799	4687
869.929	4771
870.06	4683
870.19	4987
870.32	4900
870.45	4930
870.58	4991
870.71	5094
870.84	5075
870.97	4923
871.1	4892
871.23	5136
871.36	5079
871.489	4991
871.619	5052
871.749	5052
871.879	5147
872.008	5140
872.138	5060
872.267	4953
872.397	4850
872.526	4820
872.656	4706
872.785	4839
872.915	4972
873.044	5003
873.173	4949
873.303	4965
873.432	5010
873.561	4942
873.69	4892
873.819	4850
873.948	4854
874.077	4786
874.206	4771
874.335	4797
874.464	4923
874.593	5071
874.722	4980
874.851	5132
874.979	5045
875.108	5079
875.237	4919
875.365	4877
875.494	4885
875.623	5029
875.751	4911
875.88	4858
876.008	5010
876.136	4984
876.265	5208
876.393	5357
876.521	5246
876.65	5239
876.778	5147
876.906	5052
877.034	5060
877.162	4991
877.29	5037
877.418	4995
877.546	5037
877.674	5052
877.802	5014
877.93	5014
878.058	4953
878.185	4824
878.313	4961
878.441	4995
878.568	4774
878.696	4820
878.824	4938
878.951	5033
879.079	5117
879.206	5242
879.333	5056
879.461	4965
879.588	4999
879.715	5143
879.842	5201
879.97	4987
880.097	4835
880.224	4736
880.351	4850
880.478	4767
880.605	4850
880.732	4816
880.859	5060
880.986	4877
881.112	4873
881.239	4767
881.366	4626
881.493	4588
881.619	4634
881.746	4618
881.872	4675
881.999	4615
882.125	4675
882.252	4725
882.378	4812
882.505	4930
882.631	4824
882.757	4675
882.883	4717
883.01	4733
883.136	4687
883.262	4622
883.388	4656
883.514	4801
883.64	4835
883.766	4771
883.892	4656
884.018	4717
884.143	4923
884.269	5003
884.395	4626
884.52	4615
884.646	4649
884.772	4630
884.897	4573
885.023	4637
885.148	4744
885.274	4881
885.399	4828
885.524	4714
885.65	4679
885.775	4683
885.9	4664
886.025	4866
886.15	4725
886.275	4729
886.4	4615
886.525	4729
886.65	4649
886.775	4641
886.9	4850
887.025	5048
887.149	4778
887.274	4618
887.399	4580
887.523	4607
887.648	4573
887.773	4626
887.897	4778
888.021	4771
888.146	4672
888.27	4797
888.395	4923
888.519	4812
888.643	4767
888.767	4854
888.891	4626
889.015	4599
889.139	4668
889.263	4584
889.387	4740
889.511	4820
889.635	4793
889.759	4626
889.883	4599
890.006	4698
890.13	4870
890.254	4596
890.377	4694
890.501	4512
890.624	4523
890.748	4596
890.871	4512
890.995	4443
891.118	4390
891.241	4538
891.364	4580
891.488	4630
891.611	4508
891.734	4580
891.857	4626
891.98	4538
892.103	4618
892.226	4577
892.349	4512
892.471	4455
892.594	4519
892.717	4645
892.839	4531
892.962	4588
893.085	4649
893.207	4588
893.33	4485
893.452	4500
893.575	4603
893.697	4584
893.819	4767
893.941	4801
894.064	4729
894.186	4607
894.308	4512
894.43	4725
894.552	4835
894.674	4668
894.796	4523
894.918	4596
895.04	4523
895.161	4733
895.283	4668
895.405	4618
895.526	4660
895.648	4733
895.769	4660
895.891	4698
896.012	4694
896.134	4740
896.255	4649
896.376	4577
896.498	4649
896.619	4675
896.74	4615
896.861	4622
896.982	4873
897.103	5064
897.224	4790
897.345	4729
897.466	4668
897.587	4679
897.708	4873
897.828	4778
897.949	4656
898.07	4569
898.19	4634
898.311	4828
898.431	4683
898.552	4714
898.672	4797
898.792	4809
898.913	4664
899.033	4596
899.153	4485
899.273	4462
899.393	4497
899.513	4497
899.633	4497
899.753	4531
899.873	4512
899.993	4527
900.113	4523
900.232	4554
900.352	4542
900.472	4535
900.591	4394
900.711	4489
900.83	4421
900.95	4622
901.069	4656
901.189	4558
901.308	4379
901.427	4284
901.546	4428
901.665	4508
901.784	4455
901.904	4379
902.023	4333
902.141	4223
902.26	4166
902.379	4280
902.498	4261
902.617	4177
902.735	4322
902.854	4367
902.973	4379
903.091	4185
903.21	4200
903.328	4272
903.446	4246
903.565	4246
903.683	4405
903.801	4295
903.919	4371
904.038	4421
904.156	4303
904.274	4470
904.392	4402
904.51	4428
904.627	4455
904.745	4523
904.863	4634
904.981	4443
905.098	4333
905.216	4390
905.334	4417
905.451	4462
905.569	4424
905.686	4565
905.803	4565
905.921	4424
906.038	4519
906.155	4451
906.272	4402
906.389	4466
906.506	4329
906.623	4409
906.74	4367
906.857	4310
906.974	4447
907.091	4573
907.208	4622
907.324	4588
907.441	4497
907.557	4360
907.674	4363
907.79	4295
907.907	4348
908.023	4481
908.139	4481
908.256	4394
908.372	4447
908.488	4459
908.604	4337
908.72	4314
908.836	4360
908.952	4341
909.068	4489
909.184	4546
909.3	4428
909.415	4592
909.531	4588
909.647	4394
909.762	4409
909.878	4375
909.993	4436
910.108	4424
910.224	4386
910.339	4459
910.454	4344
910.57	4325
910.685	4287
910.8	4630
910.915	4603
911.03	4447
911.145	4291
911.259	4306
911.374	4375
911.489	4246
911.604	4272
911.718	4169
911.833	4196
911.947	4086
912.062	4032
912.176	4188
912.291	4223
912.405	4230
912.519	4470
912.633	4504
912.748	4333
912.862	4295
912.976	4249
913.09	4055
913.204	4143
913.318	4265
913.431	4348
913.545	4371
913.659	4424
913.772	4352
913.886	4291
914	4234
914.113	4344
914.226	4428
914.34	4394
914.453	4261
914.566	4451
914.68	4291
914.793	4329
914.906	4169
915.019	4124
915.132	4032
915.245	4181
915.358	4211
915.47	4234
915.583	4276
915.696	4333
915.809	4402
915.921	4398
916.034	4230
916.146	4238
916.259	4196
916.371	4394
916.483	4363
916.595	4318
916.708	4337
916.82	4280
916.932	4314
917.044	4333
917.156	4348
917.268	4242
917.38	4314
917.491	4287
917.603	4383
917.715	4432
917.826	4409
917.938	4348
918.049	4253
918.161	4409
918.272	4546
918.384	4512
918.495	4417
918.606	4318
918.717	4227
918.828	4314
918.939	4417
919.05	4249
919.161	4314
919.272	4162
919.383	4230
919.494	4432
919.604	4626
919.715	4455
919.826	4348
919.936	4367
920.047	4489
920.157	4523
920.267	4668
920.378	4573
920.488	4470
920.598	4714
920.708	4900
920.818	4759
920.928	4759
921.038	4972
921.148	4892
921.258	4603
921.368	4531
921.477	4500
921.587	4440
921.697	4375
921.806	4565
921.916	4413
922.025	4265
922.134	4230
922.244	4204
922.353	4344
922.462	4166
922.571	4131
922.68	3972
922.789	3979
922.898	3994
923.007	3987
923.116	4116
923.224	4017
923.333	4078
923.442	4006
923.55	4025
923.659	4006
923.767	4135
923.876	4044
923.984	4090
924.092	3975
924.201	4032
924.309	4074
924.417	4109
924.525	4063
924.633	4131
924.741	5041
924.849	3926
924.956	4139
925.064	3941
925.172	3915
925.279	3941
925.387	4059
925.494	4059
925.602	4204
925.709	4128
925.816	4036
925.924	4128
926.031	4227
926.138	4135
926.245	4215
926.352	4105
926.459	4268
926.566	4325
926.673	4162
926.779	4097
926.886	4101
926.993	3983
927.099	3964
927.206	3945
927.312	3926
927.419	4036
927.525	4036
927.631	4048
927.737	3972
927.843	3964
927.95	3808
928.056	3968
928.162	3945
928.267	4063
928.373	4584
928.479	4105
928.585	3888
928.69	4032
928.796	4067
928.901	3964
929.007	3861
929.112	4040
929.218	4010
929.323	3934
929.428	3956
929.533	4109
929.638	3918
929.743	3949
929.848	4036
929.953	4010
930.058	3930
930.163	3762
930.267	3835
930.372	3972
930.477	3800
930.581	4105
930.685	3926
930.79	3800
930.894	3888
930.998	3838
931.103	4017
931.207	3671
931.311	3686
931.415	3656
931.519	3504
931.623	3572
