Data from test_V78500241_2387.txt Node
Date: Fri Mar 25 17:05:35 CST 2022
User: usil
Spectrometer: V785-0024
Trigger mode: 0
Integration Time (sec): 4.000000E-1
Scans to average: 1
Nonlinearity correction enabled: false
Boxcar width: 0
Storing dark spectrum: false
XAxis mode: Wavelengths
Number of Pixels in Spectrum: 1024
>>>>>Begin Spectral Data<<<<<
801.071	7940
801.214	7978
801.356	7830
801.499	7856
801.641	7719
801.783	7856
801.926	7932
802.068	7898
802.211	7963
802.353	7986
802.496	7826
802.638	7868
802.78	7925
802.923	7890
803.065	7883
803.208	7822
803.35	8024
803.492	8073
803.635	8195
803.777	8039
803.919	8100
804.061	8476
804.204	8161
804.346	8012
804.488	8001
804.63	8130
804.773	8020
804.915	8119
805.057	8271
805.199	8187
805.341	8172
805.483	8233
805.626	8286
805.768	8157
805.91	8256
806.052	8199
806.194	8126
806.336	8244
806.478	8111
806.62	7997
806.762	8084
806.904	8214
807.046	8469
807.188	8381
807.33	8229
807.472	8320
807.614	8210
807.756	8130
807.898	8065
808.04	7898
808.182	7871
808.324	7860
808.465	7879
808.607	8065
808.749	8020
808.891	8187
809.033	8275
809.174	8240
809.316	8058
809.458	8081
809.6	8027
809.741	8005
809.883	8008
810.025	8111
810.166	8058
810.308	7997
810.45	8058
810.591	7799
810.733	7738
810.875	7708
811.016	7506
811.158	7464
811.299	7590
811.441	7750
811.582	7620
811.724	7578
811.865	7480
812.007	7552
812.148	7590
812.29	7643
812.431	7715
812.573	7864
812.714	7963
812.855	8050
812.997	8233
813.138	8271
813.279	8134
813.421	8050
813.562	7970
813.703	7792
813.845	7723
813.986	7483
814.127	7263
814.268	7225
814.41	7221
814.551	7156
814.692	7228
814.833	7099
814.974	7084
815.115	7065
815.256	6996
815.397	6905
815.539	6897
815.68	6829
815.821	6749
815.962	6825
816.103	6757
816.244	6757
816.385	6642
816.526	6642
816.666	6544
816.807	6304
816.948	6452
817.089	6448
817.23	6437
817.371	6346
817.512	6452
817.653	6376
817.793	6338
817.934	6407
818.075	6452
818.216	6369
818.356	6441
818.497	6254
818.638	6155
818.778	6186
818.919	6152
819.06	6144
819.2	6323
819.341	6346
819.481	6410
819.622	6540
819.762	6719
819.903	6749
820.043	6623
820.184	6563
820.324	6589
820.465	6703
820.605	6673
820.746	6696
820.886	6551
821.026	6646
821.167	6707
821.307	6753
821.447	6795
821.588	6719
821.728	6612
821.868	6551
822.008	6342
822.149	6433
822.289	6311
822.429	6167
822.569	6091
822.709	6087
822.849	5946
822.99	5927
823.13	5920
823.27	5889
823.41	5790
823.55	5786
823.69	5817
823.83	5733
823.97	5630
824.11	5520
824.25	5535
824.389	5497
824.529	5543
824.669	5589
824.809	5562
824.949	5630
825.089	5585
825.228	5566
825.368	5425
825.508	5353
825.648	5337
825.787	5337
825.927	5357
826.067	5292
826.206	5284
826.346	5376
826.485	5349
826.625	5357
826.765	5581
826.904	5452
827.044	5261
827.183	5185
827.323	5147
827.462	5235
827.601	5170
827.741	5189
827.88	5178
828.02	5128
828.159	5273
828.298	5337
828.437	5383
828.577	5307
828.716	5497
828.855	5364
828.994	5162
829.134	5121
829.273	5178
829.412	5136
829.551	5178
829.69	5136
829.829	5250
829.968	5372
830.107	5299
830.246	5277
830.385	5201
830.524	5159
830.663	5022
830.802	4919
830.941	4900
831.08	4873
831.219	4946
831.357	4942
831.496	5155
831.635	4915
831.774	4805
831.913	4839
832.051	4774
832.19	4736
832.329	4847
832.467	4675
832.606	4615
832.744	4717
832.883	4736
833.022	4744
833.16	4839
833.299	4805
833.437	4809
833.576	4828
833.714	4831
833.852	4889
833.991	4873
834.129	4911
834.267	4976
834.406	4889
834.544	4930
834.682	4980
834.821	4980
834.959	5155
835.097	5003
835.235	5140
835.373	5067
835.511	5079
835.65	4995
835.788	4968
835.926	4870
836.064	4835
836.202	4908
836.34	5174
836.478	5231
836.615	5128
836.753	5174
836.891	5307
837.029	5254
837.167	5227
837.305	5094
837.443	5124
837.58	5079
837.718	5303
837.856	5189
837.993	5128
838.131	5235
838.269	5269
838.406	5235
838.544	5178
838.681	5010
838.819	5056
838.956	4854
839.094	4896
839.231	4995
839.369	5045
839.506	5452
839.643	5231
839.781	5067
839.918	5006
840.055	5083
840.193	5064
840.33	5105
840.467	5121
840.604	5189
840.742	5455
840.879	5079
841.016	5109
841.153	5121
841.29	5391
841.427	5303
841.564	5265
841.701	5337
841.838	5254
841.975	5242
842.112	5269
842.249	5151
842.385	5109
842.522	5280
842.659	5166
842.796	5124
842.933	5151
843.069	5143
843.206	5159
843.343	5307
843.479	5284
843.616	5261
843.752	5056
843.889	5025
844.025	5201
844.162	5018
844.298	5235
844.435	5079
844.571	5079
844.708	5132
844.844	5318
844.98	5330
845.117	5258
845.253	5136
845.389	5029
845.525	5193
845.661	5147
845.798	5083
845.934	5140
846.07	5045
846.206	5204
846.342	5246
846.478	5193
846.614	4968
846.75	4980
846.886	4957
847.022	5105
847.158	5079
847.294	5041
847.429	5102
847.565	5086
847.701	5337
847.837	4858
847.972	4831
848.108	4999
848.244	4942
848.379	4778
848.515	4679
848.65	4691
848.786	4717
848.921	4801
849.057	4820
849.192	4919
849.328	4790
849.463	4854
849.598	4812
849.734	4774
849.869	4717
850.004	4664
850.14	4637
850.275	4637
850.41	4550
850.545	4542
850.68	4634
850.815	4588
850.95	4626
851.085	4828
851.22	4748
851.355	4615
851.49	4584
851.625	4561
851.76	4649
851.895	4531
852.03	4584
852.165	4649
852.299	4721
852.434	4767
852.569	4752
852.703	4763
852.838	4812
852.973	4866
853.107	4866
853.242	4748
853.376	4645
853.511	4531
853.645	4611
853.78	4843
853.914	4637
854.048	4691
854.183	4653
854.317	4740
854.451	4881
854.585	4736
854.72	4626
854.854	4733
854.988	4554
855.122	4622
855.256	4504
855.39	4668
855.524	4782
855.658	4714
855.792	4679
855.926	4660
856.06	4740
856.194	4771
856.327	4687
856.461	4596
856.595	4611
856.729	4607
856.862	4729
856.996	4736
857.13	4725
857.263	4767
857.397	4797
857.53	4626
857.664	4668
857.797	4759
857.931	4752
858.064	4755
858.197	4683
858.331	4656
858.464	4607
858.597	4531
858.731	4656
858.864	4626
858.997	4569
859.13	4622
859.263	4660
859.396	4733
859.529	4542
859.662	4584
859.795	4558
859.928	4611
860.061	4763
860.194	4763
860.327	4615
860.46	4569
860.592	4706
860.725	4721
860.858	4672
860.99	4558
861.123	4561
861.256	4538
861.388	4634
861.521	5330
861.653	4508
861.786	4428
861.918	4462
862.05	4474
862.183	4531
862.315	4622
862.447	4626
862.58	4599
862.712	4379
862.844	4360
862.976	4459
863.108	4470
863.24	4759
863.372	4322
863.504	4455
863.636	4390
863.768	4440
863.9	4455
864.032	4325
864.164	4417
864.296	4428
864.428	4558
864.559	4599
864.691	4558
864.823	4455
864.954	4504
865.086	4508
865.217	4470
865.349	4402
865.48	4516
865.612	4451
865.743	4637
865.875	4489
866.006	4478
866.137	4424
866.269	4470
866.4	4459
866.531	4409
866.662	4413
866.793	4413
866.924	4398
867.055	4485
867.186	4424
867.317	4417
867.448	4367
867.579	4344
867.71	4402
867.841	4352
867.972	4485
868.103	4489
868.233	4428
868.364	4447
868.495	4470
868.625	4641
868.756	4763
868.886	4622
869.017	4599
869.147	4771
869.278	4755
869.408	4675
869.539	4649
869.669	4710
869.799	4679
869.929	4721
870.06	4759
870.19	4946
870.32	4904
870.45	4934
870.58	4976
870.71	5090
870.84	5086
870.97	4946
871.1	4908
871.23	5197
871.36	5143
871.489	5071
871.619	5056
871.749	5079
871.879	5117
872.008	5170
872.138	5048
872.267	4995
872.397	4835
872.526	4858
872.656	4710
872.785	4828
872.915	4892
873.044	5045
873.173	4949
873.303	4965
873.432	4953
873.561	4896
873.69	4881
873.819	4900
873.948	4930
874.077	4831
874.206	4767
874.335	4774
874.464	4927
874.593	5071
874.722	4953
874.851	5075
874.979	5056
875.108	5045
875.237	4923
875.365	4866
875.494	4896
875.623	4980
875.751	4805
875.88	4904
876.008	4946
876.136	4999
876.265	5193
876.393	5387
876.521	5216
876.65	5216
876.778	5151
876.906	5098
877.034	5041
877.162	5060
877.29	4984
877.418	5094
877.546	4991
877.674	4972
877.802	5045
877.93	5010
878.058	4987
878.185	4843
878.313	4984
878.441	4953
878.568	4801
878.696	4831
878.824	4946
878.951	4972
879.079	5105
879.206	5307
879.333	5140
879.461	4968
879.588	5048
879.715	5166
879.842	5258
879.97	5010
880.097	4744
880.224	4759
880.351	4774
880.478	4847
880.605	4793
880.732	4782
880.859	5067
880.986	4866
881.112	4927
881.239	4721
881.366	4702
881.493	4577
881.619	4523
881.746	4622
881.872	4645
881.999	4672
882.125	4683
882.252	4752
882.378	4835
882.505	4942
882.631	4771
882.757	4656
882.883	4782
883.01	4714
883.136	4664
883.262	4637
883.388	4645
883.514	4786
883.64	4850
883.766	4843
883.892	4653
884.018	4759
884.143	4835
884.269	4984
884.395	4649
884.52	4641
884.646	4637
884.772	4538
884.897	4565
885.023	4672
885.148	4759
885.274	4850
885.399	4854
885.524	4752
885.65	4729
885.775	4714
885.9	4710
886.025	4835
886.15	4786
886.275	4706
886.4	4679
886.525	4683
886.65	4687
886.775	4694
886.9	4915
887.025	5018
887.149	4831
887.274	4637
887.399	4588
887.523	4584
887.648	4615
887.773	4596
887.897	4759
888.021	4793
888.146	4637
888.27	4786
888.395	4866
888.519	4767
888.643	4850
888.767	4809
888.891	4675
889.015	4580
889.139	4634
889.263	4554
889.387	4767
889.511	4850
889.635	4774
889.759	4660
889.883	4653
890.006	4706
890.13	4755
890.254	4626
890.377	4668
890.501	4569
890.624	4516
890.748	4607
890.871	4478
890.995	4417
891.118	4386
891.241	4500
891.364	4546
891.488	4527
891.611	4466
891.734	4538
891.857	4577
891.98	4481
892.103	4637
892.226	4558
892.349	4538
892.471	4440
892.594	4577
892.717	4584
892.839	4599
892.962	4607
893.085	4615
893.207	4622
893.33	4443
893.452	4516
893.575	4630
893.697	4554
893.819	4767
893.941	4824
894.064	4782
894.186	4519
894.308	4592
894.43	4725
894.552	4752
894.674	4771
894.796	4546
894.918	4592
895.04	4535
895.161	4694
895.283	4645
895.405	4565
895.526	4668
895.648	4649
895.769	4694
895.891	4771
896.012	4740
896.134	4683
896.255	4641
896.376	4569
896.498	4573
896.619	4668
896.74	4615
896.861	4649
896.982	4934
897.103	5102
897.224	4843
897.345	4733
897.466	4634
897.587	4740
897.708	4873
897.828	4797
897.949	4630
898.07	4561
898.19	4653
898.311	4828
898.431	4615
898.552	4698
898.672	4805
898.792	4767
898.913	4736
899.033	4615
899.153	4470
899.273	4428
899.393	4485
899.513	4538
899.633	4504
899.753	4527
899.873	4470
899.993	4554
900.113	4531
900.232	4584
900.352	4500
900.472	4485
900.591	4383
900.711	4497
900.83	4428
900.95	4603
901.069	4675
901.189	4527
901.308	4413
901.427	4310
901.546	4398
901.665	4470
901.784	4523
901.904	4348
902.023	4318
902.141	4185
902.26	4147
902.379	4276
902.498	4242
902.617	4219
902.735	4394
902.854	4409
902.973	4325
903.091	4223
903.21	4200
903.328	4306
903.446	4230
903.565	4200
903.683	4348
903.801	4261
903.919	4398
904.038	4421
904.156	4333
904.274	4436
904.392	4394
904.51	4436
904.627	4443
904.745	4577
904.863	4645
904.981	4390
905.098	4333
905.216	4325
905.334	4451
905.451	4455
905.569	4455
905.686	4531
905.803	4615
905.921	4443
906.038	4546
906.155	4481
906.272	4459
906.389	4485
906.506	4329
906.623	4455
906.74	4428
906.857	4352
906.974	4363
907.091	4554
907.208	4679
907.324	4580
907.441	4561
907.557	4409
907.674	4383
907.79	4367
907.907	4413
908.023	4554
908.139	4535
908.256	4485
908.372	4500
908.488	4470
908.604	4379
908.72	4424
908.836	4398
908.952	4394
909.068	4508
909.184	4584
909.3	4554
909.415	4607
909.531	4588
909.647	4383
909.762	4428
909.878	4413
909.993	4512
910.108	4447
910.224	4474
910.339	4481
910.454	4470
910.57	4424
910.685	4348
910.8	4710
910.915	4618
911.03	4561
911.145	4367
911.259	4337
911.374	4402
911.489	4344
911.604	4356
911.718	4169
911.833	4257
911.947	4162
912.062	4078
912.176	4227
912.291	4268
912.405	4276
912.519	4523
912.633	4558
912.748	4436
912.862	4318
912.976	4215
913.09	4109
913.204	4211
913.318	4276
913.431	4432
913.545	4432
913.659	4481
913.772	4421
913.886	4291
914	4287
914.113	4375
914.226	4485
914.34	4459
914.453	4268
914.566	4478
914.68	4341
914.793	4341
914.906	4211
915.019	4150
915.132	4090
915.245	4257
915.358	4261
915.47	4284
915.583	4276
915.696	4352
915.809	4451
915.921	4417
916.034	4322
916.146	4272
916.259	4280
916.371	4363
916.483	4428
916.595	4310
916.708	4360
916.82	4318
916.932	4386
917.044	4375
917.156	4356
917.268	4295
917.38	4287
917.491	4329
917.603	4352
917.715	4481
917.826	4478
917.938	4390
918.049	4246
918.161	4474
918.272	4550
918.384	4596
918.495	4497
918.606	4284
918.717	4284
918.828	4398
918.939	4375
919.05	4276
919.161	4337
919.272	4150
919.383	4242
919.494	4466
919.604	4664
919.715	4466
919.826	4394
919.936	4466
920.047	4580
920.157	4485
920.267	4733
920.378	4558
920.488	4516
920.598	4755
920.708	4873
920.818	4771
920.928	4786
921.038	4930
921.148	4953
921.258	4672
921.368	4599
921.477	4523
921.587	4527
921.697	4383
921.806	4603
921.916	4432
922.025	4306
922.134	4306
922.244	4303
922.353	4367
922.462	4227
922.571	4173
922.68	4071
922.789	3998
922.898	4063
923.007	3994
923.116	4147
923.224	4158
923.333	4139
923.442	4021
923.55	4025
923.659	4029
923.767	4112
923.876	4025
923.984	4166
924.092	4032
924.201	4112
924.309	4124
924.417	4166
924.525	4086
924.633	4135
924.741	5086
924.849	3926
924.956	4211
925.064	4013
925.172	3964
925.279	3987
925.387	4105
925.494	4082
925.602	4234
925.709	4200
925.816	4131
925.924	4143
926.031	4287
926.138	4257
926.245	4177
926.352	4124
926.459	4268
926.566	4333
926.673	4120
926.779	4139
926.886	4112
926.993	4048
927.099	3998
927.206	3964
927.312	3960
927.419	4093
927.525	4063
927.631	4109
927.737	4002
927.843	3968
927.95	3884
928.056	3964
928.162	3994
928.267	4082
928.373	4714
928.479	4181
928.585	3892
928.69	4010
928.796	4086
928.901	4010
929.007	3899
929.112	4044
929.218	3991
929.323	3960
929.428	3960
929.533	4143
929.638	3994
929.743	4025
929.848	4086
929.953	4071
930.058	3968
930.163	3827
930.267	3861
930.372	3964
930.477	3854
930.581	4128
930.685	3934
930.79	3850
930.894	3911
930.998	3907
931.103	4074
931.207	3743
931.311	3701
931.415	3740
931.519	3572
931.623	3568
