Data from test_V78500241_630.txt Node
Date: Fri Mar 25 16:53:22 CST 2022
User: usil
Spectrometer: V785-0024
Trigger mode: 0
Integration Time (sec): 4.000000E-1
Scans to average: 1
Nonlinearity correction enabled: false
Boxcar width: 0
Storing dark spectrum: false
XAxis mode: Wavelengths
Number of Pixels in Spectrum: 1024
>>>>>Begin Spectral Data<<<<<
801.071	8043
801.214	7967
801.356	7852
801.499	7822
801.641	7814
801.783	7818
801.926	8039
802.068	7967
802.211	7974
802.353	7997
802.496	7921
802.638	7955
802.78	7936
802.923	7849
803.065	7909
803.208	7921
803.35	8001
803.492	8123
803.635	8187
803.777	8077
803.919	8103
804.061	8385
804.204	8126
804.346	8130
804.488	7947
804.63	8103
804.773	7955
804.915	8111
805.057	8267
805.199	8206
805.341	8237
805.483	8324
805.626	8256
805.768	8123
805.91	8229
806.052	8248
806.194	8046
806.336	8248
806.478	8168
806.62	8062
806.762	8161
806.904	8305
807.046	8457
807.188	8400
807.33	8282
807.472	8294
807.614	8191
807.756	8191
807.898	8016
808.04	7833
808.182	7871
808.324	7909
808.465	7906
808.607	7963
808.749	8157
808.891	8286
809.033	8259
809.174	8195
809.316	8077
809.458	8054
809.6	8020
809.741	8012
809.883	8043
810.025	8016
810.166	8031
810.308	8058
810.45	8035
810.591	7868
810.733	7677
810.875	7696
811.016	7552
811.158	7453
811.299	7616
811.441	7662
811.582	7696
811.724	7563
811.865	7521
812.007	7578
812.148	7590
812.29	7636
812.431	7712
812.573	7883
812.714	8005
812.855	8126
812.997	8195
813.138	8328
813.279	8214
813.421	8134
813.562	8054
813.703	7928
813.845	7811
813.986	7518
814.127	7396
814.268	7282
814.41	7251
814.551	7149
814.692	7228
814.833	6973
814.974	7110
815.115	7095
815.256	6996
815.397	6905
815.539	6947
815.68	6852
815.821	6768
815.962	6859
816.103	6821
816.244	6730
816.385	6604
816.526	6601
816.666	6494
816.807	6281
816.948	6445
817.089	6498
817.23	6452
817.371	6380
817.512	6399
817.653	6380
817.793	6384
817.934	6395
818.075	6536
818.216	6399
818.356	6399
818.497	6266
818.638	6079
818.778	6152
818.919	6114
819.06	6159
819.2	6338
819.341	6243
819.481	6365
819.622	6502
819.762	6791
819.903	6646
820.043	6616
820.184	6547
820.324	6608
820.465	6654
820.605	6646
820.746	6566
820.886	6414
821.026	6639
821.167	6688
821.307	6802
821.447	6757
821.588	6627
821.728	6578
821.868	6521
822.008	6281
822.149	6376
822.289	6429
822.429	6186
822.569	6057
822.709	6106
822.849	5931
822.99	5908
823.13	5901
823.27	5908
823.41	5809
823.55	5714
823.69	5737
823.83	5832
823.97	5695
824.11	5501
824.25	5520
824.389	5486
824.529	5532
824.669	5501
824.809	5604
824.949	5668
825.089	5596
825.228	5516
825.368	5387
825.508	5345
825.648	5303
825.787	5357
825.927	5406
826.067	5318
826.206	5239
826.346	5360
826.485	5345
826.625	5436
826.765	5558
826.904	5448
827.044	5261
827.183	5273
827.323	5159
827.462	5265
827.601	5136
827.741	5170
827.88	5208
828.02	5105
828.159	5227
828.298	5280
828.437	5383
828.577	5318
828.716	5467
828.855	5254
828.994	5159
829.134	5208
829.273	5193
829.412	5181
829.551	5159
829.69	5124
829.829	5254
829.968	5334
830.107	5269
830.246	5288
830.385	5197
830.524	5147
830.663	5071
830.802	5006
830.941	4866
831.08	4854
831.219	4968
831.357	4980
831.496	5178
831.635	4919
831.774	4866
831.913	4816
832.051	4729
832.19	4763
832.329	4828
832.467	4721
832.606	4656
832.744	4717
832.883	4725
833.022	4725
833.16	4744
833.299	4763
833.437	4786
833.576	4828
833.714	4835
833.852	4889
833.991	4873
834.129	4957
834.267	4968
834.406	4896
834.544	4946
834.682	5014
834.821	4942
834.959	5147
835.097	4949
835.235	5105
835.373	5064
835.511	5113
835.65	5037
835.788	5052
835.926	4938
836.064	4866
836.202	4923
836.34	5102
836.478	5280
836.615	5140
836.753	5197
836.891	5326
837.029	5284
837.167	5189
837.305	5105
837.443	5143
837.58	5056
837.718	5254
837.856	5185
837.993	5090
838.131	5220
838.269	5216
838.406	5181
838.544	5181
838.681	5033
838.819	5037
838.956	4847
839.094	4923
839.231	4972
839.369	5048
839.506	5425
839.643	5280
839.781	5117
839.918	5018
840.055	5098
840.193	5098
840.33	5052
840.467	5124
840.604	5170
840.742	5425
840.879	5052
841.016	5086
841.153	5117
841.29	5421
841.427	5341
841.564	5296
841.701	5391
841.838	5269
841.975	5227
842.112	5299
842.249	5132
842.385	5090
842.522	5284
842.659	5147
842.796	5151
842.933	5197
843.069	5128
843.206	5181
843.343	5296
843.479	5277
843.616	5288
843.752	5052
843.889	5033
844.025	5231
844.162	5018
844.298	5166
844.435	5086
844.571	5067
844.708	5204
844.844	5231
844.98	5353
845.117	5303
845.253	5136
845.389	5064
845.525	5140
845.661	5147
845.798	5041
845.934	5181
846.07	5037
846.206	5189
846.342	5284
846.478	5193
846.614	5022
846.75	4942
846.886	4957
847.022	5147
847.158	5029
847.294	5037
847.429	5064
847.565	5064
847.701	5269
847.837	4881
847.972	4828
848.108	4927
848.244	4911
848.379	4767
848.515	4717
848.65	4710
848.786	4694
848.921	4774
849.057	4809
849.192	4873
849.328	4858
849.463	4847
849.598	4812
849.734	4733
849.869	4687
850.004	4653
850.14	4622
850.275	4596
850.41	4538
850.545	4580
850.68	4630
850.815	4637
850.95	4626
851.085	4858
851.22	4721
851.355	4675
851.49	4672
851.625	4710
851.76	4641
851.895	4531
852.03	4527
852.165	4641
852.299	4706
852.434	4752
852.569	4748
852.703	4767
852.838	4858
852.973	4900
853.107	4934
853.242	4721
853.376	4641
853.511	4546
853.645	4645
853.78	4786
853.914	4706
854.048	4672
854.183	4660
854.317	4691
854.451	4835
854.585	4634
854.72	4630
854.854	4740
854.988	4546
855.122	4618
855.256	4500
855.39	4675
855.524	4786
855.658	4725
855.792	4660
855.926	4725
856.06	4755
856.194	4740
856.327	4630
856.461	4584
856.595	4630
856.729	4573
856.862	4809
856.996	4675
857.13	4694
857.263	4748
857.397	4752
857.53	4622
857.664	4729
857.797	4755
857.931	4736
858.064	4714
858.197	4679
858.331	4664
858.464	4611
858.597	4485
858.731	4607
858.864	4626
858.997	4599
859.13	4675
859.263	4687
859.396	4664
859.529	4630
859.662	4558
859.795	4531
859.928	4679
860.061	4740
860.194	4767
860.327	4611
860.46	4569
860.592	4714
860.725	4729
860.858	4767
860.99	4569
861.123	4493
861.256	4508
861.388	4618
861.521	5322
861.653	4497
861.786	4455
861.918	4447
862.05	4500
862.183	4584
862.315	4634
862.447	4664
862.58	4573
862.712	4413
862.844	4310
862.976	4424
863.108	4455
863.24	4847
863.372	4291
863.504	4432
863.636	4424
863.768	4489
863.9	4398
864.032	4337
864.164	4383
864.296	4440
864.428	4565
864.559	4573
864.691	4603
864.823	4531
864.954	4523
865.086	4504
865.217	4466
865.349	4390
865.48	4451
865.612	4516
865.743	4611
865.875	4497
866.006	4485
866.137	4447
866.269	4462
866.4	4459
866.531	4440
866.662	4375
866.793	4394
866.924	4428
867.055	4485
867.186	4386
867.317	4379
867.448	4379
867.579	4421
867.71	4390
867.841	4413
867.972	4481
868.103	4451
868.233	4497
868.364	4424
868.495	4508
868.625	4668
868.756	4782
868.886	4531
869.017	4622
869.147	4736
869.278	4748
869.408	4691
869.539	4672
869.669	4748
869.799	4588
869.929	4797
870.06	4721
870.19	4976
870.32	4892
870.45	4908
870.58	5029
870.71	5094
870.84	5113
870.97	4900
871.1	4961
871.23	5128
871.36	5128
871.489	5048
871.619	5075
871.749	5124
871.879	5124
872.008	5166
872.138	5056
872.267	5014
872.397	4854
872.526	4820
872.656	4725
872.785	4797
872.915	4953
873.044	5006
873.173	5018
873.303	4957
873.432	4961
873.561	4927
873.69	4866
873.819	4881
873.948	4923
874.077	4835
874.206	4805
874.335	4809
874.464	4885
874.593	5113
874.722	4946
874.851	5071
874.979	5045
875.108	5037
875.237	4870
875.365	4873
875.494	4900
875.623	4930
875.751	4831
875.88	4839
876.008	4976
876.136	5010
876.265	5204
876.393	5273
876.521	5201
876.65	5208
876.778	5128
876.906	5136
877.034	5041
877.162	5067
877.29	4987
877.418	5022
877.546	5060
877.674	5045
877.802	5056
877.93	5018
878.058	4904
878.185	4858
878.313	4949
878.441	4965
878.568	4755
878.696	4866
878.824	4965
878.951	4995
879.079	5102
879.206	5345
879.333	5136
879.461	5014
879.588	4980
879.715	5124
879.842	5197
879.97	5052
880.097	4793
880.224	4771
880.351	4771
880.478	4805
880.605	4809
880.732	4801
880.859	5060
880.986	4896
881.112	4904
881.239	4805
881.366	4611
881.493	4603
881.619	4577
881.746	4683
881.872	4641
881.999	4634
882.125	4679
882.252	4740
882.378	4824
882.505	4957
882.631	4771
882.757	4729
882.883	4710
883.01	4706
883.136	4687
883.262	4577
883.388	4596
883.514	4828
883.64	4858
883.766	4793
883.892	4618
884.018	4740
884.143	4873
884.269	5014
884.395	4660
884.52	4645
884.646	4656
884.772	4599
884.897	4542
885.023	4641
885.148	4752
885.274	4892
885.399	4866
885.524	4687
885.65	4691
885.775	4778
885.9	4694
886.025	4839
886.15	4812
886.275	4748
886.4	4702
886.525	4725
886.65	4721
886.775	4630
886.9	4870
887.025	5018
887.149	4824
887.274	4634
887.399	4542
887.523	4615
887.648	4596
887.773	4603
887.897	4748
888.021	4790
888.146	4687
888.27	4858
888.395	4942
888.519	4824
888.643	4812
888.767	4790
888.891	4698
889.015	4626
889.139	4656
889.263	4622
889.387	4744
889.511	4908
889.635	4809
889.759	4626
889.883	4668
890.006	4733
890.13	4854
890.254	4626
890.377	4664
890.501	4569
890.624	4550
890.748	4611
890.871	4493
890.995	4455
891.118	4337
891.241	4519
891.364	4580
891.488	4641
891.611	4436
891.734	4519
891.857	4603
891.98	4584
892.103	4641
892.226	4580
892.349	4519
892.471	4421
892.594	4588
892.717	4573
892.839	4580
892.962	4615
893.085	4675
893.207	4641
893.33	4451
893.452	4455
893.575	4656
893.697	4611
893.819	4809
893.941	4793
894.064	4801
894.186	4577
894.308	4561
894.43	4774
894.552	4790
894.674	4736
894.796	4538
894.918	4615
895.04	4569
895.161	4691
895.283	4664
895.405	4569
895.526	4641
895.648	4668
895.769	4698
895.891	4710
896.012	4717
896.134	4733
896.255	4668
896.376	4603
896.498	4630
896.619	4660
896.74	4554
896.861	4675
896.982	4881
897.103	5117
897.224	4771
897.345	4733
897.466	4698
897.587	4717
897.708	4843
897.828	4755
897.949	4672
898.07	4523
898.19	4637
898.311	4839
898.431	4710
898.552	4740
898.672	4816
898.792	4839
898.913	4763
899.033	4634
899.153	4459
899.273	4371
899.393	4538
899.513	4523
899.633	4546
899.753	4523
899.873	4481
899.993	4546
900.113	4497
900.232	4622
900.352	4561
900.472	4493
900.591	4394
900.711	4500
900.83	4459
900.95	4588
901.069	4729
901.189	4584
901.308	4417
901.427	4325
901.546	4402
901.665	4550
901.784	4538
901.904	4386
902.023	4310
902.141	4211
902.26	4135
902.379	4318
902.498	4257
902.617	4192
902.735	4409
902.854	4394
902.973	4375
903.091	4192
903.21	4227
903.328	4280
903.446	4249
903.565	4234
903.683	4341
903.801	4314
903.919	4379
904.038	4447
904.156	4299
904.274	4421
904.392	4428
904.51	4421
904.627	4413
904.745	4607
904.863	4630
904.981	4379
905.098	4306
905.216	4333
905.334	4440
905.451	4394
905.569	4390
905.686	4565
905.803	4580
905.921	4394
906.038	4519
906.155	4493
906.272	4432
906.389	4440
906.506	4325
906.623	4360
906.74	4402
906.857	4318
906.974	4348
907.091	4508
907.208	4660
907.324	4592
907.441	4462
907.557	4386
907.674	4379
907.79	4284
907.907	4375
908.023	4459
908.139	4443
908.256	4470
908.372	4447
908.488	4375
908.604	4306
908.72	4348
908.836	4405
908.952	4333
909.068	4455
909.184	4577
909.3	4485
909.415	4588
909.531	4504
909.647	4337
909.762	4409
909.878	4314
909.993	4440
910.108	4451
910.224	4413
910.339	4489
910.454	4417
910.57	4371
910.685	4314
910.8	4664
910.915	4603
911.03	4466
911.145	4310
911.259	4329
911.374	4383
911.489	4318
911.604	4265
911.718	4173
911.833	4249
911.947	4101
912.062	4032
912.176	4166
912.291	4223
912.405	4238
912.519	4417
912.633	4500
912.748	4360
912.862	4325
912.976	4188
913.09	4063
913.204	4181
913.318	4238
913.431	4348
913.545	4405
913.659	4451
913.772	4379
913.886	4230
914	4249
914.113	4322
914.226	4409
914.34	4375
914.453	4223
914.566	4459
914.68	4287
914.793	4356
914.906	4116
915.019	4139
915.132	4071
915.245	4223
915.358	4215
915.47	4268
915.583	4246
915.696	4303
915.809	4478
915.921	4428
916.034	4238
916.146	4276
916.259	4268
916.371	4325
916.483	4375
916.595	4268
916.708	4261
916.82	4325
916.932	4337
917.044	4341
917.156	4360
917.268	4200
917.38	4284
917.491	4295
917.603	4352
917.715	4413
917.826	4421
917.938	4356
918.049	4207
918.161	4424
918.272	4512
918.384	4538
918.495	4413
918.606	4310
918.717	4257
918.828	4341
918.939	4306
919.05	4246
919.161	4303
919.272	4135
919.383	4257
919.494	4470
919.604	4668
919.715	4432
919.826	4360
919.936	4428
920.047	4523
920.157	4523
920.267	4679
920.378	4561
920.488	4497
920.598	4694
920.708	4908
920.818	4721
920.928	4740
921.038	4930
921.148	4892
921.258	4599
921.368	4561
921.477	4512
921.587	4493
921.697	4363
921.806	4538
921.916	4443
922.025	4246
922.134	4268
922.244	4268
922.353	4325
922.462	4207
922.571	4150
922.68	4002
922.789	3983
922.898	4040
923.007	4025
923.116	4147
923.224	4071
923.333	4120
923.442	4002
923.55	3983
923.659	4010
923.767	4063
923.876	3994
923.984	4101
924.092	3983
924.201	4029
924.309	4074
924.417	4124
924.525	4086
924.633	4135
924.741	5006
924.849	3896
924.956	4135
925.064	3930
925.172	3888
925.279	3937
925.387	4067
925.494	4067
925.602	4166
925.709	4200
925.816	4082
925.924	4109
926.031	4211
926.138	4185
926.245	4215
926.352	4109
926.459	4223
926.566	4234
926.673	4143
926.779	4044
926.886	4139
926.993	3983
927.099	3941
927.206	3937
927.312	3937
927.419	4025
927.525	4010
927.631	4120
927.737	3979
927.843	3937
927.95	3800
928.056	3956
928.162	3987
928.267	4021
928.373	4717
928.479	4166
928.585	3903
928.69	4021
928.796	4010
928.901	3964
929.007	3861
929.112	3937
929.218	3983
929.323	3937
929.428	3956
929.533	4131
929.638	3911
929.743	4002
929.848	4040
929.953	3975
930.058	3911
930.163	3762
930.267	3812
930.372	3975
930.477	3869
930.581	4078
930.685	3949
930.79	3842
930.894	3861
930.998	3857
931.103	4048
931.207	3675
931.311	3724
931.415	3686
931.519	3553
931.623	3538
