Data from test_V78500241_1296.txt Node
Date: Fri Mar 25 16:58:00 CST 2022
User: usil
Spectrometer: V785-0024
Trigger mode: 0
Integration Time (sec): 4.000000E-1
Scans to average: 1
Nonlinearity correction enabled: false
Boxcar width: 0
Storing dark spectrum: false
XAxis mode: Wavelengths
Number of Pixels in Spectrum: 1024
>>>>>Begin Spectral Data<<<<<
801.071	8062
801.214	8024
801.356	7890
801.499	7871
801.641	7841
801.783	7746
801.926	7963
802.068	7947
802.211	7959
802.353	7967
802.496	7898
802.638	7879
802.78	7925
802.923	7928
803.065	7913
803.208	7940
803.35	7940
803.492	8054
803.635	8145
803.777	8027
803.919	8130
804.061	8431
804.204	8130
804.346	8084
804.488	7970
804.63	8111
804.773	8054
804.915	8172
805.057	8294
805.199	8218
805.341	8187
805.483	8298
805.626	8214
805.768	8157
805.91	8130
806.052	8161
806.194	8115
806.336	8271
806.478	8142
806.62	8046
806.762	8077
806.904	8259
807.046	8457
807.188	8343
807.33	8180
807.472	8324
807.614	8157
807.756	8077
807.898	7928
808.04	7841
808.182	7898
808.324	7864
808.465	7955
808.607	8103
808.749	8054
808.891	8161
809.033	8279
809.174	8221
809.316	8077
809.458	8005
809.6	7986
809.741	8039
809.883	7997
810.025	8092
810.166	8024
810.308	8073
810.45	8031
810.591	7890
810.733	7746
810.875	7647
811.016	7586
811.158	7529
811.299	7563
811.441	7674
811.582	7666
811.724	7552
811.865	7575
812.007	7575
812.148	7586
812.29	7594
812.431	7803
812.573	7860
812.714	7959
812.855	8077
812.997	8233
813.138	8377
813.279	8168
813.421	8062
813.562	8008
813.703	7811
813.845	7746
813.986	7441
814.127	7266
814.268	7247
814.41	7149
814.551	7129
814.692	7190
814.833	7103
814.974	7076
815.115	7080
815.256	6951
815.397	6935
815.539	6951
815.68	6814
815.821	6791
815.962	6871
816.103	6783
816.244	6738
816.385	6544
816.526	6623
816.666	6521
816.807	6311
816.948	6437
817.089	6441
817.23	6407
817.371	6308
817.512	6365
817.653	6395
817.793	6323
817.934	6384
818.075	6433
818.216	6422
818.356	6365
818.497	6232
818.638	6076
818.778	6163
818.919	6133
819.06	6102
819.2	6247
819.341	6323
819.481	6346
819.622	6509
819.762	6730
819.903	6684
820.043	6639
820.184	6559
820.324	6597
820.465	6677
820.605	6703
820.746	6642
820.886	6483
821.026	6585
821.167	6677
821.307	6787
821.447	6779
821.588	6650
821.728	6544
821.868	6467
822.008	6369
822.149	6350
822.289	6346
822.429	6087
822.569	6053
822.709	6095
822.849	5897
822.99	5931
823.13	5855
823.27	5893
823.41	5790
823.55	5745
823.69	5767
823.83	5836
823.97	5630
824.11	5505
824.25	5482
824.389	5532
824.529	5543
824.669	5501
824.809	5653
824.949	5642
825.089	5611
825.228	5566
825.368	5353
825.508	5337
825.648	5326
825.787	5341
825.927	5360
826.067	5303
826.206	5269
826.346	5391
826.485	5398
826.625	5421
826.765	5604
826.904	5486
827.044	5239
827.183	5204
827.323	5113
827.462	5231
827.601	5105
827.741	5193
827.88	5197
828.02	5098
828.159	5235
828.298	5299
828.437	5326
828.577	5231
828.716	5463
828.855	5307
828.994	5151
829.134	5151
829.273	5204
829.412	5124
829.551	5121
829.69	5197
829.829	5201
829.968	5330
830.107	5223
830.246	5280
830.385	5189
830.524	5151
830.663	5064
830.802	4923
830.941	4885
831.08	4870
831.219	4987
831.357	4965
831.496	5174
831.635	4911
831.774	4805
831.913	4877
832.051	4721
832.19	4721
832.329	4824
832.467	4687
832.606	4622
832.744	4740
832.883	4694
833.022	4717
833.16	4748
833.299	4858
833.437	4812
833.576	4812
833.714	4839
833.852	4885
833.991	4847
834.129	4911
834.267	4930
834.406	4896
834.544	4999
834.682	5014
834.821	4949
834.959	5132
835.097	4949
835.235	5090
835.373	5075
835.511	5136
835.65	5010
835.788	4995
835.926	4908
836.064	4866
836.202	4904
836.34	5124
836.478	5212
836.615	5124
836.753	5201
836.891	5292
837.029	5231
837.167	5178
837.305	5113
837.443	5159
837.58	5033
837.718	5197
837.856	5181
837.993	5178
838.131	5239
838.269	5204
838.406	5235
838.544	5170
838.681	5006
838.819	4987
838.956	4889
839.094	4847
839.231	4987
839.369	5003
839.506	5417
839.643	5258
839.781	5067
839.918	4995
840.055	5102
840.193	5102
840.33	5090
840.467	5121
840.604	5143
840.742	5395
840.879	5064
841.016	5014
841.153	5105
841.29	5334
841.427	5376
841.564	5322
841.701	5326
841.838	5284
841.975	5220
842.112	5254
842.249	5174
842.385	5048
842.522	5307
842.659	5136
842.796	5151
842.933	5170
843.069	5102
843.206	5140
843.343	5322
843.479	5197
843.616	5292
843.752	5041
843.889	5037
844.025	5181
844.162	5025
844.298	5235
844.435	5075
844.571	5052
844.708	5185
844.844	5326
844.98	5246
845.117	5280
845.253	5136
845.389	5067
845.525	5143
845.661	5102
845.798	5037
845.934	5105
846.07	5041
846.206	5174
846.342	5265
846.478	5143
846.614	5018
846.75	4980
846.886	4968
847.022	5109
847.158	5041
847.294	5075
847.429	5121
847.565	5037
847.701	5303
847.837	4839
847.972	4778
848.108	4930
848.244	4919
848.379	4767
848.515	4736
848.65	4687
848.786	4721
848.921	4752
849.057	4854
849.192	4862
849.328	4740
849.463	4843
849.598	4763
849.734	4748
849.869	4630
850.004	4622
850.14	4668
850.275	4592
850.41	4497
850.545	4546
850.68	4580
850.815	4615
850.95	4611
851.085	4809
851.22	4729
851.355	4672
851.49	4580
851.625	4592
851.76	4611
851.895	4569
852.03	4569
852.165	4664
852.299	4687
852.434	4774
852.569	4740
852.703	4774
852.838	4812
852.973	4968
853.107	4919
853.242	4725
853.376	4641
853.511	4550
853.645	4626
853.78	4805
853.914	4637
854.048	4675
854.183	4668
854.317	4660
854.451	4831
854.585	4691
854.72	4611
854.854	4748
854.988	4573
855.122	4656
855.256	4508
855.39	4687
855.524	4778
855.658	4664
855.792	4717
855.926	4706
856.06	4725
856.194	4771
856.327	4683
856.461	4618
856.595	4622
856.729	4645
856.862	4774
856.996	4656
857.13	4752
857.263	4786
857.397	4771
857.53	4664
857.664	4706
857.797	4748
857.931	4752
858.064	4683
858.197	4725
858.331	4618
858.464	4584
858.597	4508
858.731	4618
858.864	4645
858.997	4577
859.13	4653
859.263	4672
859.396	4672
859.529	4542
859.662	4527
859.795	4550
859.928	4622
860.061	4759
860.194	4736
860.327	4618
860.46	4550
860.592	4694
860.725	4679
860.858	4710
860.99	4561
861.123	4512
861.256	4455
861.388	4634
861.521	5170
861.653	4478
861.786	4459
861.918	4447
862.05	4470
862.183	4535
862.315	4596
862.447	4656
862.58	4504
862.712	4318
862.844	4318
862.976	4500
863.108	4447
863.24	4900
863.372	4310
863.504	4421
863.636	4367
863.768	4443
863.9	4405
864.032	4383
864.164	4413
864.296	4466
864.428	4554
864.559	4546
864.691	4508
864.823	4512
864.954	4459
865.086	4527
865.217	4383
865.349	4402
865.48	4413
865.612	4478
865.743	4637
865.875	4428
866.006	4417
866.137	4421
866.269	4451
866.4	4428
866.531	4386
866.662	4379
866.793	4383
866.924	4405
867.055	4455
867.186	4402
867.317	4409
867.448	4356
867.579	4363
867.71	4356
867.841	4333
867.972	4451
868.103	4447
868.233	4440
868.364	4371
868.495	4493
868.625	4683
868.756	4767
868.886	4565
869.017	4634
869.147	4774
869.278	4759
869.408	4672
869.539	4660
869.669	4702
869.799	4668
869.929	4782
870.06	4706
870.19	4938
870.32	4953
870.45	4949
870.58	4915
870.71	5067
870.84	5037
870.97	4930
871.1	4870
871.23	5098
871.36	5155
871.489	5010
871.619	5056
871.749	5060
871.879	5056
872.008	5155
872.138	5064
872.267	4946
872.397	4843
872.526	4778
872.656	4668
872.785	4771
872.915	4961
873.044	5033
873.173	4927
873.303	4889
873.432	4919
873.561	4980
873.69	4831
873.819	4831
873.948	4870
874.077	4805
874.206	4698
874.335	4744
874.464	4862
874.593	5025
874.722	4934
874.851	5079
874.979	5018
875.108	5037
875.237	4881
875.365	4877
875.494	4885
875.623	4915
875.751	4801
875.88	4881
876.008	4965
876.136	4972
876.265	5143
876.393	5299
876.521	5197
876.65	5216
876.778	5143
876.906	5079
877.034	5018
877.162	5037
877.29	5022
877.418	5010
877.546	5025
877.674	5010
877.802	4991
877.93	5022
878.058	4896
878.185	4900
878.313	4957
878.441	4881
878.568	4767
878.696	4870
878.824	4908
878.951	4991
879.079	5090
879.206	5303
879.333	5090
879.461	5014
879.588	4972
879.715	5124
879.842	5170
879.97	4968
880.097	4759
880.224	4733
880.351	4771
880.478	4801
880.605	4812
880.732	4774
880.859	5067
880.986	4862
881.112	4858
881.239	4786
881.366	4626
881.493	4573
881.619	4565
881.746	4630
881.872	4622
881.999	4622
882.125	4691
882.252	4782
882.378	4782
882.505	4961
882.631	4809
882.757	4634
882.883	4637
883.01	4698
883.136	4641
883.262	4588
883.388	4580
883.514	4805
883.64	4877
883.766	4793
883.892	4691
884.018	4714
884.143	4885
884.269	4965
884.395	4626
884.52	4622
884.646	4630
884.772	4618
884.897	4550
885.023	4637
885.148	4763
885.274	4847
885.399	4801
885.524	4706
885.65	4706
885.775	4740
885.9	4702
886.025	4854
886.15	4839
886.275	4668
886.4	4645
886.525	4702
886.65	4710
886.775	4683
886.9	4873
887.025	5075
887.149	4805
887.274	4702
887.399	4580
887.523	4626
887.648	4569
887.773	4599
887.897	4721
888.021	4752
888.146	4672
888.27	4847
888.395	4881
888.519	4740
888.643	4740
888.767	4828
888.891	4664
889.015	4569
889.139	4634
889.263	4618
889.387	4683
889.511	4850
889.635	4767
889.759	4573
889.883	4664
890.006	4736
890.13	4850
890.254	4649
890.377	4656
890.501	4554
890.624	4493
890.748	4622
890.871	4481
890.995	4390
891.118	4344
891.241	4546
891.364	4535
891.488	4592
891.611	4447
891.734	4504
891.857	4615
891.98	4554
892.103	4653
892.226	4580
892.349	4474
892.471	4417
892.594	4531
892.717	4577
892.839	4577
892.962	4577
893.085	4599
893.207	4558
893.33	4462
893.452	4443
893.575	4687
893.697	4577
893.819	4729
893.941	4786
894.064	4725
894.186	4577
894.308	4504
894.43	4679
894.552	4816
894.674	4725
894.796	4538
894.918	4558
895.04	4500
895.161	4694
895.283	4672
895.405	4554
895.526	4615
895.648	4653
895.769	4649
895.891	4683
896.012	4771
896.134	4698
896.255	4630
896.376	4622
896.498	4573
896.619	4660
896.74	4603
896.861	4618
896.982	4877
897.103	5018
897.224	4850
897.345	4740
897.466	4656
897.587	4687
897.708	4801
897.828	4778
897.949	4611
898.07	4599
898.19	4637
898.311	4805
898.431	4668
898.552	4740
898.672	4839
898.792	4763
898.913	4790
899.033	4653
899.153	4542
899.273	4466
899.393	4470
899.513	4516
899.633	4565
899.753	4554
899.873	4546
899.993	4588
900.113	4561
900.232	4580
900.352	4596
900.472	4558
900.591	4432
900.711	4523
900.83	4436
900.95	4672
901.069	4694
901.189	4603
901.308	4424
901.427	4303
901.546	4462
901.665	4500
901.784	4516
901.904	4432
902.023	4318
902.141	4219
902.26	4169
902.379	4333
902.498	4295
902.617	4257
902.735	4428
902.854	4424
902.973	4386
903.091	4242
903.21	4272
903.328	4287
903.446	4337
903.565	4318
903.683	4383
903.801	4272
903.919	4440
904.038	4455
904.156	4360
904.274	4447
904.392	4451
904.51	4489
904.627	4500
904.745	4618
904.863	4683
904.981	4436
905.098	4348
905.216	4409
905.334	4462
905.451	4478
905.569	4478
905.686	4596
905.803	4577
905.921	4459
906.038	4542
906.155	4508
906.272	4421
906.389	4546
906.506	4375
906.623	4413
906.74	4451
906.857	4310
906.974	4390
907.091	4592
907.208	4748
907.324	4630
907.441	4512
907.557	4409
907.674	4379
907.79	4318
907.907	4440
908.023	4466
908.139	4470
908.256	4459
908.372	4523
908.488	4478
908.604	4348
908.72	4390
908.836	4409
908.952	4348
909.068	4516
909.184	4527
909.3	4554
909.415	4573
909.531	4561
909.647	4348
909.762	4379
909.878	4329
909.993	4481
910.108	4455
910.224	4428
910.339	4538
910.454	4466
910.57	4386
910.685	4390
910.8	4679
910.915	4592
911.03	4470
911.145	4390
911.259	4379
911.374	4383
911.489	4352
911.604	4344
911.718	4188
911.833	4200
911.947	4124
912.062	4055
912.176	4257
912.291	4257
912.405	4310
912.519	4489
912.633	4569
912.748	4386
912.862	4333
912.976	4238
913.09	4120
913.204	4166
913.318	4291
913.431	4379
913.545	4421
913.659	4485
913.772	4379
913.886	4261
914	4261
914.113	4417
914.226	4519
914.34	4375
914.453	4192
914.566	4398
914.68	4344
914.793	4367
914.906	4169
915.019	4116
915.132	4105
915.245	4192
915.358	4227
915.47	4253
915.583	4287
915.696	4291
915.809	4447
915.921	4447
916.034	4291
916.146	4276
916.259	4257
916.371	4371
916.483	4371
916.595	4306
916.708	4367
916.82	4341
916.932	4352
917.044	4367
917.156	4371
917.268	4261
917.38	4344
917.491	4306
917.603	4337
917.715	4512
917.826	4447
917.938	4421
918.049	4219
918.161	4413
918.272	4523
918.384	4607
918.495	4493
918.606	4329
918.717	4257
918.828	4363
918.939	4363
919.05	4287
919.161	4402
919.272	4158
919.383	4204
919.494	4466
919.604	4641
919.715	4474
919.826	4325
919.936	4424
920.047	4561
920.157	4546
920.267	4729
920.378	4554
920.488	4565
920.598	4752
920.708	4892
920.818	4782
920.928	4763
921.038	4987
921.148	4972
921.258	4645
921.368	4573
921.477	4565
921.587	4500
921.697	4421
921.806	4546
921.916	4478
922.025	4280
922.134	4303
922.244	4242
922.353	4360
922.462	4192
922.571	4147
922.68	4017
922.789	4036
922.898	4059
923.007	4029
923.116	4116
923.224	4078
923.333	4082
923.442	4071
923.55	4013
923.659	4051
923.767	4120
923.876	4040
923.984	4162
924.092	4010
924.201	4105
924.309	4120
924.417	4158
924.525	4074
924.633	4082
924.741	5105
924.849	3907
924.956	4147
925.064	3960
925.172	3915
925.279	3983
925.387	4078
925.494	4093
925.602	4181
925.709	4177
925.816	4055
925.924	4158
926.031	4261
926.138	4185
926.245	4211
926.352	4166
926.459	4265
926.566	4341
926.673	4181
926.779	4086
926.886	4131
926.993	3975
927.099	3968
927.206	3983
927.312	4013
927.419	4040
927.525	4032
927.631	4101
927.737	3998
927.843	3979
927.95	3846
928.056	3945
928.162	4044
928.267	4101
928.373	4683
928.479	4158
928.585	3915
928.69	4032
928.796	4063
928.901	3968
929.007	3850
929.112	4017
929.218	3994
929.323	3964
929.428	3972
929.533	4112
929.638	3892
929.743	3953
929.848	4067
929.953	3994
930.058	4002
930.163	3808
930.267	3823
930.372	3987
930.477	3800
930.581	4097
930.685	3994
930.79	3876
930.894	3922
930.998	3880
931.103	4051
931.207	3740
931.311	3759
931.415	3694
931.519	3534
931.623	3572
