Data from test_V78500241_286.txt Node
Date: Fri Mar 25 16:50:59 CST 2022
User: usil
Spectrometer: V785-0024
Trigger mode: 0
Integration Time (sec): 4.000000E-1
Scans to average: 1
Nonlinearity correction enabled: false
Boxcar width: 0
Storing dark spectrum: false
XAxis mode: Wavelengths
Number of Pixels in Spectrum: 1024
>>>>>Begin Spectral Data<<<<<
801.071	8088
801.214	8031
801.356	7875
801.499	7894
801.641	7826
801.783	7860
801.926	7997
802.068	8020
802.211	8016
802.353	8031
802.496	7868
802.638	7875
802.78	7963
802.923	8024
803.065	7879
803.208	7814
803.35	7928
803.492	8123
803.635	8168
803.777	8016
803.919	8176
804.061	8465
804.204	8225
804.346	8035
804.488	7898
804.63	8134
804.773	8005
804.915	8062
805.057	8256
805.199	8183
805.341	8161
805.483	8210
805.626	8100
805.768	8088
805.91	8206
806.052	8240
806.194	8130
806.336	8328
806.478	8096
806.62	8107
806.762	8134
806.904	8286
807.046	8526
807.188	8381
807.33	8233
807.472	8282
807.614	8157
807.756	8100
807.898	7982
808.04	7841
808.182	7879
808.324	7864
808.465	7921
808.607	8043
808.749	8123
808.891	8214
809.033	8313
809.174	8214
809.316	8027
809.458	8054
809.6	7955
809.741	7967
809.883	8046
810.025	8096
810.166	8062
810.308	8062
810.45	7989
810.591	7849
810.733	7826
810.875	7700
811.016	7514
811.158	7487
811.299	7586
811.441	7643
811.582	7636
811.724	7582
811.865	7594
812.007	7666
812.148	7578
812.29	7620
812.431	7727
812.573	7868
812.714	8031
812.855	8058
812.997	8126
813.138	8294
813.279	8191
813.421	8043
813.562	7955
813.703	7830
813.845	7830
813.986	7472
814.127	7316
814.268	7255
814.41	7221
814.551	7156
814.692	7187
814.833	7126
814.974	7122
815.115	7019
815.256	6909
815.397	6916
815.539	6951
815.68	6867
815.821	6772
815.962	6856
816.103	6802
816.244	6738
816.385	6601
816.526	6612
816.666	6433
816.807	6353
816.948	6441
817.089	6475
817.23	6521
817.371	6369
817.512	6448
817.653	6399
817.793	6361
817.934	6388
818.075	6471
818.216	6422
818.356	6414
818.497	6197
818.638	6133
818.778	6167
818.919	6144
819.06	6190
819.2	6361
819.341	6372
819.481	6315
819.622	6506
819.762	6692
819.903	6665
820.043	6604
820.184	6620
820.324	6563
820.465	6673
820.605	6646
820.746	6593
820.886	6483
821.026	6623
821.167	6620
821.307	6821
821.447	6738
821.588	6650
821.728	6547
821.868	6521
822.008	6304
822.149	6300
822.289	6372
822.429	6140
822.569	6125
822.709	6095
822.849	5916
822.99	5908
823.13	5923
823.27	5916
823.41	5809
823.55	5828
823.69	5767
823.83	5752
823.97	5646
824.11	5554
824.25	5551
824.389	5592
824.529	5566
824.669	5535
824.809	5615
824.949	5680
825.089	5589
825.228	5528
825.368	5391
825.508	5353
825.648	5360
825.787	5383
825.927	5345
826.067	5318
826.206	5288
826.346	5395
826.485	5395
826.625	5330
826.765	5512
826.904	5509
827.044	5181
827.183	5174
827.323	5151
827.462	5273
827.601	5181
827.741	5212
827.88	5204
828.02	5098
828.159	5227
828.298	5326
828.437	5334
828.577	5258
828.716	5493
828.855	5383
828.994	5170
829.134	5166
829.273	5227
829.412	5132
829.551	5147
829.69	5105
829.829	5277
829.968	5330
830.107	5258
830.246	5250
830.385	5178
830.524	5170
830.663	5067
830.802	4999
830.941	4873
831.08	4915
831.219	5022
831.357	4938
831.496	5174
831.635	4934
831.774	4816
831.913	4847
832.051	4736
832.19	4778
832.329	4801
832.467	4683
832.606	4622
832.744	4744
832.883	4729
833.022	4748
833.16	4790
833.299	4793
833.437	4820
833.576	4828
833.714	4885
833.852	4828
833.991	4824
834.129	4942
834.267	4896
834.406	4870
834.544	4953
834.682	5018
834.821	4957
834.959	5166
835.097	5025
835.235	5147
835.373	5041
835.511	5079
835.65	4999
835.788	5014
835.926	4889
836.064	4896
836.202	4896
836.34	5170
836.478	5201
836.615	5162
836.753	5170
836.891	5280
837.029	5265
837.167	5231
837.305	5128
837.443	5151
837.58	5033
837.718	5193
837.856	5185
837.993	5143
838.131	5258
838.269	5254
838.406	5220
838.544	5162
838.681	5025
838.819	5048
838.956	4904
839.094	4881
839.231	4976
839.369	5098
839.506	5471
839.643	5292
839.781	5060
839.918	5045
840.055	5086
840.193	5067
840.33	5132
840.467	5117
840.604	5178
840.742	5467
840.879	5105
841.016	5098
841.153	5124
841.29	5452
841.427	5341
841.564	5307
841.701	5353
841.838	5280
841.975	5227
842.112	5334
842.249	5121
842.385	5105
842.522	5341
842.659	5159
842.796	5216
842.933	5261
843.069	5197
843.206	5201
843.343	5303
843.479	5212
843.616	5265
843.752	5048
843.889	5041
844.025	5277
844.162	5075
844.298	5216
844.435	5124
844.571	5071
844.708	5277
844.844	5376
844.98	5326
845.117	5265
845.253	5174
845.389	5124
845.525	5185
845.661	5159
845.798	5105
845.934	5231
846.07	5136
846.206	5258
846.342	5296
846.478	5174
846.614	5113
846.75	4972
846.886	4942
847.022	5212
847.158	5033
847.294	5045
847.429	5170
847.565	5094
847.701	5406
847.837	4953
847.972	4839
848.108	4995
848.244	4946
848.379	4847
848.515	4759
848.65	4816
848.786	4771
848.921	4892
849.057	4885
849.192	4938
849.328	4870
849.463	4839
849.598	4835
849.734	4828
849.869	4755
850.004	4698
850.14	4733
850.275	4649
850.41	4584
850.545	4656
850.68	4653
850.815	4653
850.95	4683
851.085	4877
851.22	4748
851.355	4702
851.49	4672
851.625	4603
851.76	4698
851.895	4546
852.03	4561
852.165	4694
852.299	4721
852.434	4843
852.569	4748
852.703	4816
852.838	4923
852.973	4980
853.107	4934
853.242	4767
853.376	4744
853.511	4580
853.645	4641
853.78	4786
853.914	4759
854.048	4679
854.183	4710
854.317	4687
854.451	4877
854.585	4679
854.72	4691
854.854	4759
854.988	4664
855.122	4641
855.256	4569
855.39	4691
855.524	4843
855.658	4797
855.792	4729
855.926	4793
856.06	4801
856.194	4866
856.327	4717
856.461	4645
856.595	4672
856.729	4641
856.862	4733
856.996	4736
857.13	4744
857.263	4824
857.397	4877
857.53	4615
857.664	4778
857.797	4797
857.931	4767
858.064	4748
858.197	4812
858.331	4717
858.464	4664
858.597	4592
858.731	4687
858.864	4721
858.997	4592
859.13	4733
859.263	4702
859.396	4691
859.529	4622
859.662	4615
859.795	4535
859.928	4679
860.061	4843
860.194	4748
860.327	4611
860.46	4588
860.592	4744
860.725	4759
860.858	4778
860.99	4634
861.123	4546
861.256	4554
861.388	4649
861.521	5322
861.653	4523
861.786	4459
861.918	4466
862.05	4508
862.183	4607
862.315	4653
862.447	4691
862.58	4573
862.712	4402
862.844	4383
862.976	4485
863.108	4508
863.24	4900
863.372	4379
863.504	4466
863.636	4440
863.768	4519
863.9	4489
864.032	4394
864.164	4466
864.296	4474
864.428	4554
864.559	4580
864.691	4558
864.823	4580
864.954	4573
865.086	4550
865.217	4523
865.349	4398
865.48	4508
865.612	4508
865.743	4683
865.875	4542
866.006	4470
866.137	4535
866.269	4504
866.4	4451
866.531	4455
866.662	4409
866.793	4428
866.924	4417
867.055	4546
867.186	4512
867.317	4428
867.448	4386
867.579	4405
867.71	4402
867.841	4409
867.972	4516
868.103	4485
868.233	4500
868.364	4542
868.495	4535
868.625	4725
868.756	4759
868.886	4634
869.017	4717
869.147	4812
869.278	4843
869.408	4721
869.539	4702
869.669	4752
869.799	4660
869.929	4729
870.06	4774
870.19	4991
870.32	5003
870.45	4980
870.58	5048
870.71	5140
870.84	5136
870.97	4980
871.1	4919
871.23	5185
871.36	5178
871.489	5155
871.619	5094
871.749	5067
871.879	5189
872.008	5193
872.138	5094
872.267	4987
872.397	4854
872.526	4847
872.656	4755
872.785	4858
872.915	5014
873.044	5056
873.173	5041
873.303	4976
873.432	4972
873.561	4930
873.69	4923
873.819	4919
873.948	4923
874.077	4850
874.206	4797
874.335	4847
874.464	4991
874.593	5075
874.722	4984
874.851	5159
874.979	5079
875.108	5086
875.237	4885
875.365	4892
875.494	4858
875.623	4957
875.751	4843
875.88	4896
876.008	4987
876.136	5071
876.265	5239
876.393	5376
876.521	5277
876.65	5246
876.778	5220
876.906	5083
877.034	5045
877.162	5060
877.29	5090
877.418	5094
877.546	5117
877.674	5083
877.802	5029
877.93	4987
878.058	4968
878.185	4930
878.313	4987
878.441	5003
878.568	4778
878.696	4927
878.824	4999
878.951	5003
879.079	5174
879.206	5341
879.333	5136
879.461	5018
879.588	5067
879.715	5090
879.842	5231
879.97	5056
880.097	4839
880.224	4812
880.351	4812
880.478	4854
880.605	4847
880.732	4828
880.859	5109
880.986	4957
881.112	4911
881.239	4831
881.366	4710
881.493	4626
881.619	4649
881.746	4656
881.872	4637
881.999	4668
882.125	4729
882.252	4782
882.378	4873
882.505	4957
882.631	4831
882.757	4721
882.883	4740
883.01	4767
883.136	4656
883.262	4660
883.388	4660
883.514	4801
883.64	4892
883.766	4843
883.892	4706
884.018	4694
884.143	4900
884.269	5064
884.395	4755
884.52	4694
884.646	4714
884.772	4630
884.897	4592
885.023	4721
885.148	4805
885.274	4873
885.399	4877
885.524	4744
885.65	4774
885.775	4767
885.9	4782
886.025	4873
886.15	4828
886.275	4736
886.4	4691
886.525	4759
886.65	4763
886.775	4683
886.9	4961
887.025	5056
887.149	4831
887.274	4649
887.399	4672
887.523	4637
887.648	4626
887.773	4656
887.897	4797
888.021	4790
888.146	4759
888.27	4847
888.395	4923
888.519	4778
888.643	4896
888.767	4824
888.891	4668
889.015	4660
889.139	4668
889.263	4607
889.387	4782
889.511	4881
889.635	4843
889.759	4672
889.883	4675
890.006	4767
890.13	4885
890.254	4626
890.377	4729
890.501	4603
890.624	4550
890.748	4660
890.871	4497
890.995	4504
891.118	4459
891.241	4588
891.364	4615
891.488	4702
891.611	4508
891.734	4592
891.857	4664
891.98	4596
892.103	4675
892.226	4626
892.349	4531
892.471	4459
892.594	4527
892.717	4664
892.839	4649
892.962	4615
893.085	4679
893.207	4596
893.33	4493
893.452	4535
893.575	4706
893.697	4607
893.819	4805
893.941	4858
894.064	4790
894.186	4618
894.308	4596
894.43	4805
894.552	4892
894.674	4812
894.796	4592
894.918	4607
895.04	4607
895.161	4748
895.283	4687
895.405	4569
895.526	4679
895.648	4721
895.769	4729
895.891	4801
896.012	4771
896.134	4744
896.255	4714
896.376	4634
896.498	4622
896.619	4717
896.74	4622
896.861	4694
896.982	4961
897.103	5098
897.224	4892
897.345	4778
897.466	4752
897.587	4725
897.708	4862
897.828	4797
897.949	4710
898.07	4596
898.19	4664
898.311	4831
898.431	4702
898.552	4748
898.672	4835
898.792	4835
898.913	4740
899.033	4649
899.153	4580
899.273	4443
899.393	4542
899.513	4554
899.633	4584
899.753	4596
899.873	4497
899.993	4607
900.113	4573
900.232	4649
900.352	4599
900.472	4470
900.591	4428
900.711	4516
900.83	4493
900.95	4615
901.069	4771
901.189	4569
901.308	4402
901.427	4299
901.546	4398
901.665	4485
901.784	4558
901.904	4428
902.023	4329
902.141	4211
902.26	4188
902.379	4314
902.498	4268
902.617	4242
902.735	4402
902.854	4398
902.973	4409
903.091	4249
903.21	4253
903.328	4284
903.446	4310
903.565	4284
903.683	4386
903.801	4303
903.919	4432
904.038	4443
904.156	4306
904.274	4451
904.392	4424
904.51	4440
904.627	4519
904.745	4596
904.863	4656
904.981	4390
905.098	4314
905.216	4386
905.334	4447
905.451	4462
905.569	4462
905.686	4565
905.803	4580
905.921	4466
906.038	4561
906.155	4481
906.272	4421
906.389	4512
906.506	4356
906.623	4394
906.74	4443
906.857	4322
906.974	4341
907.091	4599
907.208	4702
907.324	4603
907.441	4478
907.557	4390
907.674	4329
907.79	4299
907.907	4409
908.023	4535
908.139	4516
908.256	4466
908.372	4516
908.488	4508
908.604	4352
908.72	4341
908.836	4428
908.952	4398
909.068	4447
909.184	4611
909.3	4417
909.415	4577
909.531	4561
909.647	4344
909.762	4352
909.878	4386
909.993	4455
910.108	4470
910.224	4459
910.339	4497
910.454	4421
910.57	4398
910.685	4314
910.8	4664
910.915	4584
911.03	4459
911.145	4352
911.259	4352
911.374	4428
911.489	4306
911.604	4348
911.718	4169
911.833	4188
911.947	4128
912.062	4059
912.176	4192
912.291	4207
912.405	4253
912.519	4459
912.633	4516
912.748	4386
912.862	4325
912.976	4215
913.09	4090
913.204	4166
913.318	4261
913.431	4375
913.545	4417
913.659	4436
913.772	4360
913.886	4295
914	4295
914.113	4398
914.226	4432
914.34	4409
914.453	4268
914.566	4516
914.68	4352
914.793	4341
914.906	4219
915.019	4188
915.132	4097
915.245	4150
915.358	4306
915.47	4249
915.583	4333
915.696	4360
915.809	4470
915.921	4466
916.034	4265
916.146	4287
916.259	4204
916.371	4421
916.483	4424
916.595	4325
916.708	4405
916.82	4367
916.932	4390
917.044	4413
917.156	4390
917.268	4310
917.38	4344
917.491	4329
917.603	4405
917.715	4478
917.826	4489
917.938	4379
918.049	4295
918.161	4485
918.272	4596
918.384	4580
918.495	4535
918.606	4344
918.717	4299
918.828	4363
918.939	4428
919.05	4306
919.161	4405
919.272	4196
919.383	4295
919.494	4504
919.604	4694
919.715	4489
919.826	4409
919.936	4481
920.047	4588
920.157	4512
920.267	4752
920.378	4607
920.488	4550
920.598	4809
920.708	4949
920.818	4820
920.928	4828
921.038	5018
921.148	4980
921.258	4668
921.368	4634
921.477	4580
921.587	4516
921.697	4451
921.806	4554
921.916	4455
922.025	4322
922.134	4303
922.244	4299
922.353	4352
922.462	4185
922.571	4147
922.68	4036
922.789	4032
922.898	4097
923.007	4044
923.116	4154
923.224	4101
923.333	4158
923.442	4044
923.55	4044
923.659	4097
923.767	4158
923.876	4082
923.984	4219
924.092	4017
924.201	4147
924.309	4166
924.417	4169
924.525	4112
924.633	4185
924.741	5098
924.849	3987
924.956	4154
925.064	3983
925.172	3953
925.279	4051
925.387	4090
925.494	4074
925.602	4265
925.709	4253
925.816	4120
925.924	4181
926.031	4265
926.138	4253
926.245	4242
926.352	4162
926.459	4306
926.566	4333
926.673	4173
926.779	4124
926.886	4109
926.993	4036
927.099	3987
927.206	4017
927.312	3998
927.419	4128
927.525	4090
927.631	4109
927.737	4002
927.843	4013
927.95	3876
928.056	4002
928.162	4048
928.267	4143
928.373	4733
928.479	4204
928.585	3937
928.69	4059
928.796	4150
928.901	3964
929.007	3876
929.112	4036
929.218	4017
929.323	3994
929.428	4002
929.533	4162
929.638	3953
929.743	4032
929.848	4109
929.953	4029
930.058	3968
930.163	3812
930.267	3896
930.372	4048
930.477	3816
930.581	4147
930.685	4029
930.79	3865
930.894	3922
930.998	3903
931.103	4078
931.207	3759
931.311	3724
931.415	3743
931.519	3591
931.623	3606
