Data from test_V78500241_1874.txt Node
Date: Fri Mar 25 17:02:01 CST 2022
User: usil
Spectrometer: V785-0024
Trigger mode: 0
Integration Time (sec): 4.000000E-1
Scans to average: 1
Nonlinearity correction enabled: false
Boxcar width: 0
Storing dark spectrum: false
XAxis mode: Wavelengths
Number of Pixels in Spectrum: 1024
>>>>>Begin Spectral Data<<<<<
801.071	7997
801.214	8039
801.356	7936
801.499	7887
801.641	7830
801.783	7753
801.926	7864
802.068	7928
802.211	8024
802.353	7986
802.496	7807
802.638	7841
802.78	7898
802.923	7917
803.065	7803
803.208	7871
803.35	7986
803.492	8126
803.635	8153
803.777	7982
803.919	8138
804.061	8427
804.204	8130
804.346	8024
804.488	7989
804.63	8050
804.773	8050
804.915	8134
805.057	8271
805.199	8168
805.341	8134
805.483	8332
805.626	8233
805.768	8176
805.91	8134
806.052	8237
806.194	8119
806.336	8279
806.478	8092
806.62	8062
806.762	8138
806.904	8279
807.046	8495
807.188	8358
807.33	8332
807.472	8229
807.614	8172
807.756	8081
807.898	7982
808.04	7902
808.182	7879
808.324	7852
808.465	7909
808.607	8103
808.749	8073
808.891	8202
809.033	8305
809.174	8187
809.316	8107
809.458	8088
809.6	8008
809.741	8065
809.883	8027
810.025	8035
810.166	7978
810.308	8043
810.45	8001
810.591	7826
810.733	7666
810.875	7742
811.016	7518
811.158	7453
811.299	7540
811.441	7662
811.582	7643
811.724	7571
811.865	7537
812.007	7601
812.148	7601
812.29	7636
812.431	7746
812.573	7814
812.714	8005
812.855	8096
812.997	8240
813.138	8290
813.279	8142
813.421	8024
813.562	7970
813.703	7776
813.845	7670
813.986	7415
814.127	7168
814.268	7164
814.41	7175
814.551	7129
814.692	7244
814.833	7088
814.974	7061
815.115	7141
815.256	6947
815.397	6901
815.539	6924
815.68	6814
815.821	6757
815.962	6818
816.103	6840
816.244	6684
816.385	6585
816.526	6623
816.666	6479
816.807	6304
816.948	6445
817.089	6445
817.23	6384
817.371	6365
817.512	6388
817.653	6380
817.793	6369
817.934	6369
818.075	6437
818.216	6395
818.356	6407
818.497	6232
818.638	6159
818.778	6205
818.919	6110
819.06	6186
819.2	6346
819.341	6304
819.481	6315
819.622	6525
819.762	6722
819.903	6692
820.043	6616
820.184	6608
820.324	6544
820.465	6665
820.605	6707
820.746	6642
820.886	6551
821.026	6684
821.167	6646
821.307	6757
821.447	6798
821.588	6669
821.728	6574
821.868	6441
822.008	6350
822.149	6357
822.289	6361
822.429	6167
822.569	6098
822.709	6098
822.849	5946
822.99	5920
823.13	5939
823.27	5897
823.41	5741
823.55	5771
823.69	5737
823.83	5786
823.97	5684
824.11	5497
824.25	5547
824.389	5558
824.529	5573
824.669	5547
824.809	5600
824.949	5680
825.089	5570
825.228	5581
825.368	5410
825.508	5372
825.648	5349
825.787	5395
825.927	5379
826.067	5311
826.206	5284
826.346	5383
826.485	5391
826.625	5372
826.765	5532
826.904	5505
827.044	5250
827.183	5193
827.323	5128
827.462	5235
827.601	5201
827.741	5189
827.88	5159
828.02	5121
828.159	5181
828.298	5299
828.437	5341
828.577	5239
828.716	5509
828.855	5334
828.994	5212
829.134	5166
829.273	5181
829.412	5155
829.551	5060
829.69	5143
829.829	5258
829.968	5322
830.107	5288
830.246	5292
830.385	5166
830.524	5136
830.663	5052
830.802	4972
830.941	4911
831.08	4881
831.219	5003
831.357	4972
831.496	5193
831.635	4900
831.774	4850
831.913	4839
832.051	4748
832.19	4763
832.329	4786
832.467	4656
832.606	4656
832.744	4740
832.883	4725
833.022	4771
833.16	4736
833.299	4790
833.437	4847
833.576	4843
833.714	4816
833.852	4858
833.991	4892
834.129	4934
834.267	4923
834.406	4896
834.544	4968
834.682	4995
834.821	4991
834.959	5128
835.097	4961
835.235	5151
835.373	5075
835.511	5094
835.65	5018
835.788	5045
835.926	4843
836.064	4889
836.202	4934
836.34	5170
836.478	5170
836.615	5128
836.753	5235
836.891	5326
837.029	5273
837.167	5216
837.305	5140
837.443	5117
837.58	5094
837.718	5265
837.856	5220
837.993	5155
838.131	5235
838.269	5227
838.406	5239
838.544	5159
838.681	5052
838.819	5014
838.956	4892
839.094	4873
839.231	4980
839.369	5075
839.506	5425
839.643	5269
839.781	5010
839.918	4976
840.055	5094
840.193	5075
840.33	5086
840.467	5151
840.604	5151
840.742	5360
840.879	5037
841.016	5117
841.153	5140
841.29	5368
841.427	5299
841.564	5315
841.701	5337
841.838	5235
841.975	5216
842.112	5235
842.249	5128
842.385	5090
842.522	5261
842.659	5193
842.796	5151
842.933	5216
843.069	5121
843.206	5128
843.343	5254
843.479	5170
843.616	5303
843.752	4999
843.889	5018
844.025	5208
844.162	4999
844.298	5216
844.435	5075
844.571	5048
844.708	5174
844.844	5303
844.98	5330
845.117	5261
845.253	5113
845.389	5067
845.525	5147
845.661	5181
845.798	5010
845.934	5143
846.07	5086
846.206	5193
846.342	5265
846.478	5151
846.614	5014
846.75	4972
846.886	4900
847.022	5086
847.158	4999
847.294	5098
847.429	5117
847.565	5018
847.701	5330
847.837	4870
847.972	4736
848.108	4972
848.244	4896
848.379	4763
848.515	4755
848.65	4660
848.786	4717
848.921	4729
849.057	4850
849.192	4885
849.328	4774
849.463	4801
849.598	4759
849.734	4744
849.869	4626
850.004	4634
850.14	4615
850.275	4649
850.41	4485
850.545	4596
850.68	4588
850.815	4611
850.95	4596
851.085	4809
851.22	4702
851.355	4691
851.49	4630
851.625	4626
851.76	4641
851.895	4497
852.03	4508
852.165	4660
852.299	4725
852.434	4771
852.569	4755
852.703	4774
852.838	4816
852.973	4934
853.107	4930
853.242	4717
853.376	4649
853.511	4535
853.645	4603
853.78	4797
853.914	4736
854.048	4729
854.183	4649
854.317	4656
854.451	4831
854.585	4664
854.72	4603
854.854	4740
854.988	4630
855.122	4611
855.256	4481
855.39	4668
855.524	4786
855.658	4706
855.792	4721
855.926	4706
856.06	4748
856.194	4767
856.327	4664
856.461	4592
856.595	4580
856.729	4637
856.862	4759
856.996	4687
857.13	4729
857.263	4748
857.397	4816
857.53	4668
857.664	4714
857.797	4740
857.931	4752
858.064	4660
858.197	4714
858.331	4668
858.464	4630
858.597	4546
858.731	4634
858.864	4618
858.997	4611
859.13	4626
859.263	4618
859.396	4710
859.529	4592
859.662	4599
859.795	4554
859.928	4622
860.061	4740
860.194	4733
860.327	4611
860.46	4592
860.592	4694
860.725	4702
860.858	4694
860.99	4554
861.123	4485
861.256	4512
861.388	4603
861.521	5372
861.653	4508
861.786	4443
861.918	4443
862.05	4523
862.183	4546
862.315	4596
862.447	4653
862.58	4535
862.712	4398
862.844	4341
862.976	4474
863.108	4451
863.24	4847
863.372	4325
863.504	4428
863.636	4363
863.768	4455
863.9	4466
864.032	4337
864.164	4394
864.296	4489
864.428	4535
864.559	4573
864.691	4550
864.823	4519
864.954	4512
865.086	4519
865.217	4459
865.349	4402
865.48	4386
865.612	4485
865.743	4561
865.875	4443
866.006	4367
866.137	4462
866.269	4455
866.4	4405
866.531	4386
866.662	4371
866.793	4383
866.924	4394
867.055	4485
867.186	4455
867.317	4394
867.448	4405
867.579	4371
867.71	4379
867.841	4375
867.972	4497
868.103	4440
868.233	4447
868.364	4459
868.495	4523
868.625	4717
868.756	4778
868.886	4580
869.017	4596
869.147	4733
869.278	4752
869.408	4618
869.539	4660
869.669	4687
869.799	4630
869.929	4774
870.06	4744
870.19	4949
870.32	4904
870.45	4900
870.58	5010
870.71	5124
870.84	5109
870.97	4961
871.1	4854
871.23	5147
871.36	5105
871.489	5041
871.619	4999
871.749	5079
871.879	5140
872.008	5170
872.138	5071
872.267	4999
872.397	4862
872.526	4831
872.656	4649
872.785	4854
872.915	4961
873.044	5006
873.173	4927
873.303	4938
873.432	4965
873.561	5025
873.69	4850
873.819	4854
873.948	4870
874.077	4812
874.206	4717
874.335	4755
874.464	4911
874.593	5010
874.722	4911
874.851	5041
874.979	5025
875.108	4999
875.237	4881
875.365	4892
875.494	4896
875.623	4957
875.751	4786
875.88	4904
876.008	4980
876.136	5014
876.265	5193
876.393	5334
876.521	5242
876.65	5197
876.778	5162
876.906	5071
877.034	4972
877.162	5052
877.29	4995
877.418	5056
877.546	5010
877.674	5060
877.802	5003
877.93	5018
878.058	4976
878.185	4866
878.313	4908
878.441	4919
878.568	4733
878.696	4911
878.824	4919
878.951	4980
879.079	5060
879.206	5269
879.333	5071
879.461	4972
879.588	4999
879.715	5113
879.842	5197
879.97	5010
880.097	4790
880.224	4694
880.351	4782
880.478	4793
880.605	4793
880.732	4797
880.859	5071
880.986	4904
881.112	4866
881.239	4782
881.366	4691
881.493	4622
881.619	4565
881.746	4588
881.872	4596
881.999	4649
882.125	4687
882.252	4733
882.378	4835
882.505	4923
882.631	4812
882.757	4641
882.883	4717
883.01	4672
883.136	4653
883.262	4554
883.388	4634
883.514	4809
883.64	4797
883.766	4828
883.892	4656
884.018	4672
884.143	4904
884.269	4995
884.395	4668
884.52	4660
884.646	4664
884.772	4554
884.897	4565
885.023	4607
885.148	4767
885.274	4904
885.399	4843
885.524	4752
885.65	4664
885.775	4740
885.9	4763
886.025	4820
886.15	4797
886.275	4721
886.4	4626
886.525	4729
886.65	4668
886.775	4706
886.9	4870
887.025	5025
887.149	4850
887.274	4599
887.399	4592
887.523	4565
887.648	4527
887.773	4577
887.897	4774
888.021	4733
888.146	4653
888.27	4820
888.395	4854
888.519	4759
888.643	4790
888.767	4831
888.891	4694
889.015	4599
889.139	4656
889.263	4622
889.387	4744
889.511	4843
889.635	4782
889.759	4622
889.883	4694
890.006	4717
890.13	4816
890.254	4569
890.377	4683
890.501	4508
890.624	4497
890.748	4611
890.871	4489
890.995	4409
891.118	4383
891.241	4489
891.364	4550
891.488	4656
891.611	4470
891.734	4565
891.857	4558
891.98	4538
892.103	4664
892.226	4588
892.349	4497
892.471	4447
892.594	4493
892.717	4558
892.839	4596
892.962	4558
893.085	4622
893.207	4580
893.33	4478
893.452	4474
893.575	4618
893.697	4580
893.819	4774
893.941	4885
894.064	4771
894.186	4531
894.308	4508
894.43	4755
894.552	4828
894.674	4744
894.796	4500
894.918	4592
895.04	4527
895.161	4694
895.283	4641
895.405	4573
895.526	4615
895.648	4679
895.769	4694
895.891	4733
896.012	4733
896.134	4729
896.255	4679
896.376	4664
896.498	4611
896.619	4664
896.74	4615
896.861	4687
896.982	4949
897.103	5064
897.224	4847
897.345	4710
897.466	4698
897.587	4782
897.708	4828
897.828	4771
897.949	4649
898.07	4611
898.19	4649
898.311	4816
898.431	4668
898.552	4733
898.672	4793
898.792	4793
898.913	4729
899.033	4641
899.153	4478
899.273	4398
899.393	4500
899.513	4516
899.633	4523
899.753	4535
899.873	4508
899.993	4592
900.113	4535
900.232	4580
900.352	4554
900.472	4424
900.591	4421
900.711	4413
900.83	4440
900.95	4615
901.069	4653
901.189	4512
901.308	4363
901.427	4310
901.546	4344
901.665	4481
901.784	4516
901.904	4409
902.023	4306
902.141	4169
902.26	4135
902.379	4272
902.498	4230
902.617	4230
902.735	4402
902.854	4367
902.973	4337
903.091	4188
903.21	4249
903.328	4333
903.446	4257
903.565	4238
903.683	4375
903.801	4295
903.919	4386
904.038	4402
904.156	4257
904.274	4409
904.392	4352
904.51	4390
904.627	4481
904.745	4584
904.863	4615
904.981	4375
905.098	4310
905.216	4379
905.334	4428
905.451	4451
905.569	4432
905.686	4596
905.803	4538
905.921	4394
906.038	4519
906.155	4531
906.272	4394
906.389	4413
906.506	4344
906.623	4379
906.74	4390
906.857	4299
906.974	4383
907.091	4573
907.208	4641
907.324	4599
907.441	4481
907.557	4371
907.674	4344
907.79	4322
907.907	4409
908.023	4523
908.139	4500
908.256	4386
908.372	4466
908.488	4447
908.604	4363
908.72	4352
908.836	4379
908.952	4394
909.068	4421
909.184	4535
909.3	4466
909.415	4523
909.531	4519
909.647	4367
909.762	4386
909.878	4348
909.993	4424
910.108	4375
910.224	4428
910.339	4497
910.454	4451
910.57	4371
910.685	4344
910.8	4653
910.915	4618
911.03	4512
911.145	4322
911.259	4303
911.374	4348
911.489	4246
911.604	4261
911.718	4169
911.833	4230
911.947	4128
912.062	4010
912.176	4192
912.291	4265
912.405	4291
912.519	4432
912.633	4497
912.748	4348
912.862	4272
912.976	4211
913.09	4097
913.204	4223
913.318	4268
913.431	4394
913.545	4367
913.659	4478
913.772	4337
913.886	4223
914	4200
914.113	4402
914.226	4436
914.34	4360
914.453	4211
914.566	4462
914.68	4310
914.793	4291
914.906	4185
915.019	4112
915.132	4116
915.245	4162
915.358	4169
915.47	4234
915.583	4242
915.696	4299
915.809	4398
915.921	4451
916.034	4227
916.146	4238
916.259	4238
916.371	4356
916.483	4333
916.595	4246
916.708	4318
916.82	4322
916.932	4318
917.044	4352
917.156	4295
917.268	4253
917.38	4257
917.491	4234
917.603	4344
917.715	4436
917.826	4436
917.938	4329
918.049	4238
918.161	4394
918.272	4504
918.384	4508
918.495	4421
918.606	4287
918.717	4261
918.828	4352
918.939	4341
919.05	4223
919.161	4375
919.272	4135
919.383	4215
919.494	4394
919.604	4618
919.715	4424
919.826	4341
919.936	4413
920.047	4508
920.157	4462
920.267	4698
920.378	4569
920.488	4523
920.598	4729
920.708	4881
920.818	4774
920.928	4725
921.038	4957
921.148	4889
921.258	4622
921.368	4546
921.477	4485
921.587	4432
921.697	4424
921.806	4577
921.916	4443
922.025	4246
922.134	4276
922.244	4227
922.353	4352
922.462	4143
922.571	4097
922.68	3994
922.789	3956
922.898	4021
923.007	3987
923.116	4131
923.224	4078
923.333	4044
923.442	3983
923.55	3994
923.659	3991
923.767	4112
923.876	4044
923.984	4097
924.092	3987
924.201	4051
924.309	4093
924.417	4051
924.525	4090
924.633	4067
924.741	5048
924.849	3884
924.956	4139
925.064	3945
925.172	3884
925.279	3899
925.387	4059
925.494	4044
925.602	4196
925.709	4204
925.816	4032
925.924	4086
926.031	4249
926.138	4166
926.245	4196
926.352	4059
926.459	4219
926.566	4337
926.673	4135
926.779	4093
926.886	4078
926.993	3991
927.099	3953
927.206	3896
927.312	3953
927.419	4059
927.525	4017
927.631	4071
927.737	3964
927.843	3945
927.95	3808
928.056	3926
928.162	3968
928.267	3987
928.373	4554
928.479	4120
928.585	3846
928.69	4017
928.796	4067
928.901	3937
929.007	3846
929.112	3994
929.218	3994
929.323	3926
929.428	3937
929.533	4109
929.638	3896
929.743	3937
929.848	4101
929.953	3994
930.058	3922
930.163	3793
930.267	3789
930.372	3953
930.477	3800
930.581	4063
930.685	3945
930.79	3816
930.894	3804
930.998	3846
931.103	4036
931.207	3660
931.311	3701
931.415	3660
931.519	3542
931.623	3515
