Data from test_V78500241_1864.txt Node
Date: Fri Mar 25 17:01:57 CST 2022
User: usil
Spectrometer: V785-0024
Trigger mode: 0
Integration Time (sec): 4.000000E-1
Scans to average: 1
Nonlinearity correction enabled: false
Boxcar width: 0
Storing dark spectrum: false
XAxis mode: Wavelengths
Number of Pixels in Spectrum: 1024
>>>>>Begin Spectral Data<<<<<
801.071	8012
801.214	7978
801.356	7864
801.499	7795
801.641	7769
801.783	7807
801.926	7925
802.068	7925
802.211	7986
802.353	7967
802.496	7807
802.638	7822
802.78	7902
802.923	7887
803.065	7811
803.208	7841
803.35	7925
803.492	8046
803.635	8221
803.777	7993
803.919	8126
804.061	8389
804.204	8153
804.346	8119
804.488	7982
804.63	8065
804.773	7989
804.915	8062
805.057	8309
805.199	8107
805.341	8176
805.483	8229
805.626	8195
805.768	8149
805.91	8218
806.052	8309
806.194	8092
806.336	8320
806.478	8088
806.62	8073
806.762	8115
806.904	8294
807.046	8438
807.188	8271
807.33	8271
807.472	8366
807.614	8142
807.756	8138
807.898	7967
808.04	7902
808.182	7833
808.324	7784
808.465	7909
808.607	8195
808.749	8111
808.891	8263
809.033	8271
809.174	8168
809.316	8020
809.458	8031
809.6	8027
809.741	8039
809.883	8050
810.025	8126
810.166	8069
810.308	7974
810.45	8035
810.591	7909
810.733	7757
810.875	7666
811.016	7514
811.158	7499
811.299	7590
811.441	7700
811.582	7658
811.724	7594
811.865	7487
812.007	7605
812.148	7559
812.29	7620
812.431	7696
812.573	7928
812.714	7974
812.855	8107
812.997	8183
813.138	8324
813.279	8142
813.421	8050
813.562	8001
813.703	7822
813.845	7734
813.986	7445
814.127	7263
814.268	7202
814.41	7244
814.551	7187
814.692	7202
814.833	7057
814.974	7038
815.115	7122
815.256	6970
815.397	6916
815.539	6920
815.68	6852
815.821	6692
815.962	6837
816.103	6821
816.244	6654
816.385	6536
816.526	6608
816.666	6502
816.807	6273
816.948	6467
817.089	6407
817.23	6429
817.371	6380
817.512	6361
817.653	6395
817.793	6361
817.934	6429
818.075	6521
818.216	6471
818.356	6414
818.497	6281
818.638	6159
818.778	6129
818.919	6091
819.06	6171
819.2	6308
819.341	6304
819.481	6372
819.622	6555
819.762	6696
819.903	6692
820.043	6646
820.184	6509
820.324	6563
820.465	6715
820.605	6703
820.746	6616
820.886	6483
821.026	6593
821.167	6662
821.307	6772
821.447	6722
821.588	6677
821.728	6563
821.868	6540
822.008	6323
822.149	6350
822.289	6327
822.429	6152
822.569	6117
822.709	6110
822.849	5973
822.99	5916
823.13	5920
823.27	5939
823.41	5745
823.55	5764
823.69	5756
823.83	5794
823.97	5623
824.11	5532
824.25	5547
824.389	5551
824.529	5589
824.669	5566
824.809	5627
824.949	5627
825.089	5596
825.228	5547
825.368	5345
825.508	5376
825.648	5387
825.787	5410
825.927	5353
826.067	5288
826.206	5258
826.346	5341
826.485	5379
826.625	5455
826.765	5562
826.904	5482
827.044	5273
827.183	5189
827.323	5098
827.462	5197
827.601	5174
827.741	5189
827.88	5201
828.02	5086
828.159	5212
828.298	5303
828.437	5337
828.577	5315
828.716	5463
828.855	5299
828.994	5121
829.134	5113
829.273	5208
829.412	5147
829.551	5166
829.69	5201
829.829	5227
829.968	5337
830.107	5220
830.246	5258
830.385	5132
830.524	5117
830.663	5060
830.802	4930
830.941	4866
831.08	4881
831.219	5003
831.357	4896
831.496	5185
831.635	4991
831.774	4797
831.913	4797
832.051	4729
832.19	4729
832.329	4847
832.467	4660
832.606	4660
832.744	4725
832.883	4706
833.022	4702
833.16	4771
833.299	4816
833.437	4820
833.576	4816
833.714	4828
833.852	4816
833.991	4915
834.129	4942
834.267	4972
834.406	4900
834.544	4968
834.682	4961
834.821	4965
834.959	5208
835.097	5022
835.235	5143
835.373	5060
835.511	5105
835.65	5006
835.788	4999
835.926	4889
836.064	4892
836.202	4908
836.34	5181
836.478	5227
836.615	5105
836.753	5250
836.891	5269
837.029	5258
837.167	5220
837.305	5174
837.443	5147
837.58	5041
837.718	5220
837.856	5147
837.993	5094
838.131	5239
838.269	5227
838.406	5189
838.544	5185
838.681	5056
838.819	5010
838.956	4862
839.094	4858
839.231	4980
839.369	5113
839.506	5398
839.643	5231
839.781	5071
839.918	5056
840.055	5140
840.193	5052
840.33	5045
840.467	5166
840.604	5159
840.742	5379
840.879	5052
841.016	5075
841.153	5151
841.29	5372
841.427	5341
841.564	5330
841.701	5326
841.838	5269
841.975	5178
842.112	5265
842.249	5102
842.385	5132
842.522	5299
842.659	5193
842.796	5166
842.933	5162
843.069	5174
843.206	5121
843.343	5284
843.479	5246
843.616	5246
843.752	5113
843.889	4946
844.025	5208
844.162	5037
844.298	5208
844.435	5025
844.571	5045
844.708	5181
844.844	5269
844.98	5292
845.117	5220
845.253	5121
845.389	5022
845.525	5178
845.661	5147
845.798	5003
845.934	5102
846.07	5029
846.206	5204
846.342	5216
846.478	5181
846.614	5064
846.75	5010
846.886	4919
847.022	5098
847.158	4987
847.294	5079
847.429	5102
847.565	4999
847.701	5322
847.837	4824
847.972	4767
848.108	4957
848.244	4942
848.379	4820
848.515	4710
848.65	4714
848.786	4759
848.921	4736
849.057	4881
849.192	4873
849.328	4774
849.463	4839
849.598	4763
849.734	4774
849.869	4615
850.004	4645
850.14	4691
850.275	4577
850.41	4542
850.545	4542
850.68	4596
850.815	4573
850.95	4626
851.085	4824
851.22	4752
851.355	4653
851.49	4584
851.625	4660
851.76	4626
851.895	4546
852.03	4504
852.165	4710
852.299	4744
852.434	4786
852.569	4763
852.703	4771
852.838	4847
852.973	4923
853.107	4850
853.242	4702
853.376	4675
853.511	4538
853.645	4630
853.78	4774
853.914	4668
854.048	4679
854.183	4634
854.317	4679
854.451	4854
854.585	4683
854.72	4653
854.854	4740
854.988	4626
855.122	4645
855.256	4481
855.39	4653
855.524	4748
855.658	4714
855.792	4672
855.926	4721
856.06	4759
856.194	4801
856.327	4668
856.461	4641
856.595	4580
856.729	4656
856.862	4721
856.996	4702
857.13	4687
857.263	4774
857.397	4835
857.53	4729
857.664	4710
857.797	4744
857.931	4786
858.064	4679
858.197	4706
858.331	4656
858.464	4519
858.597	4508
858.731	4637
858.864	4588
858.997	4618
859.13	4615
859.263	4702
859.396	4702
859.529	4550
859.662	4538
859.795	4599
859.928	4584
860.061	4740
860.194	4729
860.327	4626
860.46	4561
860.592	4691
860.725	4725
860.858	4736
860.99	4573
861.123	4523
861.256	4497
861.388	4588
861.521	5258
861.653	4451
861.786	4462
861.918	4470
862.05	4535
862.183	4546
862.315	4573
862.447	4641
862.58	4558
862.712	4352
862.844	4325
862.976	4478
863.108	4440
863.24	4854
863.372	4341
863.504	4379
863.636	4398
863.768	4489
863.9	4459
864.032	4344
864.164	4409
864.296	4478
864.428	4508
864.559	4569
864.691	4538
864.823	4538
864.954	4474
865.086	4523
865.217	4451
865.349	4443
865.48	4459
865.612	4497
865.743	4649
865.875	4432
866.006	4394
866.137	4542
866.269	4409
866.4	4459
866.531	4394
866.662	4383
866.793	4424
866.924	4455
867.055	4462
867.186	4424
867.317	4386
867.448	4394
867.579	4390
867.71	4413
867.841	4367
867.972	4466
868.103	4504
868.233	4421
868.364	4424
868.495	4466
868.625	4660
868.756	4714
868.886	4565
869.017	4580
869.147	4733
869.278	4771
869.408	4630
869.539	4535
869.669	4714
869.799	4683
869.929	4801
870.06	4755
870.19	4949
870.32	4896
870.45	4942
870.58	5010
870.71	5090
870.84	5113
870.97	4889
871.1	4881
871.23	5098
871.36	5124
871.489	5010
871.619	5052
871.749	5071
871.879	5079
872.008	5185
872.138	5045
872.267	5022
872.397	4850
872.526	4843
872.656	4687
872.785	4786
872.915	4938
873.044	5025
873.173	4923
873.303	4927
873.432	4896
873.561	4927
873.69	4889
873.819	4858
873.948	4919
874.077	4774
874.206	4755
874.335	4767
874.464	4957
874.593	5022
874.722	4965
874.851	5098
874.979	5071
875.108	5052
875.237	4930
875.365	4866
875.494	4839
875.623	4980
875.751	4812
875.88	4877
876.008	5025
876.136	4987
876.265	5193
876.393	5353
876.521	5235
876.65	5235
876.778	5143
876.906	5041
877.034	5037
877.162	5014
877.29	4946
877.418	5052
877.546	4991
877.674	5086
877.802	5014
877.93	4984
878.058	4938
878.185	4850
878.313	4927
878.441	4949
878.568	4797
878.696	4866
878.824	4927
878.951	4957
879.079	5102
879.206	5277
879.333	5045
879.461	4949
879.588	5006
879.715	5071
879.842	5216
879.97	5006
880.097	4812
880.224	4763
880.351	4797
880.478	4858
880.605	4812
880.732	4801
880.859	5052
880.986	4862
881.112	4900
881.239	4790
881.366	4668
881.493	4580
881.619	4554
881.746	4645
881.872	4630
881.999	4664
882.125	4660
882.252	4790
882.378	4782
882.505	4927
882.631	4812
882.757	4694
882.883	4714
883.01	4706
883.136	4672
883.262	4569
883.388	4603
883.514	4839
883.64	4797
883.766	4862
883.892	4702
884.018	4683
884.143	4904
884.269	4991
884.395	4725
884.52	4618
884.646	4630
884.772	4596
884.897	4558
885.023	4626
885.148	4786
885.274	4839
885.399	4793
885.524	4706
885.65	4714
885.775	4767
885.9	4710
886.025	4870
886.15	4835
886.275	4702
886.4	4660
886.525	4729
886.65	4668
886.775	4683
886.9	4870
887.025	5022
887.149	4733
887.274	4672
887.399	4535
887.523	4603
887.648	4596
887.773	4580
887.897	4763
888.021	4793
888.146	4664
888.27	4774
888.395	4911
888.519	4801
888.643	4824
888.767	4831
888.891	4694
889.015	4607
889.139	4664
889.263	4592
889.387	4744
889.511	4831
889.635	4736
889.759	4637
889.883	4668
890.006	4694
890.13	4786
890.254	4607
890.377	4672
890.501	4565
890.624	4497
890.748	4653
890.871	4523
890.995	4466
891.118	4417
891.241	4455
891.364	4546
891.488	4649
891.611	4447
891.734	4523
891.857	4622
891.98	4577
892.103	4649
892.226	4630
892.349	4573
892.471	4375
892.594	4527
892.717	4561
892.839	4550
892.962	4603
893.085	4618
893.207	4577
893.33	4405
893.452	4500
893.575	4592
893.697	4565
893.819	4786
893.941	4870
894.064	4710
894.186	4611
894.308	4588
894.43	4725
894.552	4839
894.674	4694
894.796	4599
894.918	4573
895.04	4546
895.161	4675
895.283	4679
895.405	4558
895.526	4607
895.648	4675
895.769	4656
895.891	4706
896.012	4771
896.134	4672
896.255	4675
896.376	4603
896.498	4630
896.619	4687
896.74	4573
896.861	4615
896.982	4957
897.103	5113
897.224	4782
897.345	4706
897.466	4702
897.587	4714
897.708	4858
897.828	4759
897.949	4721
898.07	4611
898.19	4626
898.311	4881
898.431	4679
898.552	4740
898.672	4786
898.792	4778
898.913	4725
899.033	4596
899.153	4489
899.273	4462
899.393	4478
899.513	4527
899.633	4500
899.753	4512
899.873	4535
899.993	4523
900.113	4519
900.232	4615
900.352	4504
900.472	4565
900.591	4390
900.711	4478
900.83	4436
900.95	4588
901.069	4683
901.189	4573
901.308	4360
901.427	4291
901.546	4325
901.665	4424
901.784	4489
901.904	4383
902.023	4322
902.141	4242
902.26	4143
902.379	4284
902.498	4234
902.617	4204
902.735	4375
902.854	4421
902.973	4287
903.091	4173
903.21	4249
903.328	4329
903.446	4276
903.565	4261
903.683	4344
903.801	4249
903.919	4371
904.038	4455
904.156	4268
904.274	4432
904.392	4383
904.51	4383
904.627	4489
904.745	4615
904.863	4607
904.981	4394
905.098	4287
905.216	4325
905.334	4451
905.451	4443
905.569	4440
905.686	4592
905.803	4538
905.921	4390
906.038	4558
906.155	4470
906.272	4413
906.389	4432
906.506	4363
906.623	4329
906.74	4379
906.857	4268
906.974	4356
907.091	4527
907.208	4626
907.324	4535
907.441	4474
907.557	4348
907.674	4371
907.79	4314
907.907	4348
908.023	4527
908.139	4436
908.256	4428
908.372	4428
908.488	4451
908.604	4356
908.72	4367
908.836	4360
908.952	4363
909.068	4421
909.184	4550
909.3	4497
909.415	4607
909.531	4546
909.647	4344
909.762	4383
909.878	4314
909.993	4470
910.108	4421
910.224	4379
910.339	4466
910.454	4443
910.57	4394
910.685	4314
910.8	4679
910.915	4626
911.03	4546
911.145	4329
911.259	4363
911.374	4383
911.489	4322
911.604	4291
911.718	4204
911.833	4169
911.947	4078
912.062	4071
912.176	4234
912.291	4261
912.405	4227
912.519	4470
912.633	4504
912.748	4344
912.862	4295
912.976	4207
913.09	4097
913.204	4169
913.318	4272
913.431	4402
913.545	4379
913.659	4386
913.772	4356
913.886	4249
914	4219
914.113	4413
914.226	4417
914.34	4409
914.453	4322
914.566	4386
914.68	4329
914.793	4322
914.906	4169
915.019	4120
915.132	4063
915.245	4166
915.358	4215
915.47	4158
915.583	4257
915.696	4265
915.809	4417
915.921	4413
916.034	4215
916.146	4257
916.259	4207
916.371	4356
916.483	4356
916.595	4257
916.708	4306
916.82	4314
916.932	4303
917.044	4306
917.156	4333
917.268	4200
917.38	4253
917.491	4265
917.603	4352
917.715	4409
917.826	4432
917.938	4291
918.049	4238
918.161	4360
918.272	4577
918.384	4554
918.495	4459
918.606	4306
918.717	4215
918.828	4341
918.939	4413
919.05	4253
919.161	4295
919.272	4116
919.383	4223
919.494	4417
919.604	4603
919.715	4424
919.826	4318
919.936	4360
920.047	4508
920.157	4535
920.267	4733
920.378	4497
920.488	4508
920.598	4664
920.708	4885
920.818	4782
920.928	4805
921.038	4946
921.148	4938
921.258	4603
921.368	4546
921.477	4485
921.587	4466
921.697	4367
921.806	4550
921.916	4405
922.025	4242
922.134	4223
922.244	4234
922.353	4337
922.462	4147
922.571	4139
922.68	4010
922.789	3956
922.898	4059
923.007	3972
923.116	4082
923.224	4063
923.333	4063
923.442	3972
923.55	3930
923.659	4021
923.767	4105
923.876	4013
923.984	4074
924.092	4032
924.201	4078
924.309	4086
924.417	4078
924.525	4120
924.633	4090
924.741	5018
924.849	3953
924.956	4109
925.064	3972
925.172	3899
925.279	3960
925.387	4074
925.494	4063
925.602	4207
925.709	4177
925.816	4025
925.924	4166
926.031	4211
926.138	4154
926.245	4253
926.352	4078
926.459	4227
926.566	4310
926.673	4120
926.779	4055
926.886	4059
926.993	3945
927.099	3964
927.206	3911
927.312	3899
927.419	4036
927.525	4036
927.631	4105
927.737	3979
927.843	3937
927.95	3857
928.056	3979
928.162	3960
928.267	4063
928.373	4546
928.479	4135
928.585	3850
928.69	4013
928.796	4109
928.901	4036
929.007	3800
929.112	3998
929.218	3975
929.323	3915
929.428	3926
929.533	4093
929.638	3922
929.743	3949
929.848	4002
929.953	4010
930.058	3979
930.163	3762
930.267	3827
930.372	3987
930.477	3827
930.581	4109
930.685	3964
930.79	3762
930.894	3865
930.998	3854
931.103	4017
931.207	3656
931.311	3671
931.415	3705
931.519	3519
931.623	3526
