Data from test_V78500241_892.txt Node
Date: Fri Mar 25 16:55:12 CST 2022
User: usil
Spectrometer: V785-0024
Trigger mode: 0
Integration Time (sec): 4.000000E-1
Scans to average: 1
Nonlinearity correction enabled: false
Boxcar width: 0
Storing dark spectrum: false
XAxis mode: Wavelengths
Number of Pixels in Spectrum: 1024
>>>>>Begin Spectral Data<<<<<
801.071	8065
801.214	8043
801.356	7890
801.499	7856
801.641	7811
801.783	7792
801.926	7993
802.068	7944
802.211	7940
802.353	7951
802.496	7864
802.638	7849
802.78	7849
802.923	7913
803.065	7909
803.208	7890
803.35	7986
803.492	8020
803.635	8161
803.777	8016
803.919	8145
804.061	8469
804.204	8077
804.346	8039
804.488	8031
804.63	8130
804.773	8024
804.915	8046
805.057	8237
805.199	8130
805.341	8240
805.483	8252
805.626	8233
805.768	8100
805.91	8115
806.052	8191
806.194	8016
806.336	8275
806.478	8092
806.62	8050
806.762	8138
806.904	8320
807.046	8499
807.188	8317
807.33	8324
807.472	8301
807.614	8229
807.756	8138
807.898	8005
808.04	7890
808.182	7894
808.324	7894
808.465	7879
808.607	8050
808.749	8069
808.891	8138
809.033	8301
809.174	8210
809.316	8069
809.458	8054
809.6	7909
809.741	8043
809.883	8016
810.025	8084
810.166	8084
810.308	8016
810.45	7986
810.591	7887
810.733	7757
810.875	7708
811.016	7521
811.158	7487
811.299	7605
811.441	7696
811.582	7666
811.724	7582
811.865	7582
812.007	7559
812.148	7613
812.29	7658
812.431	7746
812.573	7883
812.714	7970
812.855	8092
812.997	8229
813.138	8248
813.279	8199
813.421	8115
813.562	7986
813.703	7868
813.845	7833
813.986	7430
814.127	7236
814.268	7266
814.41	7175
814.551	7110
814.692	7129
814.833	7019
814.974	7206
815.115	7050
815.256	6897
815.397	6924
815.539	6920
815.68	6798
815.821	6772
815.962	6875
816.103	6840
816.244	6692
816.385	6650
816.526	6601
816.666	6490
816.807	6258
816.948	6437
817.089	6448
817.23	6445
817.371	6311
817.512	6403
817.653	6372
817.793	6350
817.934	6429
818.075	6433
818.216	6410
818.356	6346
818.497	6201
818.638	6121
818.778	6148
818.919	6163
819.06	6129
819.2	6304
819.341	6346
819.481	6319
819.622	6456
819.762	6719
819.903	6665
820.043	6544
820.184	6616
820.324	6551
820.465	6631
820.605	6646
820.746	6662
820.886	6483
821.026	6654
821.167	6604
821.307	6829
821.447	6738
821.588	6631
821.728	6563
821.868	6426
822.008	6361
822.149	6338
822.289	6342
822.429	6186
822.569	6083
822.709	6110
822.849	5916
822.99	5878
823.13	5840
823.27	5889
823.41	5809
823.55	5756
823.69	5767
823.83	5809
823.97	5665
824.11	5539
824.25	5543
824.389	5524
824.529	5551
824.669	5577
824.809	5615
824.949	5596
825.089	5596
825.228	5611
825.368	5372
825.508	5337
825.648	5273
825.787	5395
825.927	5349
826.067	5315
826.206	5303
826.346	5360
826.485	5414
826.625	5417
826.765	5512
826.904	5471
827.044	5235
827.183	5193
827.323	5083
827.462	5197
827.601	5166
827.741	5121
827.88	5185
828.02	5128
828.159	5242
828.298	5334
828.437	5345
828.577	5296
828.716	5528
828.855	5265
828.994	5181
829.134	5162
829.273	5197
829.412	5090
829.551	5079
829.69	5151
829.829	5208
829.968	5322
830.107	5235
830.246	5299
830.385	5155
830.524	5079
830.663	5045
830.802	4949
830.941	4889
831.08	4839
831.219	4934
831.357	4938
831.496	5140
831.635	4946
831.774	4816
831.913	4812
832.051	4679
832.19	4729
832.329	4839
832.467	4694
832.606	4618
832.744	4736
832.883	4729
833.022	4763
833.16	4801
833.299	4850
833.437	4809
833.576	4850
833.714	4870
833.852	4824
833.991	4866
834.129	4987
834.267	4919
834.406	4877
834.544	4927
834.682	4968
834.821	4965
834.959	5174
835.097	4957
835.235	5083
835.373	5124
835.511	5132
835.65	5003
835.788	5052
835.926	4843
836.064	4885
836.202	4953
836.34	5136
836.478	5185
836.615	5090
836.753	5181
836.891	5269
837.029	5239
837.167	5185
837.305	5113
837.443	5128
837.58	5102
837.718	5258
837.856	5193
837.993	5105
838.131	5216
838.269	5220
838.406	5227
838.544	5174
838.681	4995
838.819	4991
838.956	4896
839.094	4927
839.231	4968
839.369	5140
839.506	5467
839.643	5292
839.781	5090
839.918	4995
840.055	5090
840.193	5071
840.33	5052
840.467	5071
840.604	5162
840.742	5372
840.879	5094
841.016	5090
841.153	5189
841.29	5326
841.427	5318
841.564	5231
841.701	5303
841.838	5239
841.975	5220
842.112	5216
842.249	5124
842.385	5105
842.522	5315
842.659	5140
842.796	5170
842.933	5170
843.069	5201
843.206	5178
843.343	5280
843.479	5246
843.616	5231
843.752	4984
843.889	4995
844.025	5197
844.162	4927
844.298	5178
844.435	5083
844.571	5033
844.708	5136
844.844	5341
844.98	5360
845.117	5269
845.253	5075
845.389	5052
845.525	5136
845.661	5132
845.798	5006
845.934	5155
846.07	5014
846.206	5201
846.342	5227
846.478	5185
846.614	5014
846.75	4957
846.886	4908
847.022	5090
847.158	4965
847.294	5052
847.429	5090
847.565	5052
847.701	5280
847.837	4824
847.972	4816
848.108	4965
848.244	4862
848.379	4797
848.515	4683
848.65	4736
848.786	4717
848.921	4748
849.057	4915
849.192	4881
849.328	4812
849.463	4809
849.598	4850
849.734	4816
849.869	4691
850.004	4596
850.14	4637
850.275	4622
850.41	4493
850.545	4527
850.68	4653
850.815	4622
850.95	4622
851.085	4850
851.22	4748
851.355	4653
851.49	4630
851.625	4611
851.76	4630
851.895	4523
852.03	4504
852.165	4596
852.299	4725
852.434	4782
852.569	4668
852.703	4774
852.838	4790
852.973	4908
853.107	4923
853.242	4752
853.376	4618
853.511	4573
853.645	4615
853.78	4771
853.914	4675
854.048	4683
854.183	4641
854.317	4710
854.451	4843
854.585	4637
854.72	4580
854.854	4691
854.988	4565
855.122	4618
855.256	4481
855.39	4649
855.524	4755
855.658	4725
855.792	4706
855.926	4748
856.06	4733
856.194	4816
856.327	4664
856.461	4573
856.595	4596
856.729	4622
856.862	4736
856.996	4672
857.13	4687
857.263	4729
857.397	4778
857.53	4615
857.664	4706
857.797	4763
857.931	4790
858.064	4660
858.197	4725
858.331	4683
858.464	4569
858.597	4474
858.731	4618
858.864	4653
858.997	4535
859.13	4622
859.263	4672
859.396	4710
859.529	4588
859.662	4561
859.795	4489
859.928	4603
860.061	4778
860.194	4733
860.327	4588
860.46	4584
860.592	4702
860.725	4755
860.858	4698
860.99	4603
861.123	4508
861.256	4459
861.388	4580
861.521	5189
861.653	4436
861.786	4478
861.918	4455
862.05	4485
862.183	4493
862.315	4538
862.447	4634
862.58	4535
862.712	4413
862.844	4367
862.976	4478
863.108	4443
863.24	4744
863.372	4341
863.504	4371
863.636	4386
863.768	4455
863.9	4402
864.032	4329
864.164	4413
864.296	4383
864.428	4538
864.559	4538
864.691	4481
864.823	4527
864.954	4470
865.086	4512
865.217	4500
865.349	4428
865.48	4421
865.612	4504
865.743	4645
865.875	4390
866.006	4455
866.137	4466
866.269	4447
866.4	4421
866.531	4424
866.662	4405
866.793	4405
866.924	4390
867.055	4440
867.186	4413
867.317	4379
867.448	4413
867.579	4394
867.71	4375
867.841	4386
867.972	4443
868.103	4462
868.233	4421
868.364	4436
868.495	4440
868.625	4634
868.756	4763
868.886	4531
869.017	4611
869.147	4740
869.278	4714
869.408	4679
869.539	4645
869.669	4691
869.799	4622
869.929	4774
870.06	4721
870.19	4896
870.32	4919
870.45	4923
870.58	4968
870.71	5121
870.84	5098
870.97	4934
871.1	4889
871.23	5185
871.36	5121
871.489	5041
871.619	5109
871.749	5094
871.879	5052
872.008	5132
872.138	5090
872.267	4968
872.397	4877
872.526	4797
872.656	4694
872.785	4801
872.915	4930
873.044	5006
873.173	4972
873.303	4927
873.432	4934
873.561	4949
873.69	4908
873.819	4824
873.948	4911
874.077	4801
874.206	4733
874.335	4809
874.464	4896
874.593	5010
874.722	4946
874.851	5083
874.979	5083
875.108	5033
875.237	4839
875.365	4850
875.494	4843
875.623	4942
875.751	4790
875.88	4877
876.008	4953
876.136	4949
876.265	5201
876.393	5379
876.521	5201
876.65	5208
876.778	5155
876.906	5064
877.034	5037
877.162	5064
877.29	4957
877.418	5071
877.546	4987
877.674	4991
877.802	4991
877.93	5041
878.058	4949
878.185	4858
878.313	4934
878.441	4938
878.568	4786
878.696	4881
878.824	4919
878.951	4999
879.079	5090
879.206	5280
879.333	5098
879.461	4953
879.588	4976
879.715	5151
879.842	5216
879.97	5014
880.097	4763
880.224	4706
880.351	4824
880.478	4858
880.605	4733
880.732	4812
880.859	5075
880.986	4900
881.112	4885
881.239	4820
881.366	4679
881.493	4645
881.619	4573
881.746	4607
881.872	4664
881.999	4641
882.125	4706
882.252	4774
882.378	4801
882.505	4987
882.631	4778
882.757	4637
882.883	4698
883.01	4740
883.136	4656
883.262	4546
883.388	4607
883.514	4805
883.64	4858
883.766	4809
883.892	4675
884.018	4759
884.143	4862
884.269	4965
884.395	4653
884.52	4596
884.646	4637
884.772	4592
884.897	4558
885.023	4649
885.148	4733
885.274	4904
885.399	4778
885.524	4714
885.65	4698
885.775	4797
885.9	4721
886.025	4881
886.15	4793
886.275	4729
886.4	4706
886.525	4687
886.65	4736
886.775	4653
886.9	4904
887.025	5056
887.149	4771
887.274	4649
887.399	4554
887.523	4611
887.648	4561
887.773	4569
887.897	4778
888.021	4797
888.146	4634
888.27	4801
888.395	4877
888.519	4790
888.643	4816
888.767	4805
888.891	4656
889.015	4569
889.139	4641
889.263	4584
889.387	4748
889.511	4828
889.635	4793
889.759	4649
889.883	4626
890.006	4714
890.13	4801
890.254	4618
890.377	4675
890.501	4538
890.624	4512
890.748	4653
890.871	4527
890.995	4375
891.118	4390
891.241	4519
891.364	4493
891.488	4592
891.611	4478
891.734	4504
891.857	4622
891.98	4527
892.103	4611
892.226	4622
892.349	4504
892.471	4375
892.594	4569
892.717	4592
892.839	4588
892.962	4588
893.085	4675
893.207	4580
893.33	4440
893.452	4481
893.575	4687
893.697	4561
893.819	4767
893.941	4793
894.064	4748
894.186	4531
894.308	4554
894.43	4706
894.552	4835
894.674	4733
894.796	4554
894.918	4531
895.04	4569
895.161	4641
895.283	4618
895.405	4558
895.526	4611
895.648	4698
895.769	4660
895.891	4729
896.012	4668
896.134	4702
896.255	4672
896.376	4615
896.498	4558
896.619	4656
896.74	4573
896.861	4645
896.982	4900
897.103	5045
897.224	4816
897.345	4797
897.466	4702
897.587	4797
897.708	4870
897.828	4736
897.949	4645
898.07	4546
898.19	4645
898.311	4801
898.431	4656
898.552	4706
898.672	4771
898.792	4774
898.913	4706
899.033	4596
899.153	4466
899.273	4394
899.393	4497
899.513	4523
899.633	4493
899.753	4531
899.873	4527
899.993	4588
900.113	4516
900.232	4592
900.352	4516
900.472	4459
900.591	4428
900.711	4519
900.83	4405
900.95	4599
901.069	4698
901.189	4462
901.308	4337
901.427	4295
901.546	4383
901.665	4474
901.784	4519
901.904	4398
902.023	4310
902.141	4207
902.26	4204
902.379	4306
902.498	4249
902.617	4230
902.735	4310
902.854	4371
902.973	4360
903.091	4204
903.21	4200
903.328	4295
903.446	4253
903.565	4268
903.683	4306
903.801	4257
903.919	4405
904.038	4451
904.156	4299
904.274	4409
904.392	4424
904.51	4459
904.627	4455
904.745	4573
904.863	4618
904.981	4398
905.098	4306
905.216	4363
905.334	4405
905.451	4459
905.569	4459
905.686	4561
905.803	4607
905.921	4432
906.038	4512
906.155	4421
906.272	4375
906.389	4413
906.506	4348
906.623	4337
906.74	4417
906.857	4291
906.974	4363
907.091	4535
907.208	4691
907.324	4577
907.441	4485
907.557	4333
907.674	4329
907.79	4291
907.907	4344
908.023	4459
908.139	4504
908.256	4443
908.372	4424
908.488	4371
908.604	4322
908.72	4280
908.836	4341
908.952	4398
909.068	4440
909.184	4516
909.3	4459
909.415	4592
909.531	4554
909.647	4356
909.762	4371
909.878	4299
909.993	4428
910.108	4367
910.224	4379
910.339	4500
910.454	4367
910.57	4386
910.685	4287
910.8	4641
910.915	4577
911.03	4500
911.145	4322
911.259	4306
911.374	4333
911.489	4261
911.604	4284
911.718	4128
911.833	4188
911.947	4071
912.062	4017
912.176	4207
912.291	4204
912.405	4242
912.519	4485
912.633	4455
912.748	4379
912.862	4287
912.976	4223
913.09	4029
913.204	4207
913.318	4257
913.431	4356
913.545	4348
913.659	4405
913.772	4325
913.886	4234
914	4177
914.113	4325
914.226	4413
914.34	4344
914.453	4238
914.566	4436
914.68	4310
914.793	4322
914.906	4154
915.019	4093
915.132	4135
915.245	4204
915.358	4227
915.47	4230
915.583	4249
915.696	4314
915.809	4379
915.921	4367
916.034	4280
916.146	4257
916.259	4200
916.371	4371
916.483	4371
916.595	4295
916.708	4356
916.82	4299
916.932	4299
917.044	4314
917.156	4341
917.268	4200
917.38	4276
917.491	4295
917.603	4314
917.715	4390
917.826	4405
917.938	4329
918.049	4207
918.161	4363
918.272	4504
918.384	4565
918.495	4504
918.606	4280
918.717	4223
918.828	4325
918.939	4329
919.05	4268
919.161	4276
919.272	4093
919.383	4238
919.494	4409
919.604	4615
919.715	4409
919.826	4318
919.936	4405
920.047	4516
920.157	4485
920.267	4714
920.378	4554
920.488	4523
920.598	4687
920.708	4835
920.818	4717
920.928	4687
921.038	4870
921.148	4889
921.258	4569
921.368	4573
921.477	4459
921.587	4466
921.697	4367
921.806	4561
921.916	4428
922.025	4242
922.134	4253
922.244	4234
922.353	4329
922.462	4154
922.571	4131
922.68	4006
922.789	3979
922.898	4013
923.007	3956
923.116	4063
923.224	4074
923.333	4036
923.442	3915
923.55	3991
923.659	3994
923.767	4124
923.876	3979
923.984	4128
924.092	3994
924.201	4082
924.309	4086
924.417	4097
924.525	4078
924.633	4135
924.741	4892
924.849	3915
924.956	4105
925.064	3949
925.172	3854
925.279	3972
925.387	4040
925.494	4078
925.602	4207
925.709	4185
925.816	4006
925.924	4101
926.031	4204
926.138	4185
926.245	4215
926.352	4074
926.459	4192
926.566	4348
926.673	4124
926.779	4086
926.886	4112
926.993	3949
927.099	3972
927.206	3880
927.312	3949
927.419	4059
927.525	4025
927.631	4109
927.737	3945
927.843	3926
927.95	3846
928.056	3964
928.162	3953
928.267	4082
928.373	4550
928.479	4120
928.585	3823
928.69	3983
928.796	4063
928.901	3907
929.007	3850
929.112	4002
929.218	3937
929.323	3956
929.428	3945
929.533	4112
929.638	3869
929.743	3975
929.848	4032
929.953	3994
930.058	3903
930.163	3751
930.267	3781
930.372	3941
930.477	3800
930.581	4128
930.685	3922
930.79	3759
930.894	3869
930.998	3850
931.103	4036
931.207	3698
931.311	3648
931.415	3641
931.519	3500
931.623	3530
