Data from test_V78500241_1750.txt Node
Date: Fri Mar 25 17:01:10 CST 2022
User: usil
Spectrometer: V785-0024
Trigger mode: 0
Integration Time (sec): 4.000000E-1
Scans to average: 1
Nonlinearity correction enabled: false
Boxcar width: 0
Storing dark spectrum: false
XAxis mode: Wavelengths
Number of Pixels in Spectrum: 1024
>>>>>Begin Spectral Data<<<<<
801.071	8005
801.214	7982
801.356	7841
801.499	7890
801.641	7799
801.783	7799
801.926	7982
802.068	7986
802.211	7967
802.353	7986
802.496	7833
802.638	7795
802.78	7925
802.923	7967
803.065	7936
803.208	7883
803.35	7959
803.492	8001
803.635	8103
803.777	8008
803.919	8138
804.061	8423
804.204	8111
804.346	8065
804.488	7993
804.63	8126
804.773	8024
804.915	8043
805.057	8275
805.199	8218
805.341	8202
805.483	8259
805.626	8157
805.768	8142
805.91	8248
806.052	8259
806.194	8126
806.336	8282
806.478	8088
806.62	8084
806.762	8161
806.904	8267
807.046	8431
807.188	8385
807.33	8256
807.472	8313
807.614	8153
807.756	8123
807.898	7932
808.04	7845
808.182	7898
808.324	7841
808.465	7913
808.607	8069
808.749	8126
808.891	8107
809.033	8301
809.174	8214
809.316	8096
809.458	8115
809.6	8031
809.741	8084
809.883	8031
810.025	8035
810.166	8130
810.308	8005
810.45	7955
810.591	7792
810.733	7666
810.875	7674
811.016	7544
811.158	7495
811.299	7544
811.441	7704
811.582	7651
811.724	7575
811.865	7476
812.007	7521
812.148	7499
812.29	7613
812.431	7769
812.573	7894
812.714	8008
812.855	8103
812.997	8149
813.138	8351
813.279	8142
813.421	8103
813.562	7974
813.703	7883
813.845	7700
813.986	7411
814.127	7236
814.268	7232
814.41	7122
814.551	7145
814.692	7236
814.833	7118
814.974	7156
815.115	7152
815.256	7023
815.397	6951
815.539	6920
815.68	6753
815.821	6753
815.962	6840
816.103	6806
816.244	6692
816.385	6551
816.526	6608
816.666	6506
816.807	6254
816.948	6407
817.089	6433
817.23	6403
817.371	6395
817.512	6384
817.653	6433
817.793	6361
817.934	6376
818.075	6448
818.216	6433
818.356	6399
818.497	6186
818.638	6129
818.778	6167
818.919	6098
819.06	6186
819.2	6308
819.341	6281
819.481	6365
819.622	6517
819.762	6707
819.903	6627
820.043	6559
820.184	6544
820.324	6551
820.465	6612
820.605	6707
820.746	6654
820.886	6452
821.026	6631
821.167	6681
821.307	6768
821.447	6779
821.588	6715
821.728	6559
821.868	6456
822.008	6311
822.149	6334
822.289	6369
822.429	6155
822.569	6152
822.709	6140
822.849	5912
822.99	5885
823.13	5847
823.27	5904
823.41	5813
823.55	5760
823.69	5745
823.83	5733
823.97	5703
824.11	5562
824.25	5482
824.389	5554
824.529	5551
824.669	5551
824.809	5611
824.949	5634
825.089	5627
825.228	5562
825.368	5379
825.508	5322
825.648	5387
825.787	5417
825.927	5326
826.067	5254
826.206	5288
826.346	5345
826.485	5341
826.625	5414
826.765	5497
826.904	5471
827.044	5235
827.183	5250
827.323	5052
827.462	5269
827.601	5181
827.741	5128
827.88	5223
828.02	5083
828.159	5185
828.298	5296
828.437	5341
828.577	5299
828.716	5467
828.855	5330
828.994	5143
829.134	5166
829.273	5124
829.412	5136
829.551	5204
829.69	5185
829.829	5216
829.968	5410
830.107	5212
830.246	5273
830.385	5155
830.524	5086
830.663	5060
830.802	4965
830.941	4839
831.08	4877
831.219	4946
831.357	4984
831.496	5178
831.635	4938
831.774	4824
831.913	4850
832.051	4698
832.19	4744
832.329	4850
832.467	4683
832.606	4596
832.744	4748
832.883	4698
833.022	4759
833.16	4736
833.299	4809
833.437	4801
833.576	4839
833.714	4831
833.852	4843
833.991	4915
834.129	4949
834.267	4900
834.406	4858
834.544	5003
834.682	4961
834.821	4984
834.959	5162
835.097	4927
835.235	5189
835.373	5052
835.511	5132
835.65	4968
835.788	4968
835.926	4885
836.064	4873
836.202	4896
836.34	5147
836.478	5170
836.615	5121
836.753	5143
836.891	5235
837.029	5189
837.167	5204
837.305	5170
837.443	5128
837.58	5067
837.718	5239
837.856	5121
837.993	5143
838.131	5242
838.269	5178
838.406	5170
838.544	5166
838.681	5075
838.819	5003
838.956	4915
839.094	4911
839.231	4961
839.369	5025
839.506	5417
839.643	5223
839.781	5045
839.918	5014
840.055	5143
840.193	5098
840.33	5071
840.467	5117
840.604	5155
840.742	5421
840.879	5064
841.016	5067
841.153	5189
841.29	5353
841.427	5364
841.564	5368
841.701	5341
841.838	5246
841.975	5231
842.112	5254
842.249	5151
842.385	5056
842.522	5322
842.659	5132
842.796	5128
842.933	5181
843.069	5178
843.206	5174
843.343	5273
843.479	5189
843.616	5246
843.752	4987
843.889	5014
844.025	5258
844.162	5048
844.298	5185
844.435	5060
844.571	5056
844.708	5231
844.844	5292
844.98	5322
845.117	5269
845.253	5121
845.389	5124
845.525	5143
845.661	5113
845.798	5010
845.934	5143
846.07	5071
846.206	5166
846.342	5254
846.478	5162
846.614	5003
846.75	5018
846.886	4904
847.022	5086
847.158	5029
847.294	5086
847.429	5098
847.565	5037
847.701	5296
847.837	4858
847.972	4820
848.108	4873
848.244	4949
848.379	4767
848.515	4740
848.65	4637
848.786	4767
848.921	4797
849.057	4881
849.192	4900
849.328	4805
849.463	4889
849.598	4805
849.734	4714
849.869	4656
850.004	4675
850.14	4634
850.275	4580
850.41	4519
850.545	4607
850.68	4622
850.815	4634
850.95	4611
851.085	4828
851.22	4710
851.355	4694
851.49	4622
851.625	4626
851.76	4694
851.895	4561
852.03	4527
852.165	4634
852.299	4725
852.434	4809
852.569	4752
852.703	4729
852.838	4793
852.973	4949
853.107	4881
853.242	4721
853.376	4668
853.511	4550
853.645	4641
853.78	4786
853.914	4691
854.048	4637
854.183	4637
854.317	4679
854.451	4824
854.585	4668
854.72	4622
854.854	4725
854.988	4607
855.122	4588
855.256	4569
855.39	4653
855.524	4797
855.658	4759
855.792	4653
855.926	4729
856.06	4744
856.194	4782
856.327	4672
856.461	4664
856.595	4615
856.729	4592
856.862	4771
856.996	4706
857.13	4721
857.263	4755
857.397	4805
857.53	4622
857.664	4740
857.797	4771
857.931	4759
858.064	4672
858.197	4740
858.331	4649
858.464	4592
858.597	4519
858.731	4588
858.864	4649
858.997	4603
859.13	4668
859.263	4653
859.396	4725
859.529	4596
859.662	4588
859.795	4538
859.928	4653
860.061	4736
860.194	4759
860.327	4599
860.46	4554
860.592	4729
860.725	4714
860.858	4755
860.99	4569
861.123	4519
861.256	4519
861.388	4611
861.521	5303
861.653	4386
861.786	4459
861.918	4440
862.05	4485
862.183	4550
862.315	4618
862.447	4634
862.58	4573
862.712	4409
862.844	4284
862.976	4459
863.108	4447
863.24	4885
863.372	4306
863.504	4398
863.636	4405
863.768	4489
863.9	4436
864.032	4402
864.164	4390
864.296	4516
864.428	4531
864.559	4584
864.691	4588
864.823	4519
864.954	4481
865.086	4481
865.217	4424
865.349	4440
865.48	4436
865.612	4516
865.743	4618
865.875	4443
866.006	4432
866.137	4417
866.269	4436
866.4	4421
866.531	4462
866.662	4394
866.793	4383
866.924	4394
867.055	4489
867.186	4443
867.317	4405
867.448	4375
867.579	4428
867.71	4405
867.841	4375
867.972	4470
868.103	4459
868.233	4447
868.364	4466
868.495	4470
868.625	4656
868.756	4744
868.886	4565
869.017	4630
869.147	4790
869.278	4694
869.408	4656
869.539	4596
869.669	4721
869.799	4641
869.929	4721
870.06	4752
870.19	4965
870.32	4934
870.45	4953
870.58	5003
870.71	5102
870.84	5102
870.97	4942
871.1	4862
871.23	5098
871.36	5105
871.489	5045
871.619	5041
871.749	5121
871.879	5086
872.008	5174
872.138	5064
872.267	4991
872.397	4835
872.526	4790
872.656	4710
872.785	4805
872.915	4919
873.044	5033
873.173	4923
873.303	4946
873.432	4904
873.561	4968
873.69	4835
873.819	4866
873.948	4946
874.077	4797
874.206	4740
874.335	4782
874.464	4927
874.593	5037
874.722	4976
874.851	5086
874.979	4999
875.108	5022
875.237	4877
875.365	4892
875.494	4858
875.623	4946
875.751	4873
875.88	4866
876.008	4987
876.136	5037
876.265	5140
876.393	5334
876.521	5204
876.65	5185
876.778	5193
876.906	5064
877.034	5041
877.162	5006
877.29	5003
877.418	5045
877.546	4995
877.674	4999
877.802	4984
877.93	4972
878.058	4900
878.185	4870
878.313	4953
878.441	4938
878.568	4858
878.696	4843
878.824	4946
878.951	5029
879.079	5132
879.206	5284
879.333	5075
879.461	4999
879.588	5033
879.715	5124
879.842	5273
879.97	4999
880.097	4752
880.224	4740
880.351	4812
880.478	4774
880.605	4752
880.732	4729
880.859	5064
880.986	4915
881.112	4938
881.239	4755
881.366	4660
881.493	4599
881.619	4607
881.746	4580
881.872	4649
881.999	4656
882.125	4679
882.252	4755
882.378	4809
882.505	5025
882.631	4778
882.757	4660
882.883	4683
883.01	4710
883.136	4649
883.262	4577
883.388	4592
883.514	4790
883.64	4862
883.766	4793
883.892	4653
884.018	4714
884.143	4915
884.269	4972
884.395	4710
884.52	4626
884.646	4660
884.772	4542
884.897	4542
885.023	4653
885.148	4805
885.274	4782
885.399	4801
885.524	4698
885.65	4675
885.775	4740
885.9	4736
886.025	4862
886.15	4714
886.275	4702
886.4	4622
886.525	4717
886.65	4687
886.775	4717
886.9	4892
887.025	5022
887.149	4831
887.274	4672
887.399	4569
887.523	4584
887.648	4542
887.773	4611
887.897	4702
888.021	4812
888.146	4645
888.27	4839
888.395	4881
888.519	4801
888.643	4774
888.767	4828
888.891	4687
889.015	4577
889.139	4656
889.263	4637
889.387	4790
889.511	4824
889.635	4809
889.759	4660
889.883	4607
890.006	4717
890.13	4831
890.254	4599
890.377	4710
890.501	4554
890.624	4519
890.748	4615
890.871	4519
890.995	4394
891.118	4417
891.241	4493
891.364	4523
891.488	4641
891.611	4512
891.734	4546
891.857	4618
891.98	4565
892.103	4675
892.226	4565
892.349	4504
892.471	4424
892.594	4516
892.717	4580
892.839	4607
892.962	4630
893.085	4653
893.207	4558
893.33	4493
893.452	4527
893.575	4664
893.697	4630
893.819	4809
893.941	4801
894.064	4774
894.186	4599
894.308	4569
894.43	4736
894.552	4816
894.674	4786
894.796	4535
894.918	4588
895.04	4592
895.161	4733
895.283	4687
895.405	4580
895.526	4630
895.648	4664
895.769	4706
895.891	4717
896.012	4702
896.134	4748
896.255	4649
896.376	4622
896.498	4573
896.619	4687
896.74	4634
896.861	4622
896.982	4908
897.103	5056
897.224	4824
897.345	4759
897.466	4607
897.587	4736
897.708	4820
897.828	4771
897.949	4637
898.07	4565
898.19	4645
898.311	4782
898.431	4653
898.552	4698
898.672	4816
898.792	4797
898.913	4710
899.033	4641
899.153	4508
899.273	4424
899.393	4462
899.513	4546
899.633	4531
899.753	4538
899.873	4531
899.993	4535
900.113	4481
900.232	4535
900.352	4535
900.472	4489
900.591	4371
900.711	4531
900.83	4402
900.95	4611
901.069	4637
901.189	4554
901.308	4337
901.427	4333
901.546	4360
901.665	4470
901.784	4485
901.904	4402
902.023	4314
902.141	4150
902.26	4166
902.379	4318
902.498	4242
902.617	4219
902.735	4344
902.854	4409
902.973	4363
903.091	4200
903.21	4207
903.328	4306
903.446	4306
903.565	4257
903.683	4333
903.801	4287
903.919	4405
904.038	4440
904.156	4284
904.274	4451
904.392	4390
904.51	4428
904.627	4485
904.745	4542
904.863	4649
904.981	4413
905.098	4295
905.216	4360
905.334	4417
905.451	4436
905.569	4424
905.686	4554
905.803	4554
905.921	4417
906.038	4542
906.155	4466
906.272	4432
906.389	4470
906.506	4375
906.623	4341
906.74	4394
906.857	4367
906.974	4375
907.091	4550
907.208	4702
907.324	4588
907.441	4523
907.557	4306
907.674	4363
907.79	4322
907.907	4333
908.023	4447
908.139	4478
908.256	4413
908.372	4516
908.488	4432
908.604	4333
908.72	4272
908.836	4322
908.952	4363
909.068	4402
909.184	4599
909.3	4470
909.415	4592
909.531	4569
909.647	4390
909.762	4367
909.878	4333
909.993	4417
910.108	4413
910.224	4363
910.339	4466
910.454	4424
910.57	4356
910.685	4314
910.8	4592
910.915	4519
911.03	4485
911.145	4306
911.259	4322
911.374	4402
911.489	4314
911.604	4291
911.718	4177
911.833	4177
911.947	4067
912.062	4044
912.176	4196
912.291	4257
912.405	4242
912.519	4493
912.633	4500
912.748	4379
912.862	4306
912.976	4227
913.09	4071
913.204	4147
913.318	4242
913.431	4325
913.545	4352
913.659	4466
913.772	4405
913.886	4227
914	4249
914.113	4379
914.226	4405
914.34	4379
914.453	4246
914.566	4421
914.68	4333
914.793	4303
914.906	4204
915.019	4101
915.132	4044
915.245	4169
915.358	4181
915.47	4211
915.583	4261
915.696	4284
915.809	4390
915.921	4344
916.034	4272
916.146	4280
916.259	4211
916.371	4333
916.483	4394
916.595	4268
916.708	4344
916.82	4322
916.932	4299
917.044	4318
917.156	4299
917.268	4211
917.38	4219
917.491	4227
917.603	4318
917.715	4383
917.826	4432
917.938	4306
918.049	4211
918.161	4405
918.272	4542
918.384	4561
918.495	4489
918.606	4291
918.717	4211
918.828	4344
918.939	4360
919.05	4230
919.161	4276
919.272	4101
919.383	4223
919.494	4440
919.604	4634
919.715	4451
919.826	4337
919.936	4432
920.047	4527
920.157	4519
920.267	4691
920.378	4519
920.488	4516
920.598	4744
920.708	4877
920.818	4767
920.928	4721
921.038	4965
921.148	4946
921.258	4622
921.368	4542
921.477	4497
921.587	4481
921.697	4363
921.806	4531
921.916	4428
922.025	4276
922.134	4242
922.244	4230
922.353	4341
922.462	4185
922.571	4166
922.68	3998
922.789	3964
922.898	4044
923.007	3979
923.116	4097
923.224	4086
923.333	4048
923.442	4025
923.55	4006
923.659	4021
923.767	4112
923.876	3991
923.984	4128
924.092	4013
924.201	4071
924.309	4078
924.417	4101
924.525	4086
924.633	4128
924.741	4881
924.849	3926
924.956	4147
925.064	3960
925.172	3899
925.279	3956
925.387	4006
925.494	4082
925.602	4242
925.709	4162
925.816	4051
925.924	4120
926.031	4249
926.138	4185
926.245	4211
926.352	4105
926.459	4227
926.566	4318
926.673	4158
926.779	4082
926.886	4044
926.993	3991
927.099	3945
927.206	3949
927.312	3953
927.419	4044
927.525	4032
927.631	4059
927.737	3998
927.843	3922
927.95	3789
928.056	3956
928.162	4025
928.267	4055
928.373	4653
928.479	4158
928.585	3888
928.69	4048
928.796	4013
928.901	3994
929.007	3850
929.112	4032
929.218	3994
929.323	3972
929.428	3937
929.533	4135
929.638	3892
929.743	3964
929.848	3998
929.953	3979
930.058	3899
930.163	3770
930.267	3812
930.372	3975
930.477	3800
930.581	4101
930.685	3953
930.79	3804
930.894	3861
930.998	3861
931.103	4036
931.207	3747
931.311	3686
931.415	3663
931.519	3553
931.623	3523
