Data from test_V78500241_2029.txt Node
Date: Fri Mar 25 17:03:06 CST 2022
User: usil
Spectrometer: V785-0024
Trigger mode: 0
Integration Time (sec): 4.000000E-1
Scans to average: 1
Nonlinearity correction enabled: false
Boxcar width: 0
Storing dark spectrum: false
XAxis mode: Wavelengths
Number of Pixels in Spectrum: 1024
>>>>>Begin Spectral Data<<<<<
801.071	8008
801.214	7986
801.356	7852
801.499	7818
801.641	7826
801.783	7852
801.926	7947
802.068	7909
802.211	7951
802.353	8016
802.496	7879
802.638	7822
802.78	7852
802.923	7883
803.065	7868
803.208	7833
803.35	7986
803.492	8081
803.635	8202
803.777	8012
803.919	8172
804.061	8412
804.204	8145
804.346	7989
804.488	7936
804.63	8065
804.773	7986
804.915	8096
805.057	8294
805.199	8191
805.341	8191
805.483	8252
805.626	8210
805.768	8134
805.91	8191
806.052	8225
806.194	8073
806.336	8339
806.478	8107
806.62	8043
806.762	8161
806.904	8233
807.046	8461
807.188	8343
807.33	8286
807.472	8313
807.614	8142
807.756	8244
807.898	7989
808.04	7875
808.182	7913
808.324	7860
808.465	7925
808.607	8027
808.749	8123
808.891	8229
809.033	8301
809.174	8218
809.316	8142
809.458	8035
809.6	8008
809.741	8073
809.883	8126
810.025	8046
810.166	8065
810.308	8058
810.45	7955
810.591	7799
810.733	7727
810.875	7681
811.016	7510
811.158	7419
811.299	7605
811.441	7704
811.582	7643
811.724	7556
811.865	7476
812.007	7590
812.148	7586
812.29	7620
812.431	7814
812.573	7902
812.714	8020
812.855	8168
812.997	8221
813.138	8309
813.279	8176
813.421	8115
813.562	7982
813.703	7852
813.845	7757
813.986	7441
814.127	7206
814.268	7187
814.41	7206
814.551	7221
814.692	7240
814.833	7076
814.974	7103
815.115	7061
815.256	6943
815.397	6935
815.539	6989
815.68	6863
815.821	6707
815.962	6840
816.103	6863
816.244	6741
816.385	6612
816.526	6597
816.666	6513
816.807	6254
816.948	6483
817.089	6467
817.23	6456
817.371	6357
817.512	6357
817.653	6384
817.793	6338
817.934	6407
818.075	6414
818.216	6403
818.356	6384
818.497	6258
818.638	6117
818.778	6136
818.919	6175
819.06	6213
819.2	6346
819.341	6346
819.481	6311
819.622	6540
819.762	6787
819.903	6738
820.043	6597
820.184	6582
820.324	6490
820.465	6722
820.605	6669
820.746	6665
820.886	6525
821.026	6654
821.167	6738
821.307	6837
821.447	6779
821.588	6631
821.728	6555
821.868	6517
822.008	6357
822.149	6380
822.289	6319
822.429	6190
822.569	6152
822.709	6133
822.849	5942
822.99	5893
823.13	5817
823.27	5901
823.41	5764
823.55	5737
823.69	5722
823.83	5748
823.97	5665
824.11	5535
824.25	5535
824.389	5589
824.529	5604
824.669	5497
824.809	5592
824.949	5623
825.089	5596
825.228	5512
825.368	5387
825.508	5334
825.648	5364
825.787	5421
825.927	5341
826.067	5227
826.206	5284
826.346	5402
826.485	5398
826.625	5406
826.765	5554
826.904	5497
827.044	5235
827.183	5166
827.323	5094
827.462	5193
827.601	5147
827.741	5181
827.88	5216
828.02	5109
828.159	5246
828.298	5261
828.437	5364
828.577	5280
828.716	5440
828.855	5296
828.994	5121
829.134	5140
829.273	5208
829.412	5124
829.551	5102
829.69	5189
829.829	5204
829.968	5349
830.107	5322
830.246	5265
830.385	5143
830.524	5098
830.663	5037
830.802	4984
830.941	4889
831.08	4862
831.219	4991
831.357	4942
831.496	5113
831.635	4908
831.774	4847
831.913	4847
832.051	4702
832.19	4774
832.329	4805
832.467	4687
832.606	4634
832.744	4752
832.883	4706
833.022	4702
833.16	4801
833.299	4812
833.437	4824
833.576	4767
833.714	4839
833.852	4850
833.991	4877
834.129	4976
834.267	4904
834.406	4881
834.544	4949
834.682	4987
834.821	4980
834.959	5174
835.097	4961
835.235	5136
835.373	5056
835.511	5086
835.65	5045
835.788	5006
835.926	4870
836.064	4919
836.202	4919
836.34	5162
836.478	5204
836.615	5140
836.753	5204
836.891	5254
837.029	5181
837.167	5197
837.305	5174
837.443	5090
837.58	5113
837.718	5277
837.856	5227
837.993	5143
838.131	5223
838.269	5204
838.406	5155
838.544	5128
838.681	5067
838.819	5006
838.956	4904
839.094	4942
839.231	4942
839.369	5075
839.506	5452
839.643	5280
839.781	5018
839.918	4999
840.055	5060
840.193	5090
840.33	5056
840.467	5140
840.604	5223
840.742	5425
840.879	5098
841.016	5117
841.153	5178
841.29	5360
841.427	5296
841.564	5383
841.701	5326
841.838	5273
841.975	5201
842.112	5254
842.249	5178
842.385	5086
842.522	5330
842.659	5220
842.796	5121
842.933	5204
843.069	5109
843.206	5124
843.343	5296
843.479	5216
843.616	5250
843.752	5029
843.889	5018
844.025	5250
844.162	4995
844.298	5242
844.435	5079
844.571	5048
844.708	5212
844.844	5357
844.98	5280
845.117	5284
845.253	5094
845.389	5105
845.525	5185
845.661	5143
845.798	5102
845.934	5090
846.07	5018
846.206	5220
846.342	5341
846.478	5185
846.614	5003
846.75	4927
846.886	4938
847.022	5109
847.158	4980
847.294	4980
847.429	5060
847.565	5064
847.701	5303
847.837	4831
847.972	4771
848.108	4930
848.244	4930
848.379	4805
848.515	4653
848.65	4660
848.786	4683
848.921	4786
849.057	4908
849.192	4915
849.328	4835
849.463	4908
849.598	4816
849.734	4752
849.869	4717
850.004	4611
850.14	4630
850.275	4615
850.41	4489
850.545	4554
850.68	4584
850.815	4607
850.95	4630
851.085	4812
851.22	4748
851.355	4687
851.49	4577
851.625	4630
851.76	4702
851.895	4565
852.03	4554
852.165	4626
852.299	4733
852.434	4752
852.569	4729
852.703	4809
852.838	4873
852.973	4866
853.107	4911
853.242	4755
853.376	4637
853.511	4554
853.645	4558
853.78	4816
853.914	4710
854.048	4656
854.183	4630
854.317	4679
854.451	4858
854.585	4664
854.72	4656
854.854	4767
854.988	4584
855.122	4641
855.256	4538
855.39	4653
855.524	4812
855.658	4725
855.792	4710
855.926	4725
856.06	4729
856.194	4831
856.327	4687
856.461	4580
856.595	4660
856.729	4634
856.862	4717
856.996	4630
857.13	4759
857.263	4744
857.397	4755
857.53	4622
857.664	4687
857.797	4786
857.931	4793
858.064	4691
858.197	4714
858.331	4649
858.464	4603
858.597	4519
858.731	4679
858.864	4698
858.997	4588
859.13	4645
859.263	4694
859.396	4660
859.529	4580
859.662	4599
859.795	4546
859.928	4645
860.061	4733
860.194	4767
860.327	4611
860.46	4554
860.592	4736
860.725	4687
860.858	4702
860.99	4519
861.123	4512
861.256	4550
861.388	4584
861.521	5246
861.653	4493
861.786	4417
861.918	4466
862.05	4535
862.183	4519
862.315	4561
862.447	4615
862.58	4516
862.712	4390
862.844	4344
862.976	4466
863.108	4432
863.24	4733
863.372	4383
863.504	4379
863.636	4394
863.768	4447
863.9	4455
864.032	4360
864.164	4329
864.296	4497
864.428	4558
864.559	4561
864.691	4535
864.823	4531
864.954	4508
865.086	4481
865.217	4451
865.349	4436
865.48	4440
865.612	4508
865.743	4580
865.875	4440
866.006	4413
866.137	4459
866.269	4462
866.4	4424
866.531	4409
866.662	4398
866.793	4413
866.924	4371
867.055	4462
867.186	4459
867.317	4421
867.448	4383
867.579	4409
867.71	4413
867.841	4352
867.972	4436
868.103	4466
868.233	4432
868.364	4470
868.495	4485
868.625	4717
868.756	4717
868.886	4577
869.017	4607
869.147	4797
869.278	4809
869.408	4630
869.539	4603
869.669	4721
869.799	4630
869.929	4771
870.06	4755
870.19	4930
870.32	4930
870.45	4965
870.58	4961
870.71	5124
870.84	5064
870.97	4930
871.1	4889
871.23	5140
871.36	5128
871.489	5052
871.619	5060
871.749	5056
871.879	5083
872.008	5220
872.138	5105
872.267	5010
872.397	4835
872.526	4809
872.656	4752
872.785	4847
872.915	4972
873.044	5056
873.173	4934
873.303	4934
873.432	4927
873.561	4930
873.69	4892
873.819	4892
873.948	4927
874.077	4862
874.206	4725
874.335	4778
874.464	4919
874.593	5071
874.722	4953
874.851	5140
874.979	5056
875.108	5075
875.237	4968
875.365	4866
875.494	4881
875.623	5003
875.751	4828
875.88	4850
876.008	4980
876.136	5010
876.265	5170
876.393	5372
876.521	5242
876.65	5201
876.778	5181
876.906	5052
877.034	5045
877.162	5056
877.29	4968
877.418	5056
877.546	5048
877.674	5018
877.802	4976
877.93	5033
878.058	4953
878.185	4850
878.313	4965
878.441	4968
878.568	4816
878.696	4839
878.824	4934
878.951	4972
879.079	5132
879.206	5269
879.333	5064
879.461	4972
879.588	5041
879.715	5064
879.842	5208
879.97	4957
880.097	4755
880.224	4790
880.351	4809
880.478	4850
880.605	4812
880.732	4763
880.859	5090
880.986	4889
881.112	4908
881.239	4793
881.366	4649
881.493	4660
881.619	4565
881.746	4641
881.872	4653
881.999	4653
882.125	4729
882.252	4793
882.378	4835
882.505	4957
882.631	4847
882.757	4683
882.883	4714
883.01	4736
883.136	4664
883.262	4588
883.388	4622
883.514	4801
883.64	4839
883.766	4790
883.892	4672
884.018	4725
884.143	4930
884.269	5037
884.395	4702
884.52	4615
884.646	4607
884.772	4588
884.897	4523
885.023	4687
885.148	4793
885.274	4839
885.399	4812
885.524	4729
885.65	4675
885.775	4721
885.9	4725
886.025	4835
886.15	4778
886.275	4721
886.4	4637
886.525	4714
886.65	4679
886.775	4683
886.9	4885
887.025	5048
887.149	4740
887.274	4668
887.399	4565
887.523	4618
887.648	4519
887.773	4607
887.897	4736
888.021	4805
888.146	4687
888.27	4812
888.395	4892
888.519	4771
888.643	4828
888.767	4801
888.891	4710
889.015	4592
889.139	4679
889.263	4527
889.387	4759
889.511	4835
889.635	4835
889.759	4622
889.883	4637
890.006	4694
890.13	4824
890.254	4656
890.377	4672
890.501	4546
890.624	4500
890.748	4611
890.871	4489
890.995	4432
891.118	4413
891.241	4508
891.364	4558
891.488	4634
891.611	4485
891.734	4531
891.857	4554
891.98	4508
892.103	4637
892.226	4618
892.349	4523
892.471	4432
892.594	4535
892.717	4584
892.839	4542
892.962	4615
893.085	4660
893.207	4569
893.33	4459
893.452	4531
893.575	4641
893.697	4611
893.819	4816
893.941	4847
894.064	4748
894.186	4550
894.308	4550
894.43	4767
894.552	4767
894.674	4736
894.796	4565
894.918	4538
895.04	4599
895.161	4714
895.283	4672
895.405	4584
895.526	4630
895.648	4637
895.769	4679
895.891	4702
896.012	4736
896.134	4714
896.255	4645
896.376	4653
896.498	4653
896.619	4656
896.74	4573
896.861	4596
896.982	4908
897.103	5056
897.224	4782
897.345	4748
897.466	4679
897.587	4755
897.708	4858
897.828	4774
897.949	4630
898.07	4531
898.19	4603
898.311	4824
898.431	4672
898.552	4656
898.672	4820
898.792	4717
898.913	4725
899.033	4656
899.153	4500
899.273	4474
899.393	4497
899.513	4554
899.633	4558
899.753	4519
899.873	4519
899.993	4558
900.113	4546
900.232	4569
900.352	4485
900.472	4470
900.591	4409
900.711	4535
900.83	4424
900.95	4569
901.069	4694
901.189	4493
901.308	4367
901.427	4322
901.546	4356
901.665	4421
901.784	4523
901.904	4348
902.023	4329
902.141	4177
902.26	4181
902.379	4306
902.498	4242
902.617	4230
902.735	4363
902.854	4390
902.973	4375
903.091	4219
903.21	4192
903.328	4329
903.446	4265
903.565	4322
903.683	4322
903.801	4272
903.919	4394
904.038	4421
904.156	4367
904.274	4424
904.392	4428
904.51	4417
904.627	4447
904.745	4527
904.863	4649
904.981	4363
905.098	4299
905.216	4394
905.334	4440
905.451	4386
905.569	4474
905.686	4561
905.803	4558
905.921	4405
906.038	4569
906.155	4474
906.272	4432
906.389	4455
906.506	4344
906.623	4344
906.74	4394
906.857	4356
906.974	4371
907.091	4538
907.208	4649
907.324	4569
907.441	4493
907.557	4344
907.674	4360
907.79	4322
907.907	4421
908.023	4493
908.139	4440
908.256	4424
908.372	4497
908.488	4474
908.604	4386
908.72	4253
908.836	4383
908.952	4409
909.068	4402
909.184	4561
909.3	4459
909.415	4596
909.531	4531
909.647	4337
909.762	4341
909.878	4367
909.993	4428
910.108	4409
910.224	4413
910.339	4462
910.454	4383
910.57	4341
910.685	4306
910.8	4656
910.915	4584
911.03	4497
911.145	4325
911.259	4329
911.374	4383
911.489	4287
911.604	4242
911.718	4185
911.833	4166
911.947	4090
912.062	4040
912.176	4154
912.291	4249
912.405	4234
912.519	4417
912.633	4546
912.748	4367
912.862	4276
912.976	4204
913.09	4128
913.204	4196
913.318	4238
913.431	4371
913.545	4383
913.659	4447
913.772	4371
913.886	4284
914	4234
914.113	4405
914.226	4402
914.34	4402
914.453	4257
914.566	4379
914.68	4303
914.793	4276
914.906	4139
915.019	4185
915.132	4112
915.245	4177
915.358	4200
915.47	4234
915.583	4314
915.696	4314
915.809	4409
915.921	4409
916.034	4276
916.146	4272
916.259	4219
916.371	4360
916.483	4295
916.595	4265
916.708	4329
916.82	4333
916.932	4337
917.044	4337
917.156	4337
917.268	4204
917.38	4287
917.491	4253
917.603	4348
917.715	4421
917.826	4462
917.938	4314
918.049	4249
918.161	4379
918.272	4573
918.384	4538
918.495	4466
918.606	4261
918.717	4207
918.828	4329
918.939	4341
919.05	4276
919.161	4367
919.272	4120
919.383	4287
919.494	4443
919.604	4622
919.715	4383
919.826	4341
919.936	4413
920.047	4584
920.157	4421
920.267	4691
920.378	4531
920.488	4519
920.598	4714
920.708	4854
920.818	4714
920.928	4755
921.038	4957
921.148	4919
921.258	4618
921.368	4527
921.477	4550
921.587	4470
921.697	4379
921.806	4561
921.916	4443
922.025	4257
922.134	4253
922.244	4158
922.353	4348
922.462	4207
922.571	4093
922.68	4025
922.789	3968
922.898	4025
923.007	4002
923.116	4101
923.224	4059
923.333	4029
923.442	3987
923.55	3983
923.659	4025
923.767	4055
923.876	3979
923.984	4074
924.092	3987
924.201	4059
924.309	4040
924.417	4128
924.525	4059
924.633	4124
924.741	5094
924.849	3926
924.956	4154
925.064	3991
925.172	3915
925.279	3953
925.387	4063
925.494	4048
925.602	4253
925.709	4185
925.816	4044
925.924	4078
926.031	4223
926.138	4139
926.245	4207
926.352	4051
926.459	4223
926.566	4337
926.673	4188
926.779	4055
926.886	4074
926.993	3953
927.099	3922
927.206	3911
927.312	3941
927.419	4048
927.525	4040
927.631	4090
927.737	3987
927.843	3896
927.95	3854
928.056	3926
928.162	3964
928.267	4044
928.373	4607
928.479	4150
928.585	3884
928.69	4078
928.796	4082
928.901	3983
929.007	3838
929.112	3964
929.218	3975
929.323	3922
929.428	3975
929.533	4074
929.638	3915
929.743	3956
929.848	4040
929.953	4010
930.058	3892
930.163	3766
930.267	3835
930.372	3991
930.477	3816
930.581	4078
930.685	3930
930.79	3831
930.894	3876
930.998	3854
931.103	4013
931.207	3724
931.311	3656
931.415	3671
931.519	3492
931.623	3526
