Data from test_V78500241_1100.txt Node
Date: Fri Mar 25 16:56:39 CST 2022
User: usil
Spectrometer: V785-0024
Trigger mode: 0
Integration Time (sec): 4.000000E-1
Scans to average: 1
Nonlinearity correction enabled: false
Boxcar width: 0
Storing dark spectrum: false
XAxis mode: Wavelengths
Number of Pixels in Spectrum: 1024
>>>>>Begin Spectral Data<<<<<
801.071	8031
801.214	7986
801.356	7875
801.499	7898
801.641	7696
801.783	7826
801.926	7947
802.068	7871
802.211	7997
802.353	7947
802.496	7852
802.638	7879
802.78	7913
802.923	7951
803.065	7868
803.208	7826
803.35	7883
803.492	8043
803.635	8142
803.777	8065
803.919	8088
804.061	8408
804.204	8191
804.346	8077
804.488	7959
804.63	8088
804.773	8062
804.915	8035
805.057	8210
805.199	8103
805.341	8195
805.483	8240
805.626	8172
805.768	8111
805.91	8134
806.052	8195
806.194	8069
806.336	8309
806.478	8077
806.62	8024
806.762	8180
806.904	8271
807.046	8537
807.188	8267
807.33	8313
807.472	8298
807.614	8126
807.756	8073
807.898	8012
808.04	7887
808.182	7894
808.324	7982
808.465	7909
808.607	8062
808.749	8134
808.891	8202
809.033	8290
809.174	8164
809.316	8081
809.458	8027
809.6	7947
809.741	7986
809.883	8054
810.025	8062
810.166	8012
810.308	8020
810.45	8081
810.591	7887
810.733	7651
810.875	7613
811.016	7609
811.158	7518
811.299	7601
811.441	7734
811.582	7681
811.724	7556
811.865	7510
812.007	7605
812.148	7552
812.29	7616
812.431	7769
812.573	7856
812.714	8001
812.855	8077
812.997	8199
813.138	8294
813.279	8202
813.421	8119
813.562	7989
813.703	7856
813.845	7715
813.986	7468
814.127	7289
814.268	7194
814.41	7179
814.551	7149
814.692	7141
814.833	7088
814.974	7080
815.115	7099
815.256	6977
815.397	6875
815.539	6939
815.68	6810
815.821	6745
815.962	6916
816.103	6837
816.244	6688
816.385	6623
816.526	6574
816.666	6532
816.807	6239
816.948	6448
817.089	6521
817.23	6407
817.371	6338
817.512	6342
817.653	6372
817.793	6323
817.934	6376
818.075	6429
818.216	6403
818.356	6376
818.497	6254
818.638	6087
818.778	6129
818.919	6152
819.06	6133
819.2	6258
819.341	6251
819.481	6327
819.622	6509
819.762	6715
819.903	6665
820.043	6578
820.184	6585
820.324	6540
820.465	6711
820.605	6738
820.746	6574
820.886	6528
821.026	6658
821.167	6658
821.307	6783
821.447	6722
821.588	6677
821.728	6475
821.868	6479
822.008	6277
822.149	6380
822.289	6350
822.429	6102
822.569	6083
822.709	6133
822.849	5965
822.99	5935
823.13	5908
823.27	5908
823.41	5752
823.55	5707
823.69	5790
823.83	5767
823.97	5676
824.11	5490
824.25	5452
824.389	5554
824.529	5577
824.669	5547
824.809	5592
824.949	5611
825.089	5604
825.228	5532
825.368	5368
825.508	5360
825.648	5315
825.787	5387
825.927	5436
826.067	5330
826.206	5258
826.346	5345
826.485	5395
826.625	5444
826.765	5547
826.904	5486
827.044	5246
827.183	5166
827.323	5124
827.462	5212
827.601	5159
827.741	5124
827.88	5231
828.02	5155
828.159	5223
828.298	5273
828.437	5318
828.577	5288
828.716	5490
828.855	5288
828.994	5147
829.134	5136
829.273	5147
829.412	5117
829.551	5121
829.69	5124
829.829	5239
829.968	5318
830.107	5235
830.246	5265
830.385	5189
830.524	5124
830.663	5064
830.802	4976
830.941	4862
831.08	4831
831.219	4984
831.357	4942
831.496	5140
831.635	4915
831.774	4831
831.913	4824
832.051	4710
832.19	4797
832.329	4820
832.467	4698
832.606	4656
832.744	4725
832.883	4755
833.022	4714
833.16	4755
833.299	4744
833.437	4755
833.576	4767
833.714	4862
833.852	4862
833.991	4847
834.129	4942
834.267	4934
834.406	4900
834.544	4968
834.682	4965
834.821	4949
834.959	5159
835.097	5029
835.235	5071
835.373	5079
835.511	5094
835.65	5029
835.788	5014
835.926	4873
836.064	4862
836.202	4900
836.34	5147
836.478	5220
836.615	5079
836.753	5155
836.891	5227
837.029	5212
837.167	5193
837.305	5132
837.443	5124
837.58	5098
837.718	5254
837.856	5121
837.993	5113
838.131	5227
838.269	5212
838.406	5181
838.544	5208
838.681	5041
838.819	5029
838.956	4915
839.094	4801
839.231	4987
839.369	5045
839.506	5425
839.643	5254
839.781	5083
839.918	5003
840.055	5102
840.193	5098
840.33	5083
840.467	5060
840.604	5208
840.742	5406
840.879	5083
841.016	5060
841.153	5132
841.29	5315
841.427	5315
841.564	5299
841.701	5353
841.838	5273
841.975	5185
842.112	5250
842.249	5136
842.385	5136
842.522	5353
842.659	5197
842.796	5128
842.933	5235
843.069	5162
843.206	5121
843.343	5277
843.479	5193
843.616	5254
843.752	4999
843.889	4987
844.025	5140
844.162	5022
844.298	5162
844.435	5048
844.571	5113
844.708	5189
844.844	5307
844.98	5360
845.117	5337
845.253	5128
845.389	5086
845.525	5178
845.661	5178
845.798	5045
845.934	5140
846.07	4965
846.206	5174
846.342	5212
846.478	5170
846.614	5022
846.75	4980
846.886	4961
847.022	5128
847.158	5056
847.294	5025
847.429	5098
847.565	5056
847.701	5315
847.837	4873
847.972	4809
848.108	4938
848.244	4873
848.379	4755
848.515	4736
848.65	4736
848.786	4729
848.921	4782
849.057	4854
849.192	4850
849.328	4831
849.463	4828
849.598	4801
849.734	4744
849.869	4664
850.004	4611
850.14	4622
850.275	4607
850.41	4504
850.545	4599
850.68	4580
850.815	4599
850.95	4618
851.085	4835
851.22	4729
851.355	4637
851.49	4675
851.625	4542
851.76	4672
851.895	4558
852.03	4497
852.165	4698
852.299	4782
852.434	4778
852.569	4710
852.703	4736
852.838	4801
852.973	4919
853.107	4892
853.242	4752
853.376	4664
853.511	4550
853.645	4561
853.78	4805
853.914	4710
854.048	4584
854.183	4637
854.317	4733
854.451	4820
854.585	4626
854.72	4599
854.854	4740
854.988	4580
855.122	4649
855.256	4531
855.39	4675
855.524	4759
855.658	4691
855.792	4683
855.926	4706
856.06	4733
856.194	4729
856.327	4683
856.461	4588
856.595	4569
856.729	4618
856.862	4733
856.996	4706
857.13	4694
857.263	4694
857.397	4752
857.53	4641
857.664	4740
857.797	4759
857.931	4725
858.064	4706
858.197	4721
858.331	4626
858.464	4573
858.597	4546
858.731	4573
858.864	4637
858.997	4599
859.13	4596
859.263	4634
859.396	4694
859.529	4565
859.662	4535
859.795	4508
859.928	4584
860.061	4744
860.194	4824
860.327	4618
860.46	4519
860.592	4656
860.725	4710
860.858	4763
860.99	4603
861.123	4508
861.256	4512
861.388	4573
861.521	5277
861.653	4443
861.786	4432
861.918	4417
862.05	4516
862.183	4535
862.315	4588
862.447	4649
862.58	4561
862.712	4417
862.844	4371
862.976	4447
863.108	4500
863.24	4725
863.372	4337
863.504	4398
863.636	4383
863.768	4485
863.9	4451
864.032	4306
864.164	4428
864.296	4428
864.428	4519
864.559	4535
864.691	4512
864.823	4489
864.954	4470
865.086	4455
865.217	4459
865.349	4363
865.48	4447
865.612	4504
865.743	4660
865.875	4459
866.006	4409
866.137	4447
866.269	4409
866.4	4409
866.531	4398
866.662	4386
866.793	4375
866.924	4436
867.055	4489
867.186	4447
867.317	4443
867.448	4352
867.579	4367
867.71	4383
867.841	4398
867.972	4432
868.103	4459
868.233	4466
868.364	4428
868.495	4443
868.625	4656
868.756	4725
868.886	4558
869.017	4577
869.147	4755
869.278	4729
869.408	4687
869.539	4618
869.669	4694
869.799	4637
869.929	4744
870.06	4702
870.19	4892
870.32	4892
870.45	4942
870.58	5006
870.71	5037
870.84	5090
870.97	4934
871.1	4892
871.23	5075
871.36	5128
871.489	5014
871.619	5083
871.749	5079
871.879	5128
872.008	5147
872.138	5083
872.267	4942
872.397	4843
872.526	4786
872.656	4698
872.785	4805
872.915	4953
873.044	5003
873.173	4927
873.303	4957
873.432	4938
873.561	4953
873.69	4862
873.819	4858
873.948	4919
874.077	4778
874.206	4725
874.335	4782
874.464	4927
874.593	5029
874.722	4995
874.851	5052
874.979	5067
875.108	5025
875.237	4854
875.365	4858
875.494	4896
875.623	4972
875.751	4816
875.88	4847
876.008	4908
876.136	5014
876.265	5159
876.393	5330
876.521	5216
876.65	5185
876.778	5170
876.906	5048
877.034	4946
877.162	5025
877.29	4938
877.418	5064
877.546	5037
877.674	5010
877.802	5003
877.93	5041
878.058	4957
878.185	4854
878.313	4923
878.441	4968
878.568	4797
878.696	4866
878.824	4972
878.951	4949
879.079	5109
879.206	5235
879.333	5071
879.461	4946
879.588	4968
879.715	5140
879.842	5212
879.97	4946
880.097	4736
880.224	4763
880.351	4782
880.478	4793
880.605	4767
880.732	4790
880.859	5048
880.986	4900
881.112	4824
881.239	4778
881.366	4675
881.493	4577
881.619	4588
881.746	4603
881.872	4675
881.999	4641
882.125	4725
882.252	4797
882.378	4793
882.505	4850
882.631	4812
882.757	4653
882.883	4740
883.01	4717
883.136	4656
883.262	4577
883.388	4588
883.514	4790
883.64	4866
883.766	4782
883.892	4679
884.018	4725
884.143	4908
884.269	4995
884.395	4710
884.52	4584
884.646	4672
884.772	4588
884.897	4584
885.023	4672
885.148	4774
885.274	4870
885.399	4801
885.524	4691
885.65	4694
885.775	4725
885.9	4714
886.025	4870
886.15	4805
886.275	4771
886.4	4611
886.525	4721
886.65	4645
886.775	4645
886.9	4911
887.025	5056
887.149	4767
887.274	4653
887.399	4599
887.523	4603
887.648	4573
887.773	4550
887.897	4755
888.021	4736
888.146	4660
888.27	4831
888.395	4896
888.519	4797
888.643	4797
888.767	4828
888.891	4694
889.015	4615
889.139	4592
889.263	4584
889.387	4721
889.511	4850
889.635	4744
889.759	4580
889.883	4653
890.006	4721
890.13	4786
890.254	4615
890.377	4641
890.501	4535
890.624	4481
890.748	4592
890.871	4440
890.995	4398
891.118	4375
891.241	4516
891.364	4527
891.488	4675
891.611	4500
891.734	4588
891.857	4634
891.98	4523
892.103	4645
892.226	4561
892.349	4546
892.471	4421
892.594	4542
892.717	4584
892.839	4550
892.962	4561
893.085	4687
893.207	4542
893.33	4459
893.452	4512
893.575	4622
893.697	4542
893.819	4790
893.941	4835
894.064	4812
894.186	4607
894.308	4554
894.43	4744
894.552	4858
894.674	4763
894.796	4565
894.918	4535
895.04	4550
895.161	4706
895.283	4736
895.405	4527
895.526	4615
895.648	4656
895.769	4694
895.891	4717
896.012	4733
896.134	4710
896.255	4668
896.376	4641
896.498	4599
896.619	4634
896.74	4550
896.861	4622
896.982	4927
897.103	5064
897.224	4736
897.345	4706
897.466	4641
897.587	4763
897.708	4889
897.828	4774
897.949	4687
898.07	4615
898.19	4653
898.311	4866
898.431	4714
898.552	4744
898.672	4786
898.792	4816
898.913	4698
899.033	4634
899.153	4497
899.273	4432
899.393	4466
899.513	4535
899.633	4432
899.753	4489
899.873	4561
899.993	4577
900.113	4554
900.232	4569
900.352	4531
900.472	4459
900.591	4432
900.711	4478
900.83	4462
900.95	4592
901.069	4672
901.189	4550
901.308	4344
901.427	4318
901.546	4390
901.665	4478
901.784	4527
901.904	4386
902.023	4325
902.141	4185
902.26	4158
902.379	4322
902.498	4265
902.617	4196
902.735	4325
902.854	4367
902.973	4360
903.091	4181
903.21	4211
903.328	4257
903.446	4261
903.565	4238
903.683	4325
903.801	4253
903.919	4383
904.038	4436
904.156	4341
904.274	4421
904.392	4371
904.51	4424
904.627	4459
904.745	4531
904.863	4596
904.981	4409
905.098	4287
905.216	4344
905.334	4424
905.451	4383
905.569	4440
905.686	4550
905.803	4554
905.921	4409
906.038	4531
906.155	4417
906.272	4432
906.389	4478
906.506	4348
906.623	4383
906.74	4409
906.857	4265
906.974	4325
907.091	4580
907.208	4717
907.324	4607
907.441	4508
907.557	4360
907.674	4337
907.79	4375
907.907	4375
908.023	4485
908.139	4379
908.256	4390
908.372	4394
908.488	4474
908.604	4306
908.72	4371
908.836	4383
908.952	4379
909.068	4413
909.184	4527
909.3	4493
909.415	4550
909.531	4531
909.647	4341
909.762	4363
909.878	4367
909.993	4417
910.108	4394
910.224	4424
910.339	4432
910.454	4405
910.57	4363
910.685	4299
910.8	4637
910.915	4558
911.03	4512
911.145	4303
911.259	4310
911.374	4344
911.489	4303
911.604	4299
911.718	4124
911.833	4181
911.947	4078
912.062	4010
912.176	4181
912.291	4207
912.405	4246
912.519	4485
912.633	4443
912.748	4337
912.862	4322
912.976	4234
913.09	4131
913.204	4143
913.318	4253
913.431	4386
913.545	4367
913.659	4363
913.772	4360
913.886	4196
914	4238
914.113	4371
914.226	4417
914.34	4367
914.453	4257
914.566	4398
914.68	4325
914.793	4318
914.906	4131
915.019	4078
915.132	4051
915.245	4211
915.358	4234
915.47	4204
915.583	4242
915.696	4284
915.809	4383
915.921	4459
916.034	4253
916.146	4242
916.259	4265
916.371	4390
916.483	4314
916.595	4287
916.708	4356
916.82	4314
916.932	4329
917.044	4299
917.156	4337
917.268	4272
917.38	4253
917.491	4253
917.603	4356
917.715	4398
917.826	4424
917.938	4367
918.049	4223
918.161	4367
918.272	4531
918.384	4561
918.495	4447
918.606	4295
918.717	4230
918.828	4303
918.939	4398
919.05	4249
919.161	4299
919.272	4109
919.383	4192
919.494	4481
919.604	4664
919.715	4398
919.826	4329
919.936	4363
920.047	4512
920.157	4451
920.267	4710
920.378	4516
920.488	4489
920.598	4626
920.708	4858
920.818	4710
920.928	4759
921.038	4877
921.148	4900
921.258	4634
921.368	4569
921.477	4485
921.587	4440
921.697	4360
921.806	4565
921.916	4409
922.025	4299
922.134	4310
922.244	4192
922.353	4333
922.462	4188
922.571	4188
922.68	3987
922.789	3956
922.898	4021
923.007	4002
923.116	4086
923.224	4078
923.333	4063
923.442	4017
923.55	3968
923.659	4013
923.767	4101
923.876	4021
923.984	4109
924.092	3998
924.201	4090
924.309	4025
924.417	4128
924.525	4059
924.633	4093
924.741	4847
924.849	3918
924.956	4131
925.064	3945
925.172	3880
925.279	3934
925.387	4013
925.494	4029
925.602	4185
925.709	4204
925.816	3991
925.924	4093
926.031	4215
926.138	4192
926.245	4185
926.352	4055
926.459	4181
926.566	4303
926.673	4128
926.779	4036
926.886	4120
926.993	4002
927.099	3972
927.206	3975
927.312	3960
927.419	4017
927.525	4002
927.631	4036
927.737	3926
927.843	3949
927.95	3819
928.056	3964
928.162	3975
928.267	4017
928.373	4660
928.479	4143
928.585	3869
928.69	4059
928.796	4048
928.901	3953
929.007	3800
929.112	3983
929.218	3979
929.323	3915
929.428	3922
929.533	4116
929.638	3896
929.743	3960
929.848	4082
929.953	3979
930.058	3953
930.163	3770
930.267	3812
930.372	3930
930.477	3819
930.581	4082
930.685	3930
930.79	3793
930.894	3869
930.998	3857
931.103	4040
931.207	3724
931.311	3694
931.415	3625
931.519	3515
931.623	3568
