Data from test_V78500241_719.txt Node
Date: Fri Mar 25 16:54:00 CST 2022
User: usil
Spectrometer: V785-0024
Trigger mode: 0
Integration Time (sec): 4.000000E-1
Scans to average: 1
Nonlinearity correction enabled: false
Boxcar width: 0
Storing dark spectrum: false
XAxis mode: Wavelengths
Number of Pixels in Spectrum: 1024
>>>>>Begin Spectral Data<<<<<
801.071	8005
801.214	7974
801.356	7811
801.499	7871
801.641	7833
801.783	7818
801.926	7989
802.068	7959
802.211	7947
802.353	7993
802.496	7875
802.638	7894
802.78	7890
802.923	7856
803.065	7856
803.208	7826
803.35	7978
803.492	8107
803.635	8145
803.777	8084
803.919	8145
804.061	8396
804.204	8088
804.346	8058
804.488	7970
804.63	8077
804.773	8024
804.915	8046
805.057	8298
805.199	8161
805.341	8279
805.483	8298
805.626	8195
805.768	8115
805.91	8206
806.052	8199
806.194	8073
806.336	8358
806.478	8058
806.62	8088
806.762	8130
806.904	8309
807.046	8499
807.188	8412
807.33	8309
807.472	8423
807.614	8149
807.756	8115
807.898	7997
808.04	7818
808.182	7978
808.324	7875
808.465	7917
808.607	8062
808.749	8084
808.891	8153
809.033	8256
809.174	8199
809.316	8115
809.458	8069
809.6	7993
809.741	7986
809.883	8043
810.025	8077
810.166	8020
810.308	8065
810.45	8107
810.591	7932
810.733	7731
810.875	7761
811.016	7514
811.158	7552
811.299	7620
811.441	7772
811.582	7662
811.724	7571
811.865	7472
812.007	7624
812.148	7613
812.29	7677
812.431	7715
812.573	7856
812.714	7921
812.855	8157
812.997	8161
813.138	8336
813.279	8225
813.421	8157
813.562	7978
813.703	7883
813.845	7860
813.986	7487
814.127	7358
814.268	7274
814.41	7179
814.551	7202
814.692	7179
814.833	7095
814.974	7133
815.115	7118
815.256	7019
815.397	6973
815.539	7000
815.68	6837
815.821	6840
815.962	6905
816.103	6844
816.244	6738
816.385	6650
816.526	6623
816.666	6422
816.807	6319
816.948	6441
817.089	6517
817.23	6525
817.371	6365
817.512	6460
817.653	6437
817.793	6342
817.934	6483
818.075	6506
818.216	6441
818.356	6380
818.497	6224
818.638	6167
818.778	6087
818.919	6152
819.06	6171
819.2	6342
819.341	6384
819.481	6346
819.622	6563
819.762	6741
819.903	6669
820.043	6608
820.184	6566
820.324	6551
820.465	6700
820.605	6730
820.746	6639
820.886	6506
821.026	6658
821.167	6681
821.307	6806
821.447	6730
821.588	6669
821.728	6570
821.868	6517
822.008	6338
822.149	6395
822.289	6433
822.429	6114
822.569	6121
822.709	6095
822.849	5863
822.99	5866
823.13	5927
823.27	5901
823.41	5832
823.55	5786
823.69	5809
823.83	5783
823.97	5676
824.11	5547
824.25	5509
824.389	5516
824.529	5562
824.669	5509
824.809	5604
824.949	5703
825.089	5661
825.228	5585
825.368	5425
825.508	5372
825.648	5292
825.787	5406
825.927	5395
826.067	5311
826.206	5357
826.346	5425
826.485	5455
826.625	5414
826.765	5592
826.904	5463
827.044	5296
827.183	5223
827.323	5105
827.462	5284
827.601	5170
827.741	5189
827.88	5235
828.02	5147
828.159	5273
828.298	5277
828.437	5395
828.577	5292
828.716	5490
828.855	5307
828.994	5204
829.134	5178
829.273	5208
829.412	5166
829.551	5174
829.69	5155
829.829	5258
829.968	5376
830.107	5250
830.246	5296
830.385	5189
830.524	5170
830.663	5098
830.802	5048
830.941	4831
831.08	4892
831.219	5010
831.357	4999
831.496	5155
831.635	4904
831.774	4927
831.913	4889
832.051	4774
832.19	4752
832.329	4866
832.467	4763
832.606	4675
832.744	4759
832.883	4702
833.022	4752
833.16	4812
833.299	4870
833.437	4885
833.576	4835
833.714	4885
833.852	4881
833.991	4896
834.129	5006
834.267	4957
834.406	4938
834.544	5018
834.682	5010
834.821	4930
834.959	5212
835.097	4942
835.235	5197
835.373	5105
835.511	5094
835.65	5064
835.788	5052
835.926	4927
836.064	4896
836.202	4923
836.34	5170
836.478	5288
836.615	5181
836.753	5265
836.891	5273
837.029	5239
837.167	5246
837.305	5174
837.443	5170
837.58	5109
837.718	5288
837.856	5231
837.993	5121
838.131	5261
838.269	5189
838.406	5166
838.544	5181
838.681	5033
838.819	4984
838.956	4927
839.094	4919
839.231	5010
839.369	5090
839.506	5425
839.643	5273
839.781	5094
839.918	5052
840.055	5132
840.193	5102
840.33	5143
840.467	5155
840.604	5250
840.742	5440
840.879	5102
841.016	5071
841.153	5231
841.29	5387
841.427	5360
841.564	5337
841.701	5334
841.838	5299
841.975	5254
842.112	5273
842.249	5178
842.385	5147
842.522	5337
842.659	5189
842.796	5121
842.933	5189
843.069	5197
843.206	5208
843.343	5318
843.479	5280
843.616	5269
843.752	5064
843.889	5094
844.025	5227
844.162	5064
844.298	5178
844.435	5052
844.571	5090
844.708	5216
844.844	5315
844.98	5379
845.117	5318
845.253	5204
845.389	5079
845.525	5147
845.661	5136
845.798	5056
845.934	5147
846.07	5060
846.206	5185
846.342	5303
846.478	5166
846.614	5010
846.75	4942
846.886	5022
847.022	5117
847.158	4999
847.294	5086
847.429	5105
847.565	5025
847.701	5368
847.837	4892
847.972	4858
848.108	4953
848.244	4915
848.379	4786
848.515	4706
848.65	4748
848.786	4786
848.921	4790
849.057	4828
849.192	4942
849.328	4835
849.463	4885
849.598	4786
849.734	4771
849.869	4683
850.004	4687
850.14	4668
850.275	4626
850.41	4516
850.545	4580
850.68	4630
850.815	4596
850.95	4656
851.085	4870
851.22	4744
851.355	4721
851.49	4660
851.625	4653
851.76	4645
851.895	4546
852.03	4531
852.165	4607
852.299	4698
852.434	4797
852.569	4710
852.703	4797
852.838	4831
852.973	4949
853.107	4949
853.242	4805
853.376	4683
853.511	4592
853.645	4603
853.78	4786
853.914	4649
854.048	4691
854.183	4615
854.317	4733
854.451	4877
854.585	4691
854.72	4607
854.854	4767
854.988	4611
855.122	4641
855.256	4542
855.39	4660
855.524	4782
855.658	4759
855.792	4694
855.926	4736
856.06	4717
856.194	4793
856.327	4714
856.461	4607
856.595	4615
856.729	4649
856.862	4740
856.996	4679
857.13	4740
857.263	4782
857.397	4820
857.53	4694
857.664	4679
857.797	4725
857.931	4831
858.064	4714
858.197	4790
858.331	4664
858.464	4675
858.597	4497
858.731	4607
858.864	4626
858.997	4611
859.13	4634
859.263	4656
859.396	4725
859.529	4554
859.662	4603
859.795	4573
859.928	4588
860.061	4805
860.194	4763
860.327	4584
860.46	4561
860.592	4744
860.725	4714
860.858	4717
860.99	4558
861.123	4516
861.256	4542
861.388	4580
861.521	5429
861.653	4554
861.786	4478
861.918	4470
862.05	4561
862.183	4558
862.315	4626
862.447	4645
862.58	4535
862.712	4398
862.844	4344
862.976	4478
863.108	4481
863.24	4873
863.372	4322
863.504	4462
863.636	4436
863.768	4500
863.9	4466
864.032	4363
864.164	4424
864.296	4436
864.428	4550
864.559	4573
864.691	4504
864.823	4558
864.954	4478
865.086	4550
865.217	4440
865.349	4432
865.48	4523
865.612	4535
865.743	4592
865.875	4474
866.006	4443
866.137	4451
866.269	4440
866.4	4455
866.531	4329
866.662	4390
866.793	4443
866.924	4405
867.055	4493
867.186	4470
867.317	4394
867.448	4344
867.579	4398
867.71	4440
867.841	4375
867.972	4508
868.103	4440
868.233	4394
868.364	4481
868.495	4504
868.625	4702
868.756	4752
868.886	4588
869.017	4694
869.147	4748
869.278	4763
869.408	4637
869.539	4649
869.669	4679
869.799	4687
869.929	4801
870.06	4748
870.19	4995
870.32	4946
870.45	4953
870.58	4995
870.71	5094
870.84	5117
870.97	4980
871.1	4904
871.23	5151
871.36	5170
871.489	5048
871.619	5052
871.749	5071
871.879	5128
872.008	5220
872.138	5052
872.267	4995
872.397	4862
872.526	4778
872.656	4714
872.785	4782
872.915	4946
873.044	5052
873.173	4961
873.303	4949
873.432	4972
873.561	4965
873.69	4908
873.819	4900
873.948	4942
874.077	4847
874.206	4771
874.335	4828
874.464	4934
874.593	5071
874.722	4949
874.851	5098
874.979	5048
875.108	5067
875.237	4900
875.365	4835
875.494	4866
875.623	5003
875.751	4786
875.88	4847
876.008	4938
876.136	5014
876.265	5185
876.393	5364
876.521	5239
876.65	5185
876.778	5166
876.906	5083
877.034	5014
877.162	5022
877.29	4976
877.418	5052
877.546	5041
877.674	5048
877.802	5056
877.93	5022
878.058	4881
878.185	4873
878.313	4972
878.441	4984
878.568	4820
878.696	4885
878.824	4995
878.951	5048
879.079	5121
879.206	5303
879.333	5147
879.461	4999
879.588	5056
879.715	5140
879.842	5235
879.97	5056
880.097	4843
880.224	4767
880.351	4862
880.478	4858
880.605	4839
880.732	4824
880.859	5166
880.986	4850
881.112	4965
881.239	4816
881.366	4714
881.493	4687
881.619	4630
881.746	4664
881.872	4664
881.999	4714
882.125	4694
882.252	4786
882.378	4862
882.505	4987
882.631	4850
882.757	4740
882.883	4797
883.01	4816
883.136	4649
883.262	4599
883.388	4675
883.514	4843
883.64	4923
883.766	4786
883.892	4755
884.018	4752
884.143	4961
884.269	5056
884.395	4771
884.52	4729
884.646	4694
884.772	4626
884.897	4626
885.023	4691
885.148	4896
885.274	4930
885.399	4892
885.524	4820
885.65	4752
885.775	4778
885.9	4748
886.025	4927
886.15	4820
886.275	4763
886.4	4656
886.525	4778
886.65	4706
886.775	4702
886.9	4953
887.025	5094
887.149	4828
887.274	4698
887.399	4637
887.523	4611
887.648	4679
887.773	4596
887.897	4786
888.021	4778
888.146	4744
888.27	4820
888.395	4923
888.519	4831
888.643	4858
888.767	4850
888.891	4672
889.015	4645
889.139	4694
889.263	4691
889.387	4847
889.511	4915
889.635	4896
889.759	4660
889.883	4645
890.006	4736
890.13	4881
890.254	4645
890.377	4717
890.501	4577
890.624	4588
890.748	4660
890.871	4577
890.995	4459
891.118	4409
891.241	4512
891.364	4584
891.488	4675
891.611	4531
891.734	4538
891.857	4702
891.98	4596
892.103	4664
892.226	4630
892.349	4516
892.471	4470
892.594	4588
892.717	4622
892.839	4607
892.962	4656
893.085	4664
893.207	4630
893.33	4500
893.452	4580
893.575	4702
893.697	4599
893.819	4847
893.941	4824
894.064	4782
894.186	4584
894.308	4580
894.43	4759
894.552	4843
894.674	4828
894.796	4596
894.918	4653
895.04	4592
895.161	4759
895.283	4687
895.405	4611
895.526	4645
895.648	4752
895.769	4694
895.891	4805
896.012	4755
896.134	4752
896.255	4702
896.376	4622
896.498	4698
896.619	4729
896.74	4622
896.861	4675
896.982	4965
897.103	5132
897.224	4873
897.345	4801
897.466	4733
897.587	4782
897.708	4957
897.828	4816
897.949	4668
898.07	4634
898.19	4694
898.311	4858
898.431	4782
898.552	4790
898.672	4839
898.792	4782
898.913	4755
899.033	4691
899.153	4558
899.273	4436
899.393	4546
899.513	4573
899.633	4558
899.753	4599
899.873	4523
899.993	4599
900.113	4538
900.232	4607
900.352	4558
900.472	4497
900.591	4447
900.711	4535
900.83	4493
900.95	4641
901.069	4710
901.189	4611
901.308	4421
901.427	4352
901.546	4405
901.665	4504
901.784	4535
901.904	4386
902.023	4360
902.141	4268
902.26	4181
902.379	4371
902.498	4322
902.617	4261
902.735	4440
902.854	4428
902.973	4424
903.091	4234
903.21	4291
903.328	4322
903.446	4306
903.565	4284
903.683	4402
903.801	4356
903.919	4478
904.038	4500
904.156	4322
904.274	4443
904.392	4436
904.51	4489
904.627	4516
904.745	4626
904.863	4653
904.981	4428
905.098	4341
905.216	4462
905.334	4481
905.451	4447
905.569	4527
905.686	4554
905.803	4588
905.921	4474
906.038	4577
906.155	4554
906.272	4424
906.389	4497
906.506	4344
906.623	4405
906.74	4413
906.857	4390
906.974	4440
907.091	4607
907.208	4694
907.324	4618
907.441	4519
907.557	4398
907.674	4375
907.79	4333
907.907	4421
908.023	4516
908.139	4489
908.256	4451
908.372	4500
908.488	4421
908.604	4405
908.72	4360
908.836	4371
908.952	4402
909.068	4497
909.184	4626
909.3	4516
909.415	4626
909.531	4580
909.647	4443
909.762	4379
909.878	4363
909.993	4478
910.108	4443
910.224	4451
910.339	4527
910.454	4409
910.57	4398
910.685	4303
910.8	4634
910.915	4573
911.03	4493
911.145	4360
911.259	4333
911.374	4360
911.489	4314
911.604	4287
911.718	4211
911.833	4223
911.947	4086
912.062	4067
912.176	4238
912.291	4215
912.405	4284
912.519	4481
912.633	4516
912.748	4405
912.862	4333
912.976	4219
913.09	4166
913.204	4227
913.318	4249
913.431	4371
913.545	4356
913.659	4489
913.772	4352
913.886	4238
914	4287
914.113	4371
914.226	4485
914.34	4413
914.453	4219
914.566	4443
914.68	4337
914.793	4329
914.906	4185
915.019	4204
915.132	4071
915.245	4200
915.358	4207
915.47	4280
915.583	4303
915.696	4341
915.809	4424
915.921	4440
916.034	4325
916.146	4344
916.259	4246
916.371	4394
916.483	4398
916.595	4291
916.708	4310
916.82	4310
916.932	4341
917.044	4383
917.156	4322
917.268	4303
917.38	4306
917.491	4325
917.603	4363
917.715	4398
917.826	4428
917.938	4363
918.049	4303
918.161	4440
918.272	4550
918.384	4573
918.495	4462
918.606	4299
918.717	4204
918.828	4375
918.939	4356
919.05	4280
919.161	4348
919.272	4135
919.383	4234
919.494	4462
919.604	4641
919.715	4421
919.826	4405
919.936	4402
920.047	4523
920.157	4519
920.267	4721
920.378	4580
920.488	4519
920.598	4733
920.708	4923
920.818	4774
920.928	4710
921.038	5041
921.148	4930
921.258	4641
921.368	4527
921.477	4512
921.587	4478
921.697	4409
921.806	4546
921.916	4466
922.025	4314
922.134	4306
922.244	4215
922.353	4371
922.462	4207
922.571	4135
922.68	3998
922.789	3998
922.898	4063
923.007	3991
923.116	4128
923.224	4078
923.333	4067
923.442	3994
923.55	3991
923.659	4040
923.767	4116
923.876	4002
923.984	4185
924.092	4013
924.201	4139
924.309	4071
924.417	4139
924.525	4067
924.633	4147
924.741	5094
924.849	3884
924.956	4135
925.064	4006
925.172	3960
925.279	3960
925.387	4051
925.494	4093
925.602	4230
925.709	4196
925.816	4063
925.924	4139
926.031	4238
926.138	4150
926.245	4284
926.352	4120
926.459	4268
926.566	4329
926.673	4196
926.779	4078
926.886	4105
926.993	4021
927.099	3975
927.206	3953
927.312	3937
927.419	4109
927.525	4017
927.631	4082
927.737	3972
927.843	3979
927.95	3835
928.056	3945
928.162	4044
928.267	4059
928.373	4710
928.479	4143
928.585	3915
928.69	4025
928.796	4101
928.901	4013
929.007	3857
929.112	4002
929.218	4002
929.323	3949
929.428	3987
929.533	4112
929.638	3911
929.743	4006
929.848	4071
929.953	4010
930.058	3964
930.163	3797
930.267	3831
930.372	4010
930.477	3831
930.581	4097
930.685	3979
930.79	3812
930.894	3892
930.998	3865
931.103	4082
931.207	3675
931.311	3732
931.415	3713
931.519	3545
931.623	3549
