Data from test_V78500241_1544.txt Node
Date: Fri Mar 25 16:59:44 CST 2022
User: usil
Spectrometer: V785-0024
Trigger mode: 0
Integration Time (sec): 4.000000E-1
Scans to average: 1
Nonlinearity correction enabled: false
Boxcar width: 0
Storing dark spectrum: false
XAxis mode: Wavelengths
Number of Pixels in Spectrum: 1024
>>>>>Begin Spectral Data<<<<<
801.071	8005
801.214	8005
801.356	7936
801.499	7871
801.641	7803
801.783	7849
801.926	7967
802.068	7974
802.211	7989
802.353	7963
802.496	7864
802.638	7894
802.78	7997
802.923	7944
803.065	7864
803.208	7890
803.35	8031
803.492	8103
803.635	8107
803.777	7947
803.919	8145
804.061	8469
804.204	8119
804.346	8092
804.488	7955
804.63	8142
804.773	8016
804.915	8081
805.057	8351
805.199	8202
805.341	8298
805.483	8214
805.626	8286
805.768	8123
805.91	8180
806.052	8214
806.194	8134
806.336	8339
806.478	8092
806.62	8088
806.762	8115
806.904	8279
807.046	8492
807.188	8408
807.33	8298
807.472	8286
807.614	8218
807.756	8130
807.898	8054
808.04	7906
808.182	7913
808.324	7906
808.465	7894
808.607	8115
808.749	8115
808.891	8187
809.033	8294
809.174	8206
809.316	8119
809.458	8050
809.6	7986
809.741	8065
809.883	8024
810.025	8107
810.166	8111
810.308	8035
810.45	7959
810.591	7830
810.733	7776
810.875	7685
811.016	7552
811.158	7510
811.299	7594
811.441	7685
811.582	7613
811.724	7590
811.865	7502
812.007	7533
812.148	7632
812.29	7605
812.431	7780
812.573	7906
812.714	7974
812.855	8100
812.997	8187
813.138	8248
813.279	8214
813.421	8123
813.562	7989
813.703	7826
813.845	7799
813.986	7476
814.127	7232
814.268	7164
814.41	7152
814.551	7183
814.692	7213
814.833	7114
814.974	7091
815.115	7137
815.256	6970
815.397	6943
815.539	6939
815.68	6867
815.821	6738
815.962	6821
816.103	6852
816.244	6700
816.385	6620
816.526	6589
816.666	6498
816.807	6331
816.948	6422
817.089	6399
817.23	6448
817.371	6384
817.512	6418
817.653	6384
817.793	6361
817.934	6433
818.075	6452
818.216	6426
818.356	6399
818.497	6262
818.638	6136
818.778	6121
818.919	6144
819.06	6213
819.2	6296
819.341	6331
819.481	6426
819.622	6506
819.762	6745
819.903	6711
820.043	6662
820.184	6547
820.324	6574
820.465	6719
820.605	6730
820.746	6650
820.886	6490
821.026	6608
821.167	6711
821.307	6757
821.447	6760
821.588	6639
821.728	6563
821.868	6517
822.008	6319
822.149	6380
822.289	6376
822.429	6194
822.569	6117
822.709	6121
822.849	5912
822.99	5923
823.13	5851
823.27	5946
823.41	5824
823.55	5737
823.69	5752
823.83	5817
823.97	5653
824.11	5539
824.25	5501
824.389	5551
824.529	5577
824.669	5535
824.809	5589
824.949	5657
825.089	5600
825.228	5554
825.368	5383
825.508	5341
825.648	5322
825.787	5410
825.927	5383
826.067	5318
826.206	5311
826.346	5372
826.485	5417
826.625	5440
826.765	5551
826.904	5497
827.044	5265
827.183	5181
827.323	5121
827.462	5273
827.601	5174
827.741	5220
827.88	5197
828.02	5121
828.159	5277
828.298	5311
828.437	5318
828.577	5311
828.716	5474
828.855	5337
828.994	5109
829.134	5147
829.273	5155
829.412	5121
829.551	5174
829.69	5178
829.829	5261
829.968	5337
830.107	5254
830.246	5235
830.385	5181
830.524	5147
830.663	5105
830.802	4949
830.941	4885
831.08	4934
831.219	5003
831.357	5006
831.496	5166
831.635	4938
831.774	4850
831.913	4862
832.051	4752
832.19	4763
832.329	4843
832.467	4679
832.606	4637
832.744	4717
832.883	4683
833.022	4702
833.16	4782
833.299	4839
833.437	4828
833.576	4828
833.714	4831
833.852	4892
833.991	4870
834.129	4965
834.267	4904
834.406	4930
834.544	4991
834.682	4987
834.821	4968
834.959	5136
835.097	4972
835.235	5170
835.373	5105
835.511	5128
835.65	5014
835.788	5041
835.926	4896
836.064	4854
836.202	4900
836.34	5189
836.478	5250
836.615	5132
836.753	5212
836.891	5288
837.029	5254
837.167	5193
837.305	5181
837.443	5098
837.58	5045
837.718	5258
837.856	5216
837.993	5181
838.131	5231
838.269	5231
838.406	5204
838.544	5216
838.681	5060
838.819	4976
838.956	4847
839.094	4904
839.231	4965
839.369	5079
839.506	5444
839.643	5227
839.781	5045
839.918	5014
840.055	5071
840.193	5052
840.33	5105
840.467	5136
840.604	5147
840.742	5459
840.879	5090
841.016	5113
841.153	5197
841.29	5349
841.427	5345
841.564	5292
841.701	5322
841.838	5235
841.975	5265
842.112	5307
842.249	5102
842.385	5086
842.522	5315
842.659	5151
842.796	5162
842.933	5201
843.069	5178
843.206	5143
843.343	5303
843.479	5231
843.616	5277
843.752	5003
843.889	4991
844.025	5254
844.162	4999
844.298	5189
844.435	5086
844.571	5029
844.708	5204
844.844	5318
844.98	5341
845.117	5311
845.253	5109
845.389	5045
845.525	5174
845.661	5132
845.798	5064
845.934	5140
846.07	5022
846.206	5193
846.342	5239
846.478	5185
846.614	5048
846.75	4984
846.886	4946
847.022	5117
847.158	5010
847.294	5029
847.429	5151
847.565	5086
847.701	5299
847.837	4812
847.972	4820
848.108	4957
848.244	4908
848.379	4774
848.515	4752
848.65	4733
848.786	4717
848.921	4767
849.057	4873
849.192	4858
849.328	4854
849.463	4793
849.598	4820
849.734	4736
849.869	4672
850.004	4592
850.14	4698
850.275	4599
850.41	4531
850.545	4588
850.68	4615
850.815	4656
850.95	4660
851.085	4831
851.22	4736
851.355	4656
851.49	4656
851.625	4641
851.76	4653
851.895	4569
852.03	4523
852.165	4641
852.299	4721
852.434	4805
852.569	4759
852.703	4763
852.838	4831
852.973	4927
853.107	4934
853.242	4698
853.376	4615
853.511	4565
853.645	4611
853.78	4778
853.914	4675
854.048	4649
854.183	4660
854.317	4691
854.451	4809
854.585	4649
854.72	4637
854.854	4740
854.988	4573
855.122	4649
855.256	4535
855.39	4630
855.524	4801
855.658	4736
855.792	4729
855.926	4748
856.06	4763
856.194	4740
856.327	4649
856.461	4634
856.595	4573
856.729	4596
856.862	4748
856.996	4672
857.13	4740
857.263	4778
857.397	4759
857.53	4641
857.664	4736
857.797	4706
857.931	4797
858.064	4694
858.197	4767
858.331	4626
858.464	4615
858.597	4508
858.731	4634
858.864	4592
858.997	4630
859.13	4626
859.263	4672
859.396	4733
859.529	4531
859.662	4538
859.795	4474
859.928	4634
860.061	4763
860.194	4774
860.327	4634
860.46	4565
860.592	4706
860.725	4710
860.858	4698
860.99	4569
861.123	4493
861.256	4550
861.388	4637
861.521	5258
861.653	4443
861.786	4451
861.918	4455
862.05	4519
862.183	4565
862.315	4596
862.447	4599
862.58	4519
862.712	4367
862.844	4337
862.976	4478
863.108	4451
863.24	4759
863.372	4375
863.504	4413
863.636	4447
863.768	4470
863.9	4405
864.032	4344
864.164	4428
864.296	4424
864.428	4546
864.559	4531
864.691	4493
864.823	4561
864.954	4527
865.086	4573
865.217	4485
865.349	4459
865.48	4466
865.612	4462
865.743	4683
865.875	4485
866.006	4394
866.137	4451
866.269	4440
866.4	4413
866.531	4356
866.662	4383
866.793	4379
866.924	4421
867.055	4497
867.186	4459
867.317	4462
867.448	4333
867.579	4371
867.71	4394
867.841	4405
867.972	4428
868.103	4447
868.233	4428
868.364	4443
868.495	4470
868.625	4637
868.756	4774
868.886	4554
869.017	4592
869.147	4729
869.278	4740
869.408	4653
869.539	4630
869.669	4656
869.799	4626
869.929	4778
870.06	4710
870.19	4919
870.32	4850
870.45	4938
870.58	5003
870.71	5064
870.84	5102
870.97	4919
871.1	4889
871.23	5124
871.36	5102
871.489	5022
871.619	5109
871.749	5086
871.879	5079
872.008	5201
872.138	5075
872.267	5003
872.397	4858
872.526	4828
872.656	4733
872.785	4797
872.915	4911
873.044	4995
873.173	4965
873.303	4946
873.432	4900
873.561	5003
873.69	4889
873.819	4835
873.948	4892
874.077	4820
874.206	4748
874.335	4843
874.464	4911
874.593	5037
874.722	4934
874.851	5060
874.979	5052
875.108	4987
875.237	4908
875.365	4866
875.494	4885
875.623	4972
875.751	4831
875.88	4843
876.008	4957
876.136	5018
876.265	5204
876.393	5318
876.521	5250
876.65	5185
876.778	5155
876.906	5029
877.034	5029
877.162	5045
877.29	5006
877.418	5037
877.546	5056
877.674	5022
877.802	5006
877.93	4999
878.058	4892
878.185	4870
878.313	5014
878.441	4904
878.568	4820
878.696	4847
878.824	4957
878.951	4968
879.079	5109
879.206	5280
879.333	5147
879.461	4965
879.588	5003
879.715	5094
879.842	5201
879.97	4991
880.097	4801
880.224	4763
880.351	4850
880.478	4805
880.605	4793
880.732	4767
880.859	5052
880.986	4862
881.112	4908
881.239	4774
881.366	4626
881.493	4630
881.619	4584
881.746	4679
881.872	4675
881.999	4626
882.125	4668
882.252	4786
882.378	4782
882.505	4934
882.631	4740
882.757	4656
882.883	4725
883.01	4771
883.136	4664
883.262	4535
883.388	4603
883.514	4831
883.64	4885
883.766	4797
883.892	4691
884.018	4733
884.143	4930
884.269	4976
884.395	4672
884.52	4653
884.646	4558
884.772	4611
884.897	4558
885.023	4630
885.148	4782
885.274	4847
885.399	4778
885.524	4687
885.65	4698
885.775	4748
885.9	4691
886.025	4866
886.15	4778
886.275	4683
886.4	4653
886.525	4725
886.65	4702
886.775	4698
886.9	4923
887.025	5010
887.149	4809
887.274	4615
887.399	4558
887.523	4603
887.648	4546
887.773	4538
887.897	4755
888.021	4790
888.146	4733
888.27	4801
888.395	4908
888.519	4733
888.643	4774
888.767	4797
888.891	4698
889.015	4584
889.139	4630
889.263	4596
889.387	4717
889.511	4881
889.635	4778
889.759	4653
889.883	4641
890.006	4675
890.13	4831
890.254	4656
890.377	4664
890.501	4550
890.624	4531
890.748	4675
890.871	4489
890.995	4459
891.118	4390
891.241	4531
891.364	4531
891.488	4641
891.611	4470
891.734	4561
891.857	4584
891.98	4554
892.103	4675
892.226	4527
892.349	4485
892.471	4447
892.594	4599
892.717	4611
892.839	4596
892.962	4588
893.085	4649
893.207	4626
893.33	4470
893.452	4493
893.575	4637
893.697	4516
893.819	4805
893.941	4839
894.064	4797
894.186	4542
894.308	4580
894.43	4736
894.552	4790
894.674	4755
894.796	4550
894.918	4573
895.04	4535
895.161	4698
895.283	4679
895.405	4577
895.526	4649
895.648	4664
895.769	4664
895.891	4691
896.012	4725
896.134	4710
896.255	4630
896.376	4626
896.498	4565
896.619	4679
896.74	4599
896.861	4656
896.982	4896
897.103	5060
897.224	4805
897.345	4668
897.466	4668
897.587	4687
897.708	4904
897.828	4782
897.949	4634
898.07	4512
898.19	4653
898.311	4824
898.431	4702
898.552	4786
898.672	4801
898.792	4805
898.913	4755
899.033	4618
899.153	4497
899.273	4440
899.393	4447
899.513	4497
899.633	4531
899.753	4527
899.873	4538
899.993	4538
900.113	4493
900.232	4558
900.352	4519
900.472	4466
900.591	4371
900.711	4443
900.83	4405
900.95	4630
901.069	4668
901.189	4516
901.308	4341
901.427	4284
901.546	4413
901.665	4481
901.784	4497
901.904	4379
902.023	4284
902.141	4185
902.26	4158
902.379	4299
902.498	4257
902.617	4200
902.735	4333
902.854	4405
902.973	4371
903.091	4234
903.21	4204
903.328	4337
903.446	4234
903.565	4272
903.683	4367
903.801	4280
903.919	4383
904.038	4440
904.156	4386
904.274	4432
904.392	4424
904.51	4421
904.627	4466
904.745	4637
904.863	4603
904.981	4390
905.098	4272
905.216	4440
905.334	4413
905.451	4462
905.569	4428
905.686	4497
905.803	4546
905.921	4390
906.038	4558
906.155	4428
906.272	4417
906.389	4409
906.506	4329
906.623	4383
906.74	4402
906.857	4295
906.974	4375
907.091	4497
907.208	4641
907.324	4535
907.441	4497
907.557	4341
907.674	4310
907.79	4337
907.907	4363
908.023	4459
908.139	4417
908.256	4417
908.372	4500
908.488	4455
908.604	4360
908.72	4322
908.836	4360
908.952	4383
909.068	4386
909.184	4527
909.3	4436
909.415	4603
909.531	4573
909.647	4360
909.762	4375
909.878	4360
909.993	4466
910.108	4394
910.224	4413
910.339	4497
910.454	4409
910.57	4333
910.685	4280
910.8	4611
910.915	4599
911.03	4535
911.145	4295
911.259	4295
911.374	4371
911.489	4287
911.604	4306
911.718	4223
911.833	4192
911.947	4078
912.062	4006
912.176	4215
912.291	4261
912.405	4242
912.519	4455
912.633	4523
912.748	4367
912.862	4268
912.976	4219
913.09	4071
913.204	4181
913.318	4265
913.431	4394
913.545	4398
913.659	4440
913.772	4322
913.886	4268
914	4219
914.113	4371
914.226	4443
914.34	4371
914.453	4249
914.566	4481
914.68	4272
914.793	4287
914.906	4128
915.019	4101
915.132	4051
915.245	4177
915.358	4192
915.47	4219
915.583	4272
915.696	4299
915.809	4402
915.921	4447
916.034	4246
916.146	4249
916.259	4211
916.371	4341
916.483	4299
916.595	4265
916.708	4325
916.82	4306
916.932	4291
917.044	4299
917.156	4265
917.268	4223
917.38	4257
917.491	4284
917.603	4356
917.715	4421
917.826	4413
917.938	4348
918.049	4227
918.161	4386
918.272	4512
918.384	4512
918.495	4440
918.606	4333
918.717	4272
918.828	4314
918.939	4383
919.05	4276
919.161	4287
919.272	4147
919.383	4253
919.494	4451
919.604	4596
919.715	4447
919.826	4306
919.936	4405
920.047	4523
920.157	4459
920.267	4698
920.378	4516
920.488	4489
920.598	4725
920.708	4885
920.818	4797
920.928	4759
921.038	4930
921.148	4892
921.258	4615
921.368	4535
921.477	4440
921.587	4459
921.697	4421
921.806	4561
921.916	4405
922.025	4223
922.134	4322
922.244	4242
922.353	4306
922.462	4158
922.571	4112
922.68	3987
922.789	4002
922.898	4017
923.007	4002
923.116	4086
923.224	4051
923.333	4067
923.442	3994
923.55	3953
923.659	4017
923.767	4112
923.876	4025
923.984	4101
924.092	4013
924.201	4090
924.309	4105
924.417	4131
924.525	4051
924.633	4128
924.741	4908
924.849	3888
924.956	4139
925.064	3979
925.172	3880
925.279	3934
925.387	4048
925.494	4071
925.602	4204
925.709	4166
925.816	4048
925.924	4135
926.031	4196
926.138	4158
926.245	4181
926.352	4063
926.459	4238
926.566	4268
926.673	4173
926.779	4082
926.886	4097
926.993	4002
927.099	3945
927.206	3934
927.312	3941
927.419	4006
927.525	3975
927.631	4135
927.737	3941
927.843	3975
927.95	3854
928.056	3956
928.162	3968
928.267	4021
928.373	4569
928.479	4135
928.585	3888
928.69	4048
928.796	4036
928.901	3941
929.007	3827
929.112	4055
929.218	3975
929.323	3964
929.428	3949
929.533	4059
929.638	3911
929.743	3934
929.848	3994
929.953	4013
930.058	3907
930.163	3789
930.267	3797
930.372	3941
930.477	3823
930.581	4090
930.685	3930
930.79	3831
930.894	3865
930.998	3888
931.103	4002
931.207	3728
931.311	3701
931.415	3660
931.519	3545
931.623	3572
