Data from test_V78500241_1914.txt Node
Date: Fri Mar 25 17:02:18 CST 2022
User: usil
Spectrometer: V785-0024
Trigger mode: 0
Integration Time (sec): 4.000000E-1
Scans to average: 1
Nonlinearity correction enabled: false
Boxcar width: 0
Storing dark spectrum: false
XAxis mode: Wavelengths
Number of Pixels in Spectrum: 1024
>>>>>Begin Spectral Data<<<<<
801.071	7928
801.214	7982
801.356	7852
801.499	7921
801.641	7750
801.783	7795
801.926	8005
802.068	7921
802.211	8012
802.353	7970
802.496	7837
802.638	7818
802.78	7845
802.923	7830
803.065	7833
803.208	7887
803.35	7940
803.492	7997
803.635	8161
803.777	8027
803.919	8199
804.061	8393
804.204	8206
804.346	8046
804.488	7974
804.63	8069
804.773	8039
804.915	8058
805.057	8225
805.199	8183
805.341	8210
805.483	8263
805.626	8187
805.768	8084
805.91	8237
806.052	8214
806.194	8058
806.336	8244
806.478	8126
806.62	8065
806.762	8142
806.904	8259
807.046	8526
807.188	8305
807.33	8320
807.472	8301
807.614	8138
807.756	8157
807.898	7993
808.04	7864
808.182	7898
808.324	7845
808.465	7841
808.607	7947
808.749	8119
808.891	8092
809.033	8301
809.174	8248
809.316	8062
809.458	8096
809.6	8050
809.741	8012
809.883	8054
810.025	8130
810.166	8058
810.308	7986
810.45	7986
810.591	7879
810.733	7696
810.875	7605
811.016	7525
811.158	7457
811.299	7582
811.441	7776
811.582	7651
811.724	7556
811.865	7548
812.007	7651
812.148	7556
812.29	7647
812.431	7738
812.573	7928
812.714	7993
812.855	8111
812.997	8229
813.138	8286
813.279	8168
813.421	8103
813.562	7947
813.703	7788
813.845	7731
813.986	7434
814.127	7236
814.268	7274
814.41	7194
814.551	7202
814.692	7198
814.833	7091
814.974	7156
815.115	7171
815.256	6985
815.397	6958
815.539	6894
815.68	6779
815.821	6673
815.962	6856
816.103	6837
816.244	6760
816.385	6639
816.526	6589
816.666	6467
816.807	6308
816.948	6426
817.089	6456
817.23	6380
817.371	6357
817.512	6452
817.653	6376
817.793	6361
817.934	6464
818.075	6521
818.216	6429
818.356	6403
818.497	6270
818.638	6068
818.778	6140
818.919	6133
819.06	6125
819.2	6342
819.341	6300
819.481	6361
819.622	6555
819.762	6692
819.903	6753
820.043	6585
820.184	6604
820.324	6502
820.465	6719
820.605	6650
820.746	6608
820.886	6528
821.026	6604
821.167	6703
821.307	6779
821.447	6760
821.588	6696
821.728	6593
821.868	6528
822.008	6292
822.149	6391
822.289	6262
822.429	6167
822.569	6076
822.709	6148
822.849	5855
822.99	5927
823.13	5942
823.27	5927
823.41	5748
823.55	5756
823.69	5737
823.83	5752
823.97	5649
824.11	5452
824.25	5535
824.389	5562
824.529	5600
824.669	5497
824.809	5615
824.949	5642
825.089	5600
825.228	5581
825.368	5391
825.508	5395
825.648	5341
825.787	5379
825.927	5341
826.067	5288
826.206	5303
826.346	5379
826.485	5406
826.625	5383
826.765	5467
826.904	5467
827.044	5242
827.183	5216
827.323	5086
827.462	5166
827.601	5178
827.741	5159
827.88	5208
828.02	5067
828.159	5197
828.298	5330
828.437	5334
828.577	5250
828.716	5505
828.855	5357
828.994	5178
829.134	5105
829.273	5193
829.412	5113
829.551	5090
829.69	5151
829.829	5250
829.968	5345
830.107	5261
830.246	5277
830.385	5143
830.524	5124
830.663	5067
830.802	4942
830.941	4896
831.08	4850
831.219	5003
831.357	4953
831.496	5162
831.635	4908
831.774	4820
831.913	4793
832.051	4740
832.19	4733
832.329	4843
832.467	4664
832.606	4637
832.744	4706
832.883	4698
833.022	4729
833.16	4721
833.299	4809
833.437	4801
833.576	4828
833.714	4858
833.852	4843
833.991	4847
834.129	4965
834.267	4919
834.406	4915
834.544	4965
834.682	4949
834.821	4927
834.959	5140
835.097	5003
835.235	5143
835.373	5056
835.511	5079
835.65	4968
835.788	5022
835.926	4915
836.064	4831
836.202	4934
836.34	5132
836.478	5235
836.615	5147
836.753	5197
836.891	5258
837.029	5212
837.167	5208
837.305	5170
837.443	5162
837.58	5079
837.718	5231
837.856	5166
837.993	5124
838.131	5239
838.269	5204
838.406	5223
838.544	5181
838.681	4987
838.819	4965
838.956	4896
839.094	4889
839.231	4965
839.369	5079
839.506	5379
839.643	5258
839.781	5060
839.918	4987
840.055	5090
840.193	5079
840.33	5067
840.467	5109
840.604	5151
840.742	5383
840.879	5079
841.016	5060
841.153	5102
841.29	5383
841.427	5311
841.564	5299
841.701	5357
841.838	5280
841.975	5197
842.112	5235
842.249	5124
842.385	5067
842.522	5349
842.659	5140
842.796	5151
842.933	5223
843.069	5143
843.206	5090
843.343	5273
843.479	5250
843.616	5280
843.752	5018
843.889	5010
844.025	5178
844.162	4987
844.298	5136
844.435	5064
844.571	5086
844.708	5170
844.844	5299
844.98	5318
845.117	5330
845.253	5155
845.389	5113
845.525	5178
845.661	5113
845.798	5056
845.934	5117
846.07	5010
846.206	5178
846.342	5280
846.478	5162
846.614	5037
846.75	4984
846.886	4927
847.022	5181
847.158	5018
847.294	5098
847.429	5140
847.565	4995
847.701	5280
847.837	4858
847.972	4824
848.108	4972
848.244	4949
848.379	4748
848.515	4717
848.65	4755
848.786	4721
848.921	4736
849.057	4831
849.192	4892
849.328	4812
849.463	4790
849.598	4767
849.734	4763
849.869	4733
850.004	4694
850.14	4668
850.275	4577
850.41	4512
850.545	4569
850.68	4599
850.815	4645
850.95	4630
851.085	4797
851.22	4748
851.355	4668
851.49	4584
851.625	4599
851.76	4626
851.895	4542
852.03	4535
852.165	4599
852.299	4725
852.434	4763
852.569	4763
852.703	4706
852.838	4835
852.973	4957
853.107	4908
853.242	4691
853.376	4645
853.511	4550
853.645	4656
853.78	4759
853.914	4679
854.048	4649
854.183	4645
854.317	4687
854.451	4820
854.585	4706
854.72	4611
854.854	4698
854.988	4645
855.122	4603
855.256	4531
855.39	4706
855.524	4816
855.658	4736
855.792	4664
855.926	4668
856.06	4767
856.194	4755
856.327	4687
856.461	4626
856.595	4664
856.729	4599
856.862	4687
856.996	4668
857.13	4736
857.263	4763
857.397	4782
857.53	4626
857.664	4691
857.797	4759
857.931	4744
858.064	4664
858.197	4714
858.331	4691
858.464	4580
858.597	4523
858.731	4588
858.864	4630
858.997	4584
859.13	4664
859.263	4660
859.396	4656
859.529	4580
859.662	4599
859.795	4538
859.928	4615
860.061	4752
860.194	4721
860.327	4592
860.46	4561
860.592	4748
860.725	4736
860.858	4729
860.99	4588
861.123	4519
861.256	4519
861.388	4596
861.521	5280
861.653	4485
861.786	4421
861.918	4455
862.05	4504
862.183	4523
862.315	4558
862.447	4664
862.58	4535
862.712	4432
862.844	4341
862.976	4432
863.108	4424
863.24	4752
863.372	4261
863.504	4390
863.636	4424
863.768	4512
863.9	4428
864.032	4341
864.164	4417
864.296	4447
864.428	4550
864.559	4523
864.691	4531
864.823	4538
864.954	4500
865.086	4474
865.217	4459
865.349	4379
865.48	4451
865.612	4489
865.743	4573
865.875	4443
866.006	4409
866.137	4436
866.269	4432
866.4	4402
866.531	4443
866.662	4329
866.793	4379
866.924	4413
867.055	4478
867.186	4455
867.317	4375
867.448	4375
867.579	4405
867.71	4367
867.841	4375
867.972	4493
868.103	4428
868.233	4390
868.364	4447
868.495	4455
868.625	4630
868.756	4790
868.886	4531
869.017	4618
869.147	4710
869.278	4812
869.408	4607
869.539	4618
869.669	4702
869.799	4615
869.929	4702
870.06	4736
870.19	4953
870.32	4873
870.45	4881
870.58	5029
870.71	5124
870.84	5075
870.97	4915
871.1	4866
871.23	5117
871.36	5098
871.489	5003
871.619	5045
871.749	5102
871.879	5086
872.008	5151
872.138	5048
872.267	4976
872.397	4812
872.526	4767
872.656	4744
872.785	4786
872.915	4972
873.044	5045
873.173	4930
873.303	4965
873.432	4968
873.561	4946
873.69	4858
873.819	4839
873.948	4923
874.077	4824
874.206	4744
874.335	4767
874.464	4946
874.593	5033
874.722	4930
874.851	5048
874.979	5090
875.108	4995
875.237	4915
875.365	4900
875.494	4843
875.623	4987
875.751	4858
875.88	4870
876.008	4972
876.136	5025
876.265	5136
876.393	5296
876.521	5185
876.65	5193
876.778	5094
876.906	5006
877.034	5037
877.162	5067
877.29	4930
877.418	5014
877.546	5037
877.674	5006
877.802	5022
877.93	5048
878.058	4919
878.185	4866
878.313	4911
878.441	4908
878.568	4809
878.696	4850
878.824	4953
878.951	5006
879.079	5124
879.206	5231
879.333	5086
879.461	4991
879.588	4980
879.715	5140
879.842	5216
879.97	4987
880.097	4805
880.224	4736
880.351	4797
880.478	4797
880.605	4778
880.732	4812
880.859	5143
880.986	4919
881.112	4854
881.239	4759
881.366	4664
881.493	4626
881.619	4573
881.746	4584
881.872	4664
881.999	4656
882.125	4729
882.252	4835
882.378	4870
882.505	4976
882.631	4847
882.757	4668
882.883	4729
883.01	4748
883.136	4672
883.262	4641
883.388	4603
883.514	4835
883.64	4896
883.766	4809
883.892	4694
884.018	4759
884.143	4885
884.269	4991
884.395	4698
884.52	4675
884.646	4706
884.772	4546
884.897	4596
885.023	4691
885.148	4824
885.274	4870
885.399	4828
885.524	4778
885.65	4729
885.775	4729
885.9	4714
886.025	4892
886.15	4873
886.275	4717
886.4	4683
886.525	4771
886.65	4774
886.775	4740
886.9	4961
887.025	5041
887.149	4915
887.274	4710
887.399	4615
887.523	4679
887.648	4634
887.773	4634
887.897	4774
888.021	4816
888.146	4725
888.27	4828
888.395	4961
888.519	4812
888.643	4870
888.767	4873
888.891	4679
889.015	4649
889.139	4645
889.263	4653
889.387	4778
889.511	4923
889.635	4850
889.759	4679
889.883	4706
890.006	4786
890.13	4870
890.254	4653
890.377	4710
890.501	4588
890.624	4561
890.748	4668
890.871	4516
890.995	4485
891.118	4432
891.241	4542
891.364	4596
891.488	4653
891.611	4550
891.734	4523
891.857	4584
891.98	4588
892.103	4683
892.226	4622
892.349	4599
892.471	4443
892.594	4607
892.717	4634
892.839	4588
892.962	4603
893.085	4706
893.207	4634
893.33	4485
893.452	4569
893.575	4729
893.697	4607
893.819	4812
893.941	4866
894.064	4805
894.186	4645
894.308	4588
894.43	4763
894.552	4835
894.674	4801
894.796	4565
894.918	4634
895.04	4645
895.161	4698
895.283	4698
895.405	4672
895.526	4717
895.648	4717
895.769	4721
895.891	4729
896.012	4782
896.134	4736
896.255	4694
896.376	4645
896.498	4641
896.619	4702
896.74	4618
896.861	4656
896.982	4972
897.103	5113
897.224	4866
897.345	4748
897.466	4710
897.587	4755
897.708	4885
897.828	4793
897.949	4672
898.07	4584
898.19	4660
898.311	4820
898.431	4717
898.552	4816
898.672	4843
898.792	4854
898.913	4725
899.033	4672
899.153	4519
899.273	4466
899.393	4535
899.513	4550
899.633	4569
899.753	4618
899.873	4535
899.993	4607
900.113	4516
900.232	4634
900.352	4546
900.472	4546
900.591	4459
900.711	4508
900.83	4451
900.95	4622
901.069	4698
901.189	4588
901.308	4443
901.427	4375
901.546	4421
901.665	4474
901.784	4516
901.904	4413
902.023	4348
902.141	4207
902.26	4185
902.379	4329
902.498	4246
902.617	4234
902.735	4424
902.854	4402
902.973	4390
903.091	4249
903.21	4268
903.328	4337
903.446	4295
903.565	4276
903.683	4360
903.801	4299
903.919	4440
904.038	4440
904.156	4352
904.274	4432
904.392	4417
904.51	4447
904.627	4485
904.745	4603
904.863	4660
904.981	4428
905.098	4341
905.216	4405
905.334	4440
905.451	4405
905.569	4481
905.686	4580
905.803	4584
905.921	4485
906.038	4561
906.155	4493
906.272	4440
906.389	4500
906.506	4379
906.623	4405
906.74	4451
906.857	4348
906.974	4402
907.091	4546
907.208	4736
907.324	4611
907.441	4592
907.557	4424
907.674	4375
907.79	4379
907.907	4432
908.023	4516
908.139	4535
908.256	4432
908.372	4485
908.488	4523
908.604	4405
908.72	4367
908.836	4348
908.952	4402
909.068	4474
909.184	4622
909.3	4500
909.415	4584
909.531	4542
909.647	4421
909.762	4440
909.878	4405
909.993	4432
910.108	4466
910.224	4459
910.339	4478
910.454	4432
910.57	4386
910.685	4367
910.8	4675
910.915	4584
911.03	4554
911.145	4348
911.259	4341
911.374	4455
911.489	4314
911.604	4280
911.718	4204
911.833	4253
911.947	4044
912.062	4086
912.176	4249
912.291	4268
912.405	4314
912.519	4504
912.633	4523
912.748	4386
912.862	4318
912.976	4227
913.09	4116
913.204	4234
913.318	4249
913.431	4409
913.545	4386
913.659	4451
913.772	4356
913.886	4306
914	4238
914.113	4348
914.226	4443
914.34	4405
914.453	4257
914.566	4421
914.68	4303
914.793	4341
914.906	4192
915.019	4131
915.132	4112
915.245	4162
915.358	4265
915.47	4253
915.583	4253
915.696	4352
915.809	4443
915.921	4405
916.034	4242
916.146	4295
916.259	4249
916.371	4451
916.483	4371
916.595	4284
916.708	4348
916.82	4337
916.932	4390
917.044	4310
917.156	4356
917.268	4227
917.38	4314
917.491	4242
917.603	4318
917.715	4478
917.826	4451
917.938	4383
918.049	4230
918.161	4432
918.272	4573
918.384	4519
918.495	4478
918.606	4280
918.717	4204
918.828	4394
918.939	4360
919.05	4295
919.161	4322
919.272	4147
919.383	4204
919.494	4428
919.604	4573
919.715	4485
919.826	4329
919.936	4428
920.047	4504
920.157	4504
920.267	4755
920.378	4577
920.488	4512
920.598	4752
920.708	4911
920.818	4763
920.928	4801
921.038	4961
921.148	4961
921.258	4645
921.368	4558
921.477	4538
921.587	4478
921.697	4428
921.806	4592
921.916	4428
922.025	4291
922.134	4322
922.244	4261
922.353	4348
922.462	4215
922.571	4128
922.68	4032
922.789	3994
922.898	4078
923.007	3983
923.116	4116
923.224	4097
923.333	4109
923.442	3972
923.55	4010
923.659	4059
923.767	4147
923.876	4059
923.984	4147
924.092	3998
924.201	4086
924.309	4112
924.417	4128
924.525	4074
924.633	4128
924.741	5060
924.849	3953
924.956	4112
925.064	3968
925.172	3964
925.279	4017
925.387	4078
925.494	4078
925.602	4261
925.709	4200
925.816	4036
925.924	4169
926.031	4249
926.138	4234
926.245	4223
926.352	4101
926.459	4280
926.566	4276
926.673	4188
926.779	4105
926.886	4063
926.993	4002
927.099	4002
927.206	3934
927.312	3911
927.419	4082
927.525	4021
927.631	4131
927.737	3956
927.843	4013
927.95	3911
928.056	3960
928.162	3991
928.267	4074
928.373	4649
928.479	4086
928.585	3873
928.69	4029
928.796	4082
928.901	3922
929.007	3857
929.112	4021
929.218	3991
929.323	3960
929.428	3964
929.533	4131
929.638	3956
929.743	3964
929.848	4051
929.953	4032
930.058	3968
930.163	3819
930.267	3869
930.372	3991
930.477	3816
930.581	4097
930.685	3998
930.79	3823
930.894	3850
930.998	3880
931.103	4025
931.207	3740
931.311	3701
931.415	3663
931.519	3545
931.623	3580
