Data from test_V78500241_62.txt Node
Date: Fri Mar 25 16:49:26 CST 2022
User: usil
Spectrometer: V785-0024
Trigger mode: 0
Integration Time (sec): 4.000000E-1
Scans to average: 1
Nonlinearity correction enabled: false
Boxcar width: 0
Storing dark spectrum: false
XAxis mode: Wavelengths
Number of Pixels in Spectrum: 1024
>>>>>Begin Spectral Data<<<<<
801.071	8058
801.214	8092
801.356	7928
801.499	7963
801.641	7868
801.783	7852
801.926	8012
802.068	7978
802.211	8039
802.353	8031
802.496	7875
802.638	8001
802.78	7989
802.923	7986
803.065	7944
803.208	7852
803.35	8016
803.492	8126
803.635	8130
803.777	7982
803.919	8077
804.061	8469
804.204	8145
804.346	8058
804.488	8020
804.63	8134
804.773	7974
804.915	8069
805.057	8229
805.199	8164
805.341	8229
805.483	8267
805.626	8225
805.768	8187
805.91	8142
806.052	8244
806.194	8100
806.336	8320
806.478	8202
806.62	8180
806.762	8275
806.904	8377
807.046	8461
807.188	8355
807.33	8339
807.472	8374
807.614	8195
807.756	8145
807.898	8046
808.04	7993
808.182	7970
808.324	7921
808.465	7947
808.607	8050
808.749	8161
808.891	8218
809.033	8279
809.174	8214
809.316	8092
809.458	8058
809.6	8005
809.741	8081
809.883	8077
810.025	8130
810.166	8096
810.308	8043
810.45	8073
810.591	7963
810.733	7708
810.875	7727
811.016	7540
811.158	7525
811.299	7632
811.441	7822
811.582	7719
811.724	7601
811.865	7529
812.007	7681
812.148	7689
812.29	7734
812.431	7807
812.573	7959
812.714	8027
812.855	8237
812.997	8294
813.138	8374
813.279	8206
813.421	8100
813.562	7982
813.703	7898
813.845	7761
813.986	7457
814.127	7301
814.268	7297
814.41	7221
814.551	7232
814.692	7225
814.833	7149
814.974	7126
815.115	7194
815.256	6996
815.397	6973
815.539	6966
815.68	6795
815.821	6814
815.962	6871
816.103	6814
816.244	6772
816.385	6639
816.526	6677
816.666	6525
816.807	6437
816.948	6506
817.089	6502
817.23	6437
817.371	6429
817.512	6380
817.653	6399
817.793	6388
817.934	6460
818.075	6456
818.216	6494
818.356	6475
818.497	6384
818.638	6190
818.778	6190
818.919	6136
819.06	6175
819.2	6365
819.341	6388
819.481	6372
819.622	6589
819.762	6787
819.903	6703
820.043	6612
820.184	6540
820.324	6642
820.465	6745
820.605	6715
820.746	6642
820.886	6528
821.026	6707
821.167	6726
821.307	6863
821.447	6810
821.588	6700
821.728	6585
821.868	6547
822.008	6384
822.149	6414
822.289	6380
822.429	6224
822.569	6125
822.709	6201
822.849	5961
822.99	5939
823.13	5923
823.27	5961
823.41	5802
823.55	5813
823.69	5821
823.83	5828
823.97	5741
824.11	5600
824.25	5505
824.389	5596
824.529	5589
824.669	5608
824.809	5653
824.949	5703
825.089	5668
825.228	5634
825.368	5391
825.508	5383
825.648	5330
825.787	5357
825.927	5391
826.067	5334
826.206	5334
826.346	5379
826.485	5383
826.625	5444
826.765	5604
826.904	5539
827.044	5254
827.183	5166
827.323	5174
827.462	5250
827.601	5204
827.741	5212
827.88	5216
828.02	5197
828.159	5288
828.298	5345
828.437	5417
828.577	5345
828.716	5474
828.855	5372
828.994	5132
829.134	5242
829.273	5212
829.412	5204
829.551	5159
829.69	5220
829.829	5261
829.968	5391
830.107	5330
830.246	5357
830.385	5227
830.524	5197
830.663	5162
830.802	4957
830.941	4930
831.08	4866
831.219	5037
831.357	4991
831.496	5193
831.635	4980
831.774	4942
831.913	4885
832.051	4721
832.19	4774
832.329	4858
832.467	4698
832.606	4660
832.744	4774
832.883	4759
833.022	4698
833.16	4786
833.299	4843
833.437	4835
833.576	4862
833.714	4919
833.852	4904
833.991	4930
834.129	4987
834.267	4984
834.406	4949
834.544	4980
834.682	5033
834.821	5025
834.959	5258
835.097	5010
835.235	5204
835.373	5155
835.511	5117
835.65	5003
835.788	5041
835.926	4896
836.064	4930
836.202	4991
836.34	5185
836.478	5269
836.615	5170
836.753	5277
836.891	5345
837.029	5254
837.167	5242
837.305	5166
837.443	5166
837.58	5124
837.718	5307
837.856	5185
837.993	5185
838.131	5284
838.269	5201
838.406	5239
838.544	5178
838.681	5064
838.819	5060
838.956	4953
839.094	4942
839.231	5010
839.369	5083
839.506	5455
839.643	5265
839.781	5105
839.918	5041
840.055	5121
840.193	5132
840.33	5128
840.467	5128
840.604	5261
840.742	5463
840.879	5136
841.016	5166
841.153	5181
841.29	5455
841.427	5444
841.564	5315
841.701	5391
841.838	5296
841.975	5288
842.112	5292
842.249	5174
842.385	5147
842.522	5383
842.659	5235
842.796	5178
842.933	5204
843.069	5159
843.206	5159
843.343	5372
843.479	5277
843.616	5292
843.752	5064
843.889	5075
844.025	5250
844.162	5041
844.298	5250
844.435	5117
844.571	5178
844.708	5227
844.844	5345
844.98	5414
845.117	5288
845.253	5189
845.389	5105
845.525	5189
845.661	5147
845.798	5086
845.934	5174
846.07	5071
846.206	5185
846.342	5296
846.478	5227
846.614	5117
846.75	5022
846.886	4995
847.022	5181
847.158	5067
847.294	5109
847.429	5185
847.565	5090
847.701	5330
847.837	4911
847.972	4828
848.108	5041
848.244	4953
848.379	4812
848.515	4767
848.65	4736
848.786	4820
848.921	4771
849.057	4927
849.192	4930
849.328	4854
849.463	4866
849.598	4824
849.734	4797
849.869	4733
850.004	4615
850.14	4694
850.275	4668
850.41	4546
850.545	4584
850.68	4634
850.815	4615
850.95	4653
851.085	4927
851.22	4774
851.355	4672
851.49	4691
851.625	4656
851.76	4645
851.895	4599
852.03	4588
852.165	4706
852.299	4740
852.434	4847
852.569	4736
852.703	4774
852.838	4854
852.973	4965
853.107	4949
853.242	4820
853.376	4717
853.511	4607
853.645	4653
853.78	4831
853.914	4725
854.048	4668
854.183	4691
854.317	4771
854.451	4915
854.585	4725
854.72	4656
854.854	4774
854.988	4599
855.122	4634
855.256	4588
855.39	4740
855.524	4831
855.658	4725
855.792	4706
855.926	4733
856.06	4767
856.194	4797
856.327	4694
856.461	4622
856.595	4626
856.729	4679
856.862	4740
856.996	4744
857.13	4763
857.263	4790
857.397	4862
857.53	4672
857.664	4725
857.797	4805
857.931	4809
858.064	4710
858.197	4786
858.331	4721
858.464	4611
858.597	4531
858.731	4607
858.864	4763
858.997	4672
859.13	4698
859.263	4717
859.396	4733
859.529	4630
859.662	4569
859.795	4500
859.928	4656
860.061	4782
860.194	4774
860.327	4649
860.46	4588
860.592	4694
860.725	4763
860.858	4755
860.99	4561
861.123	4569
861.256	4558
861.388	4656
861.521	5315
861.653	4500
861.786	4485
861.918	4466
862.05	4508
862.183	4592
862.315	4641
862.447	4706
862.58	4596
862.712	4421
862.844	4352
862.976	4466
863.108	4440
863.24	4972
863.372	4337
863.504	4440
863.636	4440
863.768	4519
863.9	4512
864.032	4348
864.164	4417
864.296	4500
864.428	4660
864.559	4573
864.691	4599
864.823	4580
864.954	4527
865.086	4516
865.217	4497
865.349	4466
865.48	4493
865.612	4531
865.743	4649
865.875	4500
866.006	4459
866.137	4519
866.269	4459
866.4	4474
866.531	4409
866.662	4402
866.793	4424
866.924	4504
867.055	4466
867.186	4489
867.317	4409
867.448	4383
867.579	4371
867.71	4428
867.841	4394
867.972	4508
868.103	4523
868.233	4523
868.364	4478
868.495	4504
868.625	4725
868.756	4790
868.886	4626
869.017	4626
869.147	4763
869.278	4790
869.408	4656
869.539	4664
869.669	4752
869.799	4733
869.929	4831
870.06	4740
870.19	5010
870.32	4938
870.45	4942
870.58	5056
870.71	5143
870.84	5117
870.97	4946
871.1	4946
871.23	5170
871.36	5140
871.489	5041
871.619	5094
871.749	5136
871.879	5166
872.008	5239
872.138	5124
872.267	4987
872.397	4866
872.526	4866
872.656	4740
872.785	4820
872.915	4984
873.044	5079
873.173	4919
873.303	4968
873.432	5041
873.561	4957
873.69	4919
873.819	4915
873.948	4942
874.077	4877
874.206	4771
874.335	4812
874.464	4946
874.593	5098
874.722	4968
874.851	5174
874.979	5132
875.108	5113
875.237	4938
875.365	4949
875.494	4896
875.623	5033
875.751	4862
875.88	4908
876.008	5067
876.136	5018
876.265	5231
876.393	5402
876.521	5254
876.65	5299
876.778	5197
876.906	5105
877.034	5033
877.162	5083
877.29	4980
877.418	5048
877.546	5006
877.674	5117
877.802	5090
877.93	5045
878.058	5018
878.185	4896
878.313	5029
878.441	4987
878.568	4873
878.696	4862
878.824	4980
878.951	5018
879.079	5174
879.206	5322
879.333	5140
879.461	5018
879.588	5071
879.715	5155
879.842	5261
879.97	5045
880.097	4816
880.224	4812
880.351	4858
880.478	4831
880.605	4889
880.732	4877
880.859	5117
880.986	4942
881.112	4957
881.239	4771
881.366	4694
881.493	4660
881.619	4626
881.746	4664
881.872	4702
881.999	4679
882.125	4710
882.252	4759
882.378	4805
882.505	4999
882.631	4831
882.757	4683
882.883	4778
883.01	4774
883.136	4664
883.262	4630
883.388	4656
883.514	4862
883.64	4892
883.766	4847
883.892	4717
884.018	4767
884.143	4889
884.269	5052
884.395	4740
884.52	4615
884.646	4664
884.772	4630
884.897	4584
885.023	4679
885.148	4847
885.274	4854
885.399	4850
885.524	4778
885.65	4679
885.775	4759
885.9	4748
886.025	4892
886.15	4812
886.275	4748
886.4	4683
886.525	4740
886.65	4702
886.775	4740
886.9	4938
887.025	5048
887.149	4831
887.274	4706
887.399	4622
887.523	4630
887.648	4580
887.773	4626
887.897	4820
888.021	4873
888.146	4698
888.27	4847
888.395	4965
888.519	4801
888.643	4847
888.767	4843
888.891	4778
889.015	4641
889.139	4683
889.263	4630
889.387	4797
889.511	4873
889.635	4812
889.759	4656
889.883	4721
890.006	4809
890.13	4805
890.254	4660
890.377	4702
890.501	4599
890.624	4565
890.748	4664
890.871	4542
890.995	4451
891.118	4413
891.241	4527
891.364	4531
891.488	4653
891.611	4538
891.734	4577
891.857	4687
891.98	4573
892.103	4668
892.226	4653
892.349	4573
892.471	4424
892.594	4580
892.717	4645
892.839	4607
892.962	4630
893.085	4668
893.207	4672
893.33	4428
893.452	4573
893.575	4710
893.697	4550
893.819	4809
893.941	4831
894.064	4797
894.186	4618
894.308	4599
894.43	4736
894.552	4820
894.674	4805
894.796	4565
894.918	4611
895.04	4622
895.161	4714
895.283	4675
895.405	4607
895.526	4672
895.648	4733
895.769	4706
895.891	4767
896.012	4767
896.134	4786
896.255	4714
896.376	4653
896.498	4668
896.619	4717
896.74	4626
896.861	4645
896.982	4942
897.103	5109
897.224	4889
897.345	4790
897.466	4672
897.587	4850
897.708	4873
897.828	4820
897.949	4694
898.07	4592
898.19	4630
898.311	4896
898.431	4683
898.552	4717
898.672	4881
898.792	4809
898.913	4702
899.033	4641
899.153	4558
899.273	4443
899.393	4565
899.513	4546
899.633	4561
899.753	4527
899.873	4584
899.993	4618
900.113	4550
900.232	4592
900.352	4584
900.472	4497
900.591	4459
900.711	4546
900.83	4459
900.95	4618
901.069	4755
901.189	4546
901.308	4432
901.427	4390
901.546	4424
901.665	4466
901.784	4546
901.904	4383
902.023	4348
902.141	4204
902.26	4177
902.379	4344
902.498	4257
902.617	4230
902.735	4402
902.854	4436
902.973	4363
903.091	4238
903.21	4280
903.328	4325
903.446	4276
903.565	4268
903.683	4436
903.801	4272
903.919	4421
904.038	4413
904.156	4310
904.274	4424
904.392	4436
904.51	4470
904.627	4542
904.745	4664
904.863	4675
904.981	4405
905.098	4303
905.216	4379
905.334	4500
905.451	4455
905.569	4462
905.686	4588
905.803	4569
905.921	4459
906.038	4599
906.155	4516
906.272	4405
906.389	4504
906.506	4386
906.623	4386
906.74	4462
906.857	4299
906.974	4352
907.091	4645
907.208	4664
907.324	4615
907.441	4550
907.557	4386
907.674	4424
907.79	4375
907.907	4375
908.023	4542
908.139	4531
908.256	4451
908.372	4516
908.488	4519
908.604	4356
908.72	4356
908.836	4409
908.952	4383
909.068	4459
909.184	4554
909.3	4474
909.415	4622
909.531	4573
909.647	4363
909.762	4383
909.878	4398
909.993	4462
910.108	4451
910.224	4432
910.339	4519
910.454	4367
910.57	4363
910.685	4344
910.8	4691
910.915	4599
911.03	4508
911.145	4371
911.259	4360
911.374	4417
911.489	4386
911.604	4310
911.718	4181
911.833	4253
911.947	4082
912.062	4063
912.176	4291
912.291	4287
912.405	4253
912.519	4459
912.633	4527
912.748	4379
912.862	4314
912.976	4261
913.09	4128
913.204	4192
913.318	4287
913.431	4405
913.545	4379
913.659	4493
913.772	4371
913.886	4303
914	4249
914.113	4405
914.226	4497
914.34	4375
914.453	4230
914.566	4436
914.68	4322
914.793	4367
914.906	4185
915.019	4131
915.132	4090
915.245	4211
915.358	4276
915.47	4265
915.583	4257
915.696	4356
915.809	4462
915.921	4432
916.034	4291
916.146	4306
916.259	4265
916.371	4462
916.483	4405
916.595	4268
916.708	4390
916.82	4322
916.932	4371
917.044	4333
917.156	4344
917.268	4295
917.38	4318
917.491	4276
917.603	4379
917.715	4459
917.826	4440
917.938	4379
918.049	4242
918.161	4432
918.272	4561
918.384	4588
918.495	4478
918.606	4325
918.717	4325
918.828	4417
918.939	4398
919.05	4257
919.161	4367
919.272	4139
919.383	4299
919.494	4500
919.604	4656
919.715	4440
919.826	4367
919.936	4432
920.047	4573
920.157	4531
920.267	4736
920.378	4592
920.488	4531
920.598	4679
920.708	4919
920.818	4774
920.928	4778
921.038	5003
921.148	4946
921.258	4653
921.368	4580
921.477	4554
921.587	4470
921.697	4451
921.806	4550
921.916	4409
922.025	4261
922.134	4284
922.244	4272
922.353	4352
922.462	4238
922.571	4112
922.68	4013
922.789	3987
922.898	4071
923.007	4067
923.116	4116
923.224	4067
923.333	4112
923.442	3987
923.55	4017
923.659	4036
923.767	4158
923.876	4010
923.984	4105
924.092	4002
924.201	4097
924.309	4162
924.417	4207
924.525	4086
924.633	4143
924.741	4919
924.849	3960
924.956	4154
925.064	3994
925.172	3964
925.279	3991
925.387	4105
925.494	4093
925.602	4223
925.709	4211
925.816	4017
925.924	4128
926.031	4246
926.138	4238
926.245	4223
926.352	4112
926.459	4276
926.566	4268
926.673	4192
926.779	4059
926.886	4139
926.993	3964
927.099	3987
927.206	4032
927.312	3983
927.419	4082
927.525	4048
927.631	4128
927.737	4048
927.843	4017
927.95	3865
928.056	3979
928.162	4006
928.267	4055
928.373	4679
928.479	4120
928.585	3873
928.69	4017
928.796	4078
928.901	3979
929.007	3903
929.112	4067
929.218	3968
929.323	3979
929.428	3953
929.533	4150
929.638	3949
929.743	3949
929.848	4021
929.953	4048
930.058	3926
930.163	3781
930.267	3785
930.372	3987
930.477	3827
930.581	4082
930.685	3991
930.79	3842
930.894	3861
930.998	3876
931.103	4032
931.207	3690
931.311	3660
931.415	3644
931.519	3564
931.623	3553
