Data from test_V78500241_705.txt Node
Date: Fri Mar 25 16:53:54 CST 2022
User: usil
Spectrometer: V785-0024
Trigger mode: 0
Integration Time (sec): 4.000000E-1
Scans to average: 1
Nonlinearity correction enabled: false
Boxcar width: 0
Storing dark spectrum: false
XAxis mode: Wavelengths
Number of Pixels in Spectrum: 1024
>>>>>Begin Spectral Data<<<<<
801.071	7986
801.214	7974
801.356	7830
801.499	7833
801.641	7792
801.783	7826
801.926	7947
802.068	7955
802.211	7959
802.353	7947
802.496	7833
802.638	7887
802.78	7898
802.923	7898
803.065	7849
803.208	7894
803.35	7951
803.492	8084
803.635	8096
803.777	7989
803.919	8065
804.061	8404
804.204	8073
804.346	8008
804.488	7997
804.63	8088
804.773	7978
804.915	8096
805.057	8282
805.199	8077
805.341	8206
805.483	8271
805.626	8157
805.768	8092
805.91	8210
806.052	8191
806.194	8054
806.336	8229
806.478	8005
806.62	8084
806.762	8100
806.904	8267
807.046	8488
807.188	8427
807.33	8317
807.472	8343
807.614	8145
807.756	8088
807.898	7913
808.04	7780
808.182	7932
808.324	7906
808.465	7830
808.607	8001
808.749	8084
808.891	8130
809.033	8320
809.174	8233
809.316	8024
809.458	8020
809.6	7993
809.741	8024
809.883	8012
810.025	8039
810.166	8065
810.308	7951
810.45	7982
810.591	7898
810.733	7693
810.875	7674
811.016	7499
811.158	7491
811.299	7540
811.441	7719
811.582	7636
811.724	7548
811.865	7468
812.007	7609
812.148	7491
812.29	7544
812.431	7696
812.573	7807
812.714	7913
812.855	8096
812.997	8221
813.138	8233
813.279	8195
813.421	8058
813.562	7913
813.703	7849
813.845	7784
813.986	7449
814.127	7247
814.268	7274
814.41	7202
814.551	7122
814.692	7099
814.833	7095
814.974	7057
815.115	7122
815.256	6962
815.397	6859
815.539	6962
815.68	6806
815.821	6776
815.962	6806
816.103	6757
816.244	6681
816.385	6578
816.526	6578
816.666	6437
816.807	6300
816.948	6376
817.089	6456
817.23	6338
817.371	6319
817.512	6338
817.653	6350
817.793	6361
817.934	6418
818.075	6418
818.216	6407
818.356	6331
818.497	6205
818.638	6064
818.778	6110
818.919	6030
819.06	6114
819.2	6292
819.341	6270
819.481	6334
819.622	6498
819.762	6650
819.903	6711
820.043	6570
820.184	6528
820.324	6517
820.465	6715
820.605	6642
820.746	6593
820.886	6517
821.026	6616
821.167	6650
821.307	6776
821.447	6741
821.588	6582
821.728	6555
821.868	6429
822.008	6319
822.149	6361
822.289	6384
822.429	6110
822.569	6060
822.709	6057
822.849	5931
822.99	5878
823.13	5870
823.27	5920
823.41	5802
823.55	5737
823.69	5767
823.83	5828
823.97	5680
824.11	5535
824.25	5554
824.389	5509
824.529	5623
824.669	5532
824.809	5657
824.949	5714
825.089	5630
825.228	5551
825.368	5414
825.508	5353
825.648	5360
825.787	5395
825.927	5410
826.067	5315
826.206	5288
826.346	5455
826.485	5436
826.625	5440
826.765	5623
826.904	5478
827.044	5311
827.183	5242
827.323	5178
827.462	5261
827.601	5170
827.741	5193
827.88	5235
828.02	5140
828.159	5303
828.298	5349
828.437	5383
828.577	5261
828.716	5520
828.855	5357
828.994	5208
829.134	5212
829.273	5254
829.412	5147
829.551	5140
829.69	5159
829.829	5265
829.968	5444
830.107	5326
830.246	5315
830.385	5155
830.524	5151
830.663	5117
830.802	5022
830.941	4889
831.08	4915
831.219	5006
831.357	5006
831.496	5204
831.635	4961
831.774	4896
831.913	4877
832.051	4793
832.19	4801
832.329	4870
832.467	4721
832.606	4672
832.744	4755
832.883	4702
833.022	4805
833.16	4790
833.299	4850
833.437	4755
833.576	4896
833.714	4885
833.852	4927
833.991	4919
834.129	5006
834.267	5006
834.406	4870
834.544	4980
834.682	5071
834.821	5018
834.959	5159
835.097	4972
835.235	5143
835.373	5105
835.511	5155
835.65	5064
835.788	5067
835.926	4911
836.064	4873
836.202	4984
836.34	5265
836.478	5223
836.615	5147
836.753	5303
836.891	5288
837.029	5307
837.167	5235
837.305	5231
837.443	5170
837.58	5090
837.718	5269
837.856	5166
837.993	5159
838.131	5261
838.269	5204
838.406	5235
838.544	5223
838.681	5098
838.819	5086
838.956	4976
839.094	4930
839.231	4976
839.369	5105
839.506	5444
839.643	5292
839.781	5143
839.918	5102
840.055	5109
840.193	5132
840.33	5124
840.467	5166
840.604	5227
840.742	5440
840.879	5075
841.016	5128
841.153	5113
841.29	5376
841.427	5383
841.564	5330
841.701	5395
841.838	5326
841.975	5258
842.112	5326
842.249	5181
842.385	5185
842.522	5296
842.659	5189
842.796	5143
842.933	5235
843.069	5189
843.206	5246
843.343	5345
843.479	5318
843.616	5334
843.752	5109
843.889	5033
844.025	5288
844.162	5041
844.298	5204
844.435	5143
844.571	5052
844.708	5220
844.844	5318
844.98	5387
845.117	5353
845.253	5159
845.389	5083
845.525	5162
845.661	5162
845.798	5056
845.934	5128
846.07	5098
846.206	5166
846.342	5315
846.478	5231
846.614	5071
846.75	5033
846.886	4938
847.022	5197
847.158	4991
847.294	5102
847.429	5098
847.565	5090
847.701	5349
847.837	4866
847.972	4847
848.108	4984
848.244	4953
848.379	4816
848.515	4759
848.65	4733
848.786	4797
848.921	4740
849.057	4885
849.192	4938
849.328	4835
849.463	4870
849.598	4812
849.734	4809
849.869	4694
850.004	4668
850.14	4668
850.275	4653
850.41	4577
850.545	4565
850.68	4626
850.815	4637
850.95	4668
851.085	4904
851.22	4752
851.355	4675
851.49	4668
851.625	4599
851.76	4653
851.895	4580
852.03	4615
852.165	4672
852.299	4729
852.434	4786
852.569	4790
852.703	4790
852.838	4911
852.973	4942
853.107	4942
853.242	4793
853.376	4694
853.511	4618
853.645	4653
853.78	4831
853.914	4691
854.048	4702
854.183	4729
854.317	4698
854.451	4850
854.585	4679
854.72	4702
854.854	4812
854.988	4615
855.122	4653
855.256	4538
855.39	4691
855.524	4850
855.658	4752
855.792	4729
855.926	4767
856.06	4778
856.194	4873
856.327	4744
856.461	4679
856.595	4611
856.729	4653
856.862	4778
856.996	4702
857.13	4797
857.263	4774
857.397	4843
857.53	4721
857.664	4721
857.797	4782
857.931	4801
858.064	4736
858.197	4771
858.331	4679
858.464	4645
858.597	4558
858.731	4672
858.864	4672
858.997	4630
859.13	4637
859.263	4706
859.396	4721
859.529	4637
859.662	4596
859.795	4538
859.928	4634
860.061	4797
860.194	4835
860.327	4687
860.46	4603
860.592	4717
860.725	4767
860.858	4744
860.99	4634
861.123	4538
861.256	4561
861.388	4634
861.521	5391
861.653	4481
861.786	4447
861.918	4523
862.05	4527
862.183	4584
862.315	4641
862.447	4675
862.58	4580
862.712	4421
862.844	4402
862.976	4523
863.108	4500
863.24	4984
863.372	4344
863.504	4447
863.636	4398
863.768	4535
863.9	4474
864.032	4409
864.164	4402
864.296	4523
864.428	4611
864.559	4580
864.691	4558
864.823	4577
864.954	4527
865.086	4542
865.217	4497
865.349	4424
865.48	4459
865.612	4542
865.743	4599
865.875	4565
866.006	4436
866.137	4516
866.269	4462
866.4	4485
866.531	4432
866.662	4462
866.793	4432
866.924	4440
867.055	4508
867.186	4470
867.317	4447
867.448	4394
867.579	4432
867.71	4428
867.841	4337
867.972	4455
868.103	4447
868.233	4478
868.364	4478
868.495	4508
868.625	4672
868.756	4790
868.886	4596
869.017	4618
869.147	4801
869.278	4797
869.408	4668
869.539	4645
869.669	4675
869.799	4622
869.929	4801
870.06	4752
870.19	4957
870.32	4911
870.45	4972
870.58	5048
870.71	5045
870.84	5098
870.97	4953
871.1	4942
871.23	5140
871.36	5178
871.489	5006
871.619	5136
871.749	5071
871.879	5136
872.008	5162
872.138	5064
872.267	5010
872.397	4870
872.526	4820
872.656	4748
872.785	4824
872.915	4942
873.044	5052
873.173	4976
873.303	5033
873.432	5025
873.561	4949
873.69	4908
873.819	4862
873.948	4942
874.077	4870
874.206	4831
874.335	4835
874.464	4911
874.593	5033
874.722	4980
874.851	5098
874.979	5094
875.108	5052
875.237	4908
875.365	4953
875.494	4953
875.623	4999
875.751	4820
875.88	4870
876.008	5022
876.136	5045
876.265	5231
876.393	5337
876.521	5288
876.65	5250
876.778	5170
876.906	5060
877.034	5083
877.162	5037
877.29	5003
877.418	5071
877.546	5109
877.674	5041
877.802	5048
877.93	5029
878.058	4965
878.185	4839
878.313	4972
878.441	5006
878.568	4831
878.696	4908
878.824	4980
878.951	5003
879.079	5105
879.206	5315
879.333	5117
879.461	5033
879.588	5025
879.715	5064
879.842	5280
879.97	5060
880.097	4778
880.224	4763
880.351	4828
880.478	4820
880.605	4778
880.732	4729
880.859	5048
880.986	4892
881.112	4930
881.239	4812
881.366	4675
881.493	4630
881.619	4630
881.746	4672
881.872	4649
881.999	4634
882.125	4721
882.252	4778
882.378	4873
882.505	4972
882.631	4824
882.757	4740
882.883	4797
883.01	4759
883.136	4664
883.262	4573
883.388	4668
883.514	4850
883.64	4873
883.766	4801
883.892	4645
884.018	4740
884.143	4927
884.269	5033
884.395	4687
884.52	4634
884.646	4615
884.772	4599
884.897	4592
885.023	4668
885.148	4786
885.274	4877
885.399	4824
885.524	4725
885.65	4710
885.775	4744
885.9	4771
886.025	4809
886.15	4812
886.275	4744
886.4	4672
886.525	4748
886.65	4706
886.775	4691
886.9	4927
887.025	5025
887.149	4820
887.274	4626
887.399	4603
887.523	4592
887.648	4573
887.773	4596
887.897	4782
888.021	4831
888.146	4649
888.27	4854
888.395	4915
888.519	4782
888.643	4839
888.767	4824
888.891	4675
889.015	4584
889.139	4664
889.263	4649
889.387	4786
889.511	4866
889.635	4793
889.759	4641
889.883	4702
890.006	4729
890.13	4824
890.254	4645
890.377	4710
890.501	4588
890.624	4550
890.748	4664
890.871	4474
890.995	4394
891.118	4443
891.241	4573
891.364	4531
891.488	4630
891.611	4504
891.734	4569
891.857	4660
891.98	4584
892.103	4664
892.226	4615
892.349	4523
892.471	4413
892.594	4584
892.717	4668
892.839	4611
892.962	4626
893.085	4694
893.207	4565
893.33	4527
893.452	4558
893.575	4664
893.697	4573
893.819	4820
893.941	4877
894.064	4809
894.186	4592
894.308	4573
894.43	4710
894.552	4828
894.674	4752
894.796	4558
894.918	4626
895.04	4584
895.161	4714
895.283	4691
895.405	4561
895.526	4641
895.648	4668
895.769	4717
895.891	4664
896.012	4733
896.134	4729
896.255	4649
896.376	4611
896.498	4618
896.619	4717
896.74	4618
896.861	4607
896.982	4946
897.103	5090
897.224	4824
897.345	4714
897.466	4656
897.587	4733
897.708	4873
897.828	4778
897.949	4702
898.07	4622
898.19	4615
898.311	4820
898.431	4698
898.552	4698
898.672	4828
898.792	4763
898.913	4759
899.033	4656
899.153	4538
899.273	4474
899.393	4542
899.513	4550
899.633	4561
899.753	4542
899.873	4531
899.993	4504
900.113	4554
900.232	4592
900.352	4569
900.472	4485
900.591	4428
900.711	4519
900.83	4432
900.95	4622
901.069	4675
901.189	4546
901.308	4375
901.427	4360
901.546	4409
901.665	4447
901.784	4527
901.904	4459
902.023	4322
902.141	4154
902.26	4173
902.379	4329
902.498	4249
902.617	4295
902.735	4417
902.854	4352
902.973	4375
903.091	4219
903.21	4227
903.328	4394
903.446	4280
903.565	4276
903.683	4360
903.801	4257
903.919	4405
904.038	4455
904.156	4322
904.274	4424
904.392	4386
904.51	4455
904.627	4497
904.745	4622
904.863	4622
904.981	4371
905.098	4295
905.216	4318
905.334	4443
905.451	4409
905.569	4451
905.686	4588
905.803	4554
905.921	4421
906.038	4550
906.155	4504
906.272	4405
906.389	4462
906.506	4356
906.623	4409
906.74	4367
906.857	4333
906.974	4390
907.091	4531
907.208	4683
907.324	4573
907.441	4519
907.557	4322
907.674	4329
907.79	4322
907.907	4405
908.023	4493
908.139	4481
908.256	4443
908.372	4459
908.488	4474
908.604	4348
908.72	4367
908.836	4341
908.952	4417
909.068	4451
909.184	4596
909.3	4512
909.415	4603
909.531	4550
909.647	4386
909.762	4360
909.878	4379
909.993	4436
910.108	4462
910.224	4432
910.339	4504
910.454	4405
910.57	4352
910.685	4322
910.8	4694
910.915	4660
911.03	4519
911.145	4363
911.259	4303
911.374	4386
911.489	4268
911.604	4265
911.718	4211
911.833	4207
911.947	4143
912.062	3983
912.176	4238
912.291	4265
912.405	4272
912.519	4485
912.633	4493
912.748	4398
912.862	4299
912.976	4207
913.09	4090
913.204	4185
913.318	4238
913.431	4360
913.545	4367
913.659	4451
913.772	4363
913.886	4234
914	4223
914.113	4360
914.226	4436
914.34	4386
914.453	4249
914.566	4432
914.68	4306
914.793	4329
914.906	4128
915.019	4120
915.132	4082
915.245	4200
915.358	4196
915.47	4253
915.583	4303
915.696	4287
915.809	4383
915.921	4436
916.034	4249
916.146	4265
916.259	4230
916.371	4356
916.483	4344
916.595	4219
916.708	4333
916.82	4306
916.932	4371
917.044	4363
917.156	4299
917.268	4219
917.38	4318
917.491	4238
917.603	4344
917.715	4436
917.826	4462
917.938	4325
918.049	4242
918.161	4356
918.272	4508
918.384	4527
918.495	4443
918.606	4299
918.717	4242
918.828	4394
918.939	4398
919.05	4234
919.161	4325
919.272	4143
919.383	4272
919.494	4470
919.604	4641
919.715	4428
919.826	4348
919.936	4356
920.047	4527
920.157	4443
920.267	4714
920.378	4493
920.488	4485
920.598	4714
920.708	4873
920.818	4721
920.928	4771
921.038	4957
921.148	4972
921.258	4615
921.368	4565
921.477	4500
921.587	4436
921.697	4348
921.806	4519
921.916	4436
922.025	4291
922.134	4299
922.244	4211
922.353	4337
922.462	4150
922.571	4166
922.68	4017
922.789	3972
922.898	4044
923.007	3998
923.116	4093
923.224	4044
923.333	4078
923.442	4017
923.55	4017
923.659	3994
923.767	4120
923.876	3991
923.984	4147
924.092	4002
924.201	4093
924.309	4128
924.417	4105
924.525	4040
924.633	4131
924.741	5071
924.849	3907
924.956	4120
925.064	3964
925.172	3880
925.279	3911
925.387	4078
925.494	4097
925.602	4227
925.709	4181
925.816	4048
925.924	4150
926.031	4230
926.138	4150
926.245	4219
926.352	4105
926.459	4268
926.566	4303
926.673	4150
926.779	4082
926.886	4086
926.993	3998
927.099	3987
927.206	3964
927.312	3941
927.419	4040
927.525	4051
927.631	4071
927.737	3960
927.843	3899
927.95	3842
928.056	3899
928.162	4025
928.267	4090
928.373	4691
928.479	4112
928.585	3907
928.69	4055
928.796	4082
928.901	3964
929.007	3846
929.112	3991
929.218	3998
929.323	3956
929.428	3941
929.533	4109
929.638	3903
929.743	3972
929.848	4029
929.953	4017
930.058	3911
930.163	3774
930.267	3804
930.372	3964
930.477	3831
930.581	4105
930.685	3941
930.79	3804
930.894	3892
930.998	3884
931.103	4078
931.207	3705
931.311	3701
931.415	3656
931.519	3511
931.623	3557
