Data from test_V78500241_1773.txt Node
Date: Fri Mar 25 17:01:19 CST 2022
User: usil
Spectrometer: V785-0024
Trigger mode: 0
Integration Time (sec): 4.000000E-1
Scans to average: 1
Nonlinearity correction enabled: false
Boxcar width: 0
Storing dark spectrum: false
XAxis mode: Wavelengths
Number of Pixels in Spectrum: 1024
>>>>>Begin Spectral Data<<<<<
801.071	8035
801.214	8039
801.356	7894
801.499	7814
801.641	7883
801.783	7898
801.926	8043
802.068	7986
802.211	7974
802.353	8039
802.496	7906
802.638	7826
802.78	7837
802.923	7921
803.065	7871
803.208	7792
803.35	7959
803.492	8046
803.635	8210
803.777	7974
803.919	8164
804.061	8450
804.204	8176
804.346	8077
804.488	7940
804.63	8123
804.773	8027
804.915	8065
805.057	8301
805.199	8172
805.341	8199
805.483	8298
805.626	8214
805.768	8126
805.91	8172
806.052	8282
806.194	8134
806.336	8294
806.478	8100
806.62	8001
806.762	8088
806.904	8256
807.046	8488
807.188	8362
807.33	8282
807.472	8309
807.614	8202
807.756	8142
807.898	7925
808.04	7906
808.182	7849
808.324	7845
808.465	7947
808.607	8035
808.749	8084
808.891	8225
809.033	8267
809.174	8233
809.316	8054
809.458	8039
809.6	8016
809.741	8088
809.883	8062
810.025	8157
810.166	8058
810.308	7967
810.45	7993
810.591	7845
810.733	7780
810.875	7639
811.016	7544
811.158	7487
811.299	7620
811.441	7727
811.582	7677
811.724	7605
811.865	7537
812.007	7613
812.148	7537
812.29	7567
812.431	7776
812.573	7887
812.714	7955
812.855	8111
812.997	8233
813.138	8298
813.279	8180
813.421	8069
813.562	7921
813.703	7772
813.845	7727
813.986	7392
814.127	7263
814.268	7213
814.41	7183
814.551	7149
814.692	7194
814.833	7168
814.974	7160
815.115	7145
815.256	7004
815.397	7004
815.539	6939
815.68	6833
815.821	6779
815.962	6837
816.103	6825
816.244	6681
816.385	6616
816.526	6620
816.666	6521
816.807	6331
816.948	6471
817.089	6479
817.23	6456
817.371	6380
817.512	6391
817.653	6369
817.793	6353
817.934	6418
818.075	6407
818.216	6380
818.356	6403
818.497	6262
818.638	6117
818.778	6175
818.919	6133
819.06	6197
819.2	6262
819.341	6346
819.481	6353
819.622	6566
819.762	6734
819.903	6642
820.043	6654
820.184	6650
820.324	6597
820.465	6707
820.605	6662
820.746	6631
820.886	6589
821.026	6658
821.167	6700
821.307	6829
821.447	6696
821.588	6673
821.728	6540
821.868	6494
822.008	6334
822.149	6414
822.289	6399
822.429	6209
822.569	6076
822.709	6175
822.849	5923
822.99	5855
823.13	5885
823.27	5878
823.41	5824
823.55	5764
823.69	5779
823.83	5786
823.97	5649
824.11	5570
824.25	5543
824.389	5547
824.529	5604
824.669	5551
824.809	5653
824.949	5668
825.089	5566
825.228	5596
825.368	5452
825.508	5315
825.648	5349
825.787	5406
825.927	5330
826.067	5258
826.206	5216
826.346	5334
826.485	5379
826.625	5398
826.765	5524
826.904	5448
827.044	5284
827.183	5208
827.323	5121
827.462	5223
827.601	5178
827.741	5155
827.88	5174
828.02	5117
828.159	5269
828.298	5242
828.437	5334
828.577	5269
828.716	5436
828.855	5334
828.994	5208
829.134	5121
829.273	5162
829.412	5174
829.551	5189
829.69	5181
829.829	5208
829.968	5379
830.107	5212
830.246	5292
830.385	5189
830.524	5075
830.663	5067
830.802	4968
830.941	4892
831.08	4881
831.219	4976
831.357	4892
831.496	5162
831.635	4892
831.774	4847
831.913	4858
832.051	4717
832.19	4675
832.329	4816
832.467	4714
832.606	4615
832.744	4672
832.883	4748
833.022	4717
833.16	4771
833.299	4820
833.437	4820
833.576	4835
833.714	4866
833.852	4850
833.991	4854
834.129	4980
834.267	4930
834.406	4927
834.544	4980
834.682	5041
834.821	4987
834.959	5109
835.097	4965
835.235	5071
835.373	5128
835.511	5079
835.65	5037
835.788	4972
835.926	4873
836.064	4831
836.202	4919
836.34	5140
836.478	5193
836.615	5109
836.753	5174
836.891	5307
837.029	5235
837.167	5178
837.305	5181
837.443	5159
837.58	5022
837.718	5284
837.856	5189
837.993	5143
838.131	5227
838.269	5189
838.406	5216
838.544	5151
838.681	5003
838.819	4965
838.956	4873
839.094	4896
839.231	4961
839.369	5067
839.506	5337
839.643	5208
839.781	5075
839.918	5029
840.055	5071
840.193	5064
840.33	5117
840.467	5105
840.604	5136
840.742	5444
840.879	5075
841.016	5067
841.153	5117
841.29	5368
841.427	5357
841.564	5330
841.701	5398
841.838	5273
841.975	5204
842.112	5277
842.249	5162
842.385	5048
842.522	5303
842.659	5143
842.796	5105
842.933	5162
843.069	5185
843.206	5159
843.343	5311
843.479	5189
843.616	5277
843.752	5067
843.889	5029
844.025	5155
844.162	5045
844.298	5204
844.435	5041
844.571	5033
844.708	5204
844.844	5296
844.98	5288
845.117	5254
845.253	5109
845.389	5048
845.525	5143
845.661	5124
845.798	5060
845.934	5124
846.07	5025
846.206	5151
846.342	5292
846.478	5170
846.614	4991
846.75	4949
846.886	4953
847.022	5121
847.158	5010
847.294	5064
847.429	5086
847.565	5018
847.701	5353
847.837	4854
847.972	4809
848.108	4946
848.244	4923
848.379	4733
848.515	4733
848.65	4660
848.786	4725
848.921	4767
849.057	4805
849.192	4892
849.328	4793
849.463	4778
849.598	4835
849.734	4733
849.869	4672
850.004	4641
850.14	4656
850.275	4569
850.41	4508
850.545	4497
850.68	4558
850.815	4645
850.95	4626
851.085	4809
851.22	4736
851.355	4691
851.49	4630
851.625	4550
851.76	4626
851.895	4550
852.03	4546
852.165	4664
852.299	4729
852.434	4782
852.569	4717
852.703	4759
852.838	4824
852.973	4900
853.107	4908
853.242	4710
853.376	4675
853.511	4527
853.645	4641
853.78	4790
853.914	4683
854.048	4660
854.183	4634
854.317	4664
854.451	4835
854.585	4694
854.72	4634
854.854	4744
854.988	4653
855.122	4656
855.256	4565
855.39	4679
855.524	4771
855.658	4706
855.792	4679
855.926	4729
856.06	4752
856.194	4835
856.327	4660
856.461	4577
856.595	4603
856.729	4656
856.862	4763
856.996	4706
857.13	4733
857.263	4748
857.397	4767
857.53	4645
857.664	4717
857.797	4729
857.931	4706
858.064	4691
858.197	4721
858.331	4645
858.464	4580
858.597	4527
858.731	4634
858.864	4634
858.997	4561
859.13	4710
859.263	4687
859.396	4694
859.529	4569
859.662	4527
859.795	4512
859.928	4584
860.061	4744
860.194	4736
860.327	4603
860.46	4550
860.592	4698
860.725	4675
860.858	4687
860.99	4561
861.123	4504
861.256	4542
861.388	4626
861.521	5265
861.653	4466
861.786	4451
861.918	4447
862.05	4497
862.183	4565
862.315	4626
862.447	4622
862.58	4531
862.712	4428
862.844	4329
862.976	4478
863.108	4455
863.24	4862
863.372	4291
863.504	4440
863.636	4383
863.768	4497
863.9	4402
864.032	4341
864.164	4394
864.296	4478
864.428	4527
864.559	4554
864.691	4535
864.823	4504
864.954	4489
865.086	4481
865.217	4451
865.349	4402
865.48	4428
865.612	4470
865.743	4584
865.875	4466
866.006	4424
866.137	4470
866.269	4443
866.4	4424
866.531	4455
866.662	4367
866.793	4402
866.924	4405
867.055	4489
867.186	4417
867.317	4375
867.448	4398
867.579	4413
867.71	4413
867.841	4341
867.972	4493
868.103	4462
868.233	4459
868.364	4493
868.495	4493
868.625	4618
868.756	4733
868.886	4573
869.017	4679
869.147	4729
869.278	4717
869.408	4660
869.539	4622
869.669	4740
869.799	4645
869.929	4740
870.06	4771
870.19	4919
870.32	4904
870.45	4957
870.58	4965
870.71	5079
870.84	5098
870.97	4930
871.1	4847
871.23	5124
871.36	5098
871.489	5006
871.619	5113
871.749	5064
871.879	5147
872.008	5166
872.138	5014
872.267	4949
872.397	4854
872.526	4763
872.656	4668
872.785	4831
872.915	4946
873.044	5006
873.173	4942
873.303	4976
873.432	4968
873.561	4972
873.69	4911
873.819	4881
873.948	4877
874.077	4828
874.206	4786
874.335	4805
874.464	4923
874.593	5071
874.722	4972
874.851	5151
874.979	5086
875.108	4991
875.237	4919
875.365	4866
875.494	4904
875.623	5029
875.751	4816
875.88	4866
876.008	4942
876.136	5041
876.265	5193
876.393	5345
876.521	5227
876.65	5204
876.778	5174
876.906	5067
877.034	5025
877.162	5037
877.29	4980
877.418	5014
877.546	4987
877.674	5029
877.802	4995
877.93	5052
878.058	4934
878.185	4843
878.313	4915
878.441	4927
878.568	4786
878.696	4877
878.824	5037
878.951	4995
879.079	5162
879.206	5296
879.333	5128
879.461	4965
879.588	5018
879.715	5102
879.842	5242
879.97	4999
880.097	4790
880.224	4744
880.351	4839
880.478	4771
880.605	4793
880.732	4767
880.859	5121
880.986	4908
881.112	4870
881.239	4759
881.366	4630
881.493	4573
881.619	4573
881.746	4622
881.872	4664
881.999	4664
882.125	4706
882.252	4801
882.378	4835
882.505	4946
882.631	4793
882.757	4683
882.883	4748
883.01	4744
883.136	4622
883.262	4611
883.388	4668
883.514	4797
883.64	4854
883.766	4729
883.892	4660
884.018	4687
884.143	4839
884.269	5029
884.395	4675
884.52	4641
884.646	4603
884.772	4573
884.897	4580
885.023	4618
885.148	4771
885.274	4839
885.399	4812
885.524	4694
885.65	4698
885.775	4733
885.9	4626
886.025	4847
886.15	4759
886.275	4702
886.4	4569
886.525	4733
886.65	4706
886.775	4725
886.9	4930
887.025	5056
887.149	4763
887.274	4691
887.399	4565
887.523	4618
887.648	4531
887.773	4611
887.897	4782
888.021	4839
888.146	4656
888.27	4812
888.395	4934
888.519	4812
888.643	4831
888.767	4801
888.891	4691
889.015	4584
889.139	4630
889.263	4607
889.387	4755
889.511	4854
889.635	4812
889.759	4653
889.883	4607
890.006	4748
890.13	4771
890.254	4596
890.377	4656
890.501	4546
890.624	4531
890.748	4596
890.871	4516
890.995	4508
891.118	4360
891.241	4504
891.364	4527
891.488	4641
891.611	4523
891.734	4519
891.857	4584
891.98	4527
892.103	4630
892.226	4573
892.349	4489
892.471	4383
892.594	4527
892.717	4580
892.839	4558
892.962	4630
893.085	4645
893.207	4561
893.33	4451
893.452	4504
893.575	4637
893.697	4561
893.819	4805
893.941	4812
894.064	4759
894.186	4596
894.308	4504
894.43	4698
894.552	4755
894.674	4752
894.796	4554
894.918	4577
895.04	4573
895.161	4691
895.283	4687
895.405	4596
895.526	4649
895.648	4668
895.769	4672
895.891	4733
896.012	4736
896.134	4714
896.255	4653
896.376	4634
896.498	4611
896.619	4630
896.74	4611
896.861	4637
896.982	4896
897.103	5045
897.224	4843
897.345	4748
897.466	4660
897.587	4702
897.708	4866
897.828	4774
897.949	4660
898.07	4531
898.19	4588
898.311	4828
898.431	4660
898.552	4733
898.672	4793
898.792	4790
898.913	4740
899.033	4618
899.153	4535
899.273	4443
899.393	4497
899.513	4474
899.633	4497
899.753	4554
899.873	4485
899.993	4565
900.113	4538
900.232	4550
900.352	4546
900.472	4451
900.591	4383
900.711	4481
900.83	4478
900.95	4596
901.069	4626
901.189	4512
901.308	4341
901.427	4333
901.546	4329
901.665	4489
901.784	4489
901.904	4360
902.023	4344
902.141	4238
902.26	4177
902.379	4303
902.498	4257
902.617	4230
902.735	4371
902.854	4428
902.973	4405
903.091	4227
903.21	4223
903.328	4272
903.446	4280
903.565	4242
903.683	4322
903.801	4276
903.919	4375
904.038	4440
904.156	4325
904.274	4428
904.392	4337
904.51	4462
904.627	4478
904.745	4592
904.863	4637
904.981	4417
905.098	4344
905.216	4360
905.334	4386
905.451	4421
905.569	4440
905.686	4592
905.803	4565
905.921	4413
906.038	4550
906.155	4500
906.272	4424
906.389	4466
906.506	4314
906.623	4386
906.74	4405
906.857	4280
906.974	4383
907.091	4542
907.208	4653
907.324	4565
907.441	4478
907.557	4337
907.674	4405
907.79	4344
907.907	4402
908.023	4508
908.139	4451
908.256	4402
908.372	4489
908.488	4466
908.604	4379
908.72	4303
908.836	4363
908.952	4371
909.068	4383
909.184	4592
909.3	4466
909.415	4580
909.531	4550
909.647	4318
909.762	4394
909.878	4325
909.993	4470
910.108	4436
910.224	4398
910.339	4523
910.454	4383
910.57	4386
910.685	4280
910.8	4649
910.915	4603
911.03	4470
911.145	4291
911.259	4318
911.374	4356
911.489	4295
911.604	4253
911.718	4185
911.833	4169
911.947	4124
912.062	4055
912.176	4185
912.291	4169
912.405	4249
912.519	4462
912.633	4447
912.748	4405
912.862	4276
912.976	4219
913.09	4082
913.204	4162
913.318	4200
913.431	4329
913.545	4348
913.659	4421
913.772	4352
913.886	4227
914	4215
914.113	4383
914.226	4428
914.34	4390
914.453	4223
914.566	4386
914.68	4329
914.793	4318
914.906	4173
915.019	4112
915.132	4048
915.245	4154
915.358	4196
915.47	4204
915.583	4249
915.696	4303
915.809	4443
915.921	4451
916.034	4257
916.146	4268
916.259	4185
916.371	4367
916.483	4329
916.595	4227
916.708	4318
916.82	4318
916.932	4318
917.044	4299
917.156	4310
917.268	4242
917.38	4265
917.491	4299
917.603	4348
917.715	4413
917.826	4405
917.938	4356
918.049	4230
918.161	4352
918.272	4493
918.384	4550
918.495	4443
918.606	4329
918.717	4265
918.828	4306
918.939	4356
919.05	4306
919.161	4337
919.272	4158
919.383	4249
919.494	4485
919.604	4622
919.715	4455
919.826	4348
919.936	4386
920.047	4565
920.157	4504
920.267	4656
920.378	4531
920.488	4519
920.598	4717
920.708	4927
920.818	4778
920.928	4771
921.038	4835
921.148	4915
921.258	4622
921.368	4535
921.477	4500
921.587	4402
921.697	4379
921.806	4542
921.916	4398
922.025	4287
922.134	4246
922.244	4215
922.353	4291
922.462	4105
922.571	4150
922.68	3979
922.789	3964
922.898	3979
923.007	3953
923.116	4067
923.224	3998
923.333	4086
923.442	3968
923.55	3956
923.659	4025
923.767	4116
923.876	4029
923.984	4131
924.092	3979
924.201	4074
924.309	4090
924.417	4128
924.525	4036
924.633	4109
924.741	5056
924.849	3949
924.956	4131
925.064	3930
925.172	3869
925.279	3953
925.387	4036
925.494	4025
925.602	4246
925.709	4143
925.816	4048
925.924	4090
926.031	4246
926.138	4188
926.245	4204
926.352	4071
926.459	4181
926.566	4291
926.673	4169
926.779	4086
926.886	4067
926.993	3972
927.099	3930
927.206	3922
927.312	3903
927.419	4059
927.525	3991
927.631	4051
927.737	3945
927.843	3937
927.95	3850
928.056	3892
928.162	4013
928.267	4036
928.373	4592
928.479	4109
928.585	3827
928.69	3983
928.796	4074
928.901	3972
929.007	3846
929.112	4013
929.218	3972
929.323	3949
929.428	3896
929.533	4071
929.638	3888
929.743	3953
929.848	4036
929.953	3979
930.058	3911
930.163	3800
930.267	3797
930.372	3968
930.477	3766
930.581	4067
930.685	3934
930.79	3838
930.894	3884
930.998	3838
931.103	3991
931.207	3660
931.311	3694
931.415	3701
931.519	3542
931.623	3526
