Data from test_V78500241_1717.txt Node
Date: Fri Mar 25 17:00:56 CST 2022
User: usil
Spectrometer: V785-0024
Trigger mode: 0
Integration Time (sec): 4.000000E-1
Scans to average: 1
Nonlinearity correction enabled: false
Boxcar width: 0
Storing dark spectrum: false
XAxis mode: Wavelengths
Number of Pixels in Spectrum: 1024
>>>>>Begin Spectral Data<<<<<
801.071	8008
801.214	8016
801.356	7936
801.499	7837
801.641	7879
801.783	7871
801.926	8012
802.068	7959
802.211	8039
802.353	8031
802.496	7864
802.638	7890
802.78	7875
802.923	8001
803.065	7868
803.208	7898
803.35	7982
803.492	8100
803.635	8176
803.777	8062
803.919	8161
804.061	8431
804.204	8153
804.346	8054
804.488	7986
804.63	8088
804.773	8054
804.915	8161
805.057	8324
805.199	8119
805.341	8225
805.483	8240
805.626	8172
805.768	8202
805.91	8195
806.052	8221
806.194	8145
806.336	8339
806.478	8123
806.62	8054
806.762	8126
806.904	8263
807.046	8507
807.188	8434
807.33	8343
807.472	8393
807.614	8214
807.756	8218
807.898	8012
808.04	7890
808.182	7864
808.324	7894
808.465	7944
808.607	8073
808.749	8138
808.891	8221
809.033	8377
809.174	8233
809.316	8046
809.458	8088
809.6	8016
809.741	7982
809.883	8107
810.025	8084
810.166	8107
810.308	8050
810.45	8024
810.591	7875
810.733	7769
810.875	7681
811.016	7533
811.158	7483
811.299	7605
811.441	7731
811.582	7628
811.724	7662
811.865	7575
812.007	7620
812.148	7601
812.29	7655
812.431	7792
812.573	7928
812.714	7986
812.855	8210
812.997	8206
813.138	8351
813.279	8221
813.421	8119
813.562	8043
813.703	7845
813.845	7734
813.986	7468
814.127	7358
814.268	7179
814.41	7232
814.551	7198
814.692	7346
814.833	7149
814.974	7190
815.115	7179
815.256	6966
815.397	6977
815.539	6958
815.68	6798
815.821	6810
815.962	6806
816.103	6844
816.244	6715
816.385	6597
816.526	6551
816.666	6525
816.807	6391
816.948	6490
817.089	6426
817.23	6418
817.371	6369
817.512	6369
817.653	6433
817.793	6350
817.934	6422
818.075	6471
818.216	6395
818.356	6388
818.497	6285
818.638	6136
818.778	6144
818.919	6171
819.06	6167
819.2	6350
819.341	6334
819.481	6372
819.622	6585
819.762	6734
819.903	6726
820.043	6612
820.184	6589
820.324	6574
820.465	6726
820.605	6711
820.746	6711
820.886	6532
821.026	6715
821.167	6684
821.307	6802
821.447	6768
821.588	6707
821.728	6582
821.868	6532
822.008	6338
822.149	6300
822.289	6308
822.429	6136
822.569	6057
822.709	6197
822.849	5916
822.99	5908
823.13	5973
823.27	5988
823.41	5802
823.55	5794
823.69	5760
823.83	5828
823.97	5665
824.11	5570
824.25	5486
824.389	5577
824.529	5592
824.669	5562
824.809	5646
824.949	5619
825.089	5630
825.228	5573
825.368	5383
825.508	5349
825.648	5330
825.787	5429
825.927	5364
826.067	5299
826.206	5334
826.346	5425
826.485	5417
826.625	5398
826.765	5608
826.904	5501
827.044	5246
827.183	5212
827.323	5170
827.462	5284
827.601	5189
827.741	5181
827.88	5223
828.02	5121
828.159	5242
828.298	5322
828.437	5391
828.577	5334
828.716	5539
828.855	5383
828.994	5185
829.134	5136
829.273	5155
829.412	5159
829.551	5166
829.69	5189
829.829	5265
829.968	5372
830.107	5284
830.246	5277
830.385	5204
830.524	5166
830.663	5079
830.802	5014
830.941	4908
831.08	4908
831.219	4923
831.357	4999
831.496	5208
831.635	4938
831.774	4850
831.913	4873
832.051	4733
832.19	4759
832.329	4847
832.467	4740
832.606	4618
832.744	4752
832.883	4736
833.022	4706
833.16	4793
833.299	4824
833.437	4793
833.576	4862
833.714	4771
833.852	4877
833.991	4934
834.129	4938
834.267	4946
834.406	4877
834.544	4984
834.682	4987
834.821	4987
834.959	5174
835.097	5006
835.235	5147
835.373	5083
835.511	5083
835.65	5045
835.788	5025
835.926	4934
836.064	4889
836.202	4927
836.34	5166
836.478	5212
836.615	5128
836.753	5212
836.891	5277
837.029	5273
837.167	5212
837.305	5181
837.443	5136
837.58	5064
837.718	5254
837.856	5170
837.993	5132
838.131	5216
838.269	5193
838.406	5197
838.544	5197
838.681	5071
838.819	4995
838.956	4873
839.094	4911
839.231	4957
839.369	5128
839.506	5402
839.643	5254
839.781	5037
839.918	5056
840.055	5113
840.193	5067
840.33	5105
840.467	5136
840.604	5193
840.742	5455
840.879	5067
841.016	5064
841.153	5140
841.29	5391
841.427	5299
841.564	5311
841.701	5334
841.838	5288
841.975	5223
842.112	5273
842.249	5105
842.385	5109
842.522	5383
842.659	5201
842.796	5132
842.933	5166
843.069	5147
843.206	5166
843.343	5330
843.479	5273
843.616	5277
843.752	5071
843.889	5010
844.025	5193
844.162	5025
844.298	5231
844.435	5113
844.571	5056
844.708	5235
844.844	5292
844.98	5349
845.117	5307
845.253	5170
845.389	5098
845.525	5155
845.661	5136
845.798	5045
845.934	5197
846.07	5094
846.206	5242
846.342	5288
846.478	5174
846.614	5025
846.75	4961
846.886	4965
847.022	5166
847.158	5056
847.294	5064
847.429	5105
847.565	5071
847.701	5250
847.837	4847
847.972	4778
848.108	4972
848.244	4976
848.379	4809
848.515	4668
848.65	4714
848.786	4786
848.921	4831
849.057	4870
849.192	4862
849.328	4809
849.463	4801
849.598	4835
849.734	4736
849.869	4755
850.004	4668
850.14	4637
850.275	4641
850.41	4561
850.545	4535
850.68	4660
850.815	4588
850.95	4641
851.085	4801
851.22	4721
851.355	4664
851.49	4622
851.625	4645
851.76	4691
851.895	4580
852.03	4527
852.165	4683
852.299	4710
852.434	4828
852.569	4759
852.703	4774
852.838	4835
852.973	4908
853.107	4923
853.242	4759
853.376	4634
853.511	4580
853.645	4618
853.78	4782
853.914	4702
854.048	4660
854.183	4656
854.317	4668
854.451	4858
854.585	4637
854.72	4637
854.854	4809
854.988	4653
855.122	4626
855.256	4565
855.39	4626
855.524	4767
855.658	4740
855.792	4706
855.926	4759
856.06	4782
856.194	4790
856.327	4675
856.461	4603
856.595	4615
856.729	4645
856.862	4767
856.996	4687
857.13	4717
857.263	4744
857.397	4797
857.53	4664
857.664	4717
857.797	4767
857.931	4809
858.064	4706
858.197	4778
858.331	4664
858.464	4660
858.597	4580
858.731	4626
858.864	4645
858.997	4596
859.13	4645
859.263	4668
859.396	4767
859.529	4611
859.662	4546
859.795	4584
859.928	4626
860.061	4748
860.194	4748
860.327	4645
860.46	4508
860.592	4687
860.725	4702
860.858	4714
860.99	4573
861.123	4497
861.256	4588
861.388	4618
861.521	5197
861.653	4459
861.786	4443
861.918	4451
862.05	4538
862.183	4580
862.315	4611
862.447	4641
862.58	4523
862.712	4421
862.844	4329
862.976	4478
863.108	4447
863.24	4885
863.372	4303
863.504	4421
863.636	4390
863.768	4478
863.9	4462
864.032	4409
864.164	4417
864.296	4428
864.428	4603
864.559	4519
864.691	4573
864.823	4554
864.954	4527
865.086	4504
865.217	4417
865.349	4440
865.48	4428
865.612	4478
865.743	4634
865.875	4455
866.006	4424
866.137	4474
866.269	4459
866.4	4409
866.531	4443
866.662	4421
866.793	4398
866.924	4417
867.055	4459
867.186	4432
867.317	4394
867.448	4333
867.579	4375
867.71	4371
867.841	4348
867.972	4478
868.103	4512
868.233	4485
868.364	4455
868.495	4455
868.625	4653
868.756	4763
868.886	4603
869.017	4615
869.147	4782
869.278	4759
869.408	4653
869.539	4622
869.669	4736
869.799	4668
869.929	4774
870.06	4771
870.19	4949
870.32	4942
870.45	4915
870.58	4991
870.71	5071
870.84	5132
870.97	4961
871.1	4870
871.23	5113
871.36	5124
871.489	4991
871.619	5079
871.749	5113
871.879	5136
872.008	5189
872.138	5045
872.267	4972
872.397	4824
872.526	4862
872.656	4759
872.785	4805
872.915	4927
873.044	5056
873.173	4927
873.303	5003
873.432	4961
873.561	4999
873.69	4835
873.819	4835
873.948	4980
874.077	4881
874.206	4729
874.335	4767
874.464	4927
874.593	5018
874.722	4930
874.851	5071
874.979	5113
875.108	5056
875.237	4930
875.365	4831
875.494	4896
875.623	4938
875.751	4824
875.88	4850
876.008	5003
876.136	5018
876.265	5212
876.393	5330
876.521	5208
876.65	5212
876.778	5105
876.906	5056
877.034	5022
877.162	4949
877.29	4976
877.418	5010
877.546	5010
877.674	5064
877.802	5041
877.93	4984
878.058	4942
878.185	4828
878.313	4972
878.441	4972
878.568	4835
878.696	4923
878.824	4953
878.951	4991
879.079	5079
879.206	5250
879.333	5102
879.461	4946
879.588	4980
879.715	5079
879.842	5231
879.97	4999
880.097	4812
880.224	4740
880.351	4812
880.478	4790
880.605	4767
880.732	4778
880.859	5067
880.986	4892
881.112	4892
881.239	4793
881.366	4683
881.493	4607
881.619	4592
881.746	4615
881.872	4626
881.999	4637
882.125	4683
882.252	4774
882.378	4805
882.505	4972
882.631	4755
882.757	4622
882.883	4702
883.01	4698
883.136	4691
883.262	4645
883.388	4577
883.514	4805
883.64	4850
883.766	4786
883.892	4668
884.018	4744
884.143	4870
884.269	5033
884.395	4687
884.52	4630
884.646	4592
884.772	4577
884.897	4558
885.023	4622
885.148	4759
885.274	4911
885.399	4812
885.524	4691
885.65	4748
885.775	4755
885.9	4649
886.025	4820
886.15	4782
886.275	4763
886.4	4630
886.525	4793
886.65	4706
886.775	4706
886.9	4927
887.025	5041
887.149	4805
887.274	4630
887.399	4538
887.523	4611
887.648	4569
887.773	4542
887.897	4752
888.021	4793
888.146	4702
888.27	4854
888.395	4900
888.519	4782
888.643	4831
888.767	4839
888.891	4691
889.015	4592
889.139	4660
889.263	4588
889.387	4744
889.511	4923
889.635	4847
889.759	4626
889.883	4656
890.006	4702
890.13	4820
890.254	4626
890.377	4679
890.501	4558
890.624	4516
890.748	4611
890.871	4497
890.995	4390
891.118	4367
891.241	4527
891.364	4512
891.488	4649
891.611	4478
891.734	4538
891.857	4630
891.98	4535
892.103	4664
892.226	4569
892.349	4561
892.471	4440
892.594	4527
892.717	4596
892.839	4573
892.962	4565
893.085	4630
893.207	4645
893.33	4459
893.452	4527
893.575	4664
893.697	4546
893.819	4835
893.941	4816
894.064	4793
894.186	4550
894.308	4550
894.43	4729
894.552	4805
894.674	4752
894.796	4573
894.918	4596
895.04	4588
895.161	4668
895.283	4656
895.405	4527
895.526	4622
895.648	4637
895.769	4710
895.891	4725
896.012	4752
896.134	4748
896.255	4668
896.376	4656
896.498	4584
896.619	4660
896.74	4611
896.861	4599
896.982	4927
897.103	5045
897.224	4892
897.345	4767
897.466	4653
897.587	4672
897.708	4854
897.828	4797
897.949	4649
898.07	4558
898.19	4653
898.311	4854
898.431	4706
898.552	4702
898.672	4835
898.792	4759
898.913	4691
899.033	4645
899.153	4481
899.273	4440
899.393	4527
899.513	4535
899.633	4462
899.753	4535
899.873	4508
899.993	4615
900.113	4561
900.232	4588
900.352	4577
900.472	4481
900.591	4375
900.711	4489
900.83	4421
900.95	4538
901.069	4675
901.189	4561
901.308	4322
901.427	4333
901.546	4383
901.665	4508
901.784	4462
901.904	4363
902.023	4280
902.141	4215
902.26	4154
902.379	4333
902.498	4299
902.617	4234
902.735	4394
902.854	4375
902.973	4348
903.091	4215
903.21	4192
903.328	4333
903.446	4310
903.565	4272
903.683	4344
903.801	4253
903.919	4386
904.038	4394
904.156	4341
904.274	4402
904.392	4428
904.51	4413
904.627	4459
904.745	4538
904.863	4626
904.981	4375
905.098	4291
905.216	4318
905.334	4421
905.451	4474
905.569	4417
905.686	4519
905.803	4569
905.921	4432
906.038	4523
906.155	4478
906.272	4398
906.389	4436
906.506	4322
906.623	4348
906.74	4379
906.857	4234
906.974	4344
907.091	4538
907.208	4683
907.324	4588
907.441	4538
907.557	4352
907.674	4306
907.79	4295
907.907	4356
908.023	4481
908.139	4428
908.256	4462
908.372	4481
908.488	4424
908.604	4325
908.72	4356
908.836	4356
908.952	4386
909.068	4440
909.184	4554
909.3	4474
909.415	4561
909.531	4546
909.647	4291
909.762	4379
909.878	4348
909.993	4428
910.108	4409
910.224	4424
910.339	4459
910.454	4371
910.57	4344
910.685	4310
910.8	4702
910.915	4546
911.03	4485
911.145	4306
911.259	4287
911.374	4371
911.489	4310
911.604	4268
911.718	4204
911.833	4211
911.947	4109
912.062	3991
912.176	4188
912.291	4230
912.405	4253
912.519	4459
912.633	4523
912.748	4379
912.862	4280
912.976	4204
913.09	4120
913.204	4181
913.318	4272
913.431	4306
913.545	4360
913.659	4474
913.772	4371
913.886	4238
914	4169
914.113	4360
914.226	4379
914.34	4318
914.453	4227
914.566	4440
914.68	4287
914.793	4325
914.906	4147
915.019	4128
915.132	4082
915.245	4158
915.358	4253
915.47	4204
915.583	4246
915.696	4287
915.809	4417
915.921	4398
916.034	4268
916.146	4268
916.259	4230
916.371	4409
916.483	4398
916.595	4280
916.708	4363
916.82	4287
916.932	4322
917.044	4310
917.156	4303
917.268	4268
917.38	4249
917.491	4306
917.603	4272
917.715	4455
917.826	4432
917.938	4375
918.049	4265
918.161	4424
918.272	4565
918.384	4546
918.495	4440
918.606	4276
918.717	4246
918.828	4344
918.939	4360
919.05	4257
919.161	4276
919.272	4128
919.383	4207
919.494	4424
919.604	4611
919.715	4394
919.826	4356
919.936	4443
920.047	4455
920.157	4466
920.267	4710
920.378	4558
920.488	4531
920.598	4717
920.708	4862
920.818	4736
920.928	4733
921.038	4915
921.148	4919
921.258	4615
921.368	4554
921.477	4538
921.587	4485
921.697	4367
921.806	4577
921.916	4367
922.025	4303
922.134	4242
922.244	4227
922.353	4314
922.462	4173
922.571	4116
922.68	4036
922.789	3994
922.898	4059
923.007	3994
923.116	4082
923.224	4059
923.333	4078
923.442	3994
923.55	3972
923.659	4021
923.767	4082
923.876	3953
923.984	4131
924.092	4036
924.201	4063
924.309	4082
924.417	4112
924.525	4032
924.633	4116
924.741	4896
924.849	3953
924.956	4082
925.064	3945
925.172	3907
925.279	3956
925.387	4078
925.494	4067
925.602	4173
925.709	4223
925.816	4002
925.924	4139
926.031	4200
926.138	4150
926.245	4162
926.352	4025
926.459	4276
926.566	4295
926.673	4158
926.779	4082
926.886	4086
926.993	3956
927.099	3956
927.206	3956
927.312	3953
927.419	4055
927.525	4051
927.631	4120
927.737	3941
927.843	3876
927.95	3846
928.056	3945
928.162	3994
928.267	4048
928.373	4694
928.479	4109
928.585	3846
928.69	4036
928.796	4059
928.901	3941
929.007	3789
929.112	4002
929.218	3975
929.323	4013
929.428	4013
929.533	4105
929.638	3907
929.743	3998
929.848	4021
929.953	4010
930.058	3918
930.163	3762
930.267	3823
930.372	3949
930.477	3766
930.581	4090
930.685	3949
930.79	3823
930.894	3915
930.998	3857
931.103	4036
931.207	3686
931.311	3717
931.415	3705
931.519	3549
931.623	3553
