Data from test_V78500241_2837.txt Node
Date: Fri Mar 25 17:08:43 CST 2022
User: usil
Spectrometer: V785-0024
Trigger mode: 0
Integration Time (sec): 4.000000E-1
Scans to average: 1
Nonlinearity correction enabled: false
Boxcar width: 0
Storing dark spectrum: false
XAxis mode: Wavelengths
Number of Pixels in Spectrum: 1024
>>>>>Begin Spectral Data<<<<<
801.071	8073
801.214	8039
801.356	7944
801.499	7951
801.641	7902
801.783	7883
801.926	7978
802.068	7974
802.211	8039
802.353	8043
802.496	7909
802.638	7936
802.78	7868
802.923	7978
803.065	7936
803.208	7887
803.35	8043
803.492	8191
803.635	8244
803.777	8088
803.919	8153
804.061	8476
804.204	8225
804.346	8020
804.488	8039
804.63	8103
804.773	8134
804.915	8084
805.057	8332
805.199	8244
805.341	8267
805.483	8320
805.626	8252
805.768	8149
805.91	8214
806.052	8233
806.194	8100
806.336	8328
806.478	8126
806.62	8062
806.762	8191
806.904	8256
807.046	8484
807.188	8419
807.33	8355
807.472	8347
807.614	8275
807.756	8279
807.898	8005
808.04	7928
808.182	7894
808.324	7944
808.465	7925
808.607	8115
808.749	8271
808.891	8301
809.033	8355
809.174	8317
809.316	8088
809.458	8073
809.6	8046
809.741	8046
809.883	8069
810.025	8134
810.166	8096
810.308	8062
810.45	7963
810.591	7936
810.733	7788
810.875	7655
811.016	7624
811.158	7514
811.299	7655
811.441	7769
811.582	7727
811.724	7620
811.865	7586
812.007	7624
812.148	7567
812.29	7666
812.431	7788
812.573	7898
812.714	8043
812.855	8115
812.997	8229
813.138	8366
813.279	8267
813.421	8145
813.562	8031
813.703	7879
813.845	7765
813.986	7533
814.127	7396
814.268	7297
814.41	7209
814.551	7225
814.692	7194
814.833	7088
814.974	7160
815.115	7152
815.256	6954
815.397	6916
815.539	6932
815.68	6935
815.821	6840
815.962	6901
816.103	6856
816.244	6760
816.385	6646
816.526	6662
816.666	6517
816.807	6372
816.948	6521
817.089	6528
817.23	6517
817.371	6418
817.512	6422
817.653	6422
817.793	6361
817.934	6410
818.075	6521
818.216	6456
818.356	6445
818.497	6258
818.638	6152
818.778	6167
818.919	6213
819.06	6167
819.2	6372
819.341	6323
819.481	6376
819.622	6547
819.762	6779
819.903	6783
820.043	6688
820.184	6620
820.324	6585
820.465	6730
820.605	6726
820.746	6623
820.886	6528
821.026	6688
821.167	6696
821.307	6833
821.447	6798
821.588	6684
821.728	6631
821.868	6486
822.008	6308
822.149	6388
822.289	6380
822.429	6258
822.569	6159
822.709	6117
822.849	5916
822.99	5939
823.13	5897
823.27	5950
823.41	5813
823.55	5775
823.69	5790
823.83	5802
823.97	5691
824.11	5562
824.25	5562
824.389	5581
824.529	5688
824.669	5570
824.809	5646
824.949	5627
825.089	5668
825.228	5570
825.368	5414
825.508	5364
825.648	5417
825.787	5387
825.927	5414
826.067	5334
826.206	5330
826.346	5372
826.485	5402
826.625	5421
826.765	5570
826.904	5459
827.044	5284
827.183	5250
827.323	5181
827.462	5292
827.601	5212
827.741	5181
827.88	5220
828.02	5181
828.159	5239
828.298	5311
828.437	5425
828.577	5261
828.716	5516
828.855	5391
828.994	5185
829.134	5174
829.273	5223
829.412	5155
829.551	5208
829.69	5201
829.829	5246
829.968	5406
830.107	5269
830.246	5292
830.385	5189
830.524	5162
830.663	5124
830.802	4980
830.941	4911
831.08	4858
831.219	4972
831.357	4995
831.496	5147
831.635	4930
831.774	4843
831.913	4812
832.051	4736
832.19	4771
832.329	4900
832.467	4733
832.606	4672
832.744	4767
832.883	4752
833.022	4679
833.16	4816
833.299	4812
833.437	4816
833.576	4816
833.714	4873
833.852	4870
833.991	4919
834.129	4976
834.267	4976
834.406	4919
834.544	4995
834.682	5018
834.821	5010
834.959	5181
835.097	4968
835.235	5140
835.373	5143
835.511	5086
835.65	5041
835.788	5113
835.926	4915
836.064	4923
836.202	4934
836.34	5189
836.478	5223
836.615	5121
836.753	5242
836.891	5341
837.029	5315
837.167	5201
837.305	5223
837.443	5185
837.58	5098
837.718	5216
837.856	5174
837.993	5166
838.131	5216
838.269	5242
838.406	5197
838.544	5174
838.681	5083
838.819	5018
838.956	4953
839.094	4961
839.231	5010
839.369	5102
839.506	5395
839.643	5292
839.781	5083
839.918	5045
840.055	5140
840.193	5113
840.33	5121
840.467	5162
840.604	5265
840.742	5410
840.879	5041
841.016	5090
841.153	5117
841.29	5406
841.427	5334
841.564	5337
841.701	5383
841.838	5292
841.975	5280
842.112	5269
842.249	5174
842.385	5090
842.522	5379
842.659	5174
842.796	5174
842.933	5185
843.069	5170
843.206	5178
843.343	5318
843.479	5254
843.616	5265
843.752	5067
843.889	5048
844.025	5258
844.162	5056
844.298	5235
844.435	5105
844.571	5060
844.708	5216
844.844	5315
844.98	5337
845.117	5303
845.253	5166
845.389	5113
845.525	5174
845.661	5159
845.798	5018
845.934	5143
846.07	5045
846.206	5216
846.342	5299
846.478	5216
846.614	5025
846.75	4995
846.886	4949
847.022	5178
847.158	4984
847.294	5090
847.429	5094
847.565	5086
847.701	5311
847.837	4892
847.972	4805
848.108	4995
848.244	4968
848.379	4801
848.515	4778
848.65	4683
848.786	4714
848.921	4736
849.057	4866
849.192	4915
849.328	4820
849.463	4858
849.598	4767
849.734	4778
849.869	4763
850.004	4706
850.14	4672
850.275	4580
850.41	4561
850.545	4531
850.68	4691
850.815	4596
850.95	4679
851.085	4805
851.22	4759
851.355	4706
851.49	4656
851.625	4615
851.76	4626
851.895	4546
852.03	4550
852.165	4664
852.299	4771
852.434	4816
852.569	4702
852.703	4793
852.838	4831
852.973	4957
853.107	4908
853.242	4721
853.376	4691
853.511	4561
853.645	4664
853.78	4835
853.914	4660
854.048	4714
854.183	4634
854.317	4725
854.451	4858
854.585	4694
854.72	4664
854.854	4740
854.988	4573
855.122	4626
855.256	4523
855.39	4649
855.524	4820
855.658	4706
855.792	4714
855.926	4714
856.06	4782
856.194	4839
856.327	4664
856.461	4618
856.595	4653
856.729	4611
856.862	4767
856.996	4668
857.13	4748
857.263	4733
857.397	4809
857.53	4683
857.664	4744
857.797	4759
857.931	4835
858.064	4733
858.197	4729
858.331	4710
858.464	4580
858.597	4538
858.731	4603
858.864	4607
858.997	4603
859.13	4660
859.263	4710
859.396	4691
859.529	4580
859.662	4626
859.795	4611
859.928	4641
860.061	4717
860.194	4759
860.327	4641
860.46	4599
860.592	4687
860.725	4717
860.858	4733
860.99	4577
861.123	4527
861.256	4546
861.388	4656
861.521	5277
861.653	4470
861.786	4451
861.918	4489
862.05	4546
862.183	4558
862.315	4622
862.447	4660
862.58	4561
862.712	4398
862.844	4367
862.976	4493
863.108	4508
863.24	4767
863.372	4360
863.504	4405
863.636	4409
863.768	4443
863.9	4466
864.032	4379
864.164	4402
864.296	4523
864.428	4561
864.559	4561
864.691	4523
864.823	4546
864.954	4497
865.086	4481
865.217	4466
865.349	4413
865.48	4485
865.612	4527
865.743	4653
865.875	4462
866.006	4432
866.137	4478
866.269	4421
866.4	4459
866.531	4421
866.662	4386
866.793	4466
866.924	4466
867.055	4512
867.186	4485
867.317	4466
867.448	4371
867.579	4421
867.71	4428
867.841	4379
867.972	4455
868.103	4432
868.233	4485
868.364	4478
868.495	4497
868.625	4733
868.756	4733
868.886	4558
869.017	4596
869.147	4816
869.278	4831
869.408	4660
869.539	4653
869.669	4744
869.799	4672
869.929	4733
870.06	4725
870.19	4911
870.32	4938
870.45	4919
870.58	4995
870.71	5155
870.84	5147
870.97	4965
871.1	4904
871.23	5136
871.36	5132
871.489	5041
871.619	5052
871.749	5132
871.879	5109
872.008	5220
872.138	5010
872.267	4991
872.397	4885
872.526	4778
872.656	4736
872.785	4797
872.915	4938
873.044	5041
873.173	4873
873.303	4991
873.432	4953
873.561	4976
873.69	4889
873.819	4862
873.948	4938
874.077	4828
874.206	4786
874.335	4805
874.464	4946
874.593	5045
874.722	4984
874.851	5094
874.979	5098
875.108	5018
875.237	4938
875.365	4908
875.494	4866
875.623	4991
875.751	4835
875.88	4900
876.008	4972
876.136	5037
876.265	5227
876.393	5326
876.521	5250
876.65	5258
876.778	5197
876.906	5079
877.034	5056
877.162	5045
877.29	4999
877.418	5041
877.546	5067
877.674	5022
877.802	5041
877.93	5105
878.058	4919
878.185	4908
878.313	4991
878.441	4999
878.568	4797
878.696	4896
878.824	4919
878.951	4987
879.079	5147
879.206	5254
879.333	5124
879.461	5003
879.588	5048
879.715	5105
879.842	5250
879.97	5033
880.097	4790
880.224	4729
880.351	4782
880.478	4843
880.605	4843
880.732	4748
880.859	5083
880.986	4896
881.112	4934
881.239	4778
881.366	4706
881.493	4615
881.619	4634
881.746	4649
881.872	4664
881.999	4653
882.125	4694
882.252	4816
882.378	4824
882.505	4976
882.631	4850
882.757	4675
882.883	4763
883.01	4725
883.136	4668
883.262	4592
883.388	4637
883.514	4839
883.64	4858
883.766	4786
883.892	4683
884.018	4706
884.143	4923
884.269	5014
884.395	4687
884.52	4679
884.646	4615
884.772	4573
884.897	4577
885.023	4691
885.148	4755
885.274	4824
885.399	4801
885.524	4767
885.65	4717
885.775	4729
885.9	4702
886.025	4831
886.15	4793
886.275	4717
886.4	4691
886.525	4717
886.65	4729
886.775	4744
886.9	4934
887.025	5056
887.149	4771
887.274	4660
887.399	4603
887.523	4596
887.648	4542
887.773	4588
887.897	4767
888.021	4793
888.146	4660
888.27	4820
888.395	4889
888.519	4835
888.643	4805
888.767	4805
888.891	4683
889.015	4637
889.139	4706
889.263	4611
889.387	4729
889.511	4862
889.635	4748
889.759	4588
889.883	4649
890.006	4721
890.13	4839
890.254	4622
890.377	4660
890.501	4538
890.624	4508
890.748	4645
890.871	4470
890.995	4455
891.118	4413
891.241	4519
891.364	4561
891.488	4626
891.611	4459
891.734	4573
891.857	4558
891.98	4535
892.103	4641
892.226	4584
892.349	4558
892.471	4402
892.594	4508
892.717	4584
892.839	4618
892.962	4615
893.085	4668
893.207	4580
893.33	4432
893.452	4546
893.575	4649
893.697	4573
893.819	4801
893.941	4828
894.064	4793
894.186	4603
894.308	4550
894.43	4790
894.552	4809
894.674	4725
894.796	4550
894.918	4577
895.04	4580
895.161	4656
895.283	4668
895.405	4538
895.526	4622
895.648	4714
895.769	4702
895.891	4740
896.012	4710
896.134	4725
896.255	4660
896.376	4615
896.498	4611
896.619	4683
896.74	4588
896.861	4694
896.982	4942
897.103	5041
897.224	4793
897.345	4759
897.466	4683
897.587	4740
897.708	4820
897.828	4816
897.949	4675
898.07	4561
898.19	4656
898.311	4835
898.431	4649
898.552	4740
898.672	4809
898.792	4767
898.913	4736
899.033	4588
899.153	4519
899.273	4409
899.393	4508
899.513	4535
899.633	4531
899.753	4546
899.873	4516
899.993	4596
900.113	4500
900.232	4561
900.352	4535
900.472	4478
900.591	4417
900.711	4470
900.83	4405
900.95	4596
901.069	4641
901.189	4527
901.308	4413
901.427	4306
901.546	4356
901.665	4451
901.784	4481
901.904	4432
902.023	4299
902.141	4139
902.26	4158
902.379	4287
902.498	4227
902.617	4230
902.735	4360
902.854	4352
902.973	4348
903.091	4249
903.21	4242
903.328	4341
903.446	4261
903.565	4219
903.683	4367
903.801	4329
903.919	4386
904.038	4478
904.156	4325
904.274	4421
904.392	4413
904.51	4428
904.627	4440
904.745	4531
904.863	4637
904.981	4394
905.098	4322
905.216	4344
905.334	4432
905.451	4481
905.569	4402
905.686	4569
905.803	4546
905.921	4383
906.038	4531
906.155	4455
906.272	4379
906.389	4466
906.506	4375
906.623	4386
906.74	4409
906.857	4303
906.974	4379
907.091	4580
907.208	4714
907.324	4611
907.441	4500
907.557	4375
907.674	4314
907.79	4322
907.907	4398
908.023	4493
908.139	4516
908.256	4462
908.372	4466
908.488	4455
908.604	4394
908.72	4375
908.836	4390
908.952	4352
909.068	4440
909.184	4584
909.3	4493
909.415	4599
909.531	4535
909.647	4371
909.762	4390
909.878	4318
909.993	4459
910.108	4417
910.224	4432
910.339	4550
910.454	4417
910.57	4375
910.685	4284
910.8	4630
910.915	4634
911.03	4508
911.145	4337
911.259	4352
911.374	4329
911.489	4272
911.604	4287
911.718	4196
911.833	4188
911.947	4090
912.062	4051
912.176	4204
912.291	4192
912.405	4238
912.519	4481
912.633	4485
912.748	4363
912.862	4276
912.976	4196
913.09	4109
913.204	4139
913.318	4287
913.431	4383
913.545	4409
913.659	4424
913.772	4417
913.886	4211
914	4207
914.113	4375
914.226	4440
914.34	4383
914.453	4227
914.566	4462
914.68	4310
914.793	4322
914.906	4143
915.019	4082
915.132	4078
915.245	4204
915.358	4284
915.47	4272
915.583	4230
915.696	4268
915.809	4405
915.921	4424
916.034	4276
916.146	4280
916.259	4215
916.371	4394
916.483	4352
916.595	4257
916.708	4322
916.82	4329
916.932	4322
917.044	4295
917.156	4333
917.268	4219
917.38	4314
917.491	4261
917.603	4341
917.715	4451
917.826	4413
917.938	4367
918.049	4287
918.161	4386
918.272	4573
918.384	4519
918.495	4421
918.606	4287
918.717	4265
918.828	4325
918.939	4360
919.05	4280
919.161	4333
919.272	4082
919.383	4211
919.494	4470
919.604	4634
919.715	4455
919.826	4303
919.936	4421
920.047	4561
920.157	4497
920.267	4717
920.378	4512
920.488	4504
920.598	4733
920.708	4873
920.818	4714
920.928	4763
921.038	4987
921.148	4904
921.258	4599
921.368	4535
921.477	4485
921.587	4417
921.697	4333
921.806	4497
921.916	4417
922.025	4246
922.134	4318
922.244	4227
922.353	4310
922.462	4135
922.571	4131
922.68	3998
922.789	4002
922.898	4067
923.007	3972
923.116	4124
923.224	4071
923.333	4051
923.442	4002
923.55	3983
923.659	4029
923.767	4090
923.876	3960
923.984	4074
924.092	3991
924.201	4101
924.309	4147
924.417	4078
924.525	4055
924.633	4071
924.741	4892
924.849	3941
924.956	4093
925.064	3994
925.172	3945
925.279	3926
925.387	4040
925.494	4078
925.602	4150
925.709	4169
925.816	4051
925.924	4162
926.031	4280
926.138	4177
926.245	4276
926.352	4090
926.459	4249
926.566	4265
926.673	4131
926.779	4067
926.886	4116
926.993	4002
927.099	3926
927.206	3876
927.312	3926
927.419	4051
927.525	4029
927.631	4078
927.737	3983
927.843	3934
927.95	3819
928.056	3964
928.162	4002
928.267	4044
928.373	4637
928.479	4105
928.585	3861
928.69	3979
928.796	4074
928.901	3960
929.007	3823
929.112	3964
929.218	3994
929.323	3934
929.428	3911
929.533	4097
929.638	3911
929.743	3918
929.848	4067
929.953	3994
930.058	3911
930.163	3778
930.267	3800
930.372	3968
930.477	3800
930.581	4078
930.685	3937
930.79	3797
930.894	3899
930.998	3850
931.103	4036
931.207	3679
931.311	3698
931.415	3671
931.519	3523
931.623	3557
