Data from test_V78500241_1207.txt Node
Date: Fri Mar 25 16:57:23 CST 2022
User: usil
Spectrometer: V785-0024
Trigger mode: 0
Integration Time (sec): 4.000000E-1
Scans to average: 1
Nonlinearity correction enabled: false
Boxcar width: 0
Storing dark spectrum: false
XAxis mode: Wavelengths
Number of Pixels in Spectrum: 1024
>>>>>Begin Spectral Data<<<<<
801.071	8012
801.214	8054
801.356	7871
801.499	7864
801.641	7757
801.783	7761
801.926	7921
802.068	7944
802.211	7883
802.353	7959
802.496	7856
802.638	7936
802.78	7925
802.923	7982
803.065	7845
803.208	7860
803.35	7993
803.492	8077
803.635	8126
803.777	8031
803.919	8100
804.061	8461
804.204	8164
804.346	8020
804.488	8001
804.63	8081
804.773	7989
804.915	8069
805.057	8229
805.199	8195
805.341	8229
805.483	8263
805.626	8240
805.768	8103
805.91	8218
806.052	8187
806.194	8062
806.336	8259
806.478	8157
806.62	8016
806.762	8176
806.904	8248
807.046	8461
807.188	8336
807.33	8313
807.472	8320
807.614	8138
807.756	8107
807.898	8073
808.04	7898
808.182	7890
808.324	7947
808.465	7890
808.607	7997
808.749	8046
808.891	8172
809.033	8267
809.174	8252
809.316	8043
809.458	7970
809.6	8005
809.741	7928
809.883	7982
810.025	8073
810.166	8020
810.308	8027
810.45	7970
810.591	7833
810.733	7772
810.875	7620
811.016	7533
811.158	7544
811.299	7559
811.441	7719
811.582	7689
811.724	7601
811.865	7491
812.007	7616
812.148	7556
812.29	7556
812.431	7616
812.573	7864
812.714	7925
812.855	8050
812.997	8107
813.138	8259
813.279	8233
813.421	8050
813.562	7959
813.703	7837
813.845	7784
813.986	7400
814.127	7240
814.268	7236
814.41	7187
814.551	7202
814.692	7171
814.833	7069
814.974	7088
815.115	7050
815.256	6897
815.397	6924
815.539	6981
815.68	6814
815.821	6726
815.962	6856
816.103	6783
816.244	6684
816.385	6646
816.526	6604
816.666	6517
816.807	6216
816.948	6452
817.089	6395
817.23	6422
817.371	6319
817.512	6410
817.653	6380
817.793	6342
817.934	6418
818.075	6441
818.216	6388
818.356	6357
818.497	6247
818.638	6106
818.778	6133
818.919	6136
819.06	6194
819.2	6327
819.341	6300
819.481	6315
819.622	6479
819.762	6692
819.903	6646
820.043	6578
820.184	6513
820.324	6597
820.465	6715
820.605	6688
820.746	6639
820.886	6532
821.026	6639
821.167	6700
821.307	6764
821.447	6776
821.588	6635
821.728	6574
821.868	6506
822.008	6300
822.149	6315
822.289	6361
822.429	6125
822.569	6133
822.709	6136
822.849	5942
822.99	5916
823.13	5889
823.27	5923
823.41	5756
823.55	5775
823.69	5710
823.83	5844
823.97	5642
824.11	5596
824.25	5471
824.389	5551
824.529	5623
824.669	5528
824.809	5653
824.949	5634
825.089	5649
825.228	5581
825.368	5357
825.508	5391
825.648	5376
825.787	5398
825.927	5395
826.067	5284
826.206	5349
826.346	5417
826.485	5436
826.625	5425
826.765	5573
826.904	5486
827.044	5269
827.183	5216
827.323	5143
827.462	5330
827.601	5204
827.741	5242
827.88	5239
828.02	5181
828.159	5261
828.298	5311
828.437	5372
828.577	5277
828.716	5535
828.855	5353
828.994	5197
829.134	5159
829.273	5242
829.412	5170
829.551	5140
829.69	5185
829.829	5258
829.968	5360
830.107	5288
830.246	5296
830.385	5220
830.524	5201
830.663	5079
830.802	5018
830.941	4835
831.08	4915
831.219	5029
831.357	5010
831.496	5170
831.635	4946
831.774	4904
831.913	4843
832.051	4733
832.19	4786
832.329	4847
832.467	4706
832.606	4687
832.744	4725
832.883	4767
833.022	4748
833.16	4820
833.299	4831
833.437	4809
833.576	4831
833.714	4885
833.852	4847
833.991	4873
834.129	4984
834.267	4987
834.406	4900
834.544	5033
834.682	5071
834.821	4984
834.959	5174
835.097	4999
835.235	5212
835.373	5105
835.511	5124
835.65	5086
835.788	5037
835.926	4911
836.064	4957
836.202	4919
836.34	5231
836.478	5242
836.615	5140
836.753	5261
836.891	5326
837.029	5239
837.167	5235
837.305	5189
837.443	5170
837.58	5060
837.718	5292
837.856	5220
837.993	5170
838.131	5246
838.269	5250
838.406	5227
838.544	5220
838.681	5060
838.819	5033
838.956	4915
839.094	4984
839.231	5010
839.369	5178
839.506	5467
839.643	5288
839.781	5098
839.918	4999
840.055	5143
840.193	5109
840.33	5121
840.467	5155
840.604	5208
840.742	5421
840.879	5113
841.016	5113
841.153	5193
841.29	5387
841.427	5379
841.564	5330
841.701	5410
841.838	5258
841.975	5288
842.112	5296
842.249	5151
842.385	5113
842.522	5357
842.659	5208
842.796	5181
842.933	5216
843.069	5212
843.206	5208
843.343	5341
843.479	5265
843.616	5288
843.752	5064
843.889	5056
844.025	5299
844.162	5056
844.298	5212
844.435	5140
844.571	5128
844.708	5212
844.844	5318
844.98	5376
845.117	5376
845.253	5223
845.389	5105
845.525	5189
845.661	5136
845.798	5056
845.934	5121
846.07	5083
846.206	5212
846.342	5246
846.478	5216
846.614	5033
846.75	5003
846.886	4961
847.022	5151
847.158	5079
847.294	5079
847.429	5109
847.565	5113
847.701	5311
847.837	4870
847.972	4786
848.108	4965
848.244	4949
848.379	4812
848.515	4740
848.65	4725
848.786	4748
848.921	4847
849.057	4904
849.192	4896
849.328	4831
849.463	4896
849.598	4831
849.734	4725
849.869	4759
850.004	4679
850.14	4710
850.275	4622
850.41	4554
850.545	4596
850.68	4645
850.815	4592
850.95	4656
851.085	4786
851.22	4725
851.355	4683
851.49	4615
851.625	4641
851.76	4641
851.895	4649
852.03	4550
852.165	4630
852.299	4714
852.434	4755
852.569	4729
852.703	4816
852.838	4885
852.973	4896
853.107	4976
853.242	4752
853.376	4717
853.511	4554
853.645	4596
853.78	4797
853.914	4698
854.048	4725
854.183	4645
854.317	4755
854.451	4866
854.585	4698
854.72	4656
854.854	4748
854.988	4622
855.122	4637
855.256	4531
855.39	4683
855.524	4835
855.658	4782
855.792	4687
855.926	4793
856.06	4786
856.194	4831
856.327	4755
856.461	4607
856.595	4641
856.729	4637
856.862	4778
856.996	4740
857.13	4740
857.263	4771
857.397	4812
857.53	4656
857.664	4736
857.797	4755
857.931	4782
858.064	4748
858.197	4748
858.331	4637
858.464	4599
858.597	4584
858.731	4653
858.864	4664
858.997	4615
859.13	4679
859.263	4736
859.396	4691
859.529	4637
859.662	4611
859.795	4584
859.928	4694
860.061	4812
860.194	4752
860.327	4615
860.46	4531
860.592	4736
860.725	4721
860.858	4733
860.99	4558
861.123	4535
861.256	4523
861.388	4603
861.521	5322
861.653	4508
861.786	4519
861.918	4470
862.05	4577
862.183	4565
862.315	4630
862.447	4675
862.58	4558
862.712	4432
862.844	4360
862.976	4443
863.108	4424
863.24	4911
863.372	4348
863.504	4405
863.636	4417
863.768	4497
863.9	4474
864.032	4363
864.164	4394
864.296	4466
864.428	4580
864.559	4584
864.691	4538
864.823	4554
864.954	4565
865.086	4523
865.217	4455
865.349	4451
865.48	4497
865.612	4478
865.743	4630
865.875	4485
866.006	4470
866.137	4500
866.269	4455
866.4	4455
866.531	4405
866.662	4413
866.793	4451
866.924	4413
867.055	4538
867.186	4409
867.317	4459
867.448	4402
867.579	4409
867.71	4390
867.841	4363
867.972	4462
868.103	4500
868.233	4466
868.364	4424
868.495	4474
868.625	4660
868.756	4771
868.886	4584
869.017	4656
869.147	4805
869.278	4793
869.408	4656
869.539	4675
869.669	4714
869.799	4694
869.929	4740
870.06	4801
870.19	5022
870.32	4965
870.45	4942
870.58	5029
870.71	5136
870.84	5105
870.97	4968
871.1	4900
871.23	5166
871.36	5174
871.489	5014
871.619	5079
871.749	5064
871.879	5140
872.008	5201
872.138	5090
872.267	4976
872.397	4839
872.526	4786
872.656	4771
872.785	4797
872.915	4961
873.044	5018
873.173	4938
873.303	4961
873.432	4949
873.561	4930
873.69	4911
873.819	4889
873.948	4892
874.077	4835
874.206	4759
874.335	4805
874.464	4911
874.593	5090
874.722	4896
874.851	5128
874.979	5086
875.108	5083
875.237	4896
875.365	4919
875.494	4923
875.623	4938
875.751	4835
875.88	4923
876.008	5029
876.136	5006
876.265	5189
876.393	5345
876.521	5235
876.65	5185
876.778	5178
876.906	5105
877.034	5052
877.162	4980
877.29	5014
877.418	5075
877.546	5060
877.674	5071
877.802	5060
877.93	5029
878.058	4927
878.185	4870
878.313	4953
878.441	4934
878.568	4839
878.696	4915
878.824	4915
878.951	4995
879.079	5140
879.206	5330
879.333	5113
879.461	4999
879.588	5025
879.715	5128
879.842	5258
879.97	5113
880.097	4801
880.224	4755
880.351	4858
880.478	4854
880.605	4790
880.732	4771
880.859	5128
880.986	4942
881.112	4923
881.239	4763
881.366	4702
881.493	4634
881.619	4622
881.746	4683
881.872	4668
881.999	4668
882.125	4687
882.252	4843
882.378	4854
882.505	4938
882.631	4824
882.757	4714
882.883	4752
883.01	4782
883.136	4687
883.262	4653
883.388	4637
883.514	4782
883.64	4828
883.766	4778
883.892	4675
884.018	4664
884.143	4858
884.269	5018
884.395	4710
884.52	4618
884.646	4664
884.772	4599
884.897	4588
885.023	4714
885.148	4774
885.274	4927
885.399	4809
885.524	4721
885.65	4736
885.775	4710
885.9	4733
886.025	4870
886.15	4793
886.275	4733
886.4	4672
886.525	4755
886.65	4702
886.775	4679
886.9	4892
887.025	5033
887.149	4835
887.274	4664
887.399	4565
887.523	4558
887.648	4565
887.773	4603
887.897	4717
888.021	4812
888.146	4679
888.27	4824
888.395	4892
888.519	4752
888.643	4786
888.767	4843
888.891	4679
889.015	4618
889.139	4672
889.263	4660
889.387	4790
889.511	4904
889.635	4805
889.759	4656
889.883	4618
890.006	4725
890.13	4816
890.254	4603
890.377	4714
890.501	4535
890.624	4542
890.748	4672
890.871	4535
890.995	4466
891.118	4394
891.241	4512
891.364	4561
891.488	4626
891.611	4497
891.734	4565
891.857	4588
891.98	4493
892.103	4664
892.226	4603
892.349	4535
892.471	4447
892.594	4542
892.717	4588
892.839	4622
892.962	4637
893.085	4664
893.207	4599
893.33	4485
893.452	4542
893.575	4653
893.697	4558
893.819	4805
893.941	4816
894.064	4767
894.186	4599
894.308	4569
894.43	4763
894.552	4850
894.674	4736
894.796	4577
894.918	4580
895.04	4580
895.161	4672
895.283	4702
895.405	4577
895.526	4668
895.648	4714
895.769	4653
895.891	4778
896.012	4763
896.134	4691
896.255	4675
896.376	4683
896.498	4618
896.619	4653
896.74	4626
896.861	4656
896.982	4957
897.103	5124
897.224	4816
897.345	4752
897.466	4649
897.587	4755
897.708	4862
897.828	4797
897.949	4687
898.07	4584
898.19	4660
898.311	4831
898.431	4660
898.552	4725
898.672	4828
898.792	4790
898.913	4698
899.033	4535
899.153	4512
899.273	4470
899.393	4493
899.513	4546
899.633	4569
899.753	4573
899.873	4550
899.993	4607
900.113	4516
900.232	4580
900.352	4535
900.472	4481
900.591	4447
900.711	4516
900.83	4417
900.95	4588
901.069	4656
901.189	4531
901.308	4402
901.427	4314
901.546	4405
901.665	4481
901.784	4519
901.904	4405
902.023	4325
902.141	4200
902.26	4158
902.379	4337
902.498	4261
902.617	4238
902.735	4360
902.854	4356
902.973	4360
903.091	4192
903.21	4207
903.328	4363
903.446	4234
903.565	4230
903.683	4344
903.801	4291
903.919	4386
904.038	4451
904.156	4325
904.274	4432
904.392	4329
904.51	4417
904.627	4470
904.745	4618
904.863	4607
904.981	4398
905.098	4344
905.216	4383
905.334	4424
905.451	4409
905.569	4485
905.686	4580
905.803	4580
905.921	4398
906.038	4607
906.155	4489
906.272	4405
906.389	4409
906.506	4356
906.623	4436
906.74	4394
906.857	4310
906.974	4390
907.091	4554
907.208	4672
907.324	4603
907.441	4440
907.557	4295
907.674	4356
907.79	4333
907.907	4398
908.023	4527
908.139	4516
908.256	4462
908.372	4478
908.488	4417
908.604	4367
908.72	4356
908.836	4348
908.952	4379
909.068	4462
909.184	4565
909.3	4523
909.415	4588
909.531	4531
909.647	4352
909.762	4356
909.878	4310
909.993	4440
910.108	4428
910.224	4436
910.339	4478
910.454	4421
910.57	4367
910.685	4329
910.8	4706
910.915	4527
911.03	4493
911.145	4409
911.259	4314
911.374	4360
911.489	4287
911.604	4280
911.718	4196
911.833	4192
911.947	4090
912.062	4051
912.176	4173
912.291	4200
912.405	4272
912.519	4493
912.633	4508
912.748	4367
912.862	4272
912.976	4196
913.09	4086
913.204	4207
913.318	4261
913.431	4360
913.545	4398
913.659	4409
913.772	4344
913.886	4219
914	4219
914.113	4367
914.226	4398
914.34	4386
914.453	4219
914.566	4447
914.68	4295
914.793	4329
914.906	4154
915.019	4128
915.132	4082
915.245	4181
915.358	4261
915.47	4257
915.583	4246
915.696	4310
915.809	4447
915.921	4402
916.034	4261
916.146	4257
916.259	4265
916.371	4337
916.483	4428
916.595	4207
916.708	4276
916.82	4310
916.932	4344
917.044	4299
917.156	4322
917.268	4238
917.38	4314
917.491	4265
917.603	4322
917.715	4375
917.826	4462
917.938	4417
918.049	4227
918.161	4405
918.272	4516
918.384	4558
918.495	4428
918.606	4234
918.717	4272
918.828	4325
918.939	4356
919.05	4303
919.161	4287
919.272	4101
919.383	4211
919.494	4417
919.604	4641
919.715	4443
919.826	4394
919.936	4386
920.047	4519
920.157	4481
920.267	4653
920.378	4554
920.488	4504
920.598	4698
920.708	4904
920.818	4793
920.928	4721
921.038	4957
921.148	4938
921.258	4599
921.368	4546
921.477	4470
921.587	4478
921.697	4337
921.806	4577
921.916	4428
922.025	4265
922.134	4268
922.244	4249
922.353	4310
922.462	4162
922.571	4139
922.68	4059
922.789	3960
922.898	4032
923.007	4025
923.116	4116
923.224	4051
923.333	4071
923.442	4006
923.55	3953
923.659	4006
923.767	4128
923.876	4013
923.984	4105
924.092	4032
924.201	4097
924.309	4048
924.417	4124
924.525	4048
924.633	4105
924.741	5098
924.849	3880
924.956	4071
925.064	3972
925.172	3892
925.279	3972
925.387	3987
925.494	4059
925.602	4215
925.709	4177
925.816	4067
925.924	4101
926.031	4238
926.138	4162
926.245	4188
926.352	4044
926.459	4276
926.566	4310
926.673	4154
926.779	4093
926.886	4055
926.993	3972
927.099	3975
927.206	3998
927.312	3987
927.419	4074
927.525	4025
927.631	4071
927.737	3968
927.843	3960
927.95	3838
928.056	3968
928.162	3987
928.267	4040
928.373	4672
928.479	4116
928.585	3880
928.69	3975
928.796	4074
928.901	3968
929.007	3854
929.112	4006
929.218	4006
929.323	3918
929.428	3949
929.533	4109
929.638	3926
929.743	3960
929.848	4048
929.953	3983
930.058	3903
930.163	3778
930.267	3827
930.372	3964
930.477	3823
930.581	4082
930.685	3975
930.79	3827
930.894	3880
930.998	3827
931.103	4055
931.207	3724
931.311	3709
931.415	3667
931.519	3553
931.623	3523
