Data from test_V78500241_66.txt Node
Date: Fri Mar 25 16:49:27 CST 2022
User: usil
Spectrometer: V785-0024
Trigger mode: 0
Integration Time (sec): 4.000000E-1
Scans to average: 1
Nonlinearity correction enabled: false
Boxcar width: 0
Storing dark spectrum: false
XAxis mode: Wavelengths
Number of Pixels in Spectrum: 1024
>>>>>Begin Spectral Data<<<<<
801.071	8058
801.214	8130
801.356	7894
801.499	7890
801.641	7849
801.783	7864
801.926	8046
802.068	7997
802.211	7989
802.353	8077
802.496	7902
802.638	8027
802.78	7963
802.923	8016
803.065	7940
803.208	7909
803.35	7974
803.492	8088
803.635	8164
803.777	8031
803.919	8142
804.061	8446
804.204	8138
804.346	8088
804.488	8001
804.63	8065
804.773	8111
804.915	8073
805.057	8233
805.199	8191
805.341	8191
805.483	8256
805.626	8218
805.768	8096
805.91	8210
806.052	8164
806.194	8077
806.336	8374
806.478	8138
806.62	8130
806.762	8263
806.904	8248
807.046	8461
807.188	8393
807.33	8385
807.472	8419
807.614	8271
807.756	8202
807.898	7989
808.04	7940
808.182	8016
808.324	7928
808.465	7955
808.607	8054
808.749	8115
808.891	8195
809.033	8237
809.174	8164
809.316	8020
809.458	8096
809.6	7978
809.741	8054
809.883	8054
810.025	8100
810.166	8046
810.308	8039
810.45	8065
810.591	7883
810.733	7712
810.875	7693
811.016	7540
811.158	7495
811.299	7677
811.441	7833
811.582	7799
811.724	7666
811.865	7590
812.007	7753
812.148	7632
812.29	7639
812.431	7795
812.573	7932
812.714	7970
812.855	8157
812.997	8252
813.138	8320
813.279	8282
813.421	8138
813.562	8058
813.703	7894
813.845	7795
813.986	7441
814.127	7274
814.268	7259
814.41	7232
814.551	7198
814.692	7255
814.833	7190
814.974	7179
815.115	7164
815.256	7061
815.397	6935
815.539	6924
815.68	6867
815.821	6787
815.962	6837
816.103	6859
816.244	6719
816.385	6627
816.526	6616
816.666	6528
816.807	6353
816.948	6517
817.089	6555
817.23	6456
817.371	6418
817.512	6429
817.653	6418
817.793	6395
817.934	6433
818.075	6448
818.216	6467
818.356	6471
818.497	6277
818.638	6175
818.778	6163
818.919	6129
819.06	6182
819.2	6372
819.341	6399
819.481	6441
819.622	6635
819.762	6757
819.903	6688
820.043	6669
820.184	6593
820.324	6574
820.465	6749
820.605	6734
820.746	6601
820.886	6544
821.026	6662
821.167	6776
821.307	6795
821.447	6745
821.588	6715
821.728	6642
821.868	6506
822.008	6334
822.149	6388
822.289	6433
822.429	6213
822.569	6144
822.709	6167
822.849	5931
822.99	5893
823.13	5961
823.27	5950
823.41	5802
823.55	5802
823.69	5794
823.83	5840
823.97	5714
824.11	5589
824.25	5558
824.389	5592
824.529	5684
824.669	5558
824.809	5684
824.949	5676
825.089	5657
825.228	5589
825.368	5398
825.508	5406
825.648	5379
825.787	5417
825.927	5429
826.067	5353
826.206	5315
826.346	5459
826.485	5410
826.625	5455
826.765	5600
826.904	5551
827.044	5322
827.183	5250
827.323	5170
827.462	5280
827.601	5223
827.741	5239
827.88	5246
828.02	5162
828.159	5235
828.298	5303
828.437	5391
828.577	5292
828.716	5493
828.855	5357
828.994	5216
829.134	5181
829.273	5216
829.412	5212
829.551	5162
829.69	5220
829.829	5269
829.968	5414
830.107	5318
830.246	5292
830.385	5227
830.524	5216
830.663	5086
830.802	5006
830.941	4908
831.08	4965
831.219	5033
831.357	4984
831.496	5201
831.635	4999
831.774	4911
831.913	4862
832.051	4786
832.19	4797
832.329	4904
832.467	4752
832.606	4607
832.744	4763
832.883	4752
833.022	4790
833.16	4835
833.299	4816
833.437	4831
833.576	4850
833.714	4839
833.852	4881
833.991	4908
834.129	5006
834.267	5006
834.406	4938
834.544	5003
834.682	5029
834.821	4984
834.959	5189
835.097	5056
835.235	5204
835.373	5117
835.511	5132
835.65	5056
835.788	5037
835.926	4904
836.064	4942
836.202	4934
836.34	5162
836.478	5299
836.615	5174
836.753	5258
836.891	5349
837.029	5307
837.167	5265
837.305	5239
837.443	5155
837.58	5151
837.718	5239
837.856	5231
837.993	5155
838.131	5239
838.269	5204
838.406	5242
838.544	5235
838.681	5048
838.819	5052
838.956	4911
839.094	4927
839.231	4999
839.369	5143
839.506	5436
839.643	5315
839.781	5090
839.918	5041
840.055	5117
840.193	5128
840.33	5117
840.467	5181
840.604	5204
840.742	5436
840.879	5102
841.016	5117
841.153	5216
841.29	5417
841.427	5349
841.564	5299
841.701	5402
841.838	5349
841.975	5299
842.112	5292
842.249	5197
842.385	5174
842.522	5360
842.659	5223
842.796	5113
842.933	5227
843.069	5220
843.206	5227
843.343	5315
843.479	5273
843.616	5296
843.752	5083
843.889	5033
844.025	5212
844.162	5037
844.298	5246
844.435	5094
844.571	5056
844.708	5261
844.844	5326
844.98	5315
845.117	5277
845.253	5155
845.389	5098
845.525	5174
845.661	5208
845.798	5052
845.934	5151
846.07	5060
846.206	5208
846.342	5311
846.478	5147
846.614	5052
846.75	5014
846.886	4976
847.022	5208
847.158	5025
847.294	5113
847.429	5147
847.565	5090
847.701	5368
847.837	4862
847.972	4809
848.108	5014
848.244	5006
848.379	4767
848.515	4744
848.65	4790
848.786	4752
848.921	4805
849.057	4930
849.192	4949
849.328	4850
849.463	4870
849.598	4820
849.734	4778
849.869	4740
850.004	4653
850.14	4725
850.275	4641
850.41	4523
850.545	4607
850.68	4702
850.815	4660
850.95	4664
851.085	4873
851.22	4805
851.355	4679
851.49	4683
851.625	4691
851.76	4634
851.895	4592
852.03	4542
852.165	4664
852.299	4733
852.434	4828
852.569	4782
852.703	4793
852.838	4900
852.973	4946
853.107	4991
853.242	4771
853.376	4717
853.511	4508
853.645	4615
853.78	4790
853.914	4668
854.048	4729
854.183	4645
854.317	4744
854.451	4873
854.585	4729
854.72	4679
854.854	4778
854.988	4641
855.122	4679
855.256	4550
855.39	4668
855.524	4820
855.658	4782
855.792	4725
855.926	4797
856.06	4790
856.194	4854
856.327	4714
856.461	4611
856.595	4653
856.729	4649
856.862	4793
856.996	4725
857.13	4778
857.263	4786
857.397	4820
857.53	4649
857.664	4782
857.797	4824
857.931	4805
858.064	4725
858.197	4755
858.331	4694
858.464	4634
858.597	4565
858.731	4656
858.864	4679
858.997	4649
859.13	4683
859.263	4729
859.396	4725
859.529	4599
859.662	4634
859.795	4561
859.928	4626
860.061	4771
860.194	4812
860.327	4622
860.46	4577
860.592	4698
860.725	4790
860.858	4752
860.99	4622
861.123	4569
861.256	4504
861.388	4641
861.521	5284
861.653	4519
861.786	4451
861.918	4478
862.05	4565
862.183	4577
862.315	4649
862.447	4637
862.58	4656
862.712	4398
862.844	4348
862.976	4538
863.108	4523
863.24	4889
863.372	4379
863.504	4451
863.636	4421
863.768	4497
863.9	4481
864.032	4424
864.164	4459
864.296	4546
864.428	4554
864.559	4599
864.691	4516
864.823	4527
864.954	4535
865.086	4535
865.217	4481
865.349	4470
865.48	4462
865.612	4535
865.743	4679
865.875	4508
866.006	4462
866.137	4512
866.269	4459
866.4	4424
866.531	4417
866.662	4413
866.793	4459
866.924	4436
867.055	4561
867.186	4512
867.317	4489
867.448	4424
867.579	4424
867.71	4421
867.841	4379
867.972	4500
868.103	4481
868.233	4447
868.364	4519
868.495	4500
868.625	4694
868.756	4733
868.886	4588
869.017	4618
869.147	4733
869.278	4812
869.408	4725
869.539	4668
869.669	4801
869.799	4698
869.929	4767
870.06	4820
870.19	4976
870.32	4965
870.45	4957
870.58	5025
870.71	5174
870.84	5174
870.97	5010
871.1	4904
871.23	5124
871.36	5170
871.489	5075
871.619	5136
871.749	5090
871.879	5143
872.008	5223
872.138	5056
872.267	5048
872.397	4930
872.526	4847
872.656	4736
872.785	4873
872.915	4957
873.044	5083
873.173	4949
873.303	5037
873.432	5025
873.561	4976
873.69	4934
873.819	4911
873.948	4968
874.077	4824
874.206	4805
874.335	4812
874.464	4995
874.593	5143
874.722	4968
874.851	5086
874.979	5094
875.108	5079
875.237	4961
875.365	4877
875.494	4904
875.623	4984
875.751	4881
875.88	4908
876.008	5018
876.136	5071
876.265	5261
876.393	5357
876.521	5303
876.65	5284
876.778	5155
876.906	5086
877.034	5064
877.162	5109
877.29	4995
877.418	5128
877.546	5037
877.674	5048
877.802	5071
877.93	5056
878.058	4984
878.185	4889
878.313	4953
878.441	4999
878.568	4816
878.696	4911
878.824	5003
878.951	5064
879.079	5140
879.206	5326
879.333	5136
879.461	4999
879.588	5064
879.715	5155
879.842	5235
879.97	5056
880.097	4847
880.224	4763
880.351	4839
880.478	4873
880.605	4850
880.732	4797
880.859	5178
880.986	4900
881.112	4942
881.239	4812
881.366	4679
881.493	4668
881.619	4660
881.746	4653
881.872	4641
881.999	4656
882.125	4744
882.252	4782
882.378	4873
882.505	5018
882.631	4778
882.757	4664
882.883	4736
883.01	4725
883.136	4759
883.262	4596
883.388	4664
883.514	4828
883.64	4892
883.766	4816
883.892	4649
884.018	4736
884.143	4919
884.269	5045
884.395	4698
884.52	4664
884.646	4725
884.772	4588
884.897	4573
885.023	4721
885.148	4801
885.274	4870
885.399	4812
885.524	4752
885.65	4744
885.775	4744
885.9	4733
886.025	4892
886.15	4828
886.275	4755
886.4	4675
886.525	4725
886.65	4725
886.775	4698
886.9	4934
887.025	5045
887.149	4839
887.274	4694
887.399	4611
887.523	4626
887.648	4630
887.773	4580
887.897	4801
888.021	4771
888.146	4717
888.27	4805
888.395	4908
888.519	4812
888.643	4904
888.767	4831
888.891	4694
889.015	4615
889.139	4691
889.263	4649
889.387	4748
889.511	4831
889.635	4831
889.759	4687
889.883	4618
890.006	4740
890.13	4934
890.254	4710
890.377	4683
890.501	4561
890.624	4535
890.748	4679
890.871	4561
890.995	4470
891.118	4424
891.241	4531
891.364	4550
891.488	4706
891.611	4523
891.734	4592
891.857	4599
891.98	4485
892.103	4679
892.226	4622
892.349	4538
892.471	4432
892.594	4558
892.717	4634
892.839	4618
892.962	4679
893.085	4748
893.207	4653
893.33	4489
893.452	4622
893.575	4672
893.697	4588
893.819	4892
893.941	4900
894.064	4786
894.186	4630
894.308	4615
894.43	4702
894.552	4831
894.674	4782
894.796	4546
894.918	4668
895.04	4599
895.161	4725
895.283	4683
895.405	4565
895.526	4687
895.648	4717
895.769	4740
895.891	4763
896.012	4774
896.134	4755
896.255	4725
896.376	4653
896.498	4637
896.619	4698
896.74	4634
896.861	4710
896.982	4972
897.103	5117
897.224	4862
897.345	4801
897.466	4672
897.587	4782
897.708	4877
897.828	4782
897.949	4706
898.07	4630
898.19	4714
898.311	4812
898.431	4725
898.552	4828
898.672	4831
898.792	4877
898.913	4812
899.033	4675
899.153	4504
899.273	4402
899.393	4565
899.513	4542
899.633	4577
899.753	4588
899.873	4573
899.993	4672
900.113	4607
900.232	4569
900.352	4569
900.472	4538
900.591	4459
900.711	4531
900.83	4455
900.95	4580
901.069	4687
901.189	4596
901.308	4440
901.427	4329
901.546	4421
901.665	4481
901.784	4554
901.904	4421
902.023	4341
902.141	4227
902.26	4181
902.379	4333
902.498	4280
902.617	4234
902.735	4390
902.854	4447
902.973	4371
903.091	4207
903.21	4261
903.328	4303
903.446	4299
903.565	4306
903.683	4390
903.801	4287
903.919	4455
904.038	4413
904.156	4363
904.274	4481
904.392	4447
904.51	4443
904.627	4466
904.745	4675
904.863	4675
904.981	4436
905.098	4348
905.216	4360
905.334	4443
905.451	4451
905.569	4489
905.686	4618
905.803	4561
905.921	4432
906.038	4554
906.155	4523
906.272	4413
906.389	4470
906.506	4371
906.623	4424
906.74	4413
906.857	4337
906.974	4390
907.091	4599
907.208	4714
907.324	4592
907.441	4504
907.557	4398
907.674	4402
907.79	4371
907.907	4428
908.023	4538
908.139	4493
908.256	4489
908.372	4531
908.488	4428
908.604	4428
908.72	4386
908.836	4390
908.952	4436
909.068	4455
909.184	4577
909.3	4535
909.415	4668
909.531	4607
909.647	4394
909.762	4455
909.878	4367
909.993	4489
910.108	4443
910.224	4428
910.339	4508
910.454	4455
910.57	4386
910.685	4337
910.8	4672
910.915	4660
911.03	4542
911.145	4386
911.259	4379
911.374	4386
911.489	4363
911.604	4303
911.718	4230
911.833	4230
911.947	4074
912.062	4074
912.176	4268
912.291	4268
912.405	4310
912.519	4481
912.633	4546
912.748	4413
912.862	4291
912.976	4196
913.09	4105
913.204	4227
913.318	4276
913.431	4421
913.545	4398
913.659	4447
913.772	4398
913.886	4230
914	4230
914.113	4455
914.226	4447
914.34	4413
914.453	4242
914.566	4478
914.68	4280
914.793	4356
914.906	4207
915.019	4143
915.132	4109
915.245	4185
915.358	4265
915.47	4246
915.583	4318
915.696	4329
915.809	4383
915.921	4478
916.034	4306
916.146	4284
916.259	4223
916.371	4424
916.483	4375
916.595	4303
916.708	4352
916.82	4341
916.932	4367
917.044	4390
917.156	4333
917.268	4257
917.38	4318
917.491	4276
917.603	4352
917.715	4504
917.826	4459
917.938	4405
918.049	4272
918.161	4398
918.272	4618
918.384	4626
918.495	4519
918.606	4341
918.717	4291
918.828	4413
918.939	4371
919.05	4276
919.161	4348
919.272	4196
919.383	4249
919.494	4508
919.604	4634
919.715	4478
919.826	4379
919.936	4466
920.047	4542
920.157	4516
920.267	4714
920.378	4561
920.488	4497
920.598	4744
920.708	4949
920.818	4793
920.928	4824
921.038	4965
921.148	4965
921.258	4683
921.368	4660
921.477	4550
921.587	4512
921.697	4424
921.806	4626
921.916	4459
922.025	4318
922.134	4299
922.244	4265
922.353	4367
922.462	4257
922.571	4131
922.68	4029
922.789	4029
922.898	4067
923.007	3998
923.116	4120
923.224	4082
923.333	4086
923.442	3998
923.55	4002
923.659	4078
923.767	4139
923.876	4021
923.984	4143
924.092	4055
924.201	4112
924.309	4124
924.417	4162
924.525	4097
924.633	4128
924.741	4938
924.849	3964
924.956	4150
925.064	3987
925.172	3953
925.279	3994
925.387	4086
925.494	4063
925.602	4268
925.709	4211
925.816	4071
925.924	4166
926.031	4257
926.138	4223
926.245	4192
926.352	4090
926.459	4314
926.566	4344
926.673	4162
926.779	4147
926.886	4101
926.993	3998
927.099	3994
927.206	3968
927.312	3968
927.419	4120
927.525	4029
927.631	4116
927.737	3998
927.843	3968
927.95	3907
928.056	3987
928.162	4029
928.267	4101
928.373	4717
928.479	4139
928.585	3896
928.69	4036
928.796	4105
928.901	4013
929.007	3873
929.112	4051
929.218	3983
929.323	4006
929.428	3972
929.533	4120
929.638	3987
929.743	3991
929.848	4071
929.953	3975
930.058	3968
930.163	3797
930.267	3842
930.372	4013
930.477	3857
930.581	4147
930.685	4010
930.79	3876
930.894	3873
930.998	3857
931.103	4101
931.207	3747
931.311	3755
931.415	3724
931.519	3504
931.623	3595
