Data from test_V78500241_644.txt Node
Date: Fri Mar 25 16:53:28 CST 2022
User: usil
Spectrometer: V785-0024
Trigger mode: 0
Integration Time (sec): 4.000000E-1
Scans to average: 1
Nonlinearity correction enabled: false
Boxcar width: 0
Storing dark spectrum: false
XAxis mode: Wavelengths
Number of Pixels in Spectrum: 1024
>>>>>Begin Spectral Data<<<<<
801.071	8073
801.214	7951
801.356	7852
801.499	7833
801.641	7761
801.783	7792
801.926	7997
802.068	7925
802.211	7906
802.353	8020
802.496	7864
802.638	7951
802.78	7852
802.923	7856
803.065	7860
803.208	7883
803.35	7940
803.492	8096
803.635	8176
803.777	7967
803.919	8065
804.061	8415
804.204	8050
804.346	7909
804.488	7959
804.63	8096
804.773	8043
804.915	8077
805.057	8252
805.199	8187
805.341	8161
805.483	8256
805.626	8183
805.768	8096
805.91	8145
806.052	8218
806.194	8039
806.336	8263
806.478	8134
806.62	8020
806.762	8111
806.904	8202
807.046	8415
807.188	8332
807.33	8298
807.472	8332
807.614	8138
807.756	8081
807.898	7887
808.04	7856
808.182	7887
808.324	7875
808.465	7906
808.607	8016
808.749	8084
808.891	8172
809.033	8202
809.174	8115
809.316	7944
809.458	8001
809.6	8005
809.741	8005
809.883	8005
810.025	8142
810.166	8088
810.308	8001
810.45	7989
810.591	7936
810.733	7765
810.875	7727
811.016	7525
811.158	7559
811.299	7548
811.441	7723
811.582	7685
811.724	7582
811.865	7525
812.007	7575
812.148	7597
812.29	7586
812.431	7674
812.573	7856
812.714	7959
812.855	8138
812.997	8202
813.138	8396
813.279	8237
813.421	8103
813.562	7997
813.703	7898
813.845	7788
813.986	7506
814.127	7331
814.268	7255
814.41	7270
814.551	7053
814.692	7160
814.833	7000
814.974	7114
815.115	7015
815.256	6954
815.397	6920
815.539	6943
815.68	6798
815.821	6863
815.962	6878
816.103	6787
816.244	6658
816.385	6631
816.526	6650
816.666	6448
816.807	6304
816.948	6422
817.089	6437
817.23	6418
817.371	6292
817.512	6372
817.653	6376
817.793	6369
817.934	6395
818.075	6464
818.216	6452
818.356	6395
818.497	6205
818.638	6117
818.778	6182
818.919	6121
819.06	6125
819.2	6300
819.341	6311
819.481	6346
819.622	6544
819.762	6696
819.903	6665
820.043	6563
820.184	6563
820.324	6559
820.465	6688
820.605	6646
820.746	6616
820.886	6433
821.026	6608
821.167	6658
821.307	6798
821.447	6753
821.588	6608
821.728	6490
821.868	6464
822.008	6247
822.149	6372
822.289	6399
822.429	6163
822.569	6121
822.709	6045
822.849	5939
822.99	5904
823.13	5912
823.27	5893
823.41	5805
823.55	5805
823.69	5771
823.83	5760
823.97	5676
824.11	5535
824.25	5455
824.389	5554
824.529	5596
824.669	5505
824.809	5600
824.949	5684
825.089	5661
825.228	5524
825.368	5376
825.508	5315
825.648	5288
825.787	5299
825.927	5357
826.067	5284
826.206	5299
826.346	5376
826.485	5429
826.625	5387
826.765	5562
826.904	5532
827.044	5197
827.183	5261
827.323	5185
827.462	5277
827.601	5174
827.741	5204
827.88	5220
828.02	5151
828.159	5269
828.298	5273
828.437	5345
828.577	5280
828.716	5429
828.855	5299
828.994	5162
829.134	5140
829.273	5239
829.412	5113
829.551	5079
829.69	5143
829.829	5273
829.968	5360
830.107	5216
830.246	5216
830.385	5143
830.524	5124
830.663	5075
830.802	4900
830.941	4839
831.08	4831
831.219	4934
831.357	4987
831.496	5136
831.635	4889
831.774	4877
831.913	4866
832.051	4679
832.19	4744
832.329	4824
832.467	4664
832.606	4618
832.744	4698
832.883	4717
833.022	4694
833.16	4748
833.299	4801
833.437	4797
833.576	4786
833.714	4862
833.852	4873
833.991	4854
834.129	4976
834.267	4908
834.406	4889
834.544	4946
834.682	4957
834.821	4942
834.959	5147
835.097	4927
835.235	5071
835.373	5045
835.511	5067
835.65	5014
835.788	5048
835.926	4835
836.064	4843
836.202	4892
836.34	5102
836.478	5235
836.615	5132
836.753	5261
836.891	5258
837.029	5208
837.167	5147
837.305	5132
837.443	5109
837.58	5045
837.718	5265
837.856	5159
837.993	5136
838.131	5201
838.269	5181
838.406	5162
838.544	5189
838.681	5025
838.819	5029
838.956	4828
839.094	4927
839.231	4984
839.369	5056
839.506	5376
839.643	5227
839.781	5052
839.918	5037
840.055	5094
840.193	5109
840.33	5132
840.467	5151
840.604	5151
840.742	5406
840.879	5045
841.016	5029
841.153	5128
841.29	5318
841.427	5296
841.564	5296
841.701	5391
841.838	5299
841.975	5208
842.112	5223
842.249	5121
842.385	5048
842.522	5341
842.659	5113
842.796	5132
842.933	5166
843.069	5170
843.206	5128
843.343	5296
843.479	5220
843.616	5261
843.752	5029
843.889	5041
844.025	5204
844.162	5056
844.298	5246
844.435	5105
844.571	5041
844.708	5197
844.844	5303
844.98	5318
845.117	5315
845.253	5147
845.389	5098
845.525	5159
845.661	5151
845.798	5045
845.934	5178
846.07	5064
846.206	5208
846.342	5303
846.478	5239
846.614	5033
846.75	4991
846.886	4991
847.022	5124
847.158	5064
847.294	5128
847.429	5147
847.565	5086
847.701	5383
847.837	4904
847.972	4854
848.108	4972
848.244	4980
848.379	4847
848.515	4774
848.65	4660
848.786	4763
848.921	4782
849.057	4847
849.192	4949
849.328	4892
849.463	4942
849.598	4835
849.734	4793
849.869	4733
850.004	4702
850.14	4698
850.275	4653
850.41	4577
850.545	4603
850.68	4611
850.815	4668
850.95	4634
851.085	4908
851.22	4839
851.355	4694
851.49	4622
851.625	4675
851.76	4672
851.895	4580
852.03	4519
852.165	4683
852.299	4706
852.434	4744
852.569	4763
852.703	4793
852.838	4885
852.973	4999
853.107	4984
853.242	4755
853.376	4793
853.511	4558
853.645	4645
853.78	4824
853.914	4748
854.048	4698
854.183	4634
854.317	4691
854.451	4881
854.585	4721
854.72	4679
854.854	4740
854.988	4588
855.122	4694
855.256	4565
855.39	4691
855.524	4771
855.658	4797
855.792	4729
855.926	4736
856.06	4755
856.194	4839
856.327	4725
856.461	4683
856.595	4675
856.729	4717
856.862	4805
856.996	4683
857.13	4801
857.263	4748
857.397	4850
857.53	4660
857.664	4736
857.797	4816
857.931	4812
858.064	4679
858.197	4809
858.331	4721
858.464	4634
858.597	4538
858.731	4694
858.864	4615
858.997	4649
859.13	4687
859.263	4714
859.396	4721
859.529	4607
859.662	4634
859.795	4592
859.928	4626
860.061	4801
860.194	4816
860.327	4645
860.46	4584
860.592	4759
860.725	4729
860.858	4733
860.99	4611
861.123	4561
861.256	4523
861.388	4618
861.521	5341
861.653	4508
861.786	4527
861.918	4516
862.05	4558
862.183	4584
862.315	4622
862.447	4717
862.58	4565
862.712	4432
862.844	4360
862.976	4565
863.108	4451
863.24	4934
863.372	4386
863.504	4466
863.636	4413
863.768	4481
863.9	4470
864.032	4436
864.164	4394
864.296	4527
864.428	4542
864.559	4615
864.691	4565
864.823	4588
864.954	4550
865.086	4516
865.217	4455
865.349	4432
865.48	4512
865.612	4519
865.743	4664
865.875	4527
866.006	4455
866.137	4531
866.269	4462
866.4	4497
866.531	4402
866.662	4405
866.793	4428
866.924	4447
867.055	4500
867.186	4493
867.317	4436
867.448	4360
867.579	4428
867.71	4417
867.841	4428
867.972	4508
868.103	4478
868.233	4485
868.364	4512
868.495	4497
868.625	4672
868.756	4786
868.886	4565
869.017	4645
869.147	4774
869.278	4797
869.408	4649
869.539	4687
869.669	4714
869.799	4672
869.929	4793
870.06	4797
870.19	4965
870.32	4976
870.45	4961
870.58	5045
870.71	5143
870.84	5128
870.97	4968
871.1	4927
871.23	5170
871.36	5178
871.489	5052
871.619	5086
871.749	5056
871.879	5166
872.008	5181
872.138	5094
872.267	5003
872.397	4866
872.526	4847
872.656	4782
872.785	4885
872.915	4972
873.044	5025
873.173	4972
873.303	4980
873.432	4968
873.561	4987
873.69	4858
873.819	4877
873.948	4949
874.077	4877
874.206	4812
874.335	4877
874.464	4984
874.593	5045
874.722	4919
874.851	5140
874.979	5102
875.108	5064
875.237	4900
875.365	4904
875.494	4885
875.623	5033
875.751	4854
875.88	4923
876.008	5018
876.136	5098
876.265	5239
876.393	5349
876.521	5273
876.65	5273
876.778	5235
876.906	5090
877.034	5037
877.162	5022
877.29	5037
877.418	5102
877.546	5060
877.674	5086
877.802	5033
877.93	5067
878.058	4999
878.185	4881
878.313	4999
878.441	4949
878.568	4831
878.696	4915
878.824	4995
878.951	4995
879.079	5227
879.206	5269
879.333	5170
879.461	5025
879.588	5022
879.715	5140
879.842	5273
879.97	5045
880.097	4828
880.224	4740
880.351	4828
880.478	4839
880.605	4801
880.732	4858
880.859	5113
880.986	4892
881.112	4915
881.239	4885
881.366	4664
881.493	4596
881.619	4622
881.746	4675
881.872	4615
881.999	4645
882.125	4748
882.252	4759
882.378	4870
882.505	4965
882.631	4831
882.757	4675
882.883	4725
883.01	4763
883.136	4721
883.262	4683
883.388	4664
883.514	4892
883.64	4892
883.766	4816
883.892	4694
884.018	4763
884.143	4923
884.269	4991
884.395	4698
884.52	4622
884.646	4702
884.772	4596
884.897	4577
885.023	4660
885.148	4805
885.274	4908
885.399	4854
885.524	4774
885.65	4706
885.775	4755
885.9	4706
886.025	4870
886.15	4839
886.275	4733
886.4	4664
886.525	4771
886.65	4725
886.775	4710
886.9	4980
887.025	5067
887.149	4824
887.274	4710
887.399	4603
887.523	4615
887.648	4588
887.773	4618
887.897	4812
888.021	4767
888.146	4729
888.27	4774
888.395	4957
888.519	4793
888.643	4797
888.767	4850
888.891	4710
889.015	4626
889.139	4683
889.263	4656
889.387	4778
889.511	4866
889.635	4843
889.759	4702
889.883	4717
890.006	4752
890.13	4877
890.254	4645
890.377	4668
890.501	4607
890.624	4588
890.748	4721
890.871	4554
890.995	4451
891.118	4360
891.241	4554
891.364	4580
891.488	4615
891.611	4497
891.734	4573
891.857	4596
891.98	4596
892.103	4656
892.226	4599
892.349	4550
892.471	4519
892.594	4596
892.717	4577
892.839	4588
892.962	4573
893.085	4622
893.207	4599
893.33	4493
893.452	4569
893.575	4687
893.697	4596
893.819	4850
893.941	4843
894.064	4767
894.186	4599
894.308	4573
894.43	4675
894.552	4870
894.674	4790
894.796	4596
894.918	4565
895.04	4546
895.161	4748
895.283	4618
895.405	4637
895.526	4626
895.648	4698
895.769	4679
895.891	4714
896.012	4786
896.134	4683
896.255	4714
896.376	4584
896.498	4668
896.619	4729
896.74	4588
896.861	4668
896.982	4934
897.103	5124
897.224	4828
897.345	4733
897.466	4710
897.587	4736
897.708	4873
897.828	4763
897.949	4687
898.07	4565
898.19	4622
898.311	4831
898.431	4679
898.552	4714
898.672	4885
898.792	4790
898.913	4771
899.033	4656
899.153	4508
899.273	4417
899.393	4512
899.513	4516
899.633	4542
899.753	4561
899.873	4550
899.993	4603
900.113	4538
900.232	4584
900.352	4519
900.472	4474
900.591	4405
900.711	4489
900.83	4447
900.95	4668
901.069	4679
901.189	4592
901.308	4367
901.427	4276
901.546	4383
901.665	4478
901.784	4523
901.904	4405
902.023	4306
902.141	4230
902.26	4200
902.379	4272
902.498	4230
902.617	4215
902.735	4379
902.854	4409
902.973	4363
903.091	4207
903.21	4207
903.328	4265
903.446	4276
903.565	4238
903.683	4386
903.801	4306
903.919	4417
904.038	4451
904.156	4333
904.274	4436
904.392	4409
904.51	4443
904.627	4455
904.745	4626
904.863	4626
904.981	4375
905.098	4352
905.216	4337
905.334	4466
905.451	4470
905.569	4375
905.686	4546
905.803	4535
905.921	4421
906.038	4577
906.155	4512
906.272	4443
906.389	4508
906.506	4398
906.623	4402
906.74	4417
906.857	4314
906.974	4402
907.091	4592
907.208	4698
907.324	4607
907.441	4535
907.557	4413
907.674	4341
907.79	4318
907.907	4432
908.023	4504
908.139	4504
908.256	4432
908.372	4478
908.488	4474
908.604	4390
908.72	4333
908.836	4375
908.952	4402
909.068	4455
909.184	4538
909.3	4531
909.415	4599
909.531	4569
909.647	4379
909.762	4394
909.878	4318
909.993	4394
910.108	4394
910.224	4413
910.339	4485
910.454	4398
910.57	4398
910.685	4303
910.8	4626
910.915	4565
911.03	4466
911.145	4386
911.259	4325
911.374	4363
911.489	4314
911.604	4310
911.718	4200
911.833	4204
911.947	4116
912.062	4040
912.176	4261
912.291	4230
912.405	4303
912.519	4459
912.633	4474
912.748	4413
912.862	4352
912.976	4249
913.09	4128
913.204	4204
913.318	4322
913.431	4409
913.545	4371
913.659	4470
913.772	4360
913.886	4246
914	4234
914.113	4402
914.226	4481
914.34	4402
914.453	4310
914.566	4440
914.68	4318
914.793	4356
914.906	4196
915.019	4135
915.132	4116
915.245	4204
915.358	4295
915.47	4234
915.583	4344
915.696	4299
915.809	4462
915.921	4455
916.034	4299
916.146	4265
916.259	4246
916.371	4424
916.483	4402
916.595	4310
916.708	4348
916.82	4367
916.932	4398
917.044	4333
917.156	4352
917.268	4284
917.38	4344
917.491	4280
917.603	4386
917.715	4451
917.826	4485
917.938	4371
918.049	4272
918.161	4402
918.272	4607
918.384	4542
918.495	4451
918.606	4352
918.717	4249
918.828	4379
918.939	4402
919.05	4280
919.161	4386
919.272	4200
919.383	4246
919.494	4504
919.604	4611
919.715	4470
919.826	4367
919.936	4421
920.047	4573
920.157	4577
920.267	4725
920.378	4573
920.488	4538
920.598	4733
920.708	4900
920.818	4797
920.928	4812
921.038	4995
921.148	4984
921.258	4645
921.368	4622
921.477	4573
921.587	4512
921.697	4421
921.806	4626
921.916	4443
922.025	4341
922.134	4272
922.244	4287
922.353	4348
922.462	4177
922.571	4166
922.68	4029
922.789	4021
922.898	4078
923.007	4048
923.116	4131
923.224	4086
923.333	4120
923.442	4032
923.55	4048
923.659	4071
923.767	4188
923.876	4067
923.984	4185
924.092	4044
924.201	4097
924.309	4112
924.417	4162
924.525	4131
924.633	4154
924.741	5105
924.849	3975
924.956	4207
925.064	4017
925.172	3945
925.279	4029
925.387	4128
925.494	4116
925.602	4303
925.709	4200
925.816	4090
925.924	4173
926.031	4253
926.138	4204
926.245	4234
926.352	4143
926.459	4276
926.566	4352
926.673	4185
926.779	4139
926.886	4150
926.993	3987
927.099	4010
927.206	4006
927.312	3991
927.419	4093
927.525	4059
927.631	4101
927.737	3994
927.843	3994
927.95	3869
928.056	3972
928.162	3998
928.267	4071
928.373	4725
928.479	4139
928.585	3899
928.69	4067
928.796	4143
928.901	4021
929.007	3896
929.112	4029
929.218	4032
929.323	3945
929.428	3972
929.533	4109
929.638	3956
929.743	3975
929.848	4090
929.953	4013
930.058	3968
930.163	3823
930.267	3842
930.372	4025
930.477	3873
930.581	4147
930.685	3972
930.79	3835
930.894	3907
930.998	3892
931.103	4032
931.207	3766
931.311	3755
931.415	3686
931.519	3526
931.623	3591
