Data from test_V78500241_844.txt Node
Date: Fri Mar 25 16:54:52 CST 2022
User: usil
Spectrometer: V785-0024
Trigger mode: 0
Integration Time (sec): 4.000000E-1
Scans to average: 1
Nonlinearity correction enabled: false
Boxcar width: 0
Storing dark spectrum: false
XAxis mode: Wavelengths
Number of Pixels in Spectrum: 1024
>>>>>Begin Spectral Data<<<<<
801.071	8012
801.214	7993
801.356	7868
801.499	7890
801.641	7765
801.783	7814
801.926	8008
802.068	7978
802.211	7986
802.353	7913
802.496	7883
802.638	7871
802.78	7875
802.923	7921
803.065	7841
803.208	7822
803.35	7986
803.492	8168
803.635	8126
803.777	8039
803.919	8119
804.061	8366
804.204	8092
804.346	7967
804.488	7917
804.63	8100
804.773	7959
804.915	8073
805.057	8248
805.199	8107
805.341	8237
805.483	8218
805.626	8126
805.768	8119
805.91	8111
806.052	8172
806.194	8050
806.336	8320
806.478	8081
806.62	8035
806.762	8119
806.904	8221
807.046	8423
807.188	8415
807.33	8320
807.472	8263
807.614	8225
807.756	8107
807.898	7974
808.04	7875
808.182	7887
808.324	7837
808.465	7902
808.607	8031
808.749	8115
808.891	8180
809.033	8298
809.174	8206
809.316	8073
809.458	8103
809.6	7928
809.741	8084
809.883	8058
810.025	8062
810.166	8039
810.308	7944
810.45	7974
810.591	7898
810.733	7746
810.875	7643
811.016	7552
811.158	7483
811.299	7609
811.441	7712
811.582	7681
811.724	7578
811.865	7518
812.007	7559
812.148	7620
812.29	7563
812.431	7685
812.573	7837
812.714	7868
812.855	8096
812.997	8149
813.138	8267
813.279	8195
813.421	8119
813.562	8008
813.703	7868
813.845	7761
813.986	7464
814.127	7316
814.268	7190
814.41	7232
814.551	7099
814.692	7168
814.833	7038
814.974	7050
815.115	7057
815.256	6954
815.397	6875
815.539	7012
815.68	6837
815.821	6783
815.962	6852
816.103	6867
816.244	6696
816.385	6642
816.526	6620
816.666	6498
816.807	6315
816.948	6426
817.089	6437
817.23	6464
817.371	6300
817.512	6418
817.653	6380
817.793	6311
817.934	6376
818.075	6391
818.216	6331
818.356	6391
818.497	6220
818.638	6102
818.778	6106
818.919	6167
819.06	6152
819.2	6323
819.341	6308
819.481	6346
819.622	6547
819.762	6696
819.903	6662
820.043	6631
820.184	6616
820.324	6506
820.465	6665
820.605	6650
820.746	6631
820.886	6452
821.026	6642
821.167	6700
821.307	6810
821.447	6745
821.588	6665
821.728	6563
821.868	6494
822.008	6296
822.149	6384
822.289	6285
822.429	6121
822.569	5996
822.709	6083
822.849	5916
822.99	5958
823.13	5988
823.27	5935
823.41	5764
823.55	5729
823.69	5771
823.83	5760
823.97	5672
824.11	5501
824.25	5497
824.389	5592
824.529	5551
824.669	5512
824.809	5627
824.949	5615
825.089	5532
825.228	5543
825.368	5353
825.508	5368
825.648	5334
825.787	5330
825.927	5372
826.067	5265
826.206	5261
826.346	5372
826.485	5402
826.625	5372
826.765	5551
826.904	5444
827.044	5216
827.183	5197
827.323	5098
827.462	5216
827.601	5189
827.741	5189
827.88	5159
828.02	5159
828.159	5212
828.298	5311
828.437	5368
828.577	5296
828.716	5463
828.855	5292
828.994	5174
829.134	5136
829.273	5121
829.412	5147
829.551	5075
829.69	5140
829.829	5181
829.968	5387
830.107	5208
830.246	5204
830.385	5109
830.524	5067
830.663	5117
830.802	4965
830.941	4892
831.08	4900
831.219	4938
831.357	4927
831.496	5124
831.635	4934
831.774	4831
831.913	4892
832.051	4710
832.19	4736
832.329	4816
832.467	4714
832.606	4656
832.744	4668
832.883	4759
833.022	4702
833.16	4729
833.299	4786
833.437	4831
833.576	4824
833.714	4858
833.852	4877
833.991	4870
834.129	4938
834.267	4953
834.406	4915
834.544	4946
834.682	4942
834.821	4972
834.959	5147
835.097	5029
835.235	5098
835.373	5071
835.511	5151
835.65	5037
835.788	4984
835.926	4915
836.064	4919
836.202	4908
836.34	5155
836.478	5201
836.615	5098
836.753	5174
836.891	5239
837.029	5201
837.167	5201
837.305	5178
837.443	5143
837.58	5094
837.718	5254
837.856	5178
837.993	5162
838.131	5197
838.269	5223
838.406	5231
838.544	5185
838.681	4984
838.819	5006
838.956	4881
839.094	4892
839.231	4976
839.369	5064
839.506	5372
839.643	5239
839.781	5037
839.918	5025
840.055	5117
840.193	5071
840.33	5071
840.467	5071
840.604	5132
840.742	5486
840.879	5041
841.016	5060
841.153	5140
841.29	5368
841.427	5345
841.564	5322
841.701	5330
841.838	5269
841.975	5193
842.112	5231
842.249	5071
842.385	5121
842.522	5269
842.659	5162
842.796	5132
842.933	5166
843.069	5147
843.206	5136
843.343	5307
843.479	5265
843.616	5201
843.752	4999
843.889	4987
844.025	5242
844.162	5010
844.298	5143
844.435	5052
844.571	5060
844.708	5174
844.844	5277
844.98	5372
845.117	5284
845.253	5117
845.389	5098
845.525	5170
845.661	5143
845.798	5006
845.934	5113
846.07	5003
846.206	5151
846.342	5246
846.478	5162
846.614	4995
846.75	4904
846.886	4862
847.022	5140
847.158	5037
847.294	5041
847.429	5102
847.565	5071
847.701	5341
847.837	4843
847.972	4797
848.108	4927
848.244	4949
848.379	4793
848.515	4744
848.65	4694
848.786	4740
848.921	4729
849.057	4885
849.192	4911
849.328	4824
849.463	4778
849.598	4820
849.734	4755
849.869	4675
850.004	4584
850.14	4653
850.275	4626
850.41	4538
850.545	4573
850.68	4550
850.815	4592
850.95	4634
851.085	4816
851.22	4744
851.355	4580
851.49	4645
851.625	4607
851.76	4656
851.895	4561
852.03	4565
852.165	4656
852.299	4714
852.434	4809
852.569	4717
852.703	4714
852.838	4847
852.973	4900
853.107	4870
853.242	4767
853.376	4645
853.511	4546
853.645	4649
853.78	4782
853.914	4656
854.048	4656
854.183	4656
854.317	4694
854.451	4771
854.585	4634
854.72	4599
854.854	4748
854.988	4558
855.122	4630
855.256	4500
855.39	4653
855.524	4744
855.658	4725
855.792	4714
855.926	4740
856.06	4748
856.194	4755
856.327	4675
856.461	4542
856.595	4584
856.729	4645
856.862	4717
856.996	4698
857.13	4702
857.263	4714
857.397	4805
857.53	4683
857.664	4660
857.797	4729
857.931	4774
858.064	4691
858.197	4691
858.331	4637
858.464	4577
858.597	4497
858.731	4588
858.864	4611
858.997	4649
859.13	4637
859.263	4687
859.396	4679
859.529	4546
859.662	4550
859.795	4512
859.928	4599
860.061	4752
860.194	4725
860.327	4626
860.46	4546
860.592	4683
860.725	4706
860.858	4733
860.99	4603
861.123	4504
861.256	4516
861.388	4588
861.521	5307
861.653	4440
861.786	4462
861.918	4459
862.05	4481
862.183	4538
862.315	4596
862.447	4611
862.58	4542
862.712	4383
862.844	4306
862.976	4436
863.108	4432
863.24	4759
863.372	4344
863.504	4398
863.636	4375
863.768	4459
863.9	4402
864.032	4303
864.164	4348
864.296	4470
864.428	4603
864.559	4558
864.691	4569
864.823	4569
864.954	4470
865.086	4497
865.217	4417
865.349	4440
865.48	4440
865.612	4436
865.743	4592
865.875	4424
866.006	4417
866.137	4417
866.269	4436
866.4	4424
866.531	4367
866.662	4363
866.793	4390
866.924	4424
867.055	4493
867.186	4432
867.317	4398
867.448	4344
867.579	4344
867.71	4421
867.841	4360
867.972	4413
868.103	4470
868.233	4447
868.364	4413
868.495	4493
868.625	4626
868.756	4706
868.886	4588
869.017	4615
869.147	4782
869.278	4748
869.408	4626
869.539	4622
869.669	4675
869.799	4649
869.929	4721
870.06	4752
870.19	4938
870.32	4896
870.45	4904
870.58	5010
870.71	5045
870.84	5109
870.97	4949
871.1	4850
871.23	5128
871.36	5090
871.489	5037
871.619	5079
871.749	5083
871.879	5128
872.008	5181
872.138	5067
872.267	4965
872.397	4824
872.526	4793
872.656	4767
872.785	4797
872.915	4908
873.044	4987
873.173	4942
873.303	4953
873.432	4927
873.561	4892
873.69	4923
873.819	4854
873.948	4877
874.077	4812
874.206	4778
874.335	4786
874.464	4915
874.593	5052
874.722	4991
874.851	5102
874.979	5090
875.108	5022
875.237	4885
875.365	4885
875.494	4892
875.623	4953
875.751	4778
875.88	4881
876.008	4961
876.136	4980
876.265	5140
876.393	5372
876.521	5246
876.65	5189
876.778	5117
876.906	5003
877.034	4976
877.162	5029
877.29	4961
877.418	5048
877.546	5140
877.674	5006
877.802	4999
877.93	4995
878.058	4889
878.185	4793
878.313	4938
878.441	4919
878.568	4809
878.696	4900
878.824	4976
878.951	4995
879.079	5083
879.206	5273
879.333	5071
879.461	4934
879.588	5003
879.715	5124
879.842	5178
879.97	4972
880.097	4759
880.224	4763
880.351	4759
880.478	4820
880.605	4736
880.732	4782
880.859	5113
880.986	4854
881.112	4908
881.239	4748
881.366	4622
881.493	4634
881.619	4592
881.746	4634
881.872	4607
881.999	4656
882.125	4679
882.252	4793
882.378	4839
882.505	4900
882.631	4790
882.757	4630
882.883	4691
883.01	4790
883.136	4649
883.262	4565
883.388	4573
883.514	4809
883.64	4862
883.766	4831
883.892	4687
884.018	4698
884.143	4877
884.269	5033
884.395	4683
884.52	4672
884.646	4649
884.772	4630
884.897	4542
885.023	4660
885.148	4755
885.274	4877
885.399	4820
885.524	4706
885.65	4679
885.775	4733
885.9	4687
886.025	4805
886.15	4771
886.275	4714
886.4	4679
886.525	4691
886.65	4694
886.775	4729
886.9	4858
887.025	4980
887.149	4805
887.274	4584
887.399	4622
887.523	4580
887.648	4554
887.773	4565
887.897	4793
888.021	4755
888.146	4668
888.27	4793
888.395	4900
888.519	4721
888.643	4790
888.767	4812
888.891	4694
889.015	4561
889.139	4607
889.263	4653
889.387	4744
889.511	4839
889.635	4805
889.759	4622
889.883	4641
890.006	4706
890.13	4824
890.254	4649
890.377	4706
890.501	4500
890.624	4508
890.748	4641
890.871	4538
890.995	4451
891.118	4394
891.241	4573
891.364	4546
891.488	4596
891.611	4519
891.734	4500
891.857	4649
891.98	4580
892.103	4603
892.226	4584
892.349	4535
892.471	4432
892.594	4527
892.717	4649
892.839	4573
892.962	4580
893.085	4668
893.207	4622
893.33	4421
893.452	4504
893.575	4683
893.697	4577
893.819	4763
893.941	4858
894.064	4774
894.186	4607
894.308	4542
894.43	4729
894.552	4744
894.674	4721
894.796	4535
894.918	4588
895.04	4546
895.161	4740
895.283	4634
895.405	4584
895.526	4607
895.648	4694
895.769	4668
895.891	4702
896.012	4721
896.134	4733
896.255	4592
896.376	4622
896.498	4577
896.619	4706
896.74	4599
896.861	4622
896.982	4900
897.103	5071
897.224	4809
897.345	4729
897.466	4653
897.587	4702
897.708	4828
897.828	4828
897.949	4672
898.07	4516
898.19	4634
898.311	4847
898.431	4683
898.552	4687
898.672	4828
898.792	4828
898.913	4778
899.033	4618
899.153	4466
899.273	4428
899.393	4462
899.513	4519
899.633	4516
899.753	4508
899.873	4512
899.993	4592
900.113	4538
900.232	4622
900.352	4527
900.472	4478
900.591	4402
900.711	4474
900.83	4405
900.95	4565
901.069	4637
901.189	4615
901.308	4356
901.427	4325
901.546	4360
901.665	4470
901.784	4470
901.904	4367
902.023	4272
902.141	4188
902.26	4188
902.379	4291
902.498	4234
902.617	4169
902.735	4333
902.854	4371
902.973	4333
903.091	4200
903.21	4211
903.328	4272
903.446	4276
903.565	4257
903.683	4341
903.801	4287
903.919	4402
904.038	4428
904.156	4303
904.274	4413
904.392	4417
904.51	4390
904.627	4470
904.745	4523
904.863	4626
904.981	4383
905.098	4371
905.216	4367
905.334	4459
905.451	4424
905.569	4417
905.686	4596
905.803	4542
905.921	4413
906.038	4527
906.155	4493
906.272	4398
906.389	4478
906.506	4348
906.623	4360
906.74	4352
906.857	4314
906.974	4371
907.091	4523
907.208	4736
907.324	4603
907.441	4470
907.557	4333
907.674	4363
907.79	4337
907.907	4379
908.023	4478
908.139	4447
908.256	4413
908.372	4462
908.488	4436
908.604	4356
908.72	4295
908.836	4356
908.952	4356
909.068	4443
909.184	4599
909.3	4417
909.415	4573
909.531	4558
909.647	4337
909.762	4322
909.878	4314
909.993	4409
910.108	4413
910.224	4402
910.339	4424
910.454	4371
910.57	4363
910.685	4341
910.8	4630
910.915	4592
911.03	4478
911.145	4318
911.259	4295
911.374	4363
911.489	4291
911.604	4257
911.718	4192
911.833	4150
911.947	4086
912.062	4021
912.176	4143
912.291	4204
912.405	4272
912.519	4462
912.633	4497
912.748	4386
912.862	4306
912.976	4150
913.09	4124
913.204	4181
913.318	4303
913.431	4322
913.545	4341
913.659	4428
913.772	4333
913.886	4242
914	4215
914.113	4367
914.226	4409
914.34	4402
914.453	4215
914.566	4481
914.68	4303
914.793	4306
914.906	4150
915.019	4074
915.132	4063
915.245	4196
915.358	4211
915.47	4238
915.583	4272
915.696	4261
915.809	4428
915.921	4413
916.034	4246
916.146	4268
916.259	4227
916.371	4386
916.483	4322
916.595	4268
916.708	4238
916.82	4306
916.932	4379
917.044	4352
917.156	4352
917.268	4200
917.38	4276
917.491	4242
917.603	4306
917.715	4409
917.826	4363
917.938	4390
918.049	4223
918.161	4322
918.272	4508
918.384	4538
918.495	4481
918.606	4268
918.717	4261
918.828	4337
918.939	4325
919.05	4303
919.161	4322
919.272	4090
919.383	4223
919.494	4455
919.604	4618
919.715	4455
919.826	4363
919.936	4386
920.047	4485
920.157	4459
920.267	4649
920.378	4561
920.488	4470
920.598	4702
920.708	4873
920.818	4774
920.928	4717
921.038	4953
921.148	4904
921.258	4622
921.368	4527
921.477	4500
921.587	4443
921.697	4409
921.806	4508
921.916	4440
922.025	4272
922.134	4257
922.244	4249
922.353	4314
922.462	4185
922.571	4150
922.68	4002
922.789	3998
922.898	4021
923.007	4006
923.116	4086
923.224	4067
923.333	4010
923.442	3998
923.55	3983
923.659	4017
923.767	4071
923.876	3979
923.984	4112
924.092	3979
924.201	4044
924.309	4135
924.417	4097
924.525	4044
924.633	4128
924.741	4915
924.849	3953
924.956	4082
925.064	3975
925.172	3896
925.279	3949
925.387	4048
925.494	4055
925.602	4211
925.709	4162
925.816	4036
925.924	4109
926.031	4200
926.138	4158
926.245	4215
926.352	4082
926.459	4230
926.566	4295
926.673	4116
926.779	4074
926.886	4055
926.993	3979
927.099	3968
927.206	3956
927.312	3956
927.419	4071
927.525	4032
927.631	4078
927.737	3972
927.843	3968
927.95	3827
928.056	3945
928.162	3960
928.267	4071
928.373	4679
928.479	4112
928.585	3899
928.69	3983
928.796	4051
928.901	3960
929.007	3869
929.112	4021
929.218	3937
929.323	3926
929.428	3956
929.533	4124
929.638	3926
929.743	3926
929.848	4013
929.953	4010
930.058	3945
930.163	3797
930.267	3835
930.372	3941
930.477	3831
930.581	4063
930.685	3941
930.79	3774
930.894	3857
930.998	3861
931.103	4002
931.207	3713
931.311	3667
931.415	3686
931.519	3507
931.623	3523
