Data from test_V78500241_2523.txt Node
Date: Fri Mar 25 17:06:32 CST 2022
User: usil
Spectrometer: V785-0024
Trigger mode: 0
Integration Time (sec): 4.000000E-1
Scans to average: 1
Nonlinearity correction enabled: false
Boxcar width: 0
Storing dark spectrum: false
XAxis mode: Wavelengths
Number of Pixels in Spectrum: 1024
>>>>>Begin Spectral Data<<<<<
801.071	7959
801.214	8001
801.356	7875
801.499	7811
801.641	7761
801.783	7750
801.926	7940
802.068	7967
802.211	7978
802.353	7993
802.496	7887
802.638	7909
802.78	7860
802.923	7849
803.065	7890
803.208	7883
803.35	7997
803.492	8031
803.635	8100
803.777	8024
803.919	8183
804.061	8434
804.204	8145
804.346	8111
804.488	8020
804.63	8058
804.773	8008
804.915	8187
805.057	8282
805.199	8149
805.341	8225
805.483	8225
805.626	8313
805.768	8123
805.91	8206
806.052	8187
806.194	8084
806.336	8271
806.478	8092
806.62	8062
806.762	8142
806.904	8221
807.046	8507
807.188	8366
807.33	8332
807.472	8324
807.614	8206
807.756	8096
807.898	7993
808.04	7852
808.182	7830
808.324	7890
808.465	7963
808.607	8024
808.749	8107
808.891	8275
809.033	8290
809.174	8206
809.316	8096
809.458	8058
809.6	7989
809.741	8046
809.883	8046
810.025	8134
810.166	8001
810.308	8027
810.45	7974
810.591	7864
810.733	7712
810.875	7727
811.016	7518
811.158	7460
811.299	7651
811.441	7750
811.582	7681
811.724	7567
811.865	7544
812.007	7578
812.148	7628
812.29	7613
812.431	7761
812.573	7890
812.714	8005
812.855	8062
812.997	8206
813.138	8309
813.279	8180
813.421	8130
813.562	8001
813.703	7792
813.845	7738
813.986	7472
814.127	7202
814.268	7198
814.41	7225
814.551	7141
814.692	7209
814.833	7069
814.974	7107
815.115	7137
815.256	6981
815.397	6954
815.539	6943
815.68	6837
815.821	6749
815.962	6844
816.103	6818
816.244	6741
816.385	6677
816.526	6601
816.666	6483
816.807	6254
816.948	6467
817.089	6471
817.23	6429
817.371	6388
817.512	6407
817.653	6395
817.793	6376
817.934	6456
818.075	6441
818.216	6418
818.356	6399
818.497	6262
818.638	6129
818.778	6175
818.919	6136
819.06	6152
819.2	6315
819.341	6357
819.481	6422
819.622	6555
819.762	6684
819.903	6753
820.043	6635
820.184	6589
820.324	6563
820.465	6715
820.605	6681
820.746	6684
820.886	6597
821.026	6669
821.167	6700
821.307	6806
821.447	6859
821.588	6665
821.728	6566
821.868	6578
822.008	6372
822.149	6357
822.289	6380
822.429	6167
822.569	6030
822.709	6114
822.849	5942
822.99	5927
823.13	5889
823.27	5912
823.41	5771
823.55	5847
823.69	5771
823.83	5824
823.97	5695
824.11	5543
824.25	5535
824.389	5573
824.529	5589
824.669	5573
824.809	5573
824.949	5661
825.089	5684
825.228	5566
825.368	5398
825.508	5334
825.648	5311
825.787	5360
825.927	5414
826.067	5307
826.206	5258
826.346	5406
826.485	5398
826.625	5414
826.765	5532
826.904	5493
827.044	5212
827.183	5231
827.323	5151
827.462	5239
827.601	5151
827.741	5197
827.88	5193
828.02	5105
828.159	5242
828.298	5345
828.437	5353
828.577	5277
828.716	5463
828.855	5379
828.994	5121
829.134	5143
829.273	5109
829.412	5159
829.551	5143
829.69	5185
829.829	5258
829.968	5391
830.107	5296
830.246	5277
830.385	5197
830.524	5132
830.663	5067
830.802	4949
830.941	4862
831.08	4908
831.219	4987
831.357	4946
831.496	5189
831.635	4949
831.774	4900
831.913	4847
832.051	4740
832.19	4733
832.329	4816
832.467	4733
832.606	4675
832.744	4706
832.883	4721
833.022	4740
833.16	4828
833.299	4820
833.437	4847
833.576	4828
833.714	4839
833.852	4866
833.991	4896
834.129	4976
834.267	4953
834.406	4866
834.544	4987
834.682	5022
834.821	4938
834.959	5162
835.097	4923
835.235	5178
835.373	5079
835.511	5090
835.65	5052
835.788	4999
835.926	4934
836.064	4885
836.202	4957
836.34	5147
836.478	5216
836.615	5140
836.753	5178
836.891	5269
837.029	5223
837.167	5212
837.305	5166
837.443	5121
837.58	5018
837.718	5242
837.856	5189
837.993	5162
838.131	5178
838.269	5239
838.406	5197
838.544	5178
838.681	5060
838.819	4984
838.956	4930
839.094	4976
839.231	4980
839.369	5090
839.506	5444
839.643	5269
839.781	5010
839.918	5010
840.055	5079
840.193	5121
840.33	5109
840.467	5155
840.604	5185
840.742	5414
840.879	5102
841.016	5067
841.153	5121
841.29	5372
841.427	5337
841.564	5318
841.701	5341
841.838	5326
841.975	5212
842.112	5269
842.249	5121
842.385	5124
842.522	5341
842.659	5155
842.796	5170
842.933	5174
843.069	5109
843.206	5143
843.343	5307
843.479	5239
843.616	5292
843.752	4995
843.889	5003
844.025	5254
844.162	5086
844.298	5185
844.435	5003
844.571	5041
844.708	5197
844.844	5353
844.98	5402
845.117	5322
845.253	5143
845.389	5128
845.525	5250
845.661	5121
845.798	5025
845.934	5098
846.07	5045
846.206	5181
846.342	5292
846.478	5181
846.614	4999
846.75	4957
846.886	4942
847.022	5132
847.158	4995
847.294	5022
847.429	5140
847.565	5071
847.701	5334
847.837	4843
847.972	4831
848.108	4965
848.244	4972
848.379	4771
848.515	4752
848.65	4729
848.786	4733
848.921	4786
849.057	4828
849.192	4862
849.328	4824
849.463	4862
849.598	4748
849.734	4740
849.869	4721
850.004	4626
850.14	4683
850.275	4558
850.41	4535
850.545	4546
850.68	4611
850.815	4596
850.95	4645
851.085	4790
851.22	4679
851.355	4611
851.49	4611
851.625	4618
851.76	4641
851.895	4565
852.03	4531
852.165	4653
852.299	4717
852.434	4782
852.569	4721
852.703	4797
852.838	4839
852.973	4987
853.107	4911
853.242	4729
853.376	4717
853.511	4523
853.645	4622
853.78	4797
853.914	4649
854.048	4630
854.183	4611
854.317	4691
854.451	4847
854.585	4653
854.72	4649
854.854	4733
854.988	4611
855.122	4615
855.256	4538
855.39	4687
855.524	4790
855.658	4748
855.792	4702
855.926	4767
856.06	4736
856.194	4797
856.327	4672
856.461	4618
856.595	4653
856.729	4675
856.862	4759
856.996	4729
857.13	4733
857.263	4714
857.397	4809
857.53	4672
857.664	4729
857.797	4812
857.931	4812
858.064	4683
858.197	4710
858.331	4637
858.464	4615
858.597	4516
858.731	4645
858.864	4596
858.997	4596
859.13	4660
859.263	4634
859.396	4710
859.529	4558
859.662	4565
859.795	4508
859.928	4630
860.061	4778
860.194	4774
860.327	4596
860.46	4580
860.592	4679
860.725	4736
860.858	4714
860.99	4588
861.123	4523
861.256	4508
861.388	4618
861.521	5235
861.653	4440
861.786	4447
861.918	4436
862.05	4497
862.183	4550
862.315	4615
862.447	4611
862.58	4546
862.712	4440
862.844	4291
862.976	4443
863.108	4451
863.24	4782
863.372	4329
863.504	4383
863.636	4428
863.768	4516
863.9	4386
864.032	4352
864.164	4383
864.296	4474
864.428	4588
864.559	4527
864.691	4546
864.823	4523
864.954	4512
865.086	4508
865.217	4481
865.349	4405
865.48	4504
865.612	4443
865.743	4630
865.875	4512
866.006	4466
866.137	4497
866.269	4455
866.4	4440
866.531	4390
866.662	4440
866.793	4383
866.924	4398
867.055	4519
867.186	4383
867.317	4398
867.448	4379
867.579	4383
867.71	4337
867.841	4398
867.972	4485
868.103	4474
868.233	4474
868.364	4459
868.495	4474
868.625	4675
868.756	4717
868.886	4596
869.017	4618
869.147	4748
869.278	4771
869.408	4679
869.539	4660
869.669	4740
869.799	4706
869.929	4816
870.06	4774
870.19	4934
870.32	4965
870.45	4949
870.58	4991
870.71	5052
870.84	5067
870.97	4987
871.1	4934
871.23	5151
871.36	5079
871.489	4965
871.619	5105
871.749	5124
871.879	5140
872.008	5197
872.138	5064
872.267	4991
872.397	4839
872.526	4805
872.656	4744
872.785	4831
872.915	4957
873.044	5029
873.173	4949
873.303	4889
873.432	4991
873.561	4919
873.69	4862
873.819	4843
873.948	4919
874.077	4812
874.206	4767
874.335	4744
874.464	4896
874.593	5071
874.722	4938
874.851	5132
874.979	5045
875.108	5056
875.237	4923
875.365	4877
875.494	4938
875.623	4976
875.751	4877
875.88	4923
876.008	4984
876.136	5094
876.265	5204
876.393	5376
876.521	5292
876.65	5231
876.778	5155
876.906	5098
877.034	4957
877.162	5067
877.29	4968
877.418	5018
877.546	5033
877.674	5094
877.802	5029
877.93	5014
878.058	4953
878.185	4885
878.313	4953
878.441	4984
878.568	4790
878.696	4873
878.824	4961
878.951	4991
879.079	5147
879.206	5299
879.333	5098
879.461	4961
879.588	4995
879.715	5090
879.842	5231
879.97	5048
880.097	4797
880.224	4736
880.351	4820
880.478	4809
880.605	4763
880.732	4801
880.859	5113
880.986	4820
881.112	4900
881.239	4790
881.366	4660
881.493	4607
881.619	4637
881.746	4634
881.872	4656
881.999	4656
882.125	4702
882.252	4774
882.378	4873
882.505	4930
882.631	4797
882.757	4687
882.883	4755
883.01	4771
883.136	4668
883.262	4618
883.388	4611
883.514	4809
883.64	4805
883.766	4771
883.892	4637
884.018	4706
884.143	4904
884.269	4961
884.395	4660
884.52	4653
884.646	4649
884.772	4599
884.897	4527
885.023	4702
885.148	4733
885.274	4854
885.399	4820
885.524	4702
885.65	4714
885.775	4733
885.9	4706
886.025	4847
886.15	4774
886.275	4660
886.4	4641
886.525	4706
886.65	4641
886.775	4725
886.9	4858
887.025	5033
887.149	4812
887.274	4641
887.399	4588
887.523	4592
887.648	4550
887.773	4538
887.897	4733
888.021	4755
888.146	4694
888.27	4797
888.395	4896
888.519	4797
888.643	4809
888.767	4805
888.891	4698
889.015	4641
889.139	4672
889.263	4588
889.387	4759
889.511	4820
889.635	4717
889.759	4618
889.883	4710
890.006	4687
890.13	4820
890.254	4641
890.377	4687
890.501	4546
890.624	4546
890.748	4603
890.871	4504
890.995	4451
891.118	4405
891.241	4466
891.364	4523
891.488	4649
891.611	4508
891.734	4519
891.857	4607
891.98	4527
892.103	4645
892.226	4565
892.349	4573
892.471	4459
892.594	4569
892.717	4626
892.839	4615
892.962	4573
893.085	4607
893.207	4611
893.33	4451
893.452	4519
893.575	4630
893.697	4531
893.819	4763
893.941	4816
894.064	4771
894.186	4588
894.308	4596
894.43	4755
894.552	4828
894.674	4759
894.796	4542
894.918	4588
895.04	4569
895.161	4736
895.283	4641
895.405	4580
895.526	4645
895.648	4752
895.769	4687
895.891	4694
896.012	4710
896.134	4733
896.255	4660
896.376	4641
896.498	4622
896.619	4744
896.74	4679
896.861	4637
896.982	4866
897.103	5098
897.224	4847
897.345	4736
897.466	4694
897.587	4729
897.708	4835
897.828	4778
897.949	4687
898.07	4531
898.19	4675
898.311	4812
898.431	4664
898.552	4752
898.672	4771
898.792	4763
898.913	4721
899.033	4641
899.153	4531
899.273	4440
899.393	4535
899.513	4577
899.633	4538
899.753	4558
899.873	4538
899.993	4592
900.113	4546
900.232	4580
900.352	4535
900.472	4500
900.591	4413
900.711	4451
900.83	4478
900.95	4588
901.069	4653
901.189	4531
901.308	4421
901.427	4337
901.546	4386
901.665	4440
901.784	4474
901.904	4413
902.023	4337
902.141	4173
902.26	4135
902.379	4299
902.498	4223
902.617	4219
902.735	4356
902.854	4371
902.973	4360
903.091	4219
903.21	4238
903.328	4276
903.446	4265
903.565	4242
903.683	4352
903.801	4234
903.919	4341
904.038	4417
904.156	4363
904.274	4436
904.392	4436
904.51	4375
904.627	4470
904.745	4565
904.863	4664
904.981	4432
905.098	4287
905.216	4360
905.334	4409
905.451	4459
905.569	4443
905.686	4584
905.803	4569
905.921	4402
906.038	4538
906.155	4478
906.272	4402
906.389	4493
906.506	4386
906.623	4306
906.74	4428
906.857	4352
906.974	4344
907.091	4535
907.208	4672
907.324	4561
907.441	4500
907.557	4341
907.674	4367
907.79	4306
907.907	4337
908.023	4485
908.139	4470
908.256	4405
908.372	4451
908.488	4474
908.604	4341
908.72	4383
908.836	4394
908.952	4341
909.068	4413
909.184	4554
909.3	4470
909.415	4558
909.531	4542
909.647	4360
909.762	4344
909.878	4299
909.993	4432
910.108	4402
910.224	4424
910.339	4451
910.454	4375
910.57	4333
910.685	4306
910.8	4626
910.915	4577
911.03	4519
911.145	4344
911.259	4333
911.374	4329
911.489	4295
911.604	4295
911.718	4196
911.833	4253
911.947	4078
912.062	3994
912.176	4242
912.291	4268
912.405	4211
912.519	4466
912.633	4466
912.748	4379
912.862	4310
912.976	4211
913.09	4105
913.204	4143
913.318	4280
913.431	4325
913.545	4375
913.659	4421
913.772	4375
913.886	4219
914	4257
914.113	4375
914.226	4424
914.34	4344
914.453	4246
914.566	4474
914.68	4314
914.793	4333
914.906	4188
915.019	4139
915.132	4082
915.245	4169
915.358	4207
915.47	4246
915.583	4310
915.696	4268
915.809	4375
915.921	4421
916.034	4253
916.146	4253
916.259	4196
916.371	4363
916.483	4348
916.595	4242
916.708	4386
916.82	4348
916.932	4306
917.044	4299
917.156	4329
917.268	4238
917.38	4303
917.491	4276
917.603	4333
917.715	4455
917.826	4462
917.938	4390
918.049	4219
918.161	4402
918.272	4542
918.384	4497
918.495	4421
918.606	4242
918.717	4246
918.828	4348
918.939	4360
919.05	4280
919.161	4291
919.272	4169
919.383	4261
919.494	4409
919.604	4637
919.715	4440
919.826	4390
919.936	4386
920.047	4554
920.157	4424
920.267	4687
920.378	4500
920.488	4481
920.598	4740
920.708	4885
920.818	4725
920.928	4752
921.038	4915
921.148	4919
921.258	4603
921.368	4584
921.477	4481
921.587	4459
921.697	4390
921.806	4546
921.916	4386
922.025	4280
922.134	4291
922.244	4196
922.353	4337
922.462	4200
922.571	4158
922.68	4021
922.789	3964
922.898	4040
923.007	4013
923.116	4067
923.224	4071
923.333	4071
923.442	3987
923.55	3987
923.659	4036
923.767	4067
923.876	4010
923.984	4112
924.092	4006
924.201	4131
924.309	4063
924.417	4116
924.525	4082
924.633	4116
924.741	5048
924.849	3934
924.956	4139
925.064	3941
925.172	3930
925.279	3941
925.387	4078
925.494	4006
925.602	4215
925.709	4185
925.816	4051
925.924	4059
926.031	4246
926.138	4120
926.245	4230
926.352	4040
926.459	4238
926.566	4280
926.673	4124
926.779	4082
926.886	4032
926.993	3968
927.099	3975
927.206	3956
927.312	3949
927.419	4101
927.525	4010
927.631	4048
927.737	3964
927.843	3941
927.95	3838
928.056	3918
928.162	4013
928.267	4055
928.373	4584
928.479	4139
928.585	3869
928.69	4021
928.796	4082
928.901	3949
929.007	3838
929.112	3998
929.218	3991
929.323	3926
929.428	3945
929.533	4116
929.638	3899
929.743	3968
929.848	4017
929.953	3972
930.058	3896
930.163	3785
930.267	3861
930.372	3937
930.477	3846
930.581	4112
930.685	3918
930.79	3857
930.894	3896
930.998	3838
931.103	4017
931.207	3690
931.311	3675
931.415	3667
931.519	3496
931.623	3530
