Data from test_V78500241_1235.txt Node
Date: Fri Mar 25 16:57:35 CST 2022
User: usil
Spectrometer: V785-0024
Trigger mode: 0
Integration Time (sec): 4.000000E-1
Scans to average: 1
Nonlinearity correction enabled: false
Boxcar width: 0
Storing dark spectrum: false
XAxis mode: Wavelengths
Number of Pixels in Spectrum: 1024
>>>>>Begin Spectral Data<<<<<
801.071	8001
801.214	7963
801.356	7841
801.499	7849
801.641	7753
801.783	7807
801.926	7970
802.068	7932
802.211	7986
802.353	7947
802.496	7887
802.638	7871
802.78	7898
802.923	8005
803.065	7849
803.208	7883
803.35	7932
803.492	8069
803.635	8123
803.777	8081
803.919	8225
804.061	8419
804.204	8168
804.346	8130
804.488	7963
804.63	8088
804.773	7993
804.915	8088
805.057	8275
805.199	8157
805.341	8180
805.483	8328
805.626	8221
805.768	8172
805.91	8229
806.052	8180
806.194	8138
806.336	8275
806.478	8073
806.62	8069
806.762	8153
806.904	8244
807.046	8442
807.188	8377
807.33	8290
807.472	8286
807.614	8126
807.756	8138
807.898	8027
808.04	7902
808.182	7940
808.324	7932
808.465	8001
808.607	8088
808.749	8103
808.891	8172
809.033	8206
809.174	8187
809.316	8031
809.458	8077
809.6	8012
809.741	8031
809.883	7993
810.025	8058
810.166	8081
810.308	8027
810.45	7978
810.591	7890
810.733	7670
810.875	7700
811.016	7548
811.158	7533
811.299	7556
811.441	7757
811.582	7712
811.724	7567
811.865	7525
812.007	7514
812.148	7582
812.29	7609
812.431	7731
812.573	7852
812.714	8012
812.855	8115
812.997	8244
813.138	8381
813.279	8187
813.421	8111
813.562	8027
813.703	7845
813.845	7776
813.986	7483
814.127	7228
814.268	7251
814.41	7175
814.551	7156
814.692	7202
814.833	7095
814.974	7046
815.115	7114
815.256	6954
815.397	6939
815.539	7000
815.68	6798
815.821	6772
815.962	6848
816.103	6814
816.244	6764
816.385	6616
816.526	6620
816.666	6464
816.807	6308
816.948	6460
817.089	6513
817.23	6486
817.371	6391
817.512	6414
817.653	6418
817.793	6403
817.934	6395
818.075	6475
818.216	6437
818.356	6395
818.497	6213
818.638	6121
818.778	6129
818.919	6110
819.06	6144
819.2	6273
819.341	6334
819.481	6281
819.622	6547
819.762	6715
819.903	6703
820.043	6635
820.184	6623
820.324	6559
820.465	6726
820.605	6654
820.746	6627
820.886	6460
821.026	6662
821.167	6658
821.307	6741
821.447	6741
821.588	6646
821.728	6536
821.868	6483
822.008	6285
822.149	6414
822.289	6270
822.429	6136
822.569	6148
822.709	6121
822.849	5950
822.99	5920
823.13	5847
823.27	5950
823.41	5718
823.55	5786
823.69	5779
823.83	5745
823.97	5627
824.11	5551
824.25	5516
824.389	5551
824.529	5570
824.669	5562
824.809	5627
824.949	5630
825.089	5634
825.228	5516
825.368	5376
825.508	5341
825.648	5326
825.787	5357
825.927	5379
826.067	5261
826.206	5265
826.346	5398
826.485	5376
826.625	5410
826.765	5539
826.904	5459
827.044	5227
827.183	5235
827.323	5128
827.462	5273
827.601	5162
827.741	5193
827.88	5185
828.02	5121
828.159	5166
828.298	5277
828.437	5280
828.577	5269
828.716	5486
828.855	5311
828.994	5121
829.134	5113
829.273	5159
829.412	5124
829.551	5113
829.69	5147
829.829	5235
829.968	5341
830.107	5235
830.246	5261
830.385	5121
830.524	5105
830.663	5079
830.802	4984
830.941	4877
831.08	4900
831.219	4949
831.357	4946
831.496	5162
831.635	4908
831.774	4812
831.913	4805
832.051	4717
832.19	4714
832.329	4797
832.467	4672
832.606	4596
832.744	4717
832.883	4672
833.022	4733
833.16	4809
833.299	4820
833.437	4759
833.576	4831
833.714	4805
833.852	4816
833.991	4873
834.129	4980
834.267	4927
834.406	4904
834.544	4987
834.682	4923
834.821	4934
834.959	5155
835.097	4980
835.235	5140
835.373	5041
835.511	5090
835.65	5006
835.788	4984
835.926	4881
836.064	4824
836.202	4881
836.34	5105
836.478	5204
836.615	5151
836.753	5223
836.891	5280
837.029	5273
837.167	5136
837.305	5174
837.443	5162
837.58	5083
837.718	5265
837.856	5143
837.993	5109
838.131	5223
838.269	5204
838.406	5189
838.544	5170
838.681	5006
838.819	4999
838.956	4923
839.094	4915
839.231	4991
839.369	5086
839.506	5414
839.643	5303
839.781	5025
839.918	5014
840.055	5143
840.193	5117
840.33	5041
840.467	5124
840.604	5155
840.742	5459
840.879	5060
841.016	5052
841.153	5140
841.29	5322
841.427	5303
841.564	5341
841.701	5326
841.838	5235
841.975	5174
842.112	5258
842.249	5162
842.385	5083
842.522	5345
842.659	5220
842.796	5170
842.933	5197
843.069	5113
843.206	5166
843.343	5269
843.479	5178
843.616	5239
843.752	5033
843.889	4957
844.025	5227
844.162	5037
844.298	5193
844.435	5052
844.571	5071
844.708	5235
844.844	5265
844.98	5265
845.117	5250
845.253	5109
845.389	5071
845.525	5162
845.661	5140
845.798	5022
845.934	5147
846.07	5045
846.206	5197
846.342	5258
846.478	5155
846.614	5010
846.75	4946
846.886	4961
847.022	5132
847.158	4987
847.294	5022
847.429	5094
847.565	5067
847.701	5322
847.837	4862
847.972	4835
848.108	4934
848.244	4911
848.379	4778
848.515	4725
848.65	4694
848.786	4771
848.921	4744
849.057	4858
849.192	4881
849.328	4831
849.463	4771
849.598	4793
849.734	4774
849.869	4668
850.004	4558
850.14	4683
850.275	4615
850.41	4550
850.545	4588
850.68	4599
850.815	4611
850.95	4622
851.085	4828
851.22	4744
851.355	4649
851.49	4588
851.625	4584
851.76	4626
851.895	4516
852.03	4527
852.165	4653
852.299	4702
852.434	4767
852.569	4748
852.703	4755
852.838	4870
852.973	4904
853.107	4900
853.242	4759
853.376	4615
853.511	4531
853.645	4561
853.78	4774
853.914	4645
854.048	4702
854.183	4645
854.317	4679
854.451	4805
854.585	4698
854.72	4660
854.854	4706
854.988	4573
855.122	4626
855.256	4538
855.39	4664
855.524	4748
855.658	4672
855.792	4675
855.926	4729
856.06	4721
856.194	4771
856.327	4679
856.461	4569
856.595	4561
856.729	4584
856.862	4721
856.996	4675
857.13	4706
857.263	4752
857.397	4782
857.53	4660
857.664	4672
857.797	4752
857.931	4767
858.064	4668
858.197	4759
858.331	4611
858.464	4592
858.597	4516
858.731	4584
858.864	4607
858.997	4637
859.13	4630
859.263	4656
859.396	4706
859.529	4554
859.662	4607
859.795	4599
859.928	4630
860.061	4778
860.194	4755
860.327	4599
860.46	4558
860.592	4710
860.725	4729
860.858	4683
860.99	4599
861.123	4512
861.256	4500
861.388	4622
861.521	5246
861.653	4455
861.786	4424
861.918	4462
862.05	4519
862.183	4516
862.315	4531
862.447	4637
862.58	4535
862.712	4440
862.844	4325
862.976	4497
863.108	4447
863.24	4877
863.372	4318
863.504	4428
863.636	4398
863.768	4504
863.9	4417
864.032	4379
864.164	4421
864.296	4466
864.428	4527
864.559	4546
864.691	4478
864.823	4527
864.954	4470
865.086	4485
865.217	4451
865.349	4341
865.48	4417
865.612	4519
865.743	4611
865.875	4474
866.006	4383
866.137	4459
866.269	4436
866.4	4447
866.531	4375
866.662	4417
866.793	4348
866.924	4405
867.055	4489
867.186	4451
867.317	4421
867.448	4329
867.579	4371
867.71	4394
867.841	4394
867.972	4466
868.103	4485
868.233	4462
868.364	4447
868.495	4478
868.625	4653
868.756	4771
868.886	4577
869.017	4618
869.147	4767
869.278	4771
869.408	4653
869.539	4668
869.669	4702
869.799	4641
869.929	4694
870.06	4744
870.19	4972
870.32	4942
870.45	4957
870.58	4980
870.71	5071
870.84	5071
870.97	4919
871.1	4915
871.23	5136
871.36	5052
871.489	4980
871.619	5010
871.749	5098
871.879	5159
872.008	5181
872.138	5029
872.267	4961
872.397	4839
872.526	4801
872.656	4706
872.785	4729
872.915	4961
873.044	5060
873.173	4904
873.303	4911
873.432	4968
873.561	4957
873.69	4843
873.819	4870
873.948	4870
874.077	4763
874.206	4740
874.335	4767
874.464	4927
874.593	5025
874.722	4908
874.851	5109
874.979	5022
875.108	5045
875.237	4919
875.365	4877
875.494	4873
875.623	4972
875.751	4790
875.88	4881
876.008	4949
876.136	5010
876.265	5178
876.393	5353
876.521	5208
876.65	5201
876.778	5124
876.906	5079
877.034	5010
877.162	5064
877.29	5010
877.418	5037
877.546	5029
877.674	5041
877.802	5041
877.93	4991
878.058	4934
878.185	4862
878.313	4900
878.441	4942
878.568	4812
878.696	4892
878.824	4927
878.951	4949
879.079	5121
879.206	5280
879.333	5094
879.461	4965
879.588	4987
879.715	5105
879.842	5170
879.97	5025
880.097	4748
880.224	4748
880.351	4786
880.478	4854
880.605	4748
880.732	4790
880.859	5102
880.986	4870
881.112	4892
881.239	4717
881.366	4653
881.493	4599
881.619	4596
881.746	4653
881.872	4622
881.999	4653
882.125	4672
882.252	4759
882.378	4831
882.505	4911
882.631	4839
882.757	4660
882.883	4729
883.01	4691
883.136	4641
883.262	4554
883.388	4607
883.514	4820
883.64	4835
883.766	4812
883.892	4649
884.018	4706
884.143	4915
884.269	4976
884.395	4748
884.52	4626
884.646	4649
884.772	4569
884.897	4542
885.023	4675
885.148	4767
885.274	4824
885.399	4801
885.524	4778
885.65	4607
885.775	4729
885.9	4668
886.025	4850
886.15	4767
886.275	4717
886.4	4649
886.525	4710
886.65	4721
886.775	4691
886.9	4881
887.025	5010
887.149	4812
887.274	4622
887.399	4554
887.523	4599
887.648	4550
887.773	4565
887.897	4759
888.021	4793
888.146	4664
888.27	4809
888.395	4847
888.519	4793
888.643	4782
888.767	4881
888.891	4664
889.015	4603
889.139	4607
889.263	4641
889.387	4748
889.511	4858
889.635	4782
889.759	4656
889.883	4599
890.006	4733
890.13	4831
890.254	4611
890.377	4618
890.501	4535
890.624	4519
890.748	4622
890.871	4493
890.995	4428
891.118	4379
891.241	4519
891.364	4508
891.488	4641
891.611	4512
891.734	4538
891.857	4592
891.98	4584
892.103	4675
892.226	4565
892.349	4546
892.471	4398
892.594	4554
892.717	4588
892.839	4641
892.962	4554
893.085	4649
893.207	4615
893.33	4470
893.452	4523
893.575	4683
893.697	4577
893.819	4733
893.941	4797
894.064	4782
894.186	4523
894.308	4569
894.43	4706
894.552	4793
894.674	4721
894.796	4497
894.918	4569
895.04	4577
895.161	4687
895.283	4634
895.405	4607
895.526	4618
895.648	4645
895.769	4649
895.891	4710
896.012	4725
896.134	4710
896.255	4694
896.376	4656
896.498	4603
896.619	4656
896.74	4584
896.861	4637
896.982	4904
897.103	5022
897.224	4805
897.345	4740
897.466	4626
897.587	4710
897.708	4835
897.828	4805
897.949	4618
898.07	4550
898.19	4675
898.311	4831
898.431	4675
898.552	4702
898.672	4805
898.792	4793
898.913	4733
899.033	4607
899.153	4493
899.273	4451
899.393	4504
899.513	4504
899.633	4504
899.753	4478
899.873	4481
899.993	4554
900.113	4531
900.232	4588
900.352	4550
900.472	4470
900.591	4394
900.711	4516
900.83	4383
900.95	4618
901.069	4679
901.189	4535
901.308	4371
901.427	4299
901.546	4436
901.665	4497
901.784	4497
901.904	4333
902.023	4318
902.141	4185
902.26	4143
902.379	4268
902.498	4265
902.617	4215
902.735	4383
902.854	4379
902.973	4367
903.091	4204
903.21	4192
903.328	4314
903.446	4272
903.565	4253
903.683	4390
903.801	4314
903.919	4375
904.038	4424
904.156	4352
904.274	4405
904.392	4398
904.51	4421
904.627	4466
904.745	4561
904.863	4622
904.981	4421
905.098	4303
905.216	4341
905.334	4413
905.451	4459
905.569	4432
905.686	4500
905.803	4565
905.921	4436
906.038	4577
906.155	4481
906.272	4417
906.389	4443
906.506	4367
906.623	4329
906.74	4402
906.857	4295
906.974	4356
907.091	4508
907.208	4706
907.324	4577
907.441	4451
907.557	4337
907.674	4348
907.79	4314
907.907	4394
908.023	4440
908.139	4489
908.256	4383
908.372	4459
908.488	4455
908.604	4375
908.72	4325
908.836	4386
908.952	4402
909.068	4417
909.184	4550
909.3	4462
909.415	4554
909.531	4558
909.647	4360
909.762	4367
909.878	4329
909.993	4424
910.108	4394
910.224	4390
910.339	4470
910.454	4417
910.57	4325
910.685	4280
910.8	4668
910.915	4584
911.03	4527
911.145	4310
911.259	4322
911.374	4348
911.489	4295
911.604	4284
911.718	4181
911.833	4158
911.947	4025
912.062	4063
912.176	4135
912.291	4227
912.405	4211
912.519	4436
912.633	4516
912.748	4333
912.862	4295
912.976	4234
913.09	4101
913.204	4204
913.318	4234
913.431	4367
913.545	4318
913.659	4424
913.772	4337
913.886	4215
914	4215
914.113	4398
914.226	4371
914.34	4375
914.453	4227
914.566	4383
914.68	4337
914.793	4299
914.906	4124
915.019	4154
915.132	4036
915.245	4192
915.358	4257
915.47	4219
915.583	4211
915.696	4299
915.809	4356
915.921	4428
916.034	4242
916.146	4242
916.259	4253
916.371	4360
916.483	4367
916.595	4253
916.708	4299
916.82	4295
916.932	4329
917.044	4348
917.156	4314
917.268	4238
917.38	4215
917.491	4265
917.603	4337
917.715	4440
917.826	4440
917.938	4375
918.049	4234
918.161	4402
918.272	4497
918.384	4519
918.495	4432
918.606	4272
918.717	4223
918.828	4344
918.939	4383
919.05	4219
919.161	4280
919.272	4120
919.383	4207
919.494	4443
919.604	4637
919.715	4390
919.826	4341
919.936	4405
920.047	4538
920.157	4489
920.267	4653
920.378	4516
920.488	4565
920.598	4748
920.708	4866
920.818	4744
920.928	4748
921.038	4938
921.148	4892
921.258	4611
921.368	4561
921.477	4451
921.587	4459
921.697	4356
921.806	4542
921.916	4459
922.025	4257
922.134	4249
922.244	4169
922.353	4280
922.462	4169
922.571	4093
922.68	4025
922.789	3926
922.898	4044
923.007	3979
923.116	4120
923.224	4048
923.333	4059
923.442	3945
923.55	4002
923.659	4055
923.767	4074
923.876	4002
923.984	4082
924.092	3998
924.201	4090
924.309	4082
924.417	4112
924.525	4032
924.633	4101
924.741	4991
924.849	3922
924.956	4120
925.064	3968
925.172	3918
925.279	3892
925.387	4055
925.494	3998
925.602	4211
925.709	4181
925.816	4036
925.924	4169
926.031	4253
926.138	4154
926.245	4211
926.352	4074
926.459	4268
926.566	4280
926.673	4124
926.779	4059
926.886	4071
926.993	3953
927.099	3960
927.206	3903
927.312	3937
927.419	4086
927.525	3987
927.631	4128
927.737	3964
927.843	3964
927.95	3831
928.056	3972
928.162	3987
928.267	4032
928.373	4687
928.479	4105
928.585	3857
928.69	4025
928.796	4078
928.901	3956
929.007	3842
929.112	4021
929.218	3956
929.323	3930
929.428	3949
929.533	4093
929.638	3865
929.743	3998
929.848	4010
929.953	3979
930.058	3922
930.163	3793
930.267	3827
930.372	3956
930.477	3778
930.581	4055
930.685	3911
930.79	3800
930.894	3911
930.998	3865
931.103	4044
931.207	3698
931.311	3728
931.415	3656
931.519	3492
931.623	3530
