Data from test_V78500241_1473.txt Node
Date: Fri Mar 25 16:59:14 CST 2022
User: usil
Spectrometer: V785-0024
Trigger mode: 0
Integration Time (sec): 4.000000E-1
Scans to average: 1
Nonlinearity correction enabled: false
Boxcar width: 0
Storing dark spectrum: false
XAxis mode: Wavelengths
Number of Pixels in Spectrum: 1024
>>>>>Begin Spectral Data<<<<<
801.071	8016
801.214	7970
801.356	7864
801.499	7890
801.641	7765
801.783	7826
801.926	7970
802.068	7902
802.211	7959
802.353	8027
802.496	7845
802.638	7822
802.78	7875
802.923	7963
803.065	7803
803.208	7837
803.35	7970
803.492	8084
803.635	8164
803.777	8039
803.919	8142
804.061	8438
804.204	8164
804.346	8024
804.488	7993
804.63	8103
804.773	8024
804.915	8092
805.057	8298
805.199	8206
805.341	8172
805.483	8252
805.626	8256
805.768	8164
805.91	8199
806.052	8256
806.194	8103
806.336	8202
806.478	8035
806.62	8050
806.762	8130
806.904	8252
807.046	8514
807.188	8332
807.33	8305
807.472	8355
807.614	8180
807.756	8134
807.898	7921
808.04	7890
808.182	7871
808.324	7833
808.465	7913
808.607	8043
808.749	8130
808.891	8153
809.033	8259
809.174	8157
809.316	8024
809.458	8069
809.6	7925
809.741	8069
809.883	7986
810.025	8024
810.166	8054
810.308	8024
810.45	8012
810.591	7811
810.733	7677
810.875	7643
811.016	7518
811.158	7426
811.299	7537
811.441	7723
811.582	7658
811.724	7597
811.865	7502
812.007	7586
812.148	7514
812.29	7616
812.431	7750
812.573	7917
812.714	7932
812.855	8069
812.997	8157
813.138	8263
813.279	8199
813.421	8084
813.562	7982
813.703	7772
813.845	7727
813.986	7407
814.127	7244
814.268	7187
814.41	7160
814.551	7190
814.692	7217
814.833	7141
814.974	7072
815.115	7069
815.256	6928
815.397	6878
815.539	6935
815.68	6806
815.821	6711
815.962	6825
816.103	6798
816.244	6700
816.385	6639
816.526	6635
816.666	6521
816.807	6319
816.948	6471
817.089	6418
817.23	6391
817.371	6369
817.512	6407
817.653	6350
817.793	6357
817.934	6384
818.075	6422
818.216	6483
818.356	6376
818.497	6247
818.638	6110
818.778	6095
818.919	6125
819.06	6129
819.2	6388
819.341	6304
819.481	6315
819.622	6525
819.762	6677
819.903	6741
820.043	6646
820.184	6555
820.324	6597
820.465	6707
820.605	6722
820.746	6669
820.886	6536
821.026	6631
821.167	6688
821.307	6798
821.447	6772
821.588	6684
821.728	6604
821.868	6464
822.008	6289
822.149	6403
822.289	6388
822.429	6182
822.569	6129
822.709	6167
822.849	5920
822.99	5855
823.13	5939
823.27	5893
823.41	5824
823.55	5798
823.69	5790
823.83	5760
823.97	5649
824.11	5535
824.25	5520
824.389	5608
824.529	5585
824.669	5558
824.809	5661
824.949	5722
825.089	5684
825.228	5596
825.368	5440
825.508	5349
825.648	5391
825.787	5383
825.927	5410
826.067	5376
826.206	5307
826.346	5425
826.485	5497
826.625	5364
826.765	5566
826.904	5478
827.044	5273
827.183	5174
827.323	5140
827.462	5330
827.601	5189
827.741	5258
827.88	5258
828.02	5121
828.159	5280
828.298	5360
828.437	5360
828.577	5307
828.716	5490
828.855	5330
828.994	5204
829.134	5174
829.273	5273
829.412	5170
829.551	5204
829.69	5242
829.829	5345
829.968	5395
830.107	5242
830.246	5337
830.385	5220
830.524	5166
830.663	5132
830.802	5025
830.941	4915
831.08	4850
831.219	5003
831.357	5048
831.496	5162
831.635	4965
831.774	4877
831.913	4881
832.051	4790
832.19	4782
832.329	4858
832.467	4736
832.606	4694
832.744	4759
832.883	4725
833.022	4759
833.16	4786
833.299	4881
833.437	4900
833.576	4854
833.714	4885
833.852	4873
833.991	4866
834.129	5003
834.267	5003
834.406	4923
834.544	5018
834.682	5003
834.821	5018
834.959	5197
835.097	5014
835.235	5189
835.373	5094
835.511	5113
835.65	5029
835.788	5083
835.926	4911
836.064	4900
836.202	4904
836.34	5136
836.478	5227
836.615	5140
836.753	5208
836.891	5315
837.029	5307
837.167	5212
837.305	5223
837.443	5136
837.58	5086
837.718	5250
837.856	5246
837.993	5140
838.131	5277
838.269	5231
838.406	5258
838.544	5162
838.681	5094
838.819	5048
838.956	4877
839.094	4919
839.231	4995
839.369	5143
839.506	5459
839.643	5299
839.781	5098
839.918	5022
840.055	5140
840.193	5128
840.33	5140
840.467	5181
840.604	5231
840.742	5440
840.879	5075
841.016	5094
841.153	5181
841.29	5372
841.427	5345
841.564	5337
841.701	5376
841.838	5277
841.975	5254
842.112	5315
842.249	5151
842.385	5109
842.522	5258
842.659	5223
842.796	5189
842.933	5227
843.069	5155
843.206	5132
843.343	5318
843.479	5239
843.616	5288
843.752	5086
843.889	5041
844.025	5261
844.162	5041
844.298	5189
844.435	5083
844.571	5048
844.708	5239
844.844	5353
844.98	5326
845.117	5387
845.253	5151
845.389	5143
845.525	5181
845.661	5117
845.798	5048
845.934	5128
846.07	5128
846.206	5220
846.342	5349
846.478	5223
846.614	5037
846.75	5010
846.886	4942
847.022	5239
847.158	5014
847.294	5098
847.429	5117
847.565	5029
847.701	5330
847.837	4854
847.972	4870
848.108	4930
848.244	4911
848.379	4767
848.515	4767
848.65	4729
848.786	4736
848.921	4828
849.057	4839
849.192	4873
849.328	4828
849.463	4927
849.598	4839
849.734	4774
849.869	4668
850.004	4683
850.14	4656
850.275	4641
850.41	4538
850.545	4615
850.68	4641
850.815	4649
850.95	4603
851.085	4862
851.22	4778
851.355	4729
851.49	4668
851.625	4656
851.76	4622
851.895	4596
852.03	4573
852.165	4668
852.299	4786
852.434	4793
852.569	4759
852.703	4759
852.838	4896
852.973	4930
853.107	4961
853.242	4771
853.376	4702
853.511	4596
853.645	4630
853.78	4809
853.914	4755
854.048	4729
854.183	4618
854.317	4710
854.451	4862
854.585	4672
854.72	4706
854.854	4759
854.988	4615
855.122	4656
855.256	4550
855.39	4694
855.524	4812
855.658	4736
855.792	4752
855.926	4767
856.06	4759
856.194	4862
856.327	4782
856.461	4630
856.595	4630
856.729	4672
856.862	4771
856.996	4725
857.13	4759
857.263	4797
857.397	4820
857.53	4645
857.664	4702
857.797	4786
857.931	4774
858.064	4710
858.197	4733
858.331	4679
858.464	4660
858.597	4508
858.731	4641
858.864	4664
858.997	4618
859.13	4649
859.263	4675
859.396	4771
859.529	4573
859.662	4569
859.795	4565
859.928	4672
860.061	4778
860.194	4740
860.327	4637
860.46	4561
860.592	4771
860.725	4736
860.858	4736
860.99	4618
861.123	4531
861.256	4580
861.388	4577
861.521	5467
861.653	4413
861.786	4466
861.918	4493
862.05	4546
862.183	4542
862.315	4611
862.447	4668
862.58	4527
862.712	4394
862.844	4329
862.976	4493
863.108	4508
863.24	4778
863.372	4379
863.504	4386
863.636	4451
863.768	4485
863.9	4447
864.032	4371
864.164	4451
864.296	4504
864.428	4527
864.559	4573
864.691	4569
864.823	4527
864.954	4497
865.086	4538
865.217	4504
865.349	4440
865.48	4504
865.612	4512
865.743	4611
865.875	4485
866.006	4413
866.137	4478
866.269	4447
866.4	4455
866.531	4413
866.662	4409
866.793	4428
866.924	4417
867.055	4538
867.186	4455
867.317	4424
867.448	4432
867.579	4424
867.71	4394
867.841	4375
867.972	4447
868.103	4470
868.233	4489
868.364	4500
868.495	4493
868.625	4687
868.756	4812
868.886	4538
869.017	4672
869.147	4767
869.278	4782
869.408	4634
869.539	4603
869.669	4702
869.799	4698
869.929	4801
870.06	4698
870.19	4980
870.32	4984
870.45	4927
870.58	5033
870.71	5155
870.84	5052
870.97	4999
871.1	4923
871.23	5121
871.36	5086
871.489	5060
871.619	5086
871.749	5079
871.879	5155
872.008	5185
872.138	5083
872.267	4961
872.397	4831
872.526	4793
872.656	4755
872.785	4835
872.915	4930
873.044	5071
873.173	4984
873.303	4999
873.432	4957
873.561	4934
873.69	4889
873.819	4885
873.948	4900
874.077	4873
874.206	4752
874.335	4831
874.464	4934
874.593	5090
874.722	4957
874.851	5109
874.979	5079
875.108	5075
875.237	4938
875.365	4885
875.494	4881
875.623	5025
875.751	4843
875.88	4896
876.008	4980
876.136	5090
876.265	5265
876.393	5337
876.521	5258
876.65	5277
876.778	5162
876.906	5083
877.034	5056
877.162	5094
877.29	5006
877.418	5041
877.546	5079
877.674	5067
877.802	5052
877.93	5025
878.058	4961
878.185	4904
878.313	4934
878.441	4908
878.568	4767
878.696	4873
878.824	4938
878.951	4976
879.079	5136
879.206	5341
879.333	5109
879.461	5010
879.588	5006
879.715	5090
879.842	5223
879.97	5045
880.097	4850
880.224	4748
880.351	4816
880.478	4778
880.605	4744
880.732	4797
880.859	5094
880.986	4911
881.112	4919
881.239	4740
881.366	4725
881.493	4683
881.619	4603
881.746	4637
881.872	4668
881.999	4626
882.125	4733
882.252	4755
882.378	4782
882.505	4908
882.631	4805
882.757	4744
882.883	4710
883.01	4740
883.136	4656
883.262	4611
883.388	4573
883.514	4771
883.64	4843
883.766	4835
883.892	4679
884.018	4752
884.143	4930
884.269	5003
884.395	4736
884.52	4607
884.646	4626
884.772	4580
884.897	4538
885.023	4683
885.148	4767
885.274	4854
885.399	4816
885.524	4706
885.65	4736
885.775	4759
885.9	4729
886.025	4812
886.15	4812
886.275	4721
886.4	4675
886.525	4748
886.65	4687
886.775	4683
886.9	4919
887.025	5060
887.149	4858
887.274	4649
887.399	4607
887.523	4596
887.648	4577
887.773	4569
887.897	4763
888.021	4805
888.146	4710
888.27	4816
888.395	4885
888.519	4797
888.643	4790
888.767	4839
888.891	4702
889.015	4603
889.139	4653
889.263	4626
889.387	4736
889.511	4923
889.635	4793
889.759	4630
889.883	4675
890.006	4714
890.13	4801
890.254	4637
890.377	4683
890.501	4527
890.624	4508
890.748	4618
890.871	4497
890.995	4417
891.118	4371
891.241	4531
891.364	4554
891.488	4645
891.611	4500
891.734	4542
891.857	4577
891.98	4550
892.103	4637
892.226	4603
892.349	4538
892.471	4432
892.594	4519
892.717	4508
892.839	4580
892.962	4607
893.085	4675
893.207	4641
893.33	4478
893.452	4512
893.575	4656
893.697	4584
893.819	4786
893.941	4828
894.064	4809
894.186	4538
894.308	4561
894.43	4702
894.552	4858
894.674	4752
894.796	4550
894.918	4626
895.04	4554
895.161	4740
895.283	4672
895.405	4580
895.526	4603
895.648	4725
895.769	4721
895.891	4714
896.012	4744
896.134	4694
896.255	4653
896.376	4618
896.498	4603
896.619	4653
896.74	4641
896.861	4637
896.982	4923
897.103	5060
897.224	4793
897.345	4717
897.466	4672
897.587	4717
897.708	4862
897.828	4763
897.949	4698
898.07	4569
898.19	4626
898.311	4831
898.431	4694
898.552	4729
898.672	4790
898.792	4782
898.913	4721
899.033	4618
899.153	4531
899.273	4417
899.393	4500
899.513	4542
899.633	4554
899.753	4531
899.873	4470
899.993	4561
900.113	4550
900.232	4577
900.352	4504
900.472	4497
900.591	4363
900.711	4493
900.83	4440
900.95	4615
901.069	4679
901.189	4573
901.308	4360
901.427	4329
901.546	4352
901.665	4474
901.784	4523
901.904	4409
902.023	4299
902.141	4154
902.26	4181
902.379	4310
902.498	4223
902.617	4200
902.735	4360
902.854	4409
902.973	4367
903.091	4207
903.21	4223
903.328	4303
903.446	4268
903.565	4268
903.683	4390
903.801	4314
903.919	4360
904.038	4424
904.156	4325
904.274	4409
904.392	4409
904.51	4474
904.627	4481
904.745	4588
904.863	4596
904.981	4413
905.098	4329
905.216	4375
905.334	4443
905.451	4447
905.569	4360
905.686	4554
905.803	4573
905.921	4383
906.038	4565
906.155	4466
906.272	4363
906.389	4451
906.506	4329
906.623	4375
906.74	4367
906.857	4314
906.974	4363
907.091	4569
907.208	4672
907.324	4596
907.441	4512
907.557	4337
907.674	4314
907.79	4337
907.907	4405
908.023	4447
908.139	4527
908.256	4447
908.372	4470
908.488	4459
908.604	4390
908.72	4318
908.836	4379
908.952	4394
909.068	4371
909.184	4599
909.3	4421
909.415	4596
909.531	4558
909.647	4356
909.762	4329
909.878	4383
909.993	4394
910.108	4386
910.224	4455
910.339	4481
910.454	4428
910.57	4383
910.685	4268
910.8	4645
910.915	4599
911.03	4485
911.145	4280
911.259	4318
911.374	4402
911.489	4322
911.604	4284
911.718	4200
911.833	4169
911.947	4147
912.062	3991
912.176	4215
912.291	4223
912.405	4253
912.519	4478
912.633	4508
912.748	4375
912.862	4295
912.976	4173
913.09	4063
913.204	4158
913.318	4227
913.431	4360
913.545	4352
913.659	4466
913.772	4337
913.886	4234
914	4223
914.113	4405
914.226	4451
914.34	4398
914.453	4207
914.566	4413
914.68	4291
914.793	4291
914.906	4173
915.019	4128
915.132	4078
915.245	4166
915.358	4246
915.47	4215
915.583	4211
915.696	4284
915.809	4417
915.921	4390
916.034	4284
916.146	4261
916.259	4219
916.371	4337
916.483	4375
916.595	4261
916.708	4337
916.82	4310
916.932	4348
917.044	4303
917.156	4329
917.268	4219
917.38	4284
917.491	4284
917.603	4306
917.715	4394
917.826	4424
917.938	4363
918.049	4223
918.161	4375
918.272	4535
918.384	4580
918.495	4447
918.606	4352
918.717	4242
918.828	4333
918.939	4367
919.05	4219
919.161	4295
919.272	4135
919.383	4211
919.494	4443
919.604	4615
919.715	4481
919.826	4333
919.936	4402
920.047	4512
920.157	4500
920.267	4691
920.378	4542
920.488	4497
920.598	4748
920.708	4889
920.818	4759
920.928	4778
921.038	4938
921.148	4908
921.258	4615
921.368	4622
921.477	4500
921.587	4398
921.697	4356
921.806	4592
921.916	4409
922.025	4276
922.134	4291
922.244	4230
922.353	4348
922.462	4154
922.571	4078
922.68	4013
922.789	3987
922.898	4059
923.007	3953
923.116	4093
923.224	4086
923.333	4086
923.442	3998
923.55	3968
923.659	3994
923.767	4101
923.876	3983
923.984	4116
924.092	3994
924.201	4055
924.309	4116
924.417	4097
924.525	4029
924.633	4090
924.741	5029
924.849	3892
924.956	4105
925.064	3949
925.172	3922
925.279	3964
925.387	4029
925.494	4044
925.602	4169
925.709	4219
925.816	4044
925.924	4105
926.031	4207
926.138	4166
926.245	4173
926.352	4109
926.459	4276
926.566	4341
926.673	4109
926.779	4071
926.886	4071
926.993	3975
927.099	3956
927.206	3945
927.312	3926
927.419	4063
927.525	4010
927.631	4105
927.737	3960
927.843	3972
927.95	3831
928.056	4002
928.162	3964
928.267	4051
928.373	4550
928.479	4090
928.585	3892
928.69	4010
928.796	4071
928.901	3960
929.007	3876
929.112	3994
929.218	3994
929.323	3918
929.428	3987
929.533	4067
929.638	3884
929.743	3941
929.848	4048
929.953	4002
930.058	3945
930.163	3762
930.267	3873
930.372	3922
930.477	3823
930.581	4090
930.685	3960
930.79	3793
930.894	3850
930.998	3812
931.103	4010
931.207	3713
931.311	3675
931.415	3675
931.519	3564
931.623	3564
