Data from test_V78500241_1954.txt Node
Date: Fri Mar 25 17:02:35 CST 2022
User: usil
Spectrometer: V785-0024
Trigger mode: 0
Integration Time (sec): 4.000000E-1
Scans to average: 1
Nonlinearity correction enabled: false
Boxcar width: 0
Storing dark spectrum: false
XAxis mode: Wavelengths
Number of Pixels in Spectrum: 1024
>>>>>Begin Spectral Data<<<<<
801.071	7932
801.214	7982
801.356	7837
801.499	7849
801.641	7788
801.783	7849
801.926	7970
802.068	7852
802.211	7944
802.353	7993
802.496	7811
802.638	7757
802.78	7894
802.923	7936
803.065	7921
803.208	7860
803.35	7906
803.492	7989
803.635	8115
803.777	7974
803.919	8054
804.061	8450
804.204	8142
804.346	8081
804.488	8001
804.63	8058
804.773	8016
804.915	8096
805.057	8244
805.199	8138
805.341	8210
805.483	8279
805.626	8206
805.768	8069
805.91	8206
806.052	8172
806.194	8100
806.336	8298
806.478	8107
806.62	7997
806.762	8069
806.904	8271
807.046	8518
807.188	8423
807.33	8339
807.472	8252
807.614	8172
807.756	8123
807.898	8012
808.04	7864
808.182	7940
808.324	7826
808.465	7925
808.607	8031
808.749	8096
808.891	8191
809.033	8309
809.174	8210
809.316	8058
809.458	8077
809.6	8065
809.741	8039
809.883	8088
810.025	8092
810.166	7970
810.308	8012
810.45	7959
810.591	7792
810.733	7761
810.875	7655
811.016	7453
811.158	7419
811.299	7586
811.441	7734
811.582	7616
811.724	7502
811.865	7563
812.007	7559
812.148	7457
812.29	7609
812.431	7761
812.573	7925
812.714	7955
812.855	8115
812.997	8172
813.138	8282
813.279	8183
813.421	8092
813.562	7944
813.703	7822
813.845	7708
813.986	7403
814.127	7270
814.268	7145
814.41	7168
814.551	7187
814.692	7190
814.833	7076
814.974	7107
815.115	7129
815.256	6920
815.397	6920
815.539	6882
815.68	6783
815.821	6764
815.962	6802
816.103	6795
816.244	6703
816.385	6555
816.526	6623
816.666	6532
816.807	6319
816.948	6418
817.089	6437
817.23	6437
817.371	6346
817.512	6403
817.653	6350
817.793	6369
817.934	6437
818.075	6452
818.216	6414
818.356	6407
818.497	6186
818.638	6102
818.778	6121
818.919	6140
819.06	6136
819.2	6273
819.341	6323
819.481	6331
819.622	6494
819.762	6681
819.903	6677
820.043	6585
820.184	6563
820.324	6570
820.465	6711
820.605	6608
820.746	6635
820.886	6452
821.026	6688
821.167	6726
821.307	6753
821.447	6779
821.588	6711
821.728	6528
821.868	6471
822.008	6304
822.149	6376
822.289	6399
822.429	6148
822.569	6095
822.709	6106
822.849	5882
822.99	5893
823.13	5927
823.27	5847
823.41	5779
823.55	5779
823.69	5748
823.83	5783
823.97	5646
824.11	5539
824.25	5512
824.389	5619
824.529	5554
824.669	5509
824.809	5600
824.949	5684
825.089	5573
825.228	5501
825.368	5364
825.508	5330
825.648	5311
825.787	5410
825.927	5360
826.067	5292
826.206	5242
826.346	5364
826.485	5387
826.625	5337
826.765	5497
826.904	5467
827.044	5216
827.183	5181
827.323	5094
827.462	5250
827.601	5140
827.741	5231
827.88	5170
828.02	5079
828.159	5227
828.298	5273
828.437	5330
828.577	5250
828.716	5459
828.855	5357
828.994	5216
829.134	5162
829.273	5189
829.412	5124
829.551	5121
829.69	5204
829.829	5212
829.968	5318
830.107	5246
830.246	5296
830.385	5201
830.524	5151
830.663	5025
830.802	4938
830.941	4835
831.08	4835
831.219	4999
831.357	4984
831.496	5159
831.635	4919
831.774	4812
831.913	4820
832.051	4729
832.19	4729
832.329	4805
832.467	4721
832.606	4645
832.744	4736
832.883	4710
833.022	4714
833.16	4778
833.299	4771
833.437	4824
833.576	4839
833.714	4866
833.852	4873
833.991	4850
834.129	4934
834.267	4961
834.406	4892
834.544	4984
834.682	4999
834.821	4972
834.959	5174
835.097	4965
835.235	5121
835.373	5109
835.511	5071
835.65	5003
835.788	5014
835.926	4919
836.064	4843
836.202	4885
836.34	5128
836.478	5162
836.615	5170
836.753	5212
836.891	5269
837.029	5277
837.167	5140
837.305	5151
837.443	5083
837.58	5048
837.718	5292
837.856	5204
837.993	5140
838.131	5197
838.269	5220
838.406	5208
838.544	5181
838.681	5025
838.819	5037
838.956	4908
839.094	4862
839.231	4987
839.369	5045
839.506	5402
839.643	5258
839.781	5109
839.918	4968
840.055	5159
840.193	5079
840.33	5033
840.467	5113
840.604	5189
840.742	5452
840.879	5098
841.016	5098
841.153	5174
841.29	5421
841.427	5334
841.564	5318
841.701	5330
841.838	5246
841.975	5239
842.112	5311
842.249	5102
842.385	5094
842.522	5288
842.659	5140
842.796	5128
842.933	5162
843.069	5128
843.206	5121
843.343	5307
843.479	5250
843.616	5284
843.752	5037
843.889	5056
844.025	5124
844.162	4999
844.298	5193
844.435	5102
844.571	5056
844.708	5189
844.844	5269
844.98	5311
845.117	5277
845.253	5128
845.389	5083
845.525	5124
845.661	5155
845.798	5010
845.934	5086
846.07	5052
846.206	5174
846.342	5239
846.478	5174
846.614	4965
846.75	4980
846.886	4908
847.022	5159
847.158	5022
847.294	5067
847.429	5033
847.565	5086
847.701	5299
847.837	4847
847.972	4797
848.108	4915
848.244	4911
848.379	4793
848.515	4740
848.65	4736
848.786	4740
848.921	4759
849.057	4839
849.192	4915
849.328	4812
849.463	4858
849.598	4767
849.734	4748
849.869	4679
850.004	4611
850.14	4649
850.275	4580
850.41	4451
850.545	4531
850.68	4603
850.815	4615
850.95	4607
851.085	4839
851.22	4706
851.355	4672
851.49	4618
851.625	4694
851.76	4649
851.895	4546
852.03	4542
852.165	4630
852.299	4740
852.434	4774
852.569	4740
852.703	4790
852.838	4835
852.973	4889
853.107	4908
853.242	4767
853.376	4729
853.511	4554
853.645	4645
853.78	4778
853.914	4702
854.048	4694
854.183	4656
854.317	4725
854.451	4839
854.585	4694
854.72	4599
854.854	4820
854.988	4637
855.122	4615
855.256	4504
855.39	4634
855.524	4717
855.658	4702
855.792	4710
855.926	4679
856.06	4763
856.194	4790
856.327	4687
856.461	4618
856.595	4641
856.729	4637
856.862	4771
856.996	4702
857.13	4725
857.263	4793
857.397	4812
857.53	4679
857.664	4679
857.797	4801
857.931	4786
858.064	4683
858.197	4733
858.331	4649
858.464	4622
858.597	4519
858.731	4634
858.864	4603
858.997	4611
859.13	4626
859.263	4675
859.396	4725
859.529	4611
859.662	4565
859.795	4523
859.928	4649
860.061	4801
860.194	4755
860.327	4634
860.46	4504
860.592	4691
860.725	4694
860.858	4660
860.99	4535
861.123	4531
861.256	4489
861.388	4592
861.521	5311
861.653	4497
861.786	4443
861.918	4489
862.05	4489
862.183	4512
862.315	4538
862.447	4649
862.58	4538
862.712	4409
862.844	4356
862.976	4436
863.108	4459
863.24	4771
863.372	4325
863.504	4409
863.636	4421
863.768	4489
863.9	4428
864.032	4390
864.164	4421
864.296	4485
864.428	4527
864.559	4531
864.691	4550
864.823	4508
864.954	4459
865.086	4542
865.217	4421
865.349	4493
865.48	4447
865.612	4440
865.743	4630
865.875	4443
866.006	4413
866.137	4451
866.269	4455
866.4	4451
866.531	4428
866.662	4379
866.793	4421
866.924	4394
867.055	4500
867.186	4440
867.317	4432
867.448	4390
867.579	4386
867.71	4417
867.841	4356
867.972	4443
868.103	4485
868.233	4390
868.364	4428
868.495	4451
868.625	4687
868.756	4733
868.886	4626
869.017	4653
869.147	4793
869.278	4793
869.408	4691
869.539	4626
869.669	4698
869.799	4679
869.929	4812
870.06	4733
870.19	4934
870.32	4862
870.45	4908
870.58	4976
870.71	5079
870.84	5132
870.97	4980
871.1	4866
871.23	5136
871.36	5159
871.489	4991
871.619	5060
871.749	5090
871.879	5132
872.008	5151
872.138	5037
872.267	4987
872.397	4858
872.526	4793
872.656	4736
872.785	4812
872.915	5006
873.044	4999
873.173	4915
873.303	4984
873.432	4961
873.561	4946
873.69	4866
873.819	4858
873.948	4896
874.077	4835
874.206	4767
874.335	4801
874.464	4854
874.593	5075
874.722	5006
874.851	5071
874.979	5052
875.108	5010
875.237	4927
875.365	4828
875.494	4881
875.623	4999
875.751	4847
875.88	4881
876.008	4991
876.136	4995
876.265	5223
876.393	5349
876.521	5273
876.65	5223
876.778	5170
876.906	5048
877.034	5006
877.162	5033
877.29	5033
877.418	5022
877.546	4999
877.674	4968
877.802	5033
877.93	4991
878.058	4927
878.185	4824
878.313	4991
878.441	4896
878.568	4782
878.696	4858
878.824	4927
878.951	4980
879.079	5117
879.206	5265
879.333	5064
879.461	5041
879.588	5056
879.715	5140
879.842	5258
879.97	4938
880.097	4774
880.224	4706
880.351	4824
880.478	4786
880.605	4828
880.732	4782
880.859	5064
880.986	4858
881.112	4946
881.239	4725
881.366	4679
881.493	4538
881.619	4561
881.746	4630
881.872	4656
881.999	4675
882.125	4675
882.252	4736
882.378	4828
882.505	4999
882.631	4816
882.757	4664
882.883	4687
883.01	4721
883.136	4649
883.262	4599
883.388	4569
883.514	4790
883.64	4812
883.766	4786
883.892	4698
884.018	4687
884.143	4881
884.269	4999
884.395	4656
884.52	4656
884.646	4649
884.772	4584
884.897	4542
885.023	4618
885.148	4778
885.274	4858
885.399	4793
885.524	4748
885.65	4630
885.775	4710
885.9	4687
886.025	4850
886.15	4767
886.275	4691
886.4	4664
886.525	4759
886.65	4702
886.775	4653
886.9	4904
887.025	5048
887.149	4759
887.274	4641
887.399	4599
887.523	4615
887.648	4630
887.773	4569
887.897	4774
888.021	4717
888.146	4634
888.27	4816
888.395	4889
888.519	4790
888.643	4793
888.767	4828
888.891	4668
889.015	4584
889.139	4645
889.263	4565
889.387	4755
889.511	4885
889.635	4793
889.759	4592
889.883	4615
890.006	4721
890.13	4862
890.254	4649
890.377	4675
890.501	4531
890.624	4504
890.748	4645
890.871	4485
890.995	4462
891.118	4367
891.241	4542
891.364	4531
891.488	4641
891.611	4470
891.734	4558
891.857	4554
891.98	4607
892.103	4622
892.226	4550
892.349	4535
892.471	4383
892.594	4523
892.717	4565
892.839	4599
892.962	4561
893.085	4645
893.207	4577
893.33	4489
893.452	4535
893.575	4672
893.697	4599
893.819	4820
893.941	4850
894.064	4767
894.186	4634
894.308	4493
894.43	4725
894.552	4820
894.674	4752
894.796	4508
894.918	4584
895.04	4569
895.161	4679
895.283	4672
895.405	4611
895.526	4649
895.648	4641
895.769	4691
895.891	4683
896.012	4778
896.134	4664
896.255	4653
896.376	4645
896.498	4637
896.619	4656
896.74	4596
896.861	4664
896.982	4927
897.103	4999
897.224	4847
897.345	4725
897.466	4656
897.587	4691
897.708	4831
897.828	4793
897.949	4687
898.07	4588
898.19	4626
898.311	4805
898.431	4668
898.552	4736
898.672	4778
898.792	4820
898.913	4694
899.033	4630
899.153	4497
899.273	4432
899.393	4451
899.513	4504
899.633	4542
899.753	4535
899.873	4478
899.993	4596
900.113	4512
900.232	4569
900.352	4580
900.472	4504
900.591	4383
900.711	4474
900.83	4436
900.95	4611
901.069	4679
901.189	4577
901.308	4352
901.427	4325
901.546	4383
901.665	4478
901.784	4462
901.904	4348
902.023	4337
902.141	4200
902.26	4166
902.379	4303
902.498	4253
902.617	4268
902.735	4383
902.854	4383
902.973	4421
903.091	4227
903.21	4196
903.328	4284
903.446	4276
903.565	4276
903.683	4337
903.801	4272
903.919	4371
904.038	4413
904.156	4310
904.274	4455
904.392	4394
904.51	4428
904.627	4428
904.745	4573
904.863	4618
904.981	4432
905.098	4280
905.216	4341
905.334	4451
905.451	4383
905.569	4440
905.686	4516
905.803	4554
905.921	4386
906.038	4565
906.155	4451
906.272	4341
906.389	4481
906.506	4394
906.623	4379
906.74	4421
906.857	4322
906.974	4371
907.091	4561
907.208	4675
907.324	4535
907.441	4500
907.557	4291
907.674	4356
907.79	4303
907.907	4352
908.023	4508
908.139	4428
908.256	4436
908.372	4478
908.488	4474
908.604	4322
908.72	4356
908.836	4409
908.952	4363
909.068	4417
909.184	4550
909.3	4451
909.415	4527
909.531	4569
909.647	4367
909.762	4360
909.878	4390
909.993	4405
910.108	4417
910.224	4379
910.339	4500
910.454	4383
910.57	4344
910.685	4318
910.8	4645
910.915	4592
911.03	4466
911.145	4329
911.259	4348
911.374	4390
911.489	4310
911.604	4257
911.718	4188
911.833	4200
911.947	4044
912.062	4025
912.176	4215
912.291	4204
912.405	4227
912.519	4481
912.633	4523
912.748	4398
912.862	4329
912.976	4253
913.09	4109
913.204	4173
913.318	4234
913.431	4348
913.545	4356
913.659	4436
913.772	4333
913.886	4227
914	4230
914.113	4344
914.226	4409
914.34	4386
914.453	4196
914.566	4421
914.68	4287
914.793	4337
914.906	4147
915.019	4124
915.132	4078
915.245	4169
915.358	4207
915.47	4192
915.583	4280
915.696	4287
915.809	4360
915.921	4421
916.034	4276
916.146	4223
916.259	4272
916.371	4394
916.483	4356
916.595	4238
916.708	4287
916.82	4325
916.932	4310
917.044	4295
917.156	4344
917.268	4211
917.38	4265
917.491	4261
917.603	4337
917.715	4436
917.826	4447
917.938	4348
918.049	4227
918.161	4417
918.272	4485
918.384	4516
918.495	4466
918.606	4314
918.717	4215
918.828	4329
918.939	4363
919.05	4261
919.161	4356
919.272	4177
919.383	4211
919.494	4436
919.604	4637
919.715	4466
919.826	4348
919.936	4413
920.047	4462
920.157	4481
920.267	4679
920.378	4538
920.488	4542
920.598	4702
920.708	4930
920.818	4733
920.928	4786
921.038	4976
921.148	4904
921.258	4607
921.368	4569
921.477	4462
921.587	4447
921.697	4432
921.806	4546
921.916	4421
922.025	4227
922.134	4276
922.244	4188
922.353	4329
922.462	4150
922.571	4109
922.68	4002
922.789	3983
922.898	4032
923.007	3960
923.116	4109
923.224	4051
923.333	4059
923.442	3964
923.55	3994
923.659	4010
923.767	4082
923.876	3998
923.984	4105
924.092	3968
924.201	4059
924.309	4086
924.417	4101
924.525	4067
924.633	4139
924.741	5056
924.849	3964
924.956	4101
925.064	3964
925.172	3911
925.279	3960
925.387	4036
925.494	4013
925.602	4227
925.709	4230
925.816	4013
925.924	4131
926.031	4230
926.138	4169
926.245	4207
926.352	4063
926.459	4265
926.566	4284
926.673	4166
926.779	4063
926.886	4086
926.993	3937
927.099	3975
927.206	3896
927.312	3930
927.419	4013
927.525	4017
927.631	4105
927.737	3915
927.843	3907
927.95	3838
928.056	3975
928.162	3975
928.267	3987
928.373	4599
928.479	4131
928.585	3876
928.69	4048
928.796	4029
928.901	3941
929.007	3774
929.112	4010
929.218	3949
929.323	3949
929.428	3911
929.533	4082
929.638	3926
929.743	3915
929.848	4021
929.953	4017
930.058	3926
930.163	3827
930.267	3812
930.372	3975
930.477	3800
930.581	4055
930.685	3983
930.79	3827
930.894	3865
930.998	3876
931.103	4021
931.207	3732
931.311	3698
931.415	3644
931.519	3469
931.623	3526
