Data from test_V78500241_1117.txt Node
Date: Fri Mar 25 16:56:46 CST 2022
User: usil
Spectrometer: V785-0024
Trigger mode: 0
Integration Time (sec): 4.000000E-1
Scans to average: 1
Nonlinearity correction enabled: false
Boxcar width: 0
Storing dark spectrum: false
XAxis mode: Wavelengths
Number of Pixels in Spectrum: 1024
>>>>>Begin Spectral Data<<<<<
801.071	8058
801.214	8065
801.356	7856
801.499	7784
801.641	7769
801.783	7753
801.926	7974
802.068	7894
802.211	7928
802.353	7925
802.496	7814
802.638	7799
802.78	7906
802.923	7944
803.065	7936
803.208	7845
803.35	7944
803.492	8024
803.635	8153
803.777	8054
803.919	8081
804.061	8454
804.204	8183
804.346	8043
804.488	7986
804.63	8035
804.773	8012
804.915	8081
805.057	8282
805.199	8153
805.341	8206
805.483	8218
805.626	8206
805.768	8157
805.91	8191
806.052	8172
806.194	8096
806.336	8336
806.478	8073
806.62	8043
806.762	8130
806.904	8233
807.046	8404
807.188	8328
807.33	8286
807.472	8343
807.614	8123
807.756	8050
807.898	8012
808.04	7940
808.182	7871
808.324	7928
808.465	7925
808.607	8081
808.749	8130
808.891	8168
809.033	8286
809.174	8195
809.316	8077
809.458	7997
809.6	8027
809.741	7978
809.883	8039
810.025	8027
810.166	8046
810.308	7982
810.45	8092
810.591	7883
810.733	7753
810.875	7746
811.016	7537
811.158	7525
811.299	7594
811.441	7643
811.582	7662
811.724	7571
811.865	7563
812.007	7495
812.148	7605
812.29	7582
812.431	7700
812.573	7868
812.714	7974
812.855	8100
812.997	8161
813.138	8279
813.279	8168
813.421	8077
813.562	7978
813.703	7928
813.845	7750
813.986	7422
814.127	7274
814.268	7217
814.41	7217
814.551	7084
814.692	7141
814.833	7072
814.974	7080
815.115	7107
815.256	6966
815.397	6886
815.539	6920
815.68	6810
815.821	6779
815.962	6867
816.103	6840
816.244	6688
816.385	6681
816.526	6593
816.666	6490
816.807	6323
816.948	6498
817.089	6426
817.23	6433
817.371	6372
817.512	6399
817.653	6399
817.793	6350
817.934	6361
818.075	6509
818.216	6418
818.356	6380
818.497	6209
818.638	6102
818.778	6148
818.919	6159
819.06	6144
819.2	6270
819.341	6239
819.481	6376
819.622	6475
819.762	6734
819.903	6684
820.043	6544
820.184	6578
820.324	6578
820.465	6601
820.605	6726
820.746	6635
820.886	6471
821.026	6582
821.167	6715
821.307	6829
821.447	6730
821.588	6631
821.728	6578
821.868	6498
822.008	6407
822.149	6388
822.289	6357
822.429	6098
822.569	6019
822.709	6114
822.849	5847
822.99	5882
823.13	5870
823.27	5923
823.41	5809
823.55	5817
823.69	5802
823.83	5760
823.97	5684
824.11	5448
824.25	5532
824.389	5577
824.529	5581
824.669	5463
824.809	5570
824.949	5668
825.089	5585
825.228	5551
825.368	5379
825.508	5395
825.648	5330
825.787	5330
825.927	5334
826.067	5337
826.206	5269
826.346	5322
826.485	5391
826.625	5425
826.765	5558
826.904	5436
827.044	5220
827.183	5181
827.323	5140
827.462	5242
827.601	5185
827.741	5143
827.88	5208
828.02	5136
828.159	5277
828.298	5307
828.437	5364
828.577	5315
828.716	5459
828.855	5284
828.994	5170
829.134	5166
829.273	5201
829.412	5109
829.551	5147
829.69	5147
829.829	5193
829.968	5353
830.107	5261
830.246	5280
830.385	5147
830.524	5170
830.663	5010
830.802	4938
830.941	4877
831.08	4889
831.219	5010
831.357	4957
831.496	5124
831.635	4900
831.774	4797
831.913	4850
832.051	4698
832.19	4752
832.329	4820
832.467	4691
832.606	4626
832.744	4664
832.883	4710
833.022	4717
833.16	4771
833.299	4801
833.437	4809
833.576	4862
833.714	4812
833.852	4847
833.991	4824
834.129	4949
834.267	4904
834.406	4881
834.544	4949
834.682	5037
834.821	4953
834.959	5136
835.097	4972
835.235	5155
835.373	5102
835.511	5086
835.65	5025
835.788	5029
835.926	4881
836.064	4835
836.202	4923
836.34	5121
836.478	5185
836.615	5140
836.753	5208
836.891	5261
837.029	5208
837.167	5212
837.305	5128
837.443	5086
837.58	5045
837.718	5197
837.856	5147
837.993	5090
838.131	5201
838.269	5185
838.406	5159
838.544	5140
838.681	5014
838.819	4968
838.956	4881
839.094	4908
839.231	4980
839.369	5075
839.506	5387
839.643	5296
839.781	5052
839.918	5025
840.055	5071
840.193	5086
840.33	5090
840.467	5098
840.604	5208
840.742	5379
840.879	5037
841.016	5071
841.153	5140
841.29	5349
841.427	5337
841.564	5318
841.701	5353
841.838	5204
841.975	5246
842.112	5315
842.249	5094
842.385	5109
842.522	5353
842.659	5113
842.796	5121
842.933	5166
843.069	5178
843.206	5181
843.343	5299
843.479	5296
843.616	5261
843.752	5033
843.889	5022
844.025	5216
844.162	5014
844.298	5189
844.435	5029
844.571	5090
844.708	5162
844.844	5220
844.98	5318
845.117	5288
845.253	5159
845.389	5098
845.525	5136
845.661	5128
845.798	5018
845.934	5155
846.07	5029
846.206	5166
846.342	5246
846.478	5143
846.614	4934
846.75	4934
846.886	4904
847.022	5121
847.158	5018
847.294	5029
847.429	5086
847.565	5041
847.701	5261
847.837	4816
847.972	4847
848.108	4938
848.244	4930
848.379	4755
848.515	4710
848.65	4767
848.786	4736
848.921	4774
849.057	4831
849.192	4911
849.328	4797
849.463	4847
849.598	4847
849.734	4679
849.869	4698
850.004	4603
850.14	4653
850.275	4580
850.41	4493
850.545	4592
850.68	4618
850.815	4622
850.95	4656
851.085	4820
851.22	4714
851.355	4698
851.49	4630
851.625	4580
851.76	4626
851.895	4573
852.03	4527
852.165	4588
852.299	4710
852.434	4767
852.569	4706
852.703	4790
852.838	4858
852.973	4965
853.107	4877
853.242	4733
853.376	4622
853.511	4535
853.645	4645
853.78	4793
853.914	4668
854.048	4618
854.183	4607
854.317	4660
854.451	4820
854.585	4672
854.72	4607
854.854	4710
854.988	4599
855.122	4622
855.256	4561
855.39	4645
855.524	4748
855.658	4645
855.792	4668
855.926	4710
856.06	4774
856.194	4717
856.327	4645
856.461	4603
856.595	4611
856.729	4653
856.862	4752
856.996	4615
857.13	4744
857.263	4748
857.397	4793
857.53	4634
857.664	4721
857.797	4755
857.931	4774
858.064	4675
858.197	4729
858.331	4664
858.464	4584
858.597	4573
858.731	4615
858.864	4656
858.997	4558
859.13	4656
859.263	4672
859.396	4733
859.529	4599
859.662	4558
859.795	4554
859.928	4660
860.061	4759
860.194	4752
860.327	4596
860.46	4527
860.592	4702
860.725	4717
860.858	4744
860.99	4580
861.123	4497
861.256	4512
861.388	4588
861.521	5391
861.653	4455
861.786	4432
861.918	4462
862.05	4542
862.183	4546
862.315	4584
862.447	4634
862.58	4531
862.712	4386
862.844	4325
862.976	4481
863.108	4500
863.24	4752
863.372	4318
863.504	4383
863.636	4386
863.768	4497
863.9	4383
864.032	4337
864.164	4367
864.296	4459
864.428	4508
864.559	4535
864.691	4523
864.823	4542
864.954	4516
865.086	4485
865.217	4440
865.349	4363
865.48	4474
865.612	4493
865.743	4599
865.875	4417
866.006	4394
866.137	4443
866.269	4535
866.4	4417
866.531	4402
866.662	4360
866.793	4436
866.924	4417
867.055	4459
867.186	4447
867.317	4386
867.448	4394
867.579	4402
867.71	4344
867.841	4344
867.972	4413
868.103	4405
868.233	4470
868.364	4470
868.495	4424
868.625	4660
868.756	4733
868.886	4519
869.017	4630
869.147	4744
869.278	4714
869.408	4618
869.539	4641
869.669	4694
869.799	4668
869.929	4729
870.06	4702
870.19	4938
870.32	4889
870.45	4892
870.58	5037
870.71	5102
870.84	5075
870.97	4949
871.1	4915
871.23	5166
871.36	5060
871.489	4980
871.619	5045
871.749	5056
871.879	5090
872.008	5113
872.138	5071
872.267	5006
872.397	4831
872.526	4873
872.656	4683
872.785	4828
872.915	4946
873.044	5003
873.173	4934
873.303	4938
873.432	4942
873.561	4976
873.69	4881
873.819	4870
873.948	4904
874.077	4797
874.206	4744
874.335	4782
874.464	4923
874.593	5003
874.722	4965
874.851	5090
874.979	5056
875.108	5018
875.237	4930
875.365	4839
875.494	4873
875.623	4987
875.751	4786
875.88	4873
876.008	4873
876.136	5025
876.265	5212
876.393	5277
876.521	5261
876.65	5239
876.778	5102
876.906	5060
877.034	5041
877.162	4968
877.29	5048
877.418	5006
877.546	5010
877.674	5014
877.802	5033
877.93	5006
878.058	4911
878.185	4881
878.313	4965
878.441	4934
878.568	4790
878.696	4847
878.824	4953
878.951	4991
879.079	5105
879.206	5235
879.333	5060
879.461	4980
879.588	4961
879.715	5117
879.842	5223
879.97	4991
880.097	4759
880.224	4782
880.351	4790
880.478	4812
880.605	4786
880.732	4831
880.859	5052
880.986	4854
881.112	4896
881.239	4759
881.366	4698
881.493	4592
881.619	4573
881.746	4656
881.872	4637
881.999	4645
882.125	4679
882.252	4740
882.378	4831
882.505	4938
882.631	4805
882.757	4660
882.883	4729
883.01	4736
883.136	4675
883.262	4592
883.388	4637
883.514	4797
883.64	4805
883.766	4763
883.892	4702
884.018	4660
884.143	4850
884.269	4972
884.395	4668
884.52	4641
884.646	4672
884.772	4607
884.897	4542
885.023	4637
885.148	4763
885.274	4850
885.399	4805
885.524	4694
885.65	4683
885.775	4736
885.9	4694
886.025	4873
886.15	4797
886.275	4694
886.4	4656
886.525	4714
886.65	4702
886.775	4675
886.9	4915
887.025	5037
887.149	4824
887.274	4634
887.399	4569
887.523	4554
887.648	4561
887.773	4592
887.897	4748
888.021	4744
888.146	4637
888.27	4752
888.395	4847
888.519	4786
888.643	4812
888.767	4824
888.891	4664
889.015	4630
889.139	4634
889.263	4577
889.387	4786
889.511	4854
889.635	4755
889.759	4656
889.883	4645
890.006	4736
890.13	4858
890.254	4615
890.377	4656
890.501	4554
890.624	4485
890.748	4596
890.871	4531
890.995	4360
891.118	4394
891.241	4554
891.364	4504
891.488	4561
891.611	4481
891.734	4519
891.857	4603
891.98	4554
892.103	4637
892.226	4588
892.349	4561
892.471	4443
892.594	4554
892.717	4592
892.839	4592
892.962	4607
893.085	4649
893.207	4561
893.33	4466
893.452	4497
893.575	4615
893.697	4554
893.819	4767
893.941	4809
894.064	4763
894.186	4588
894.308	4596
894.43	4725
894.552	4786
894.674	4755
894.796	4599
894.918	4580
895.04	4535
895.161	4744
895.283	4687
895.405	4538
895.526	4603
895.648	4710
895.769	4702
895.891	4672
896.012	4717
896.134	4706
896.255	4626
896.376	4615
896.498	4565
896.619	4687
896.74	4637
896.861	4637
896.982	4885
897.103	5094
897.224	4828
897.345	4736
897.466	4729
897.587	4744
897.708	4809
897.828	4767
897.949	4660
898.07	4573
898.19	4656
898.311	4797
898.431	4683
898.552	4748
898.672	4820
898.792	4847
898.913	4759
899.033	4603
899.153	4489
899.273	4409
899.393	4459
899.513	4497
899.633	4481
899.753	4527
899.873	4508
899.993	4561
900.113	4546
900.232	4596
900.352	4512
900.472	4504
900.591	4409
900.711	4504
900.83	4424
900.95	4580
901.069	4641
901.189	4527
901.308	4405
901.427	4272
901.546	4348
901.665	4432
901.784	4504
901.904	4405
902.023	4284
902.141	4154
902.26	4188
902.379	4318
902.498	4227
902.617	4211
902.735	4375
902.854	4409
902.973	4314
903.091	4185
903.21	4192
903.328	4303
903.446	4249
903.565	4276
903.683	4337
903.801	4272
903.919	4375
904.038	4409
904.156	4299
904.274	4424
904.392	4375
904.51	4386
904.627	4443
904.745	4577
904.863	4626
904.981	4413
905.098	4287
905.216	4375
905.334	4440
905.451	4440
905.569	4462
905.686	4554
905.803	4527
905.921	4405
906.038	4519
906.155	4504
906.272	4386
906.389	4417
906.506	4325
906.623	4390
906.74	4383
906.857	4253
906.974	4383
907.091	4554
907.208	4691
907.324	4607
907.441	4508
907.557	4314
907.674	4367
907.79	4265
907.907	4367
908.023	4500
908.139	4497
908.256	4447
908.372	4470
908.488	4470
908.604	4310
908.72	4272
908.836	4409
908.952	4344
909.068	4424
909.184	4573
909.3	4497
909.415	4603
909.531	4599
909.647	4333
909.762	4379
909.878	4318
909.993	4394
910.108	4386
910.224	4405
910.339	4489
910.454	4421
910.57	4375
910.685	4291
910.8	4649
910.915	4584
911.03	4516
911.145	4329
911.259	4322
911.374	4371
911.489	4318
911.604	4295
911.718	4147
911.833	4177
911.947	4086
912.062	3991
912.176	4162
912.291	4280
912.405	4234
912.519	4481
912.633	4519
912.748	4405
912.862	4329
912.976	4219
913.09	4067
913.204	4135
913.318	4204
913.431	4386
913.545	4367
913.659	4489
913.772	4379
913.886	4280
914	4223
914.113	4360
914.226	4451
914.34	4474
914.453	4253
914.566	4394
914.68	4299
914.793	4314
914.906	4139
915.019	4086
915.132	4063
915.245	4188
915.358	4181
915.47	4223
915.583	4257
915.696	4280
915.809	4348
915.921	4417
916.034	4234
916.146	4185
916.259	4242
916.371	4322
916.483	4337
916.595	4200
916.708	4295
916.82	4318
916.932	4306
917.044	4314
917.156	4333
917.268	4200
917.38	4284
917.491	4261
917.603	4291
917.715	4432
917.826	4436
917.938	4322
918.049	4253
918.161	4394
918.272	4542
918.384	4512
918.495	4440
918.606	4257
918.717	4227
918.828	4356
918.939	4375
919.05	4257
919.161	4272
919.272	4109
919.383	4234
919.494	4474
919.604	4615
919.715	4394
919.826	4344
919.936	4394
920.047	4512
920.157	4504
920.267	4626
920.378	4546
920.488	4497
920.598	4729
920.708	4919
920.818	4733
920.928	4733
921.038	4892
921.148	4885
921.258	4637
921.368	4580
921.477	4474
921.587	4470
921.697	4413
921.806	4523
921.916	4432
922.025	4257
922.134	4284
922.244	4207
922.353	4386
922.462	4185
922.571	4150
922.68	4010
922.789	3934
922.898	3991
923.007	3960
923.116	4078
923.224	4055
923.333	4067
923.442	3945
923.55	3991
923.659	4006
923.767	4120
923.876	4006
923.984	4147
924.092	4017
924.201	4078
924.309	4063
924.417	4112
924.525	4082
924.633	4093
924.741	5029
924.849	3850
924.956	4120
925.064	4013
925.172	3915
925.279	3949
925.387	4044
925.494	4051
925.602	4200
925.709	4154
925.816	4021
925.924	4124
926.031	4207
926.138	4158
926.245	4196
926.352	4071
926.459	4276
926.566	4310
926.673	4177
926.779	4040
926.886	4112
926.993	3926
927.099	3930
927.206	3937
927.312	3922
927.419	4063
927.525	4025
927.631	4116
927.737	3987
927.843	3983
927.95	3785
928.056	3907
928.162	3987
928.267	4040
928.373	4694
928.479	4097
928.585	3842
928.69	4006
928.796	4055
928.901	3975
929.007	3827
929.112	4006
929.218	3949
929.323	3956
929.428	3941
929.533	4082
929.638	3896
929.743	3930
929.848	3972
929.953	4021
930.058	3918
930.163	3785
930.267	3838
930.372	3979
930.477	3800
930.581	4131
930.685	3964
930.79	3827
930.894	3854
930.998	3880
931.103	4017
931.207	3759
931.311	3698
931.415	3644
931.519	3473
931.623	3553
