Data from test_V78500241_2516.txt Node
Date: Fri Mar 25 17:06:29 CST 2022
User: usil
Spectrometer: V785-0024
Trigger mode: 0
Integration Time (sec): 4.000000E-1
Scans to average: 1
Nonlinearity correction enabled: false
Boxcar width: 0
Storing dark spectrum: false
XAxis mode: Wavelengths
Number of Pixels in Spectrum: 1024
>>>>>Begin Spectral Data<<<<<
801.071	8024
801.214	7909
801.356	7890
801.499	7837
801.641	7818
801.783	7784
801.926	7928
802.068	7928
802.211	8008
802.353	7997
802.496	7906
802.638	7860
802.78	7909
802.923	7967
803.065	7868
803.208	7906
803.35	8035
803.492	8088
803.635	8161
803.777	8115
803.919	8172
804.061	8404
804.204	8176
804.346	8100
804.488	8039
804.63	8157
804.773	8016
804.915	8050
805.057	8317
805.199	8164
805.341	8206
805.483	8282
805.626	8240
805.768	8145
805.91	8145
806.052	8176
806.194	8065
806.336	8252
806.478	8111
806.62	8065
806.762	8138
806.904	8313
807.046	8545
807.188	8366
807.33	8248
807.472	8328
807.614	8168
807.756	8142
807.898	8031
808.04	7936
808.182	7978
808.324	7925
808.465	7928
808.607	8088
808.749	8065
808.891	8244
809.033	8385
809.174	8183
809.316	8058
809.458	8126
809.6	8024
809.741	8039
809.883	8027
810.025	8142
810.166	8058
810.308	7974
810.45	8050
810.591	7868
810.733	7769
810.875	7670
811.016	7449
811.158	7491
811.299	7575
811.441	7792
811.582	7731
811.724	7537
811.865	7525
812.007	7567
812.148	7620
812.29	7643
812.431	7719
812.573	7868
812.714	7989
812.855	8149
812.997	8180
813.138	8244
813.279	8092
813.421	8123
813.562	7967
813.703	7826
813.845	7712
813.986	7438
814.127	7270
814.268	7228
814.41	7202
814.551	7225
814.692	7278
814.833	7072
814.974	7194
815.115	7221
815.256	6981
815.397	6935
815.539	6958
815.68	6783
815.821	6768
815.962	6844
816.103	6806
816.244	6726
816.385	6642
816.526	6616
816.666	6498
816.807	6308
816.948	6448
817.089	6483
817.23	6429
817.371	6388
817.512	6433
817.653	6380
817.793	6338
817.934	6426
818.075	6448
818.216	6410
818.356	6369
818.497	6285
818.638	6125
818.778	6163
818.919	6133
819.06	6129
819.2	6334
819.341	6311
819.481	6414
819.622	6513
819.762	6749
819.903	6741
820.043	6604
820.184	6593
820.324	6631
820.465	6738
820.605	6730
820.746	6635
820.886	6559
821.026	6658
821.167	6734
821.307	6825
821.447	6821
821.588	6776
821.728	6585
821.868	6528
822.008	6391
822.149	6369
822.289	6350
822.429	6201
822.569	6121
822.709	6148
822.849	5996
822.99	5954
823.13	5965
823.27	6015
823.41	5832
823.55	5813
823.69	5802
823.83	5783
823.97	5668
824.11	5573
824.25	5524
824.389	5592
824.529	5585
824.669	5554
824.809	5627
824.949	5668
825.089	5608
825.228	5554
825.368	5406
825.508	5349
825.648	5345
825.787	5326
825.927	5406
826.067	5311
826.206	5265
826.346	5395
826.485	5383
826.625	5379
826.765	5551
826.904	5459
827.044	5330
827.183	5227
827.323	5151
827.462	5273
827.601	5204
827.741	5239
827.88	5231
828.02	5113
828.159	5280
828.298	5315
828.437	5334
828.577	5318
828.716	5467
828.855	5341
828.994	5136
829.134	5201
829.273	5212
829.412	5136
829.551	5132
829.69	5136
829.829	5318
829.968	5360
830.107	5315
830.246	5254
830.385	5201
830.524	5178
830.663	5033
830.802	5071
830.941	4862
831.08	4828
831.219	4999
831.357	4991
831.496	5136
831.635	4965
831.774	4847
831.913	4866
832.051	4771
832.19	4744
832.329	4820
832.467	4672
832.606	4668
832.744	4748
832.883	4740
833.022	4710
833.16	4831
833.299	4870
833.437	4812
833.576	4820
833.714	4850
833.852	4900
833.991	4915
834.129	4934
834.267	4919
834.406	4938
834.544	4976
834.682	5029
834.821	4991
834.959	5136
835.097	5018
835.235	5140
835.373	5090
835.511	5121
835.65	5037
835.788	5003
835.926	4927
836.064	4908
836.202	4942
836.34	5181
836.478	5254
836.615	5105
836.753	5174
836.891	5239
837.029	5292
837.167	5170
837.305	5128
837.443	5181
837.58	5075
837.718	5201
837.856	5216
837.993	5151
838.131	5318
838.269	5208
838.406	5204
838.544	5174
838.681	5045
838.819	5033
838.956	4870
839.094	4904
839.231	5014
839.369	5071
839.506	5455
839.643	5223
839.781	5102
839.918	4976
840.055	5102
840.193	5136
840.33	5105
840.467	5155
840.604	5193
840.742	5406
840.879	5109
841.016	5090
841.153	5155
841.29	5360
841.427	5349
841.564	5303
841.701	5376
841.838	5307
841.975	5197
842.112	5269
842.249	5140
842.385	5136
842.522	5349
842.659	5193
842.796	5117
842.933	5208
843.069	5166
843.206	5166
843.343	5288
843.479	5269
843.616	5227
843.752	5048
843.889	4984
844.025	5246
844.162	5014
844.298	5231
844.435	5064
844.571	5071
844.708	5261
844.844	5326
844.98	5360
845.117	5269
845.253	5140
845.389	5109
845.525	5151
845.661	5113
845.798	5014
845.934	5105
846.07	5086
846.206	5231
846.342	5296
846.478	5189
846.614	5033
846.75	5022
846.886	4965
847.022	5174
847.158	4972
847.294	5060
847.429	5121
847.565	5014
847.701	5341
847.837	4820
847.972	4740
848.108	4991
848.244	4946
848.379	4831
848.515	4721
848.65	4694
848.786	4759
848.921	4744
849.057	4892
849.192	4881
849.328	4786
849.463	4809
849.598	4831
849.734	4767
849.869	4656
850.004	4641
850.14	4683
850.275	4584
850.41	4474
850.545	4588
850.68	4603
850.815	4634
850.95	4656
851.085	4889
851.22	4755
851.355	4664
851.49	4626
851.625	4672
851.76	4649
851.895	4512
852.03	4474
852.165	4630
852.299	4755
852.434	4759
852.569	4725
852.703	4725
852.838	4820
852.973	4965
853.107	4949
853.242	4729
853.376	4649
853.511	4558
853.645	4622
853.78	4786
853.914	4706
854.048	4645
854.183	4672
854.317	4729
854.451	4835
854.585	4717
854.72	4596
854.854	4744
854.988	4630
855.122	4656
855.256	4569
855.39	4618
855.524	4778
855.658	4763
855.792	4683
855.926	4721
856.06	4725
856.194	4793
856.327	4698
856.461	4634
856.595	4596
856.729	4653
856.862	4733
856.996	4763
857.13	4714
857.263	4729
857.397	4847
857.53	4637
857.664	4683
857.797	4752
857.931	4748
858.064	4710
858.197	4740
858.331	4691
858.464	4565
858.597	4550
858.731	4577
858.864	4637
858.997	4584
859.13	4691
859.263	4687
859.396	4714
859.529	4599
859.662	4542
859.795	4561
859.928	4687
860.061	4721
860.194	4755
860.327	4592
860.46	4577
860.592	4668
860.725	4717
860.858	4710
860.99	4554
861.123	4519
861.256	4519
861.388	4626
861.521	5174
861.653	4474
861.786	4512
861.918	4447
862.05	4516
862.183	4599
862.315	4599
862.447	4641
862.58	4538
862.712	4371
862.844	4344
862.976	4474
863.108	4462
863.24	4885
863.372	4322
863.504	4436
863.636	4394
863.768	4478
863.9	4417
864.032	4386
864.164	4440
864.296	4485
864.428	4542
864.559	4550
864.691	4508
864.823	4542
864.954	4516
865.086	4550
865.217	4523
865.349	4455
865.48	4417
865.612	4474
865.743	4588
865.875	4459
866.006	4474
866.137	4504
866.269	4443
866.4	4424
866.531	4474
866.662	4432
866.793	4402
866.924	4413
867.055	4474
867.186	4462
867.317	4421
867.448	4363
867.579	4375
867.71	4379
867.841	4371
867.972	4466
868.103	4470
868.233	4421
868.364	4390
868.495	4508
868.625	4668
868.756	4744
868.886	4569
869.017	4622
869.147	4744
869.278	4782
869.408	4641
869.539	4645
869.669	4649
869.799	4630
869.929	4752
870.06	4729
870.19	4987
870.32	4843
870.45	4923
870.58	5022
870.71	5060
870.84	5140
870.97	5003
871.1	4885
871.23	5132
871.36	5162
871.489	5029
871.619	5067
871.749	5060
871.879	5105
872.008	5193
872.138	5086
872.267	4961
872.397	4866
872.526	4847
872.656	4714
872.785	4790
872.915	4949
873.044	5018
873.173	4881
873.303	4927
873.432	4938
873.561	4934
873.69	4904
873.819	4839
873.948	4923
874.077	4835
874.206	4733
874.335	4805
874.464	4923
874.593	5033
874.722	4915
874.851	5098
874.979	5064
875.108	5105
875.237	4938
875.365	4892
875.494	4870
875.623	5033
875.751	4831
875.88	4923
876.008	4995
876.136	5029
876.265	5170
876.393	5341
876.521	5280
876.65	5242
876.778	5151
876.906	5056
877.034	5014
877.162	5010
877.29	5003
877.418	5037
877.546	5052
877.674	5056
877.802	5045
877.93	5003
878.058	4881
878.185	4885
878.313	4957
878.441	4961
878.568	4771
878.696	4854
878.824	4938
878.951	4972
879.079	5109
879.206	5296
879.333	5105
879.461	4968
879.588	5010
879.715	5105
879.842	5239
879.97	5025
880.097	4835
880.224	4759
880.351	4812
880.478	4805
880.605	4752
880.732	4778
880.859	5105
880.986	4927
881.112	4904
881.239	4790
881.366	4672
881.493	4641
881.619	4558
881.746	4656
881.872	4626
881.999	4634
882.125	4672
882.252	4771
882.378	4797
882.505	4953
882.631	4835
882.757	4672
882.883	4698
883.01	4714
883.136	4694
883.262	4645
883.388	4634
883.514	4847
883.64	4927
883.766	4839
883.892	4698
884.018	4702
884.143	4919
884.269	4984
884.395	4664
884.52	4683
884.646	4660
884.772	4580
884.897	4599
885.023	4679
885.148	4778
885.274	4831
885.399	4793
885.524	4706
885.65	4702
885.775	4706
885.9	4782
886.025	4805
886.15	4816
886.275	4748
886.4	4618
886.525	4714
886.65	4664
886.775	4729
886.9	4908
887.025	5060
887.149	4805
887.274	4683
887.399	4592
887.523	4580
887.648	4558
887.773	4615
887.897	4793
888.021	4786
888.146	4653
888.27	4763
888.395	4873
888.519	4809
888.643	4793
888.767	4820
888.891	4656
889.015	4573
889.139	4645
889.263	4592
889.387	4733
889.511	4862
889.635	4793
889.759	4653
889.883	4649
890.006	4706
890.13	4835
890.254	4592
890.377	4687
890.501	4573
890.624	4561
890.748	4641
890.871	4516
890.995	4428
891.118	4409
891.241	4497
891.364	4504
891.488	4691
891.611	4519
891.734	4542
891.857	4573
891.98	4558
892.103	4626
892.226	4607
892.349	4504
892.471	4440
892.594	4512
892.717	4641
892.839	4561
892.962	4569
893.085	4672
893.207	4603
893.33	4436
893.452	4519
893.575	4634
893.697	4558
893.819	4752
893.941	4793
894.064	4774
894.186	4573
894.308	4554
894.43	4729
894.552	4824
894.674	4740
894.796	4504
894.918	4649
895.04	4561
895.161	4649
895.283	4687
895.405	4554
895.526	4599
895.648	4645
895.769	4656
895.891	4736
896.012	4736
896.134	4717
896.255	4679
896.376	4630
896.498	4622
896.619	4672
896.74	4599
896.861	4675
896.982	4900
897.103	5079
897.224	4809
897.345	4687
897.466	4637
897.587	4755
897.708	4816
897.828	4763
897.949	4683
898.07	4538
898.19	4607
898.311	4812
898.431	4672
898.552	4694
898.672	4778
898.792	4816
898.913	4752
899.033	4618
899.153	4523
899.273	4440
899.393	4535
899.513	4538
899.633	4542
899.753	4523
899.873	4531
899.993	4573
900.113	4527
900.232	4660
900.352	4512
900.472	4512
900.591	4379
900.711	4470
900.83	4466
900.95	4653
901.069	4679
901.189	4565
901.308	4363
901.427	4295
901.546	4383
901.665	4440
901.784	4500
901.904	4398
902.023	4344
902.141	4196
902.26	4147
902.379	4284
902.498	4268
902.617	4207
902.735	4417
902.854	4390
902.973	4375
903.091	4234
903.21	4253
903.328	4360
903.446	4272
903.565	4291
903.683	4363
903.801	4242
903.919	4375
904.038	4402
904.156	4337
904.274	4428
904.392	4394
904.51	4413
904.627	4478
904.745	4588
904.863	4626
904.981	4402
905.098	4287
905.216	4360
905.334	4481
905.451	4405
905.569	4462
905.686	4531
905.803	4580
905.921	4413
906.038	4497
906.155	4504
906.272	4424
906.389	4440
906.506	4348
906.623	4367
906.74	4367
906.857	4303
906.974	4402
907.091	4577
907.208	4691
907.324	4565
907.441	4481
907.557	4348
907.674	4356
907.79	4280
907.907	4409
908.023	4493
908.139	4447
908.256	4436
908.372	4424
908.488	4421
908.604	4322
908.72	4360
908.836	4356
908.952	4333
909.068	4383
909.184	4603
909.3	4466
909.415	4584
909.531	4535
909.647	4379
909.762	4383
909.878	4318
909.993	4375
910.108	4390
910.224	4383
910.339	4459
910.454	4371
910.57	4367
910.685	4287
910.8	4630
910.915	4577
911.03	4451
911.145	4306
911.259	4314
911.374	4363
911.489	4333
911.604	4287
911.718	4135
911.833	4177
911.947	4112
912.062	4010
912.176	4238
912.291	4261
912.405	4257
912.519	4470
912.633	4500
912.748	4348
912.862	4337
912.976	4200
913.09	4059
913.204	4150
913.318	4287
913.431	4383
913.545	4348
913.659	4447
913.772	4363
913.886	4234
914	4181
914.113	4318
914.226	4440
914.34	4371
914.453	4238
914.566	4379
914.68	4291
914.793	4337
914.906	4090
915.019	4131
915.132	4086
915.245	4139
915.358	4207
915.47	4238
915.583	4295
915.696	4284
915.809	4417
915.921	4398
916.034	4253
916.146	4268
916.259	4200
916.371	4360
916.483	4379
916.595	4268
916.708	4348
916.82	4299
916.932	4306
917.044	4363
917.156	4348
917.268	4295
917.38	4265
917.491	4276
917.603	4352
917.715	4443
917.826	4462
917.938	4295
918.049	4265
918.161	4394
918.272	4565
918.384	4519
918.495	4424
918.606	4284
918.717	4246
918.828	4352
918.939	4375
919.05	4242
919.161	4325
919.272	4120
919.383	4238
919.494	4462
919.604	4656
919.715	4451
919.826	4322
919.936	4398
920.047	4523
920.157	4497
920.267	4748
920.378	4527
920.488	4500
920.598	4706
920.708	4839
920.818	4691
920.928	4774
921.038	4961
921.148	4885
921.258	4599
921.368	4550
921.477	4527
921.587	4478
921.697	4398
921.806	4554
921.916	4402
922.025	4246
922.134	4265
922.244	4253
922.353	4318
922.462	4181
922.571	4166
922.68	3994
922.789	3960
922.898	4051
923.007	4010
923.116	4086
923.224	4097
923.333	4078
923.442	3991
923.55	3968
923.659	4021
923.767	4082
923.876	4006
923.984	4120
924.092	3968
924.201	4131
924.309	4086
924.417	4105
924.525	4067
924.633	4131
924.741	5052
924.849	3945
924.956	4128
925.064	3972
925.172	3945
925.279	3941
925.387	4055
925.494	4082
925.602	4188
925.709	4192
925.816	4044
925.924	4086
926.031	4173
926.138	4177
926.245	4249
926.352	4112
926.459	4287
926.566	4329
926.673	4124
926.779	4040
926.886	4051
926.993	3994
927.099	3930
927.206	3915
927.312	3949
927.419	4078
927.525	4013
927.631	4105
927.737	3994
927.843	3956
927.95	3827
928.056	3922
928.162	3968
928.267	4071
928.373	4577
928.479	4112
928.585	3880
928.69	4025
928.796	4082
928.901	3991
929.007	3770
929.112	3983
929.218	4006
929.323	3949
929.428	3922
929.533	4109
929.638	3937
929.743	3930
929.848	4067
929.953	4013
930.058	3945
930.163	3770
930.267	3819
930.372	3964
930.477	3800
930.581	4124
930.685	3941
930.79	3854
930.894	3903
930.998	3869
931.103	4048
931.207	3682
931.311	3690
931.415	3682
931.519	3523
931.623	3587
