Data from test_V78500241_632.txt Node
Date: Fri Mar 25 16:53:23 CST 2022
User: usil
Spectrometer: V785-0024
Trigger mode: 0
Integration Time (sec): 4.000000E-1
Scans to average: 1
Nonlinearity correction enabled: false
Boxcar width: 0
Storing dark spectrum: false
XAxis mode: Wavelengths
Number of Pixels in Spectrum: 1024
>>>>>Begin Spectral Data<<<<<
801.071	8065
801.214	7967
801.356	7871
801.499	7750
801.641	7753
801.783	7871
801.926	7970
802.068	7928
802.211	7993
802.353	8069
802.496	7849
802.638	7868
802.78	7887
802.923	7909
803.065	7894
803.208	7788
803.35	7955
803.492	7959
803.635	8107
803.777	8065
803.919	8161
804.061	8389
804.204	8107
804.346	8046
804.488	7959
804.63	8027
804.773	7970
804.915	8134
805.057	8259
805.199	8123
805.341	8240
805.483	8301
805.626	8183
805.768	8157
805.91	8237
806.052	8214
806.194	8103
806.336	8225
806.478	8065
806.62	8043
806.762	8103
806.904	8183
807.046	8450
807.188	8351
807.33	8248
807.472	8301
807.614	8199
807.756	8096
807.898	7928
808.04	7871
808.182	7883
808.324	7860
808.465	7890
808.607	8088
808.749	8107
808.891	8240
809.033	8267
809.174	8107
809.316	8065
809.458	8073
809.6	7887
809.741	7974
809.883	7989
810.025	8020
810.166	8046
810.308	7974
810.45	7947
810.591	7871
810.733	7715
810.875	7628
811.016	7518
811.158	7499
811.299	7575
811.441	7772
811.582	7616
811.724	7594
811.865	7468
812.007	7518
812.148	7586
812.29	7639
812.431	7715
812.573	7845
812.714	7864
812.855	8134
812.997	8202
813.138	8355
813.279	8191
813.421	8111
813.562	7974
813.703	7864
813.845	7750
813.986	7480
814.127	7266
814.268	7217
814.41	7217
814.551	7065
814.692	7175
814.833	7107
814.974	7012
815.115	7099
815.256	6985
815.397	6920
815.539	6935
815.68	6863
815.821	6829
815.962	6871
816.103	6791
816.244	6673
816.385	6612
816.526	6601
816.666	6475
816.807	6342
816.948	6429
817.089	6460
817.23	6410
817.371	6380
817.512	6384
817.653	6372
817.793	6353
817.934	6403
818.075	6494
818.216	6429
818.356	6365
818.497	6232
818.638	6148
818.778	6057
818.919	6098
819.06	6152
819.2	6331
819.341	6281
819.481	6384
819.622	6475
819.762	6719
819.903	6654
820.043	6570
820.184	6585
820.324	6593
820.465	6570
820.605	6555
820.746	6582
820.886	6429
821.026	6627
821.167	6696
821.307	6814
821.447	6665
821.588	6665
821.728	6513
821.868	6456
822.008	6258
822.149	6372
822.289	6323
822.429	6087
822.569	6060
822.709	6114
822.849	5874
822.99	5844
823.13	5931
823.27	5878
823.41	5794
823.55	5733
823.69	5786
823.83	5794
823.97	5649
824.11	5547
824.25	5532
824.389	5528
824.529	5573
824.669	5528
824.809	5615
824.949	5680
825.089	5661
825.228	5539
825.368	5436
825.508	5341
825.648	5349
825.787	5387
825.927	5387
826.067	5265
826.206	5261
826.346	5402
826.485	5429
826.625	5444
826.765	5581
826.904	5471
827.044	5307
827.183	5212
827.323	5174
827.462	5265
827.601	5170
827.741	5185
827.88	5223
828.02	5140
828.159	5258
828.298	5277
828.437	5395
828.577	5326
828.716	5547
828.855	5364
828.994	5166
829.134	5102
829.273	5208
829.412	5162
829.551	5117
829.69	5174
829.829	5303
829.968	5402
830.107	5277
830.246	5299
830.385	5239
830.524	5197
830.663	5086
830.802	5045
830.941	4896
831.08	4980
831.219	5010
831.357	5064
831.496	5227
831.635	4972
831.774	4835
831.913	4892
832.051	4790
832.19	4801
832.329	4854
832.467	4744
832.606	4687
832.744	4752
832.883	4778
833.022	4790
833.16	4824
833.299	4885
833.437	4866
833.576	4870
833.714	4889
833.852	4934
833.991	4904
834.129	5014
834.267	5014
834.406	4938
834.544	4972
834.682	5006
834.821	5025
834.959	5189
835.097	4987
835.235	5117
835.373	5105
835.511	5147
835.65	5094
835.788	5094
835.926	4953
836.064	4870
836.202	4923
836.34	5231
836.478	5273
836.615	5166
836.753	5250
836.891	5292
837.029	5265
837.167	5223
837.305	5178
837.443	5151
837.58	5105
837.718	5269
837.856	5174
837.993	5216
838.131	5299
838.269	5220
838.406	5197
838.544	5235
838.681	5033
838.819	5098
838.956	4957
839.094	4991
839.231	5045
839.369	5086
839.506	5505
839.643	5296
839.781	5086
839.918	5014
840.055	5147
840.193	5128
840.33	5140
840.467	5159
840.604	5220
840.742	5467
840.879	5064
841.016	5094
841.153	5159
841.29	5429
841.427	5391
841.564	5337
841.701	5353
841.838	5376
841.975	5277
842.112	5360
842.249	5143
842.385	5124
842.522	5364
842.659	5159
842.796	5178
842.933	5258
843.069	5174
843.206	5208
843.343	5315
843.479	5326
843.616	5311
843.752	5075
843.889	5010
844.025	5242
844.162	5029
844.298	5246
844.435	5083
844.571	5052
844.708	5220
844.844	5334
844.98	5357
845.117	5326
845.253	5147
845.389	5102
845.525	5220
845.661	5147
845.798	5079
845.934	5201
846.07	5033
846.206	5193
846.342	5292
846.478	5185
846.614	5056
846.75	4991
846.886	4911
847.022	5132
847.158	5033
847.294	5056
847.429	5128
847.565	5060
847.701	5337
847.837	4881
847.972	4824
848.108	4984
848.244	4942
848.379	4835
848.515	4816
848.65	4729
848.786	4763
848.921	4809
849.057	4908
849.192	4919
849.328	4870
849.463	4877
849.598	4809
849.734	4759
849.869	4698
850.004	4653
850.14	4694
850.275	4645
850.41	4558
850.545	4561
850.68	4630
850.815	4672
850.95	4656
851.085	4877
851.22	4755
851.355	4691
851.49	4615
851.625	4679
851.76	4683
851.895	4584
852.03	4535
852.165	4691
852.299	4763
852.434	4809
852.569	4771
852.703	4835
852.838	4839
852.973	4938
853.107	4957
853.242	4763
853.376	4675
853.511	4607
853.645	4672
853.78	4812
853.914	4740
854.048	4778
854.183	4634
854.317	4717
854.451	4949
854.585	4683
854.72	4653
854.854	4782
854.988	4618
855.122	4668
855.256	4504
855.39	4687
855.524	4866
855.658	4744
855.792	4736
855.926	4755
856.06	4767
856.194	4771
856.327	4721
856.461	4656
856.595	4675
856.729	4645
856.862	4767
856.996	4710
857.13	4812
857.263	4744
857.397	4843
857.53	4721
857.664	4782
857.797	4778
857.931	4816
858.064	4706
858.197	4755
858.331	4664
858.464	4615
858.597	4527
858.731	4698
858.864	4664
858.997	4588
859.13	4656
859.263	4763
859.396	4725
859.529	4626
859.662	4573
859.795	4538
859.928	4641
860.061	4854
860.194	4797
860.327	4618
860.46	4584
860.592	4778
860.725	4774
860.858	4759
860.99	4603
861.123	4542
861.256	4542
861.388	4634
861.521	5337
861.653	4516
861.786	4459
861.918	4512
862.05	4580
862.183	4577
862.315	4637
862.447	4653
862.58	4573
862.712	4421
862.844	4390
862.976	4481
863.108	4474
863.24	4877
863.372	4386
863.504	4390
863.636	4436
863.768	4512
863.9	4447
864.032	4398
864.164	4451
864.296	4538
864.428	4611
864.559	4588
864.691	4535
864.823	4558
864.954	4519
865.086	4531
865.217	4489
865.349	4390
865.48	4508
865.612	4508
865.743	4679
865.875	4504
866.006	4459
866.137	4512
866.269	4500
866.4	4478
866.531	4409
866.662	4417
866.793	4474
866.924	4455
867.055	4519
867.186	4443
867.317	4489
867.448	4402
867.579	4405
867.71	4402
867.841	4398
867.972	4462
868.103	4504
868.233	4493
868.364	4466
868.495	4493
868.625	4687
868.756	4778
868.886	4603
869.017	4626
869.147	4801
869.278	4721
869.408	4691
869.539	4653
869.669	4729
869.799	4687
869.929	4778
870.06	4755
870.19	4957
870.32	4953
870.45	4965
870.58	5014
870.71	5113
870.84	5041
870.97	4972
871.1	4919
871.23	5151
871.36	5151
871.489	5025
871.619	5143
871.749	5147
871.879	5109
872.008	5159
872.138	5052
872.267	5003
872.397	4847
872.526	4793
872.656	4771
872.785	4805
872.915	4961
873.044	5064
873.173	4942
873.303	4957
873.432	5014
873.561	4957
873.69	4831
873.819	4911
873.948	4953
874.077	4866
874.206	4733
874.335	4839
874.464	4965
874.593	5109
874.722	4995
874.851	5136
874.979	5071
875.108	5029
875.237	4930
875.365	4915
875.494	4927
875.623	4984
875.751	4847
875.88	4923
876.008	4984
876.136	5045
876.265	5239
876.393	5368
876.521	5261
876.65	5269
876.778	5155
876.906	5064
877.034	5022
877.162	4999
877.29	5029
877.418	5102
877.546	5075
877.674	5052
877.802	5018
877.93	4995
878.058	4904
878.185	4904
878.313	4984
878.441	4961
878.568	4843
878.696	4915
878.824	4968
878.951	5048
879.079	5143
879.206	5239
879.333	5170
879.461	4972
879.588	4984
879.715	5189
879.842	5235
879.97	5083
880.097	4843
880.224	4736
880.351	4820
880.478	4881
880.605	4831
880.732	4801
880.859	5147
880.986	4949
881.112	4908
881.239	4774
881.366	4736
881.493	4626
881.619	4630
881.746	4634
881.872	4683
881.999	4660
882.125	4725
882.252	4824
882.378	4854
882.505	4991
882.631	4790
882.757	4668
882.883	4763
883.01	4748
883.136	4683
883.262	4634
883.388	4626
883.514	4816
883.64	4908
883.766	4828
883.892	4634
884.018	4729
884.143	4938
884.269	5025
884.395	4721
884.52	4664
884.646	4702
884.772	4622
884.897	4565
885.023	4733
885.148	4771
885.274	4881
885.399	4793
885.524	4729
885.65	4710
885.775	4786
885.9	4771
886.025	4809
886.15	4805
886.275	4691
886.4	4714
886.525	4733
886.65	4672
886.775	4725
886.9	4930
887.025	5071
887.149	4820
887.274	4679
887.399	4573
887.523	4634
887.648	4607
887.773	4558
887.897	4843
888.021	4790
888.146	4736
888.27	4885
888.395	4919
888.519	4782
888.643	4816
888.767	4847
888.891	4698
889.015	4668
889.139	4668
889.263	4607
889.387	4740
889.511	4930
889.635	4793
889.759	4672
889.883	4645
890.006	4752
890.13	4790
890.254	4656
890.377	4721
890.501	4538
890.624	4519
890.748	4660
890.871	4519
890.995	4504
891.118	4428
891.241	4527
891.364	4561
891.488	4622
891.611	4478
891.734	4546
891.857	4649
891.98	4554
892.103	4607
892.226	4668
892.349	4554
892.471	4394
892.594	4596
892.717	4599
892.839	4558
892.962	4596
893.085	4649
893.207	4603
893.33	4451
893.452	4523
893.575	4615
893.697	4565
893.819	4816
893.941	4831
894.064	4759
894.186	4592
894.308	4588
894.43	4782
894.552	4828
894.674	4763
894.796	4550
894.918	4622
895.04	4592
895.161	4675
895.283	4672
895.405	4569
895.526	4641
895.648	4645
895.769	4733
895.891	4729
896.012	4729
896.134	4755
896.255	4672
896.376	4611
896.498	4637
896.619	4725
896.74	4611
896.861	4679
896.982	4900
897.103	5083
897.224	4839
897.345	4771
897.466	4687
897.587	4771
897.708	4900
897.828	4816
897.949	4733
898.07	4558
898.19	4691
898.311	4866
898.431	4649
898.552	4717
898.672	4812
898.792	4805
898.913	4725
899.033	4645
899.153	4531
899.273	4459
899.393	4470
899.513	4497
899.633	4519
899.753	4546
899.873	4504
899.993	4573
900.113	4527
900.232	4634
900.352	4550
900.472	4443
900.591	4470
900.711	4500
900.83	4462
900.95	4645
901.069	4653
901.189	4481
901.308	4356
901.427	4314
901.546	4360
901.665	4455
901.784	4497
901.904	4398
902.023	4371
902.141	4211
902.26	4173
902.379	4322
902.498	4246
902.617	4230
902.735	4341
902.854	4367
902.973	4337
903.091	4207
903.21	4272
903.328	4310
903.446	4284
903.565	4295
903.683	4344
903.801	4261
903.919	4424
904.038	4485
904.156	4356
904.274	4485
904.392	4455
904.51	4455
904.627	4519
904.745	4573
904.863	4649
904.981	4443
905.098	4352
905.216	4402
905.334	4489
905.451	4474
905.569	4497
905.686	4561
905.803	4519
905.921	4474
906.038	4618
906.155	4546
906.272	4466
906.389	4485
906.506	4405
906.623	4451
906.74	4485
906.857	4291
906.974	4417
907.091	4554
907.208	4694
907.324	4664
907.441	4519
907.557	4383
907.674	4417
907.79	4394
907.907	4424
908.023	4523
908.139	4493
908.256	4432
908.372	4519
908.488	4519
908.604	4405
908.72	4421
908.836	4440
908.952	4413
909.068	4478
909.184	4599
909.3	4508
909.415	4626
909.531	4626
909.647	4398
909.762	4455
909.878	4344
909.993	4481
910.108	4455
910.224	4451
910.339	4531
910.454	4459
910.57	4440
910.685	4356
910.8	4706
910.915	4656
911.03	4538
911.145	4367
911.259	4363
911.374	4402
911.489	4329
911.604	4367
911.718	4242
911.833	4257
911.947	4101
912.062	4131
912.176	4257
912.291	4291
912.405	4306
912.519	4573
912.633	4561
912.748	4402
912.862	4405
912.976	4204
913.09	4185
913.204	4200
913.318	4295
913.431	4405
913.545	4417
913.659	4432
913.772	4466
913.886	4314
914	4249
914.113	4466
914.226	4455
914.34	4451
914.453	4280
914.566	4447
914.68	4363
914.793	4333
914.906	4238
915.019	4154
915.132	4154
915.245	4192
915.358	4242
915.47	4318
915.583	4363
915.696	4352
915.809	4462
915.921	4436
916.034	4272
916.146	4314
916.259	4261
916.371	4417
916.483	4333
916.595	4272
916.708	4390
916.82	4375
916.932	4383
917.044	4386
917.156	4310
917.268	4215
917.38	4318
917.491	4249
917.603	4379
917.715	4516
917.826	4485
917.938	4352
918.049	4295
918.161	4447
918.272	4573
918.384	4565
918.495	4462
918.606	4306
918.717	4276
918.828	4329
918.939	4390
919.05	4303
919.161	4379
919.272	4135
919.383	4306
919.494	4512
919.604	4687
919.715	4493
919.826	4379
919.936	4421
920.047	4592
920.157	4500
920.267	4744
920.378	4577
920.488	4542
920.598	4755
920.708	4942
920.818	4786
920.928	4763
921.038	4987
921.148	4972
921.258	4675
921.368	4584
921.477	4485
921.587	4519
921.697	4417
921.806	4637
921.916	4478
922.025	4310
922.134	4299
922.244	4284
922.353	4394
922.462	4177
922.571	4181
922.68	4059
922.789	4010
922.898	4093
923.007	3994
923.116	4185
923.224	4093
923.333	4105
923.442	4021
923.55	3979
923.659	4036
923.767	4185
923.876	4021
923.984	4097
924.092	4002
924.201	4116
924.309	4120
924.417	4181
924.525	4097
924.633	4147
924.741	5079
924.849	3941
924.956	4150
925.064	3926
925.172	3956
925.279	3964
925.387	4093
925.494	4082
925.602	4204
925.709	4257
925.816	4067
925.924	4185
926.031	4268
926.138	4181
926.245	4280
926.352	4112
926.459	4268
926.566	4386
926.673	4158
926.779	4116
926.886	4109
926.993	4032
927.099	4017
927.206	3991
927.312	3953
927.419	4101
927.525	4059
927.631	4124
927.737	4010
927.843	3956
927.95	3888
928.056	3983
928.162	4013
928.267	4067
928.373	4717
928.479	4147
928.585	3884
928.69	4059
928.796	4120
928.901	3983
929.007	3911
929.112	4010
929.218	4021
929.323	3987
929.428	3968
929.533	4158
929.638	3945
929.743	3994
929.848	4067
929.953	4006
930.058	3956
930.163	3804
930.267	3838
930.372	4025
930.477	3808
930.581	4078
930.685	4006
930.79	3880
930.894	3922
930.998	3861
931.103	4067
931.207	3705
931.311	3713
931.415	3694
931.519	3519
931.623	3576
