Data from test_V78500241_87.txt Node
Date: Fri Mar 25 16:49:36 CST 2022
User: usil
Spectrometer: V785-0024
Trigger mode: 0
Integration Time (sec): 4.000000E-1
Scans to average: 1
Nonlinearity correction enabled: false
Boxcar width: 0
Storing dark spectrum: false
XAxis mode: Wavelengths
Number of Pixels in Spectrum: 1024
>>>>>Begin Spectral Data<<<<<
801.071	8050
801.214	8077
801.356	7913
801.499	7959
801.641	7875
801.783	7879
801.926	8001
802.068	8001
802.211	7993
802.353	8027
802.496	7951
802.638	7974
802.78	8008
802.923	7944
803.065	7928
803.208	7879
803.35	7970
803.492	8073
803.635	8103
803.777	7997
803.919	8138
804.061	8404
804.204	8069
804.346	8043
804.488	7925
804.63	8134
804.773	7982
804.915	8058
805.057	8294
805.199	8126
805.341	8206
805.483	8187
805.626	8206
805.768	8115
805.91	8176
806.052	8187
806.194	8096
806.336	8279
806.478	8111
806.62	8103
806.762	8259
806.904	8267
807.046	8454
807.188	8328
807.33	8298
807.472	8347
807.614	8145
807.756	8153
807.898	8046
808.04	7932
808.182	7871
808.324	7852
808.465	7909
808.607	8020
808.749	8027
808.891	8187
809.033	8343
809.174	8100
809.316	8077
809.458	8073
809.6	8005
809.741	8035
809.883	8020
810.025	8100
810.166	8046
810.308	8062
810.45	8005
810.591	7959
810.733	7742
810.875	7753
811.016	7559
811.158	7529
811.299	7613
811.441	7765
811.582	7685
811.724	7613
811.865	7666
812.007	7681
812.148	7693
812.29	7674
812.431	7792
812.573	7951
812.714	8092
812.855	8176
812.997	8240
813.138	8400
813.279	8233
813.421	8202
813.562	8069
813.703	7989
813.845	7757
813.986	7460
814.127	7339
814.268	7263
814.41	7221
814.551	7198
814.692	7270
814.833	7156
814.974	7152
815.115	7152
815.256	6970
815.397	6890
815.539	6932
815.68	6818
815.821	6772
815.962	6905
816.103	6802
816.244	6673
816.385	6601
816.526	6646
816.666	6532
816.807	6361
816.948	6490
817.089	6517
817.23	6502
817.371	6357
817.512	6414
817.653	6418
817.793	6372
817.934	6426
818.075	6490
818.216	6437
818.356	6479
818.497	6304
818.638	6213
818.778	6159
818.919	6140
819.06	6190
819.2	6395
819.341	6365
819.481	6433
819.622	6547
819.762	6768
819.903	6779
820.043	6593
820.184	6582
820.324	6681
820.465	6821
820.605	6722
820.746	6669
820.886	6578
821.026	6677
821.167	6772
821.307	6829
821.447	6798
821.588	6612
821.728	6528
821.868	6578
822.008	6399
822.149	6384
822.289	6372
822.429	6205
822.569	6087
822.709	6121
822.849	5946
822.99	5988
823.13	5912
823.27	5958
823.41	5836
823.55	5794
823.69	5859
823.83	5767
823.97	5737
824.11	5577
824.25	5520
824.389	5611
824.529	5570
824.669	5520
824.809	5672
824.949	5718
825.089	5608
825.228	5592
825.368	5414
825.508	5387
825.648	5372
825.787	5417
825.927	5315
826.067	5353
826.206	5288
826.346	5474
826.485	5433
826.625	5478
826.765	5535
826.904	5497
827.044	5269
827.183	5201
827.323	5178
827.462	5258
827.601	5193
827.741	5231
827.88	5223
828.02	5155
828.159	5250
828.298	5322
828.437	5459
828.577	5330
828.716	5490
828.855	5376
828.994	5185
829.134	5197
829.273	5231
829.412	5166
829.551	5155
829.69	5185
829.829	5246
829.968	5322
830.107	5322
830.246	5273
830.385	5254
830.524	5185
830.663	5067
830.802	4995
830.941	4968
831.08	4866
831.219	5018
831.357	5052
831.496	5162
831.635	4919
831.774	4892
831.913	4870
832.051	4698
832.19	4801
832.329	4911
832.467	4702
832.606	4668
832.744	4733
832.883	4767
833.022	4755
833.16	4805
833.299	4824
833.437	4866
833.576	4847
833.714	4892
833.852	4850
833.991	4911
834.129	4995
834.267	5006
834.406	4942
834.544	5006
834.682	5006
834.821	4942
834.959	5239
835.097	5048
835.235	5147
835.373	5113
835.511	5143
835.65	5045
835.788	5025
835.926	4938
836.064	4892
836.202	4957
836.34	5216
836.478	5208
836.615	5143
836.753	5216
836.891	5292
837.029	5288
837.167	5227
837.305	5212
837.443	5178
837.58	5014
837.718	5212
837.856	5235
837.993	5162
838.131	5292
838.269	5239
838.406	5216
838.544	5159
838.681	5102
838.819	5018
838.956	4915
839.094	4938
839.231	5018
839.369	5075
839.506	5448
839.643	5277
839.781	5060
839.918	5033
840.055	5105
840.193	5121
840.33	5132
840.467	5132
840.604	5181
840.742	5497
840.879	5033
841.016	5124
841.153	5170
841.29	5406
841.427	5379
841.564	5334
841.701	5383
841.838	5334
841.975	5284
842.112	5280
842.249	5124
842.385	5128
842.522	5341
842.659	5143
842.796	5197
842.933	5189
843.069	5185
843.206	5136
843.343	5318
843.479	5235
843.616	5254
843.752	5060
843.889	4980
844.025	5204
844.162	5041
844.298	5235
844.435	5117
844.571	5147
844.708	5258
844.844	5330
844.98	5322
845.117	5307
845.253	5159
845.389	5090
845.525	5208
845.661	5162
845.798	5079
845.934	5105
846.07	5136
846.206	5208
846.342	5258
846.478	5189
846.614	5022
846.75	5037
846.886	5003
847.022	5159
847.158	5045
847.294	5067
847.429	5151
847.565	5041
847.701	5372
847.837	4877
847.972	4805
848.108	4915
848.244	4911
848.379	4786
848.515	4774
848.65	4759
848.786	4755
848.921	4771
849.057	4854
849.192	4923
849.328	4782
849.463	4904
849.598	4797
849.734	4793
849.869	4736
850.004	4691
850.14	4679
850.275	4668
850.41	4565
850.545	4611
850.68	4679
850.815	4660
850.95	4653
851.085	4824
851.22	4782
851.355	4710
851.49	4626
851.625	4596
851.76	4656
851.895	4538
852.03	4577
852.165	4615
852.299	4733
852.434	4778
852.569	4782
852.703	4809
852.838	4839
852.973	4949
853.107	4938
853.242	4733
853.376	4660
853.511	4569
853.645	4630
853.78	4809
853.914	4717
854.048	4710
854.183	4675
854.317	4710
854.451	4843
854.585	4691
854.72	4641
854.854	4786
854.988	4558
855.122	4637
855.256	4538
855.39	4706
855.524	4812
855.658	4736
855.792	4733
855.926	4729
856.06	4729
856.194	4824
856.327	4668
856.461	4675
856.595	4637
856.729	4641
856.862	4782
856.996	4706
857.13	4755
857.263	4805
857.397	4854
857.53	4694
857.664	4725
857.797	4782
857.931	4725
858.064	4664
858.197	4748
858.331	4683
858.464	4660
858.597	4550
858.731	4618
858.864	4615
858.997	4615
859.13	4698
859.263	4729
859.396	4710
859.529	4630
859.662	4577
859.795	4599
859.928	4679
860.061	4771
860.194	4744
860.327	4656
860.46	4653
860.592	4725
860.725	4710
860.858	4748
860.99	4615
861.123	4535
861.256	4569
861.388	4656
861.521	5284
861.653	4474
861.786	4466
861.918	4474
862.05	4531
862.183	4592
862.315	4618
862.447	4675
862.58	4577
862.712	4417
862.844	4360
862.976	4516
863.108	4497
863.24	4919
863.372	4344
863.504	4466
863.636	4413
863.768	4493
863.9	4421
864.032	4386
864.164	4402
864.296	4500
864.428	4535
864.559	4580
864.691	4584
864.823	4573
864.954	4516
865.086	4542
865.217	4481
865.349	4417
865.48	4474
865.612	4500
865.743	4641
865.875	4481
866.006	4440
866.137	4489
866.269	4493
866.4	4394
866.531	4481
866.662	4428
866.793	4436
866.924	4485
867.055	4561
867.186	4500
867.317	4436
867.448	4375
867.579	4394
867.71	4375
867.841	4402
867.972	4478
868.103	4474
868.233	4474
868.364	4470
868.495	4474
868.625	4721
868.756	4752
868.886	4580
869.017	4656
869.147	4786
869.278	4797
869.408	4668
869.539	4706
869.669	4729
869.799	4668
869.929	4759
870.06	4752
870.19	4999
870.32	4949
870.45	4976
870.58	5041
870.71	5117
870.84	5170
870.97	4965
871.1	4972
871.23	5178
871.36	5193
871.489	5067
871.619	5083
871.749	5079
871.879	5162
872.008	5185
872.138	5033
872.267	4984
872.397	4885
872.526	4831
872.656	4736
872.785	4809
872.915	4961
873.044	5117
873.173	4961
873.303	4987
873.432	4949
873.561	5010
873.69	4881
873.819	4911
873.948	4946
874.077	4858
874.206	4778
874.335	4858
874.464	5003
874.593	5109
874.722	5025
874.851	5128
874.979	5132
875.108	5105
875.237	4961
875.365	4877
875.494	4919
875.623	5010
875.751	4847
875.88	4946
876.008	4987
876.136	5041
876.265	5197
876.393	5334
876.521	5273
876.65	5250
876.778	5162
876.906	5113
877.034	5037
877.162	5071
877.29	5022
877.418	5086
877.546	5033
877.674	5117
877.802	5064
877.93	5010
878.058	4949
878.185	4870
878.313	5041
878.441	4938
878.568	4797
878.696	4915
878.824	4965
878.951	4995
879.079	5201
879.206	5326
879.333	5132
879.461	5006
879.588	5067
879.715	5143
879.842	5284
879.97	5033
880.097	4831
880.224	4755
880.351	4805
880.478	4873
880.605	4824
880.732	4839
880.859	5109
880.986	4927
881.112	4953
881.239	4805
881.366	4687
881.493	4622
881.619	4603
881.746	4645
881.872	4679
881.999	4706
882.125	4706
882.252	4831
882.378	4877
882.505	5014
882.631	4824
882.757	4721
882.883	4774
883.01	4771
883.136	4721
883.262	4626
883.388	4626
883.514	4812
883.64	4911
883.766	4885
883.892	4721
884.018	4740
884.143	4915
884.269	5094
884.395	4721
884.52	4599
884.646	4706
884.772	4656
884.897	4584
885.023	4634
885.148	4850
885.274	4866
885.399	4854
885.524	4744
885.65	4744
885.775	4729
885.9	4733
886.025	4873
886.15	4828
886.275	4744
886.4	4679
886.525	4714
886.65	4729
886.775	4687
886.9	4972
887.025	5060
887.149	4824
887.274	4664
887.399	4626
887.523	4573
887.648	4569
887.773	4584
887.897	4733
888.021	4790
888.146	4744
888.27	4797
888.395	4995
888.519	4816
888.643	4793
888.767	4809
888.891	4698
889.015	4615
889.139	4694
889.263	4538
889.387	4755
889.511	4915
889.635	4809
889.759	4672
889.883	4729
890.006	4790
890.13	4885
890.254	4626
890.377	4687
890.501	4588
890.624	4588
890.748	4675
890.871	4565
890.995	4489
891.118	4470
891.241	4599
891.364	4531
891.488	4622
891.611	4527
891.734	4542
891.857	4641
891.98	4561
892.103	4725
892.226	4615
892.349	4527
892.471	4478
892.594	4554
892.717	4637
892.839	4596
892.962	4607
893.085	4740
893.207	4653
893.33	4493
893.452	4550
893.575	4698
893.697	4584
893.819	4812
893.941	4881
894.064	4755
894.186	4577
894.308	4618
894.43	4740
894.552	4839
894.674	4812
894.796	4580
894.918	4561
895.04	4577
895.161	4748
895.283	4694
895.405	4611
895.526	4672
895.648	4706
895.769	4759
895.891	4725
896.012	4759
896.134	4664
896.255	4672
896.376	4660
896.498	4664
896.619	4725
896.74	4641
896.861	4736
896.982	4957
897.103	5102
897.224	4820
897.345	4752
897.466	4668
897.587	4763
897.708	4896
897.828	4771
897.949	4710
898.07	4588
898.19	4668
898.311	4824
898.431	4668
898.552	4706
898.672	4828
898.792	4828
898.913	4755
899.033	4607
899.153	4512
899.273	4462
899.393	4523
899.513	4580
899.633	4565
899.753	4538
899.873	4493
899.993	4565
900.113	4531
900.232	4622
900.352	4554
900.472	4493
900.591	4405
900.711	4561
900.83	4459
900.95	4664
901.069	4702
901.189	4561
901.308	4337
901.427	4344
901.546	4398
901.665	4508
901.784	4554
901.904	4409
902.023	4291
902.141	4257
902.26	4158
902.379	4314
902.498	4284
902.617	4242
902.735	4413
902.854	4405
902.973	4367
903.091	4242
903.21	4242
903.328	4337
903.446	4287
903.565	4318
903.683	4386
903.801	4280
903.919	4424
904.038	4417
904.156	4322
904.274	4474
904.392	4455
904.51	4417
904.627	4508
904.745	4546
904.863	4634
904.981	4428
905.098	4306
905.216	4386
905.334	4478
905.451	4447
905.569	4485
905.686	4527
905.803	4588
905.921	4478
906.038	4588
906.155	4497
906.272	4352
906.389	4497
906.506	4375
906.623	4421
906.74	4447
906.857	4322
906.974	4398
907.091	4569
907.208	4714
907.324	4645
907.441	4493
907.557	4383
907.674	4394
907.79	4348
907.907	4390
908.023	4493
908.139	4504
908.256	4436
908.372	4485
908.488	4470
908.604	4348
908.72	4405
908.836	4436
908.952	4390
909.068	4466
909.184	4592
909.3	4550
909.415	4618
909.531	4607
909.647	4379
909.762	4386
909.878	4409
909.993	4447
910.108	4421
910.224	4485
910.339	4535
910.454	4421
910.57	4356
910.685	4318
910.8	4691
910.915	4607
911.03	4516
911.145	4402
911.259	4413
911.374	4394
911.489	4295
911.604	4284
911.718	4192
911.833	4219
911.947	4124
912.062	4059
912.176	4246
912.291	4276
912.405	4299
912.519	4489
912.633	4459
912.748	4413
912.862	4386
912.976	4169
913.09	4124
913.204	4181
913.318	4287
913.431	4379
913.545	4363
913.659	4470
913.772	4398
913.886	4230
914	4230
914.113	4379
914.226	4440
914.34	4405
914.453	4284
914.566	4443
914.68	4329
914.793	4337
914.906	4154
915.019	4177
915.132	4112
915.245	4257
915.358	4272
915.47	4265
915.583	4265
915.696	4337
915.809	4421
915.921	4417
916.034	4295
916.146	4265
916.259	4265
916.371	4375
916.483	4367
916.595	4276
916.708	4325
916.82	4333
916.932	4341
917.044	4356
917.156	4402
917.268	4249
917.38	4295
917.491	4341
917.603	4360
917.715	4443
917.826	4440
917.938	4398
918.049	4261
918.161	4470
918.272	4546
918.384	4508
918.495	4459
918.606	4348
918.717	4280
918.828	4360
918.939	4383
919.05	4223
919.161	4363
919.272	4131
919.383	4249
919.494	4489
919.604	4637
919.715	4428
919.826	4398
919.936	4485
920.047	4573
920.157	4504
920.267	4774
920.378	4592
920.488	4527
920.598	4744
920.708	4927
920.818	4763
920.928	4748
921.038	4987
921.148	4915
921.258	4698
921.368	4622
921.477	4470
921.587	4508
921.697	4367
921.806	4565
921.916	4478
922.025	4276
922.134	4325
922.244	4242
922.353	4333
922.462	4150
922.571	4154
922.68	4074
922.789	4036
922.898	4078
923.007	4002
923.116	4101
923.224	4101
923.333	4082
923.442	4036
923.55	4025
923.659	4082
923.767	4158
923.876	3991
923.984	4162
924.092	3972
924.201	4105
924.309	4082
924.417	4147
924.525	4105
924.633	4128
924.741	4892
924.849	3907
924.956	4124
925.064	4006
925.172	3960
925.279	3968
925.387	4074
925.494	4109
925.602	4215
925.709	4200
925.816	4029
925.924	4181
926.031	4257
926.138	4150
926.245	4223
926.352	4105
926.459	4257
926.566	4383
926.673	4200
926.779	4112
926.886	4116
926.993	4021
927.099	3930
927.206	3926
927.312	3968
927.419	4093
927.525	4029
927.631	4067
927.737	3991
927.843	3930
927.95	3865
928.056	3987
928.162	3987
928.267	4071
928.373	4653
928.479	4116
928.585	3884
928.69	4067
928.796	4128
928.901	3953
929.007	3838
929.112	4013
929.218	4013
929.323	3934
929.428	3937
929.533	4112
929.638	3934
929.743	3983
929.848	4067
929.953	3994
930.058	3926
930.163	3778
930.267	3819
930.372	4006
930.477	3842
930.581	4044
930.685	4002
930.79	3869
930.894	3911
930.998	3861
931.103	4017
931.207	3740
931.311	3713
931.415	3686
931.519	3568
931.623	3576
