Data from test_V78500241_869.txt Node
Date: Fri Mar 25 16:55:02 CST 2022
User: usil
Spectrometer: V785-0024
Trigger mode: 0
Integration Time (sec): 4.000000E-1
Scans to average: 1
Nonlinearity correction enabled: false
Boxcar width: 0
Storing dark spectrum: false
XAxis mode: Wavelengths
Number of Pixels in Spectrum: 1024
>>>>>Begin Spectral Data<<<<<
801.071	8043
801.214	8012
801.356	7951
801.499	7913
801.641	7799
801.783	7898
801.926	7974
802.068	7917
802.211	7928
802.353	7963
802.496	7830
802.638	7864
802.78	7925
802.923	7890
803.065	7898
803.208	7917
803.35	8005
803.492	8069
803.635	8149
803.777	8035
803.919	8130
804.061	8381
804.204	8073
804.346	8058
804.488	7963
804.63	8111
804.773	8046
804.915	8027
805.057	8259
805.199	8172
805.341	8187
805.483	8252
805.626	8103
805.768	8001
805.91	8180
806.052	8153
806.194	8142
806.336	8267
806.478	8050
806.62	8081
806.762	8134
806.904	8256
807.046	8480
807.188	8362
807.33	8309
807.472	8286
807.614	8229
807.756	8058
807.898	8081
808.04	7852
808.182	7864
808.324	7875
808.465	7875
808.607	8008
808.749	8039
808.891	8202
809.033	8282
809.174	8225
809.316	8043
809.458	8012
809.6	8016
809.741	8008
809.883	7951
810.025	8062
810.166	8062
810.308	7970
810.45	8012
810.591	7871
810.733	7765
810.875	7704
811.016	7521
811.158	7483
811.299	7609
811.441	7700
811.582	7719
811.724	7537
811.865	7533
812.007	7594
812.148	7620
812.29	7582
812.431	7696
812.573	7818
812.714	8012
812.855	8100
812.997	8183
813.138	8301
813.279	8161
813.421	8119
813.562	8005
813.703	7841
813.845	7792
813.986	7525
814.127	7240
814.268	7168
814.41	7145
814.551	7149
814.692	7103
814.833	7061
814.974	7031
815.115	7076
815.256	6958
815.397	6909
815.539	6943
815.68	6852
815.821	6783
815.962	6844
816.103	6814
816.244	6715
816.385	6673
816.526	6639
816.666	6502
816.807	6304
816.948	6395
817.089	6399
817.23	6528
817.371	6327
817.512	6414
817.653	6391
817.793	6342
817.934	6460
818.075	6410
818.216	6395
818.356	6350
818.497	6201
818.638	6121
818.778	6140
818.919	6083
819.06	6114
819.2	6281
819.341	6346
819.481	6342
819.622	6506
819.762	6726
819.903	6681
820.043	6635
820.184	6582
820.324	6578
820.465	6681
820.605	6646
820.746	6608
820.886	6502
821.026	6650
821.167	6726
821.307	6734
821.447	6787
821.588	6642
821.728	6521
821.868	6502
822.008	6300
822.149	6414
822.289	6289
822.429	6057
822.569	6057
822.709	6155
822.849	5958
822.99	5935
823.13	5897
823.27	5920
823.41	5824
823.55	5870
823.69	5802
823.83	5817
823.97	5691
824.11	5528
824.25	5509
824.389	5585
824.529	5623
824.669	5512
824.809	5646
824.949	5718
825.089	5649
825.228	5562
825.368	5398
825.508	5349
825.648	5398
825.787	5379
825.927	5410
826.067	5364
826.206	5296
826.346	5391
826.485	5402
826.625	5467
826.765	5528
826.904	5482
827.044	5258
827.183	5261
827.323	5105
827.462	5280
827.601	5235
827.741	5189
827.88	5242
828.02	5216
828.159	5223
828.298	5349
828.437	5406
828.577	5265
828.716	5490
828.855	5307
828.994	5174
829.134	5193
829.273	5235
829.412	5181
829.551	5124
829.69	5166
829.829	5239
829.968	5391
830.107	5315
830.246	5307
830.385	5193
830.524	5181
830.663	5124
830.802	5041
830.941	4904
831.08	4927
831.219	4965
831.357	5067
831.496	5181
831.635	4934
831.774	4908
831.913	4938
832.051	4767
832.19	4782
832.329	4858
832.467	4714
832.606	4691
832.744	4733
832.883	4675
833.022	4733
833.16	4858
833.299	4870
833.437	4812
833.576	4904
833.714	4923
833.852	4866
833.991	4934
834.129	5033
834.267	5018
834.406	4938
834.544	4987
834.682	5006
834.821	5006
834.959	5216
835.097	4987
835.235	5220
835.373	5098
835.511	5121
835.65	5025
835.788	5071
835.926	4957
836.064	4908
836.202	4930
836.34	5185
836.478	5307
836.615	5216
836.753	5220
836.891	5307
837.029	5265
837.167	5235
837.305	5201
837.443	5201
837.58	5170
837.718	5307
837.856	5147
837.993	5143
838.131	5250
838.269	5269
838.406	5201
838.544	5204
838.681	5102
838.819	5048
838.956	4953
839.094	4908
839.231	5014
839.369	5083
839.506	5459
839.643	5299
839.781	5075
839.918	5064
840.055	5181
840.193	5132
840.33	5124
840.467	5178
840.604	5231
840.742	5421
840.879	5071
841.016	5071
841.153	5159
841.29	5360
841.427	5364
841.564	5410
841.701	5398
841.838	5189
841.975	5288
842.112	5311
842.249	5121
842.385	5151
842.522	5341
842.659	5223
842.796	5178
842.933	5147
843.069	5189
843.206	5212
843.343	5349
843.479	5227
843.616	5242
843.752	5064
843.889	5067
844.025	5250
844.162	5041
844.298	5185
844.435	5079
844.571	5098
844.708	5227
844.844	5273
844.98	5357
845.117	5341
845.253	5128
845.389	5109
845.525	5197
845.661	5185
845.798	5037
845.934	5113
846.07	5079
846.206	5201
846.342	5292
846.478	5197
846.614	5014
846.75	4968
846.886	4961
847.022	5090
847.158	4991
847.294	5079
847.429	5102
847.565	5105
847.701	5345
847.837	4873
847.972	4793
848.108	5018
848.244	4938
848.379	4778
848.515	4801
848.65	4748
848.786	4736
848.921	4812
849.057	4858
849.192	4938
849.328	4828
849.463	4866
849.598	4816
849.734	4759
849.869	4710
850.004	4672
850.14	4675
850.275	4637
850.41	4516
850.545	4615
850.68	4660
850.815	4634
850.95	4641
851.085	4809
851.22	4771
851.355	4641
851.49	4573
851.625	4630
851.76	4645
851.895	4527
852.03	4546
852.165	4634
852.299	4755
852.434	4820
852.569	4793
852.703	4786
852.838	4843
852.973	4915
853.107	4991
853.242	4786
853.376	4698
853.511	4535
853.645	4660
853.78	4828
853.914	4679
854.048	4725
854.183	4645
854.317	4710
854.451	4809
854.585	4706
854.72	4653
854.854	4725
854.988	4630
855.122	4645
855.256	4508
855.39	4683
855.524	4782
855.658	4717
855.792	4717
855.926	4736
856.06	4755
856.194	4858
856.327	4687
856.461	4660
856.595	4668
856.729	4622
856.862	4752
856.996	4679
857.13	4736
857.263	4790
857.397	4824
857.53	4660
857.664	4714
857.797	4797
857.931	4801
858.064	4698
858.197	4759
858.331	4641
858.464	4641
858.597	4538
858.731	4637
858.864	4668
858.997	4626
859.13	4664
859.263	4649
859.396	4691
859.529	4592
859.662	4577
859.795	4573
859.928	4634
860.061	4748
860.194	4748
860.327	4645
860.46	4577
860.592	4729
860.725	4725
860.858	4771
860.99	4573
861.123	4535
861.256	4577
861.388	4622
861.521	5322
861.653	4535
861.786	4436
861.918	4485
862.05	4565
862.183	4588
862.315	4599
862.447	4653
862.58	4565
862.712	4421
862.844	4371
862.976	4481
863.108	4489
863.24	4828
863.372	4405
863.504	4375
863.636	4421
863.768	4436
863.9	4440
864.032	4360
864.164	4405
864.296	4474
864.428	4542
864.559	4588
864.691	4531
864.823	4489
864.954	4504
865.086	4516
865.217	4481
865.349	4432
865.48	4466
865.612	4504
865.743	4626
865.875	4447
866.006	4428
866.137	4516
866.269	4466
866.4	4390
866.531	4447
866.662	4390
866.793	4390
866.924	4390
867.055	4474
867.186	4436
867.317	4421
867.448	4440
867.579	4379
867.71	4341
867.841	4356
867.972	4508
868.103	4459
868.233	4459
868.364	4451
868.495	4538
868.625	4641
868.756	4767
868.886	4584
869.017	4649
869.147	4786
869.278	4786
869.408	4611
869.539	4683
869.669	4717
869.799	4664
869.929	4820
870.06	4755
870.19	4972
870.32	4915
870.45	4938
870.58	5067
870.71	5060
870.84	5105
870.97	4984
871.1	4934
871.23	5197
871.36	5109
871.489	5067
871.619	5094
871.749	5105
871.879	5128
872.008	5136
872.138	5071
872.267	4976
872.397	4850
872.526	4812
872.656	4687
872.785	4778
872.915	4984
873.044	5052
873.173	4968
873.303	4965
873.432	4976
873.561	4984
873.69	4896
873.819	4889
873.948	4911
874.077	4839
874.206	4801
874.335	4782
874.464	4904
874.593	5033
874.722	4976
874.851	5113
874.979	5060
875.108	5075
875.237	4961
875.365	4904
875.494	4915
875.623	4995
875.751	4870
875.88	4885
876.008	4976
876.136	5056
876.265	5220
876.393	5296
876.521	5277
876.65	5231
876.778	5174
876.906	5109
877.034	5014
877.162	5037
877.29	4976
877.418	5022
877.546	5045
877.674	5018
877.802	5045
877.93	5041
878.058	4972
878.185	4850
878.313	4949
878.441	4987
878.568	4843
878.696	4911
878.824	4938
878.951	4976
879.079	5109
879.206	5284
879.333	5140
879.461	5003
879.588	4995
879.715	5136
879.842	5284
879.97	5033
880.097	4786
880.224	4774
880.351	4809
880.478	4839
880.605	4793
880.732	4805
880.859	5094
880.986	4911
881.112	4923
881.239	4790
881.366	4672
881.493	4592
881.619	4611
881.746	4615
881.872	4675
881.999	4634
882.125	4687
882.252	4812
882.378	4839
882.505	4980
882.631	4831
882.757	4687
882.883	4744
883.01	4736
883.136	4645
883.262	4588
883.388	4626
883.514	4782
883.64	4835
883.766	4805
883.892	4706
884.018	4694
884.143	4942
884.269	5056
884.395	4637
884.52	4641
884.646	4668
884.772	4592
884.897	4584
885.023	4675
885.148	4763
885.274	4858
885.399	4847
885.524	4736
885.65	4721
885.775	4790
885.9	4668
886.025	4866
886.15	4839
886.275	4725
886.4	4641
886.525	4736
886.65	4660
886.775	4694
886.9	4896
887.025	5025
887.149	4839
887.274	4672
887.399	4592
887.523	4596
887.648	4596
887.773	4565
887.897	4759
888.021	4816
888.146	4660
888.27	4812
888.395	4881
888.519	4767
888.643	4835
888.767	4847
888.891	4687
889.015	4656
889.139	4649
889.263	4626
889.387	4717
889.511	4889
889.635	4831
889.759	4611
889.883	4626
890.006	4717
890.13	4820
890.254	4630
890.377	4675
890.501	4535
890.624	4466
890.748	4679
890.871	4504
890.995	4394
891.118	4421
891.241	4535
891.364	4527
891.488	4672
891.611	4512
891.734	4512
891.857	4611
891.98	4538
892.103	4672
892.226	4550
892.349	4470
892.471	4462
892.594	4546
892.717	4607
892.839	4599
892.962	4584
893.085	4675
893.207	4580
893.33	4470
893.452	4535
893.575	4668
893.697	4580
893.819	4835
893.941	4835
894.064	4797
894.186	4634
894.308	4577
894.43	4687
894.552	4748
894.674	4748
894.796	4584
894.918	4573
895.04	4580
895.161	4668
895.283	4653
895.405	4596
895.526	4641
895.648	4664
895.769	4706
895.891	4729
896.012	4793
896.134	4725
896.255	4664
896.376	4641
896.498	4637
896.619	4729
896.74	4603
896.861	4630
896.982	4930
897.103	5079
897.224	4835
897.345	4774
897.466	4683
897.587	4752
897.708	4843
897.828	4771
897.949	4687
898.07	4580
898.19	4664
898.311	4824
898.431	4687
898.552	4767
898.672	4809
898.792	4854
898.913	4740
899.033	4599
899.153	4538
899.273	4409
899.393	4485
899.513	4550
899.633	4504
899.753	4546
899.873	4497
899.993	4637
900.113	4485
900.232	4588
900.352	4558
900.472	4493
900.591	4428
900.711	4455
900.83	4443
900.95	4577
901.069	4653
901.189	4565
901.308	4383
901.427	4284
901.546	4394
901.665	4485
901.784	4550
901.904	4379
902.023	4310
902.141	4215
902.26	4154
902.379	4352
902.498	4227
902.617	4242
902.735	4360
902.854	4409
902.973	4394
903.091	4204
903.21	4207
903.328	4314
903.446	4268
903.565	4257
903.683	4360
903.801	4322
903.919	4402
904.038	4443
904.156	4314
904.274	4440
904.392	4386
904.51	4462
904.627	4481
904.745	4596
904.863	4618
904.981	4352
905.098	4306
905.216	4386
905.334	4459
905.451	4447
905.569	4424
905.686	4569
905.803	4561
905.921	4421
906.038	4512
906.155	4447
906.272	4379
906.389	4485
906.506	4318
906.623	4375
906.74	4402
906.857	4325
906.974	4409
907.091	4546
907.208	4733
907.324	4565
907.441	4493
907.557	4306
907.674	4356
907.79	4318
907.907	4379
908.023	4481
908.139	4432
908.256	4386
908.372	4508
908.488	4500
908.604	4348
908.72	4329
908.836	4363
908.952	4356
909.068	4379
909.184	4599
909.3	4474
909.415	4569
909.531	4569
909.647	4314
909.762	4348
909.878	4344
909.993	4443
910.108	4375
910.224	4402
910.339	4508
910.454	4383
910.57	4360
910.685	4287
910.8	4622
910.915	4596
911.03	4516
911.145	4329
911.259	4348
911.374	4402
911.489	4314
911.604	4341
911.718	4166
911.833	4166
911.947	4055
912.062	4029
912.176	4215
912.291	4272
912.405	4295
912.519	4462
912.633	4508
912.748	4383
912.862	4291
912.976	4219
913.09	4128
913.204	4166
913.318	4325
913.431	4375
913.545	4352
913.659	4432
913.772	4356
913.886	4238
914	4211
914.113	4371
914.226	4455
914.34	4379
914.453	4265
914.566	4440
914.68	4299
914.793	4367
914.906	4181
915.019	4154
915.132	4131
915.245	4147
915.358	4234
915.47	4211
915.583	4265
915.696	4291
915.809	4356
915.921	4421
916.034	4291
916.146	4356
916.259	4215
916.371	4413
916.483	4375
916.595	4238
916.708	4360
916.82	4348
916.932	4348
917.044	4344
917.156	4325
917.268	4223
917.38	4280
917.491	4261
917.603	4352
917.715	4428
917.826	4485
917.938	4318
918.049	4265
918.161	4402
918.272	4512
918.384	4546
918.495	4443
918.606	4348
918.717	4257
918.828	4337
918.939	4322
919.05	4249
919.161	4325
919.272	4131
919.383	4234
919.494	4436
919.604	4599
919.715	4386
919.826	4310
919.936	4356
920.047	4531
920.157	4459
920.267	4687
920.378	4561
920.488	4519
920.598	4721
920.708	4915
920.818	4744
920.928	4733
921.038	5010
921.148	4881
921.258	4615
921.368	4516
921.477	4504
921.587	4428
921.697	4405
921.806	4554
921.916	4474
922.025	4322
922.134	4230
922.244	4173
922.353	4360
922.462	4166
922.571	4158
922.68	3994
922.789	3994
922.898	4036
923.007	3998
923.116	4116
923.224	4135
923.333	4055
923.442	3960
923.55	3983
923.659	3987
923.767	4051
923.876	3994
923.984	4135
924.092	3956
924.201	4086
924.309	4059
924.417	4128
924.525	4036
924.633	4169
924.741	4904
924.849	3903
924.956	4105
925.064	3922
925.172	3876
925.279	3911
925.387	4044
925.494	4090
925.602	4188
925.709	4169
925.816	4040
925.924	4116
926.031	4204
926.138	4116
926.245	4177
926.352	4101
926.459	4261
926.566	4295
926.673	4143
926.779	4093
926.886	4048
926.993	4002
927.099	3972
927.206	3979
927.312	3964
927.419	4078
927.525	4044
927.631	4086
927.737	3964
927.843	3911
927.95	3804
928.056	3953
928.162	4013
928.267	4040
928.373	4573
928.479	4135
928.585	3888
928.69	3994
928.796	4032
928.901	3911
929.007	3854
929.112	4010
929.218	4036
929.323	3960
929.428	3964
929.533	4101
929.638	3876
929.743	3964
929.848	3994
929.953	4002
930.058	3922
930.163	3778
930.267	3865
930.372	4002
930.477	3774
930.581	4040
930.685	3930
930.79	3850
930.894	3899
930.998	3846
931.103	4021
931.207	3709
931.311	3663
931.415	3641
931.519	3530
931.623	3534
