Data from test_V78500241_1973.txt Node
Date: Fri Mar 25 17:02:43 CST 2022
User: usil
Spectrometer: V785-0024
Trigger mode: 0
Integration Time (sec): 4.000000E-1
Scans to average: 1
Nonlinearity correction enabled: false
Boxcar width: 0
Storing dark spectrum: false
XAxis mode: Wavelengths
Number of Pixels in Spectrum: 1024
>>>>>Begin Spectral Data<<<<<
801.071	7917
801.214	8016
801.356	7879
801.499	7830
801.641	7715
801.783	7826
801.926	7944
802.068	7852
802.211	7986
802.353	8024
802.496	7845
802.638	7830
802.78	7932
802.923	7860
803.065	7841
803.208	7845
803.35	7955
803.492	8008
803.635	8202
803.777	7982
803.919	8180
804.061	8374
804.204	8100
804.346	8008
804.488	7974
804.63	8081
804.773	7993
804.915	8088
805.057	8229
805.199	8130
805.341	8130
805.483	8172
805.626	8149
805.768	8050
805.91	8176
806.052	8229
806.194	8073
806.336	8263
806.478	8073
806.62	7967
806.762	8145
806.904	8206
807.046	8488
807.188	8374
807.33	8336
807.472	8237
807.614	8153
807.756	8142
807.898	7974
808.04	7875
808.182	7906
808.324	7818
808.465	7913
808.607	8020
808.749	8016
808.891	8191
809.033	8313
809.174	8164
809.316	8065
809.458	8134
809.6	8020
809.741	7989
809.883	8043
810.025	8081
810.166	8039
810.308	7986
810.45	7959
810.591	7799
810.733	7696
810.875	7677
811.016	7480
811.158	7453
811.299	7540
811.441	7670
811.582	7677
811.724	7582
811.865	7495
812.007	7613
812.148	7552
812.29	7666
812.431	7719
812.573	7845
812.714	8031
812.855	8081
812.997	8271
813.138	8244
813.279	8138
813.421	8069
813.562	7921
813.703	7814
813.845	7731
813.986	7381
814.127	7209
814.268	7251
814.41	7202
814.551	7164
814.692	7217
814.833	7107
814.974	7137
815.115	7084
815.256	6928
815.397	6924
815.539	6909
815.68	6745
815.821	6669
815.962	6871
816.103	6806
816.244	6757
816.385	6574
816.526	6597
816.666	6517
816.807	6251
816.948	6384
817.089	6506
817.23	6414
817.371	6323
817.512	6342
817.653	6407
817.793	6304
817.934	6414
818.075	6388
818.216	6384
818.356	6338
818.497	6247
818.638	6106
818.778	6140
818.919	6148
819.06	6140
819.2	6308
819.341	6338
819.481	6369
819.622	6585
819.762	6772
819.903	6700
820.043	6547
820.184	6517
820.324	6566
820.465	6722
820.605	6623
820.746	6623
820.886	6399
821.026	6642
821.167	6681
821.307	6806
821.447	6684
821.588	6639
821.728	6582
821.868	6456
822.008	6308
822.149	6376
822.289	6350
822.429	6171
822.569	6102
822.709	6140
822.849	5889
822.99	5931
823.13	5916
823.27	5920
823.41	5790
823.55	5802
823.69	5748
823.83	5790
823.97	5642
824.11	5486
824.25	5474
824.389	5532
824.529	5535
824.669	5524
824.809	5634
824.949	5611
825.089	5657
825.228	5528
825.368	5364
825.508	5288
825.648	5337
825.787	5368
825.927	5334
826.067	5341
826.206	5280
826.346	5410
826.485	5357
826.625	5402
826.765	5558
826.904	5444
827.044	5250
827.183	5159
827.323	5143
827.462	5265
827.601	5162
827.741	5151
827.88	5246
828.02	5109
828.159	5204
828.298	5318
828.437	5368
828.577	5242
828.716	5512
828.855	5326
828.994	5102
829.134	5178
829.273	5220
829.412	5155
829.551	5109
829.69	5109
829.829	5239
829.968	5436
830.107	5242
830.246	5254
830.385	5212
830.524	5128
830.663	5094
830.802	4953
830.941	4881
831.08	4930
831.219	4972
831.357	5045
831.496	5128
831.635	4919
831.774	4870
831.913	4839
832.051	4736
832.19	4675
832.329	4816
832.467	4721
832.606	4622
832.744	4729
832.883	4706
833.022	4733
833.16	4778
833.299	4782
833.437	4778
833.576	4843
833.714	4900
833.852	4809
833.991	4923
834.129	4908
834.267	4968
834.406	4889
834.544	4965
834.682	4896
834.821	4927
834.959	5162
835.097	4991
835.235	5128
835.373	5048
835.511	5136
835.65	5010
835.788	5018
835.926	4911
836.064	4885
836.202	4942
836.34	5143
836.478	5227
836.615	5098
836.753	5208
836.891	5288
837.029	5250
837.167	5193
837.305	5162
837.443	5132
837.58	5022
837.718	5269
837.856	5151
837.993	5143
838.131	5197
838.269	5208
838.406	5204
838.544	5174
838.681	5025
838.819	5014
838.956	4885
839.094	4881
839.231	4953
839.369	5025
839.506	5436
839.643	5223
839.781	5037
839.918	5010
840.055	5117
840.193	5109
840.33	4999
840.467	5102
840.604	5140
840.742	5444
840.879	5109
841.016	5105
841.153	5143
841.29	5337
841.427	5322
841.564	5292
841.701	5349
841.838	5242
841.975	5181
842.112	5273
842.249	5181
842.385	5136
842.522	5296
842.659	5140
842.796	5136
842.933	5174
843.069	5147
843.206	5136
843.343	5292
843.479	5239
843.616	5216
843.752	5056
843.889	5048
844.025	5223
844.162	4995
844.298	5193
844.435	5052
844.571	5056
844.708	5178
844.844	5299
844.98	5292
845.117	5239
845.253	5121
845.389	5071
845.525	5181
845.661	5128
845.798	5052
845.934	5124
846.07	5022
846.206	5128
846.342	5288
846.478	5124
846.614	5006
846.75	4961
846.886	4934
847.022	5117
847.158	5010
847.294	5060
847.429	5086
847.565	5071
847.701	5292
847.837	4820
847.972	4763
848.108	4949
848.244	4927
848.379	4793
848.515	4660
848.65	4706
848.786	4771
848.921	4752
849.057	4858
849.192	4900
849.328	4850
849.463	4858
849.598	4835
849.734	4725
849.869	4675
850.004	4634
850.14	4634
850.275	4649
850.41	4538
850.545	4516
850.68	4577
850.815	4630
850.95	4615
851.085	4839
851.22	4740
851.355	4615
851.49	4615
851.625	4573
851.76	4668
851.895	4607
852.03	4535
852.165	4645
852.299	4736
852.434	4786
852.569	4755
852.703	4801
852.838	4809
852.973	4881
853.107	4934
853.242	4759
853.376	4618
853.511	4516
853.645	4618
853.78	4790
853.914	4702
854.048	4660
854.183	4656
854.317	4721
854.451	4831
854.585	4645
854.72	4634
854.854	4729
854.988	4565
855.122	4611
855.256	4504
855.39	4660
855.524	4805
855.658	4733
855.792	4706
855.926	4714
856.06	4710
856.194	4790
856.327	4679
856.461	4630
856.595	4588
856.729	4611
856.862	4744
856.996	4664
857.13	4733
857.263	4752
857.397	4816
857.53	4622
857.664	4694
857.797	4744
857.931	4733
858.064	4668
858.197	4744
858.331	4611
858.464	4558
858.597	4535
858.731	4622
858.864	4668
858.997	4580
859.13	4664
859.263	4672
859.396	4645
859.529	4584
859.662	4565
859.795	4569
859.928	4630
860.061	4771
860.194	4721
860.327	4607
860.46	4550
860.592	4691
860.725	4729
860.858	4733
860.99	4592
861.123	4516
861.256	4519
861.388	4580
861.521	5140
861.653	4474
861.786	4424
861.918	4432
862.05	4512
862.183	4538
862.315	4584
862.447	4634
862.58	4542
862.712	4398
862.844	4325
862.976	4485
863.108	4432
863.24	4736
863.372	4333
863.504	4405
863.636	4390
863.768	4523
863.9	4451
864.032	4360
864.164	4386
864.296	4466
864.428	4558
864.559	4550
864.691	4497
864.823	4470
864.954	4462
865.086	4443
865.217	4470
865.349	4459
865.48	4485
865.612	4455
865.743	4603
865.875	4466
866.006	4436
866.137	4462
866.269	4421
866.4	4409
866.531	4379
866.662	4402
866.793	4386
866.924	4398
867.055	4489
867.186	4428
867.317	4390
867.448	4314
867.579	4363
867.71	4383
867.841	4383
867.972	4405
868.103	4428
868.233	4459
868.364	4500
868.495	4405
868.625	4656
868.756	4717
868.886	4577
869.017	4588
869.147	4774
869.278	4812
869.408	4679
869.539	4649
869.669	4717
869.799	4630
869.929	4729
870.06	4721
870.19	4957
870.32	4915
870.45	4930
870.58	5010
870.71	5071
870.84	5025
870.97	4946
871.1	4870
871.23	5117
871.36	5136
871.489	4999
871.619	5067
871.749	5132
871.879	5170
872.008	5204
872.138	5083
872.267	5037
872.397	4831
872.526	4820
872.656	4748
872.785	4767
872.915	4972
873.044	5041
873.173	4908
873.303	4946
873.432	4934
873.561	4911
873.69	4850
873.819	4892
873.948	4946
874.077	4843
874.206	4729
874.335	4778
874.464	4877
874.593	5056
874.722	4949
874.851	5067
874.979	5022
875.108	5025
875.237	4938
875.365	4889
875.494	4885
875.623	4968
875.751	4809
875.88	4870
876.008	4953
876.136	5018
876.265	5208
876.393	5341
876.521	5250
876.65	5223
876.778	5155
876.906	5025
877.034	5029
877.162	5029
877.29	4976
877.418	5025
877.546	5010
877.674	4987
877.802	5033
877.93	5045
878.058	4934
878.185	4828
878.313	4949
878.441	4968
878.568	4790
878.696	4858
878.824	4953
878.951	4991
879.079	5102
879.206	5242
879.333	5071
879.461	4961
879.588	4987
879.715	5113
879.842	5223
879.97	5033
880.097	4717
880.224	4759
880.351	4797
880.478	4881
880.605	4763
880.732	4793
880.859	5083
880.986	4854
881.112	4843
881.239	4755
881.366	4637
881.493	4580
881.619	4599
881.746	4672
881.872	4611
881.999	4656
882.125	4634
882.252	4736
882.378	4786
882.505	4934
882.631	4824
882.757	4622
882.883	4725
883.01	4710
883.136	4634
883.262	4607
883.388	4588
883.514	4782
883.64	4854
883.766	4752
883.892	4645
884.018	4714
884.143	4919
884.269	4980
884.395	4656
884.52	4630
884.646	4637
884.772	4611
884.897	4538
885.023	4683
885.148	4793
885.274	4870
885.399	4809
885.524	4759
885.65	4702
885.775	4771
885.9	4725
886.025	4873
886.15	4786
886.275	4675
886.4	4679
886.525	4759
886.65	4710
886.775	4710
886.9	4938
887.025	5079
887.149	4809
887.274	4641
887.399	4637
887.523	4611
887.648	4596
887.773	4615
887.897	4790
888.021	4820
888.146	4691
888.27	4843
888.395	4968
888.519	4850
888.643	4862
888.767	4870
888.891	4725
889.015	4668
889.139	4672
889.263	4599
889.387	4805
889.511	4900
889.635	4812
889.759	4637
889.883	4683
890.006	4805
890.13	4839
890.254	4649
890.377	4687
890.501	4558
890.624	4527
890.748	4687
890.871	4538
890.995	4466
891.118	4383
891.241	4504
891.364	4607
891.488	4618
891.611	4558
891.734	4603
891.857	4626
891.98	4580
892.103	4622
892.226	4558
892.349	4584
892.471	4481
892.594	4580
892.717	4630
892.839	4615
892.962	4637
893.085	4710
893.207	4634
893.33	4527
893.452	4573
893.575	4698
893.697	4660
893.819	4828
893.941	4835
894.064	4847
894.186	4622
894.308	4641
894.43	4744
894.552	4866
894.674	4740
894.796	4577
894.918	4622
895.04	4599
895.161	4725
895.283	4656
895.405	4653
895.526	4653
895.648	4706
895.769	4660
895.891	4725
896.012	4774
896.134	4767
896.255	4717
896.376	4683
896.498	4637
896.619	4725
896.74	4626
896.861	4702
896.982	4927
897.103	5083
897.224	4854
897.345	4790
897.466	4645
897.587	4812
897.708	4873
897.828	4843
897.949	4752
898.07	4573
898.19	4668
898.311	4870
898.431	4744
898.552	4748
898.672	4820
898.792	4839
898.913	4797
899.033	4683
899.153	4527
899.273	4478
899.393	4565
899.513	4550
899.633	4565
899.753	4538
899.873	4504
899.993	4611
900.113	4580
900.232	4630
900.352	4573
900.472	4512
900.591	4459
900.711	4489
900.83	4451
900.95	4618
901.069	4687
901.189	4565
901.308	4417
901.427	4356
901.546	4379
901.665	4508
901.784	4561
901.904	4421
902.023	4367
902.141	4249
902.26	4246
902.379	4325
902.498	4253
902.617	4265
902.735	4394
902.854	4402
902.973	4417
903.091	4246
903.21	4230
903.328	4299
903.446	4268
903.565	4249
903.683	4383
903.801	4303
903.919	4432
904.038	4462
904.156	4363
904.274	4436
904.392	4386
904.51	4470
904.627	4489
904.745	4637
904.863	4653
904.981	4451
905.098	4409
905.216	4390
905.334	4497
905.451	4466
905.569	4462
905.686	4558
905.803	4641
905.921	4451
906.038	4565
906.155	4512
906.272	4421
906.389	4504
906.506	4394
906.623	4398
906.74	4451
906.857	4333
906.974	4390
907.091	4538
907.208	4710
907.324	4622
907.441	4516
907.557	4386
907.674	4394
907.79	4379
907.907	4440
908.023	4481
908.139	4485
908.256	4462
908.372	4470
908.488	4527
908.604	4405
908.72	4367
908.836	4413
908.952	4367
909.068	4478
909.184	4577
909.3	4504
909.415	4626
909.531	4599
909.647	4356
909.762	4413
909.878	4409
909.993	4470
910.108	4386
910.224	4432
910.339	4504
910.454	4466
910.57	4367
910.685	4356
910.8	4672
910.915	4603
911.03	4500
911.145	4325
911.259	4371
911.374	4421
911.489	4291
911.604	4325
911.718	4177
911.833	4196
911.947	4116
912.062	3998
912.176	4223
912.291	4295
912.405	4295
912.519	4489
912.633	4584
912.748	4360
912.862	4322
912.976	4257
913.09	4124
913.204	4238
913.318	4318
913.431	4398
913.545	4390
913.659	4455
913.772	4337
913.886	4280
914	4265
914.113	4386
914.226	4379
914.34	4390
914.453	4284
914.566	4500
914.68	4348
914.793	4356
914.906	4200
915.019	4139
915.132	4105
915.245	4188
915.358	4253
915.47	4246
915.583	4344
915.696	4363
915.809	4436
915.921	4432
916.034	4257
916.146	4265
916.259	4223
916.371	4402
916.483	4375
916.595	4265
916.708	4314
916.82	4314
916.932	4306
917.044	4363
917.156	4310
917.268	4242
917.38	4306
917.491	4280
917.603	4337
917.715	4459
917.826	4440
917.938	4379
918.049	4261
918.161	4436
918.272	4561
918.384	4565
918.495	4508
918.606	4291
918.717	4272
918.828	4360
918.939	4375
919.05	4257
919.161	4341
919.272	4139
919.383	4238
919.494	4455
919.604	4618
919.715	4493
919.826	4386
919.936	4398
920.047	4546
920.157	4519
920.267	4740
920.378	4523
920.488	4516
920.598	4752
920.708	4885
920.818	4786
920.928	4759
921.038	4984
921.148	4873
921.258	4672
921.368	4584
921.477	4489
921.587	4508
921.697	4443
921.806	4573
921.916	4474
922.025	4318
922.134	4280
922.244	4280
922.353	4371
922.462	4181
922.571	4162
922.68	3979
922.789	4021
922.898	4013
923.007	4055
923.116	4158
923.224	4124
923.333	4112
923.442	4006
923.55	3983
923.659	4036
923.767	4150
923.876	3991
923.984	4086
924.092	4010
924.201	4105
924.309	4105
924.417	4128
924.525	4059
924.633	4181
924.741	5090
924.849	3930
924.956	4188
925.064	3983
925.172	3869
925.279	3998
925.387	4067
925.494	4048
925.602	4246
925.709	4204
925.816	4082
925.924	4116
926.031	4238
926.138	4188
926.245	4196
926.352	4150
926.459	4276
926.566	4310
926.673	4204
926.779	4078
926.886	4082
926.993	3918
927.099	3941
927.206	3991
927.312	3945
927.419	4055
927.525	4032
927.631	4082
927.737	3968
927.843	3972
927.95	3823
928.056	3968
928.162	4013
928.267	4109
928.373	4580
928.479	4154
928.585	3918
928.69	4029
928.796	4078
928.901	3998
929.007	3884
929.112	4025
929.218	3994
929.323	3956
929.428	3941
929.533	4120
929.638	3949
929.743	3975
929.848	4055
929.953	4013
930.058	3907
930.163	3751
930.267	3850
930.372	4059
930.477	3778
930.581	4109
930.685	3956
930.79	3846
930.894	3915
930.998	3873
931.103	4059
931.207	3751
931.311	3686
931.415	3724
931.519	3523
931.623	3568
