Data from test_V78500241_2206.txt Node
Date: Fri Mar 25 17:04:20 CST 2022
User: usil
Spectrometer: V785-0024
Trigger mode: 0
Integration Time (sec): 4.000000E-1
Scans to average: 1
Nonlinearity correction enabled: false
Boxcar width: 0
Storing dark spectrum: false
XAxis mode: Wavelengths
Number of Pixels in Spectrum: 1024
>>>>>Begin Spectral Data<<<<<
801.071	8027
801.214	8031
801.356	7814
801.499	7860
801.641	7772
801.783	7833
801.926	7967
802.068	7936
802.211	7925
802.353	8024
802.496	7906
802.638	7811
802.78	7837
802.923	7875
803.065	7868
803.208	7887
803.35	7917
803.492	8134
803.635	8176
803.777	7963
803.919	8145
804.061	8419
804.204	8134
804.346	7982
804.488	7986
804.63	8092
804.773	8001
804.915	8134
805.057	8279
805.199	8107
805.341	8183
805.483	8263
805.626	8206
805.768	8111
805.91	8195
806.052	8126
806.194	8153
806.336	8301
806.478	8145
806.62	8126
806.762	8161
806.904	8271
807.046	8427
807.188	8396
807.33	8263
807.472	8290
807.614	8191
807.756	8142
807.898	7989
808.04	7875
808.182	7902
808.324	7852
808.465	7868
808.607	8088
808.749	8107
808.891	8168
809.033	8336
809.174	8172
809.316	8103
809.458	8096
809.6	8103
809.741	8065
809.883	7936
810.025	8081
810.166	8012
810.308	7986
810.45	7947
810.591	7826
810.733	7700
810.875	7750
811.016	7491
811.158	7438
811.299	7567
811.441	7632
811.582	7632
811.724	7514
811.865	7487
812.007	7605
812.148	7628
812.29	7643
812.431	7784
812.573	7913
812.714	7974
812.855	8111
812.997	8206
813.138	8282
813.279	8119
813.421	8039
813.562	7940
813.703	7822
813.845	7742
813.986	7384
814.127	7240
814.268	7221
814.41	7194
814.551	7198
814.692	7240
814.833	7133
814.974	7114
815.115	7126
815.256	6962
815.397	6905
815.539	6962
815.68	6825
815.821	6757
815.962	6875
816.103	6791
816.244	6730
816.385	6642
816.526	6593
816.666	6509
816.807	6292
816.948	6369
817.089	6467
817.23	6452
817.371	6353
817.512	6410
817.653	6346
817.793	6391
817.934	6399
818.075	6456
818.216	6452
818.356	6391
818.497	6281
818.638	6095
818.778	6136
818.919	6121
819.06	6140
819.2	6285
819.341	6346
819.481	6334
819.622	6536
819.762	6840
819.903	6707
820.043	6578
820.184	6578
820.324	6525
820.465	6703
820.605	6719
820.746	6620
820.886	6525
821.026	6688
821.167	6696
821.307	6745
821.447	6738
821.588	6654
821.728	6559
821.868	6536
822.008	6369
822.149	6350
822.289	6342
822.429	6129
822.569	6133
822.709	6140
822.849	5931
822.99	5874
823.13	5999
823.27	5935
823.41	5863
823.55	5809
823.69	5764
823.83	5783
823.97	5627
824.11	5562
824.25	5436
824.389	5566
824.529	5543
824.669	5570
824.809	5592
824.949	5653
825.089	5592
825.228	5577
825.368	5455
825.508	5357
825.648	5337
825.787	5368
825.927	5372
826.067	5299
826.206	5315
826.346	5440
826.485	5402
826.625	5368
826.765	5509
826.904	5444
827.044	5216
827.183	5174
827.323	5143
827.462	5239
827.601	5174
827.741	5181
827.88	5223
828.02	5166
828.159	5242
828.298	5299
828.437	5353
828.577	5288
828.716	5444
828.855	5376
828.994	5197
829.134	5086
829.273	5239
829.412	5121
829.551	5117
829.69	5147
829.829	5261
829.968	5353
830.107	5189
830.246	5261
830.385	5132
830.524	5071
830.663	5121
830.802	5003
830.941	4896
831.08	4908
831.219	4934
831.357	4976
831.496	5147
831.635	4946
831.774	4873
831.913	4889
832.051	4694
832.19	4790
832.329	4862
832.467	4706
832.606	4630
832.744	4752
832.883	4733
833.022	4714
833.16	4763
833.299	4847
833.437	4805
833.576	4843
833.714	4858
833.852	4858
833.991	4915
834.129	4930
834.267	4919
834.406	4911
834.544	4942
834.682	4946
834.821	4968
834.959	5174
835.097	4976
835.235	5151
835.373	5083
835.511	5109
835.65	5006
835.788	5014
835.926	4892
836.064	4873
836.202	4900
836.34	5174
836.478	5193
836.615	5132
836.753	5147
836.891	5299
837.029	5220
837.167	5261
837.305	5147
837.443	5151
837.58	5041
837.718	5254
837.856	5170
837.993	5204
838.131	5227
838.269	5220
838.406	5208
838.544	5117
838.681	5006
838.819	5014
838.956	4881
839.094	4930
839.231	4976
839.369	5090
839.506	5417
839.643	5258
839.781	5037
839.918	5022
840.055	5079
840.193	5086
840.33	5086
840.467	5147
840.604	5140
840.742	5482
840.879	5079
841.016	5136
841.153	5121
841.29	5395
841.427	5303
841.564	5303
841.701	5349
841.838	5307
841.975	5239
842.112	5280
842.249	5140
842.385	5113
842.522	5330
842.659	5151
842.796	5128
842.933	5231
843.069	5155
843.206	5109
843.343	5318
843.479	5242
843.616	5246
843.752	5037
843.889	5029
844.025	5239
844.162	5056
844.298	5204
844.435	5105
844.571	5056
844.708	5174
844.844	5292
844.98	5337
845.117	5277
845.253	5136
845.389	5079
845.525	5147
845.661	5155
845.798	5018
845.934	5121
846.07	5033
846.206	5193
846.342	5254
846.478	5140
846.614	5006
846.75	4980
846.886	4927
847.022	5162
847.158	5025
847.294	5067
847.429	5121
847.565	5064
847.701	5299
847.837	4839
847.972	4793
848.108	4911
848.244	4961
848.379	4809
848.515	4725
848.65	4721
848.786	4752
848.921	4755
849.057	4835
849.192	4854
849.328	4835
849.463	4839
849.598	4782
849.734	4736
849.869	4691
850.004	4607
850.14	4611
850.275	4596
850.41	4485
850.545	4550
850.68	4592
850.815	4584
850.95	4634
851.085	4828
851.22	4721
851.355	4694
851.49	4603
851.625	4622
851.76	4626
851.895	4546
852.03	4535
852.165	4668
852.299	4729
852.434	4778
852.569	4755
852.703	4790
852.838	4831
852.973	4965
853.107	4946
853.242	4729
853.376	4675
853.511	4618
853.645	4656
853.78	4771
853.914	4668
854.048	4645
854.183	4626
854.317	4717
854.451	4885
854.585	4694
854.72	4679
854.854	4706
854.988	4580
855.122	4653
855.256	4474
855.39	4694
855.524	4763
855.658	4702
855.792	4683
855.926	4714
856.06	4786
856.194	4763
856.327	4733
856.461	4592
856.595	4584
856.729	4577
856.862	4763
856.996	4675
857.13	4710
857.263	4778
857.397	4816
857.53	4649
857.664	4733
857.797	4755
857.931	4755
858.064	4691
858.197	4752
858.331	4641
858.464	4603
858.597	4554
858.731	4618
858.864	4687
858.997	4618
859.13	4649
859.263	4592
859.396	4717
859.529	4580
859.662	4542
859.795	4596
859.928	4637
860.061	4740
860.194	4771
860.327	4611
860.46	4573
860.592	4717
860.725	4721
860.858	4725
860.99	4561
861.123	4508
861.256	4508
861.388	4584
861.521	5307
861.653	4500
861.786	4489
861.918	4451
862.05	4523
862.183	4546
862.315	4577
862.447	4668
862.58	4565
862.712	4405
862.844	4276
862.976	4421
863.108	4440
863.24	4733
863.372	4299
863.504	4459
863.636	4386
863.768	4440
863.9	4424
864.032	4318
864.164	4409
864.296	4443
864.428	4519
864.559	4584
864.691	4508
864.823	4508
864.954	4516
865.086	4478
865.217	4424
865.349	4383
865.48	4447
865.612	4504
865.743	4664
865.875	4478
866.006	4398
866.137	4413
866.269	4455
866.4	4432
866.531	4413
866.662	4432
866.793	4405
866.924	4390
867.055	4478
867.186	4409
867.317	4451
867.448	4394
867.579	4383
867.71	4462
867.841	4367
867.972	4447
868.103	4394
868.233	4459
868.364	4512
868.495	4462
868.625	4645
868.756	4679
868.886	4538
869.017	4668
869.147	4748
869.278	4828
869.408	4660
869.539	4634
869.669	4710
869.799	4622
869.929	4736
870.06	4725
870.19	4938
870.32	4942
870.45	4953
870.58	5056
870.71	5056
870.84	5079
870.97	4957
871.1	4904
871.23	5159
871.36	5140
871.489	5060
871.619	5052
871.749	5124
871.879	5124
872.008	5147
872.138	5025
872.267	4991
872.397	4847
872.526	4778
872.656	4710
872.785	4786
872.915	4949
873.044	5025
873.173	4938
873.303	4965
873.432	4968
873.561	5003
873.69	4877
873.819	4930
873.948	4866
874.077	4805
874.206	4763
874.335	4755
874.464	4930
874.593	5048
874.722	4987
874.851	5037
874.979	5018
875.108	5037
875.237	4953
875.365	4870
875.494	4873
875.623	4953
875.751	4797
875.88	4873
876.008	4972
876.136	5067
876.265	5189
876.393	5353
876.521	5258
876.65	5235
876.778	5117
876.906	5041
877.034	5006
877.162	5067
877.29	4949
877.418	5079
877.546	5041
877.674	5033
877.802	5075
877.93	4995
878.058	4904
878.185	4896
878.313	4965
878.441	4984
878.568	4843
878.696	4862
878.824	4980
878.951	4938
879.079	5140
879.206	5220
879.333	5064
879.461	4987
879.588	4995
879.715	5109
879.842	5242
879.97	5025
880.097	4752
880.224	4767
880.351	4809
880.478	4850
880.605	4778
880.732	4820
880.859	5056
880.986	4927
881.112	4892
881.239	4771
881.366	4687
881.493	4622
881.619	4565
881.746	4645
881.872	4660
881.999	4656
882.125	4637
882.252	4805
882.378	4828
882.505	5010
882.631	4763
882.757	4637
882.883	4729
883.01	4736
883.136	4698
883.262	4592
883.388	4588
883.514	4774
883.64	4809
883.766	4774
883.892	4679
884.018	4710
884.143	4820
884.269	4999
884.395	4656
884.52	4641
884.646	4668
884.772	4558
884.897	4592
885.023	4672
885.148	4774
885.274	4881
885.399	4786
885.524	4702
885.65	4748
885.775	4729
885.9	4729
886.025	4896
886.15	4797
886.275	4744
886.4	4653
886.525	4729
886.65	4626
886.775	4634
886.9	4900
887.025	5014
887.149	4801
887.274	4649
887.399	4611
887.523	4607
887.648	4580
887.773	4542
887.897	4755
888.021	4778
888.146	4698
888.27	4797
888.395	4946
888.519	4824
888.643	4778
888.767	4824
888.891	4729
889.015	4569
889.139	4675
889.263	4622
889.387	4771
889.511	4854
889.635	4835
889.759	4641
889.883	4668
890.006	4736
890.13	4820
890.254	4626
890.377	4653
890.501	4577
890.624	4470
890.748	4596
890.871	4459
890.995	4443
891.118	4383
891.241	4512
891.364	4489
891.488	4653
891.611	4497
891.734	4516
891.857	4584
891.98	4542
892.103	4653
892.226	4588
892.349	4554
892.471	4451
892.594	4542
892.717	4618
892.839	4615
892.962	4573
893.085	4675
893.207	4599
893.33	4455
893.452	4550
893.575	4641
893.697	4588
893.819	4748
893.941	4812
894.064	4755
894.186	4645
894.308	4596
894.43	4714
894.552	4831
894.674	4740
894.796	4561
894.918	4592
895.04	4577
895.161	4656
895.283	4679
895.405	4558
895.526	4611
895.648	4672
895.769	4660
895.891	4691
896.012	4748
896.134	4675
896.255	4653
896.376	4649
896.498	4641
896.619	4637
896.74	4622
896.861	4645
896.982	4938
897.103	5067
897.224	4858
897.345	4786
897.466	4649
897.587	4733
897.708	4858
897.828	4778
897.949	4694
898.07	4542
898.19	4637
898.311	4812
898.431	4691
898.552	4740
898.672	4771
898.792	4763
898.913	4698
899.033	4653
899.153	4519
899.273	4428
899.393	4485
899.513	4573
899.633	4508
899.753	4531
899.873	4493
899.993	4588
900.113	4546
900.232	4558
900.352	4542
900.472	4500
900.591	4383
900.711	4523
900.83	4440
900.95	4634
901.069	4672
901.189	4580
901.308	4344
901.427	4295
901.546	4379
901.665	4447
901.784	4512
901.904	4348
902.023	4303
902.141	4230
902.26	4192
902.379	4284
902.498	4284
902.617	4215
902.735	4371
902.854	4386
902.973	4325
903.091	4207
903.21	4207
903.328	4287
903.446	4295
903.565	4261
903.683	4363
903.801	4265
903.919	4413
904.038	4440
904.156	4318
904.274	4443
904.392	4417
904.51	4405
904.627	4447
904.745	4592
904.863	4637
904.981	4421
905.098	4318
905.216	4367
905.334	4379
905.451	4417
905.569	4379
905.686	4554
905.803	4561
905.921	4413
906.038	4550
906.155	4447
906.272	4405
906.389	4447
906.506	4363
906.623	4409
906.74	4379
906.857	4295
906.974	4348
907.091	4565
907.208	4683
907.324	4516
907.441	4485
907.557	4375
907.674	4337
907.79	4287
907.907	4371
908.023	4508
908.139	4447
908.256	4375
908.372	4436
908.488	4440
908.604	4337
908.72	4402
908.836	4375
908.952	4367
909.068	4451
909.184	4554
909.3	4478
909.415	4546
909.531	4516
909.647	4363
909.762	4341
909.878	4314
909.993	4443
910.108	4440
910.224	4402
910.339	4478
910.454	4390
910.57	4337
910.685	4325
910.8	4653
910.915	4599
911.03	4478
911.145	4329
911.259	4363
911.374	4363
911.489	4287
911.604	4295
911.718	4116
911.833	4200
911.947	4078
912.062	4051
912.176	4169
912.291	4219
912.405	4227
912.519	4451
912.633	4500
912.748	4337
912.862	4299
912.976	4253
913.09	4097
913.204	4154
913.318	4192
913.431	4348
913.545	4405
913.659	4455
913.772	4318
913.886	4234
914	4238
914.113	4383
914.226	4413
914.34	4409
914.453	4227
914.566	4402
914.68	4295
914.793	4348
914.906	4158
915.019	4166
915.132	4086
915.245	4147
915.358	4215
915.47	4196
915.583	4272
915.696	4272
915.809	4409
915.921	4421
916.034	4238
916.146	4234
916.259	4223
916.371	4417
916.483	4348
916.595	4303
916.708	4291
916.82	4295
916.932	4306
917.044	4333
917.156	4306
917.268	4257
917.38	4287
917.491	4261
917.603	4363
917.715	4371
917.826	4462
917.938	4360
918.049	4276
918.161	4402
918.272	4519
918.384	4535
918.495	4504
918.606	4295
918.717	4215
918.828	4329
918.939	4371
919.05	4253
919.161	4310
919.272	4158
919.383	4196
919.494	4432
919.604	4653
919.715	4440
919.826	4329
919.936	4383
920.047	4531
920.157	4497
920.267	4694
920.378	4497
920.488	4538
920.598	4752
920.708	4866
920.818	4752
920.928	4778
921.038	4938
921.148	4946
921.258	4615
921.368	4523
921.477	4489
921.587	4489
921.697	4371
921.806	4542
921.916	4451
922.025	4249
922.134	4234
922.244	4185
922.353	4310
922.462	4143
922.571	4097
922.68	3994
922.789	3964
922.898	4040
923.007	3926
923.116	4101
923.224	4055
923.333	4086
923.442	4021
923.55	3991
923.659	4040
923.767	4078
923.876	3964
923.984	4105
924.092	3983
924.201	4074
924.309	4078
924.417	4116
924.525	4071
924.633	4101
924.741	5045
924.849	3926
924.956	4067
925.064	3991
925.172	3907
925.279	3956
925.387	4090
925.494	4029
925.602	4227
925.709	4181
925.816	4036
925.924	4158
926.031	4223
926.138	4150
926.245	4177
926.352	4101
926.459	4265
926.566	4280
926.673	4139
926.779	4044
926.886	4055
926.993	4010
927.099	3960
927.206	3884
927.312	3941
927.419	4002
927.525	4029
927.631	4063
927.737	3975
927.843	3979
927.95	3835
928.056	3956
928.162	3998
928.267	4059
928.373	4664
928.479	4143
928.585	3945
928.69	4051
928.796	4040
928.901	3953
929.007	3876
929.112	4017
929.218	3934
929.323	3922
929.428	3964
929.533	4063
929.638	3899
929.743	3953
929.848	4082
929.953	3991
930.058	3968
930.163	3819
930.267	3842
930.372	3953
930.477	3797
930.581	4059
930.685	3945
930.79	3846
930.894	3926
930.998	3827
931.103	4040
931.207	3663
931.311	3675
931.415	3694
931.519	3534
931.623	3603
