Data from test_V78500241_2249.txt Node
Date: Fri Mar 25 17:04:38 CST 2022
User: usil
Spectrometer: V785-0024
Trigger mode: 0
Integration Time (sec): 4.000000E-1
Scans to average: 1
Nonlinearity correction enabled: false
Boxcar width: 0
Storing dark spectrum: false
XAxis mode: Wavelengths
Number of Pixels in Spectrum: 1024
>>>>>Begin Spectral Data<<<<<
801.071	8046
801.214	7955
801.356	7807
801.499	7750
801.641	7799
801.783	7909
801.926	7940
802.068	7997
802.211	7982
802.353	8016
802.496	7883
802.638	7837
802.78	7879
802.923	7921
803.065	7883
803.208	7883
803.35	7986
803.492	8062
803.635	8180
803.777	8065
803.919	8153
804.061	8431
804.204	8168
804.346	8107
804.488	7963
804.63	8062
804.773	7989
804.915	8126
805.057	8332
805.199	8206
805.341	8199
805.483	8237
805.626	8206
805.768	8164
805.91	8183
806.052	8142
806.194	8103
806.336	8282
806.478	8149
806.62	8008
806.762	8100
806.904	8225
807.046	8431
807.188	8328
807.33	8305
807.472	8298
807.614	8153
807.756	8119
807.898	8024
808.04	7833
808.182	7841
808.324	7868
808.465	7963
808.607	8050
808.749	8065
808.891	8183
809.033	8336
809.174	8176
809.316	8096
809.458	8039
809.6	7967
809.741	8031
809.883	8069
810.025	8145
810.166	8054
810.308	8065
810.45	8035
810.591	7814
810.733	7689
810.875	7586
811.016	7449
811.158	7502
811.299	7514
811.441	7655
811.582	7624
811.724	7613
811.865	7499
812.007	7567
812.148	7605
812.29	7636
812.431	7708
812.573	7890
812.714	7947
812.855	8138
812.997	8301
813.138	8286
813.279	8119
813.421	8069
813.562	7928
813.703	7818
813.845	7685
813.986	7441
814.127	7270
814.268	7217
814.41	7240
814.551	7156
814.692	7209
814.833	7103
814.974	7053
815.115	7149
815.256	6962
815.397	6947
815.539	6947
815.68	6795
815.821	6764
815.962	6787
816.103	6829
816.244	6703
816.385	6623
816.526	6631
816.666	6585
816.807	6380
816.948	6361
817.089	6445
817.23	6445
817.371	6369
817.512	6403
817.653	6414
817.793	6327
817.934	6467
818.075	6395
818.216	6372
818.356	6331
818.497	6216
818.638	6129
818.778	6136
818.919	6144
819.06	6140
819.2	6369
819.341	6334
819.481	6380
819.622	6582
819.762	6700
819.903	6658
820.043	6547
820.184	6570
820.324	6646
820.465	6677
820.605	6677
820.746	6677
820.886	6502
821.026	6669
821.167	6654
821.307	6821
821.447	6776
821.588	6654
821.728	6559
821.868	6521
822.008	6369
822.149	6384
822.289	6353
822.429	6125
822.569	6117
822.709	6102
822.849	5980
822.99	5866
823.13	5923
823.27	5923
823.41	5798
823.55	5813
823.69	5752
823.83	5802
823.97	5741
824.11	5585
824.25	5478
824.389	5543
824.529	5596
824.669	5577
824.809	5558
824.949	5691
825.089	5600
825.228	5543
825.368	5433
825.508	5337
825.648	5341
825.787	5364
825.927	5440
826.067	5353
826.206	5231
826.346	5372
826.485	5383
826.625	5417
826.765	5577
826.904	5467
827.044	5242
827.183	5151
827.323	5136
827.462	5223
827.601	5162
827.741	5208
827.88	5212
828.02	5098
828.159	5273
828.298	5318
828.437	5398
828.577	5254
828.716	5467
828.855	5330
828.994	5132
829.134	5193
829.273	5166
829.412	5128
829.551	5143
829.69	5098
829.829	5204
829.968	5299
830.107	5201
830.246	5258
830.385	5231
830.524	5140
830.663	5025
830.802	4987
830.941	4923
831.08	4881
831.219	4991
831.357	4930
831.496	5105
831.635	4881
831.774	4866
831.913	4778
832.051	4721
832.19	4675
832.329	4824
832.467	4683
832.606	4615
832.744	4710
832.883	4744
833.022	4687
833.16	4778
833.299	4854
833.437	4854
833.576	4812
833.714	4835
833.852	4877
833.991	4904
834.129	4968
834.267	4885
834.406	4930
834.544	4995
834.682	4946
834.821	4976
834.959	5162
835.097	5003
835.235	5155
835.373	5086
835.511	5064
835.65	5037
835.788	5018
835.926	4919
836.064	4843
836.202	4942
836.34	5170
836.478	5216
836.615	5109
836.753	5185
836.891	5220
837.029	5246
837.167	5166
837.305	5162
837.443	5174
837.58	5121
837.718	5223
837.856	5166
837.993	5147
838.131	5216
838.269	5208
838.406	5204
838.544	5178
838.681	5025
838.819	5045
838.956	4892
839.094	4877
839.231	4927
839.369	5064
839.506	5452
839.643	5273
839.781	5064
839.918	5018
840.055	5105
840.193	5102
840.33	5124
840.467	5128
840.604	5140
840.742	5474
840.879	5094
841.016	5067
841.153	5140
841.29	5395
841.427	5330
841.564	5311
841.701	5368
841.838	5261
841.975	5242
842.112	5265
842.249	5140
842.385	5105
842.522	5261
842.659	5174
842.796	5128
842.933	5235
843.069	5151
843.206	5189
843.343	5318
843.479	5170
843.616	5280
843.752	4949
843.889	4976
844.025	5178
844.162	4965
844.298	5189
844.435	5098
844.571	5018
844.708	5155
844.844	5254
844.98	5330
845.117	5265
845.253	5113
845.389	5086
845.525	5136
845.661	5151
845.798	5029
845.934	5086
846.07	5052
846.206	5181
846.342	5349
846.478	5197
846.614	4987
846.75	4991
846.886	4923
847.022	5124
847.158	5025
847.294	5071
847.429	5086
847.565	5056
847.701	5292
847.837	4892
847.972	4790
848.108	4980
848.244	4911
848.379	4740
848.515	4729
848.65	4809
848.786	4729
848.921	4786
849.057	4877
849.192	4908
849.328	4812
849.463	4816
849.598	4733
849.734	4755
849.869	4687
850.004	4611
850.14	4641
850.275	4645
850.41	4516
850.545	4516
850.68	4611
850.815	4599
850.95	4656
851.085	4824
851.22	4752
851.355	4687
851.49	4546
851.625	4634
851.76	4634
851.895	4554
852.03	4554
852.165	4634
852.299	4683
852.434	4778
852.569	4767
852.703	4752
852.838	4843
852.973	4938
853.107	4949
853.242	4717
853.376	4649
853.511	4558
853.645	4641
853.78	4801
853.914	4656
854.048	4668
854.183	4645
854.317	4687
854.451	4835
854.585	4653
854.72	4611
854.854	4767
854.988	4569
855.122	4611
855.256	4546
855.39	4656
855.524	4736
855.658	4672
855.792	4672
855.926	4733
856.06	4778
856.194	4778
856.327	4702
856.461	4611
856.595	4599
856.729	4660
856.862	4790
856.996	4691
857.13	4733
857.263	4725
857.397	4847
857.53	4603
857.664	4725
857.797	4752
857.931	4797
858.064	4702
858.197	4710
858.331	4664
858.464	4615
858.597	4493
858.731	4588
858.864	4626
858.997	4588
859.13	4653
859.263	4653
859.396	4717
859.529	4580
859.662	4523
859.795	4535
859.928	4546
860.061	4763
860.194	4736
860.327	4641
860.46	4599
860.592	4691
860.725	4645
860.858	4694
860.99	4615
861.123	4500
861.256	4493
861.388	4611
861.521	5303
861.653	4470
861.786	4402
861.918	4455
862.05	4470
862.183	4565
862.315	4599
862.447	4630
862.58	4527
862.712	4375
862.844	4314
862.976	4432
863.108	4500
863.24	4854
863.372	4329
863.504	4413
863.636	4379
863.768	4535
863.9	4432
864.032	4337
864.164	4341
864.296	4493
864.428	4573
864.559	4554
864.691	4531
864.823	4519
864.954	4459
865.086	4535
865.217	4466
865.349	4394
865.48	4432
865.612	4519
865.743	4630
865.875	4478
866.006	4451
866.137	4440
866.269	4447
866.4	4398
866.531	4402
866.662	4424
866.793	4421
866.924	4367
867.055	4451
867.186	4504
867.317	4424
867.448	4394
867.579	4363
867.71	4383
867.841	4284
867.972	4405
868.103	4405
868.233	4443
868.364	4409
868.495	4493
868.625	4683
868.756	4752
868.886	4573
869.017	4611
869.147	4721
869.278	4752
869.408	4675
869.539	4611
869.669	4725
869.799	4618
869.929	4786
870.06	4702
870.19	4946
870.32	4908
870.45	4942
870.58	5045
870.71	5094
870.84	5064
870.97	4911
871.1	4866
871.23	5121
871.36	5105
871.489	4991
871.619	5086
871.749	5094
871.879	5132
872.008	5094
872.138	5094
872.267	5003
872.397	4843
872.526	4820
872.656	4679
872.785	4831
872.915	4957
873.044	4999
873.173	4946
873.303	4965
873.432	4927
873.561	4946
873.69	4881
873.819	4866
873.948	4949
874.077	4786
874.206	4748
874.335	4793
874.464	4930
874.593	5041
874.722	4976
874.851	5113
874.979	5037
875.108	5041
875.237	4938
875.365	4862
875.494	4919
875.623	4995
875.751	4824
875.88	4870
876.008	4957
876.136	5041
876.265	5204
876.393	5322
876.521	5246
876.65	5193
876.778	5121
876.906	5071
877.034	4953
877.162	5022
877.29	4961
877.418	5022
877.546	5064
877.674	5052
877.802	5064
877.93	4999
878.058	4965
878.185	4911
878.313	4927
878.441	4976
878.568	4816
878.696	4866
878.824	4984
878.951	4999
879.079	5162
879.206	5250
879.333	5041
879.461	5025
879.588	5014
879.715	5094
879.842	5246
879.97	5006
880.097	4790
880.224	4717
880.351	4790
880.478	4774
880.605	4759
880.732	4782
880.859	5079
880.986	4881
881.112	4877
881.239	4714
881.366	4691
881.493	4577
881.619	4577
881.746	4607
881.872	4668
881.999	4592
882.125	4687
882.252	4812
882.378	4782
882.505	4915
882.631	4801
882.757	4615
882.883	4744
883.01	4649
883.136	4675
883.262	4527
883.388	4584
883.514	4790
883.64	4805
883.766	4790
883.892	4687
884.018	4733
884.143	4896
884.269	4946
884.395	4637
884.52	4561
884.646	4641
884.772	4550
884.897	4527
885.023	4668
885.148	4797
885.274	4839
885.399	4767
885.524	4710
885.65	4664
885.775	4744
885.9	4706
886.025	4858
886.15	4805
886.275	4660
886.4	4618
886.525	4729
886.65	4683
886.775	4687
886.9	4896
887.025	4999
887.149	4790
887.274	4664
887.399	4592
887.523	4531
887.648	4588
887.773	4558
887.897	4759
888.021	4748
888.146	4660
888.27	4809
888.395	4938
888.519	4752
888.643	4767
888.767	4801
888.891	4649
889.015	4637
889.139	4626
889.263	4626
889.387	4767
889.511	4877
889.635	4828
889.759	4637
889.883	4626
890.006	4733
890.13	4820
890.254	4641
890.377	4683
890.501	4542
890.624	4493
890.748	4618
890.871	4569
890.995	4398
891.118	4413
891.241	4565
891.364	4542
891.488	4691
891.611	4535
891.734	4516
891.857	4645
891.98	4607
892.103	4679
892.226	4630
892.349	4550
892.471	4451
892.594	4542
892.717	4577
892.839	4577
892.962	4637
893.085	4675
893.207	4649
893.33	4481
893.452	4588
893.575	4679
893.697	4637
893.819	4881
893.941	4885
894.064	4793
894.186	4607
894.308	4542
894.43	4812
894.552	4831
894.674	4771
894.796	4512
894.918	4599
895.04	4649
895.161	4725
895.283	4694
895.405	4615
895.526	4630
895.648	4774
895.769	4691
895.891	4736
896.012	4702
896.134	4733
896.255	4706
896.376	4691
896.498	4615
896.619	4725
896.74	4672
896.861	4626
896.982	4949
897.103	5105
897.224	4862
897.345	4801
897.466	4763
897.587	4748
897.708	4847
897.828	4847
897.949	4744
898.07	4649
898.19	4645
898.311	4831
898.431	4694
898.552	4755
898.672	4835
898.792	4870
898.913	4797
899.033	4702
899.153	4531
899.273	4424
899.393	4497
899.513	4599
899.633	4592
899.753	4615
899.873	4546
899.993	4618
900.113	4546
900.232	4615
900.352	4554
900.472	4512
900.591	4421
900.711	4516
900.83	4497
900.95	4558
901.069	4721
901.189	4554
901.308	4432
901.427	4402
901.546	4375
901.665	4478
901.784	4554
901.904	4417
902.023	4329
902.141	4223
902.26	4230
902.379	4360
902.498	4268
902.617	4238
902.735	4394
902.854	4428
902.973	4428
903.091	4253
903.21	4295
903.328	4348
903.446	4375
903.565	4276
903.683	4295
903.801	4356
903.919	4443
904.038	4462
904.156	4360
904.274	4455
904.392	4443
904.51	4489
904.627	4508
904.745	4637
904.863	4645
904.981	4424
905.098	4341
905.216	4421
905.334	4485
905.451	4470
905.569	4417
905.686	4584
905.803	4596
905.921	4409
906.038	4596
906.155	4519
906.272	4443
906.389	4489
906.506	4360
906.623	4394
906.74	4428
906.857	4348
906.974	4348
907.091	4596
907.208	4656
907.324	4592
907.441	4531
907.557	4341
907.674	4348
907.79	4348
907.907	4405
908.023	4531
908.139	4519
908.256	4493
908.372	4538
908.488	4504
908.604	4352
908.72	4329
908.836	4436
908.952	4398
909.068	4459
909.184	4554
909.3	4550
909.415	4596
909.531	4569
909.647	4390
909.762	4409
909.878	4390
909.993	4451
910.108	4474
910.224	4485
910.339	4516
910.454	4413
910.57	4398
910.685	4367
910.8	4691
910.915	4626
911.03	4554
911.145	4287
911.259	4363
911.374	4455
911.489	4337
911.604	4325
911.718	4215
911.833	4257
911.947	4093
912.062	4101
912.176	4276
912.291	4253
912.405	4287
912.519	4481
912.633	4584
912.748	4432
912.862	4299
912.976	4223
913.09	4192
913.204	4211
913.318	4265
913.431	4379
913.545	4360
913.659	4462
913.772	4402
913.886	4287
914	4249
914.113	4383
914.226	4421
914.34	4417
914.453	4287
914.566	4470
914.68	4287
914.793	4398
914.906	4177
915.019	4154
915.132	4063
915.245	4246
915.358	4253
915.47	4234
915.583	4284
915.696	4360
915.809	4481
915.921	4485
916.034	4242
916.146	4306
916.259	4227
916.371	4383
916.483	4394
916.595	4291
916.708	4352
916.82	4337
916.932	4341
917.044	4322
917.156	4310
917.268	4246
917.38	4329
917.491	4287
917.603	4379
917.715	4447
917.826	4466
917.938	4394
918.049	4276
918.161	4447
918.272	4519
918.384	4531
918.495	4474
918.606	4329
918.717	4272
918.828	4398
918.939	4432
919.05	4314
919.161	4310
919.272	4135
919.383	4253
919.494	4466
919.604	4672
919.715	4474
919.826	4390
919.936	4440
920.047	4565
920.157	4531
920.267	4698
920.378	4550
920.488	4512
920.598	4710
920.708	4904
920.818	4759
920.928	4793
921.038	4961
921.148	4946
921.258	4675
921.368	4569
921.477	4523
921.587	4436
921.697	4402
921.806	4516
921.916	4386
922.025	4249
922.134	4242
922.244	4261
922.353	4356
922.462	4177
922.571	4139
922.68	3991
922.789	4002
922.898	4097
923.007	4013
923.116	4093
923.224	4116
923.333	4116
923.442	4029
923.55	4029
923.659	4025
923.767	4135
923.876	4040
923.984	4185
924.092	3998
924.201	4120
924.309	4158
924.417	4112
924.525	4063
924.633	4158
924.741	5083
924.849	3926
924.956	4150
925.064	3991
925.172	3926
925.279	3956
925.387	4074
925.494	4059
925.602	4215
925.709	4177
925.816	4071
925.924	4124
926.031	4284
926.138	4185
926.245	4268
926.352	4139
926.459	4249
926.566	4337
926.673	4185
926.779	4067
926.886	4128
926.993	4032
927.099	3956
927.206	3949
927.312	3949
927.419	4059
927.525	3998
927.631	4116
927.737	3983
927.843	3956
927.95	3865
928.056	3960
928.162	4010
928.267	4124
928.373	4672
928.479	4112
928.585	3896
928.69	4010
928.796	4036
928.901	3949
929.007	3861
929.112	3987
929.218	4048
929.323	3934
929.428	3941
929.533	4120
929.638	3930
929.743	3972
929.848	4059
929.953	3994
930.058	3956
930.163	3797
930.267	3838
930.372	3949
930.477	3831
930.581	4090
930.685	3953
930.79	3831
930.894	3911
930.998	3873
931.103	4082
931.207	3732
931.311	3736
931.415	3701
931.519	3549
931.623	3557
