Data from test_V78500241_2202.txt Node
Date: Fri Mar 25 17:04:18 CST 2022
User: usil
Spectrometer: V785-0024
Trigger mode: 0
Integration Time (sec): 4.000000E-1
Scans to average: 1
Nonlinearity correction enabled: false
Boxcar width: 0
Storing dark spectrum: false
XAxis mode: Wavelengths
Number of Pixels in Spectrum: 1024
>>>>>Begin Spectral Data<<<<<
801.071	7982
801.214	8008
801.356	7818
801.499	7860
801.641	7715
801.783	7830
801.926	7944
802.068	8005
802.211	7970
802.353	8016
802.496	7814
802.638	7925
802.78	7871
802.923	7868
803.065	7856
803.208	7814
803.35	7940
803.492	8069
803.635	8157
803.777	8058
803.919	8149
804.061	8438
804.204	8183
804.346	8077
804.488	7944
804.63	8081
804.773	7986
804.915	8202
805.057	8259
805.199	8142
805.341	8195
805.483	8279
805.626	8172
805.768	8168
805.91	8195
806.052	8317
806.194	8172
806.336	8275
806.478	8084
806.62	8107
806.762	8149
806.904	8282
807.046	8503
807.188	8343
807.33	8240
807.472	8320
807.614	8153
807.756	8176
807.898	7978
808.04	7902
808.182	7852
808.324	7894
808.465	7928
808.607	8088
808.749	8031
808.891	8176
809.033	8339
809.174	8210
809.316	8084
809.458	8077
809.6	8016
809.741	8012
809.883	8016
810.025	8092
810.166	8092
810.308	8054
810.45	8046
810.591	7902
810.733	7708
810.875	7651
811.016	7506
811.158	7499
811.299	7628
811.441	7753
811.582	7613
811.724	7544
811.865	7567
812.007	7540
812.148	7647
812.29	7639
812.431	7761
812.573	7860
812.714	7932
812.855	8172
812.997	8199
813.138	8343
813.279	8077
813.421	8005
813.562	7940
813.703	7795
813.845	7727
813.986	7411
814.127	7232
814.268	7255
814.41	7244
814.551	7202
814.692	7202
814.833	7141
814.974	7118
815.115	7072
815.256	7015
815.397	6932
815.539	6935
815.68	6821
815.821	6722
815.962	6818
816.103	6814
816.244	6673
816.385	6631
816.526	6601
816.666	6509
816.807	6304
816.948	6433
817.089	6483
817.23	6475
817.371	6391
817.512	6422
817.653	6365
817.793	6353
817.934	6433
818.075	6467
818.216	6460
818.356	6456
818.497	6254
818.638	6194
818.778	6159
818.919	6133
819.06	6186
819.2	6300
819.341	6331
819.481	6418
819.622	6513
819.762	6741
819.903	6715
820.043	6585
820.184	6544
820.324	6585
820.465	6711
820.605	6745
820.746	6650
820.886	6563
821.026	6711
821.167	6662
821.307	6802
821.447	6787
821.588	6726
821.728	6597
821.868	6551
822.008	6327
822.149	6331
822.289	6422
822.429	6194
822.569	6045
822.709	6091
822.849	5920
822.99	5859
823.13	5912
823.27	5927
823.41	5832
823.55	5805
823.69	5783
823.83	5710
823.97	5672
824.11	5532
824.25	5547
824.389	5573
824.529	5562
824.669	5490
824.809	5608
824.949	5657
825.089	5585
825.228	5558
825.368	5414
825.508	5372
825.648	5364
825.787	5402
825.927	5429
826.067	5337
826.206	5280
826.346	5357
826.485	5433
826.625	5440
826.765	5516
826.904	5497
827.044	5242
827.183	5204
827.323	5117
827.462	5250
827.601	5151
827.741	5227
827.88	5212
828.02	5060
828.159	5231
828.298	5284
828.437	5372
828.577	5250
828.716	5459
828.855	5322
828.994	5181
829.134	5124
829.273	5136
829.412	5128
829.551	5105
829.69	5132
829.829	5250
829.968	5376
830.107	5235
830.246	5258
830.385	5185
830.524	5083
830.663	5079
830.802	4961
830.941	4896
831.08	4870
831.219	5006
831.357	4949
831.496	5105
831.635	4957
831.774	4820
831.913	4870
832.051	4702
832.19	4763
832.329	4892
832.467	4694
832.606	4622
832.744	4721
832.883	4687
833.022	4733
833.16	4816
833.299	4805
833.437	4812
833.576	4877
833.714	4828
833.852	4835
833.991	4885
834.129	4984
834.267	4938
834.406	4896
834.544	4972
834.682	4980
834.821	4949
834.959	5143
835.097	4965
835.235	5132
835.373	5102
835.511	5128
835.65	5037
835.788	5025
835.926	4870
836.064	4911
836.202	4881
836.34	5132
836.478	5223
836.615	5166
836.753	5204
836.891	5292
837.029	5216
837.167	5201
837.305	5185
837.443	5181
837.58	5083
837.718	5261
837.856	5239
837.993	5143
838.131	5246
838.269	5185
838.406	5185
838.544	5197
838.681	4968
838.819	5022
838.956	4847
839.094	4889
839.231	5018
839.369	5029
839.506	5421
839.643	5254
839.781	5022
839.918	4999
840.055	5048
840.193	5105
840.33	5121
840.467	5166
840.604	5162
840.742	5452
840.879	5075
841.016	5071
841.153	5204
841.29	5383
841.427	5322
841.564	5345
841.701	5318
841.838	5246
841.975	5216
842.112	5292
842.249	5193
842.385	5075
842.522	5315
842.659	5181
842.796	5151
842.933	5204
843.069	5140
843.206	5189
843.343	5315
843.479	5231
843.616	5223
843.752	4999
843.889	5029
844.025	5223
844.162	5010
844.298	5265
844.435	5109
844.571	5048
844.708	5147
844.844	5307
844.98	5368
845.117	5315
845.253	5102
845.389	5105
845.525	5155
845.661	5197
845.798	5083
845.934	5086
846.07	5045
846.206	5208
846.342	5254
846.478	5155
846.614	5029
846.75	4942
846.886	4953
847.022	5086
847.158	4987
847.294	5010
847.429	5067
847.565	5121
847.701	5341
847.837	4835
847.972	4828
848.108	4957
848.244	4946
848.379	4752
848.515	4721
848.65	4740
848.786	4744
848.921	4752
849.057	4824
849.192	4873
849.328	4809
849.463	4858
849.598	4828
849.734	4759
849.869	4710
850.004	4653
850.14	4672
850.275	4558
850.41	4527
850.545	4516
850.68	4596
850.815	4588
850.95	4622
851.085	4881
851.22	4767
851.355	4710
851.49	4569
851.625	4637
851.76	4607
851.895	4535
852.03	4546
852.165	4626
852.299	4740
852.434	4786
852.569	4763
852.703	4767
852.838	4801
852.973	4896
853.107	4885
853.242	4729
853.376	4691
853.511	4561
853.645	4596
853.78	4831
853.914	4679
854.048	4679
854.183	4653
854.317	4653
854.451	4896
854.585	4687
854.72	4599
854.854	4740
854.988	4596
855.122	4618
855.256	4523
855.39	4675
855.524	4736
855.658	4733
855.792	4729
855.926	4744
856.06	4744
856.194	4774
856.327	4740
856.461	4630
856.595	4542
856.729	4622
856.862	4740
856.996	4653
857.13	4748
857.263	4714
857.397	4797
857.53	4607
857.664	4717
857.797	4763
857.931	4755
858.064	4710
858.197	4694
858.331	4679
858.464	4596
858.597	4523
858.731	4672
858.864	4649
858.997	4626
859.13	4607
859.263	4649
859.396	4637
859.529	4588
859.662	4538
859.795	4542
859.928	4664
860.061	4759
860.194	4774
860.327	4607
860.46	4573
860.592	4714
860.725	4729
860.858	4687
860.99	4569
861.123	4519
861.256	4550
861.388	4596
861.521	5284
861.653	4440
861.786	4402
861.918	4485
862.05	4519
862.183	4508
862.315	4618
862.447	4672
862.58	4550
862.712	4402
862.844	4333
862.976	4470
863.108	4432
863.24	4767
863.372	4325
863.504	4447
863.636	4428
863.768	4481
863.9	4417
864.032	4383
864.164	4383
864.296	4417
864.428	4550
864.559	4588
864.691	4512
864.823	4561
864.954	4500
865.086	4504
865.217	4462
865.349	4424
865.48	4462
865.612	4459
865.743	4611
865.875	4516
866.006	4440
866.137	4455
866.269	4489
866.4	4428
866.531	4478
866.662	4386
866.793	4394
866.924	4402
867.055	4493
867.186	4447
867.317	4443
867.448	4363
867.579	4436
867.71	4394
867.841	4360
867.972	4436
868.103	4478
868.233	4451
868.364	4451
868.495	4447
868.625	4641
868.756	4710
868.886	4584
869.017	4618
869.147	4740
869.278	4763
869.408	4630
869.539	4592
869.669	4687
869.799	4660
869.929	4736
870.06	4710
870.19	4961
870.32	4953
870.45	4938
870.58	5022
870.71	5086
870.84	5067
870.97	4915
871.1	4919
871.23	5124
871.36	5170
871.489	5071
871.619	5083
871.749	5041
871.879	5113
872.008	5162
872.138	5090
872.267	4965
872.397	4870
872.526	4831
872.656	4778
872.785	4786
872.915	4904
873.044	5033
873.173	4934
873.303	4942
873.432	4911
873.561	4900
873.69	4831
873.819	4847
873.948	4881
874.077	4839
874.206	4759
874.335	4755
874.464	4911
874.593	5083
874.722	4961
874.851	5071
874.979	5010
875.108	5075
875.237	4904
875.365	4873
875.494	4919
875.623	4965
875.751	4820
875.88	4896
876.008	4980
876.136	5060
876.265	5216
876.393	5372
876.521	5254
876.65	5189
876.778	5189
876.906	5136
877.034	5048
877.162	5029
877.29	5025
877.418	5056
877.546	5037
877.674	5052
877.802	5022
877.93	5006
878.058	4965
878.185	4881
878.313	4949
878.441	4972
878.568	4793
878.696	4896
878.824	4904
878.951	4995
879.079	5132
879.206	5334
879.333	5128
879.461	4987
879.588	5006
879.715	5143
879.842	5235
879.97	5029
880.097	4786
880.224	4771
880.351	4733
880.478	4835
880.605	4805
880.732	4801
880.859	5083
880.986	4919
881.112	4904
881.239	4733
881.366	4736
881.493	4637
881.619	4599
881.746	4645
881.872	4611
881.999	4691
882.125	4714
882.252	4793
882.378	4809
882.505	4927
882.631	4805
882.757	4668
882.883	4698
883.01	4778
883.136	4675
883.262	4603
883.388	4592
883.514	4828
883.64	4873
883.766	4755
883.892	4698
884.018	4729
884.143	4904
884.269	5025
884.395	4668
884.52	4611
884.646	4687
884.772	4584
884.897	4596
885.023	4611
885.148	4786
885.274	4835
885.399	4774
885.524	4702
885.65	4702
885.775	4752
885.9	4653
886.025	4850
886.15	4793
886.275	4679
886.4	4637
886.525	4736
886.65	4691
886.775	4733
886.9	4904
887.025	4999
887.149	4801
887.274	4615
887.399	4584
887.523	4584
887.648	4573
887.773	4546
887.897	4816
888.021	4809
888.146	4679
888.27	4809
888.395	4915
888.519	4828
888.643	4820
888.767	4839
888.891	4694
889.015	4615
889.139	4626
889.263	4611
889.387	4831
889.511	4839
889.635	4774
889.759	4664
889.883	4618
890.006	4729
890.13	4816
890.254	4641
890.377	4679
890.501	4565
890.624	4497
890.748	4599
890.871	4500
890.995	4428
891.118	4394
891.241	4508
891.364	4550
891.488	4634
891.611	4535
891.734	4508
891.857	4569
891.98	4516
892.103	4660
892.226	4618
892.349	4516
892.471	4470
892.594	4538
892.717	4580
892.839	4565
892.962	4615
893.085	4622
893.207	4565
893.33	4497
893.452	4538
893.575	4660
893.697	4622
893.819	4790
893.941	4763
894.064	4782
894.186	4542
894.308	4565
894.43	4698
894.552	4824
894.674	4805
894.796	4542
894.918	4630
895.04	4554
895.161	4702
895.283	4660
895.405	4558
895.526	4618
895.648	4664
895.769	4725
895.891	4717
896.012	4694
896.134	4740
896.255	4656
896.376	4622
896.498	4641
896.619	4694
896.74	4618
896.861	4714
896.982	4904
897.103	5105
897.224	4767
897.345	4793
897.466	4653
897.587	4752
897.708	4850
897.828	4820
897.949	4622
898.07	4607
898.19	4611
898.311	4824
898.431	4683
898.552	4710
898.672	4767
898.792	4847
898.913	4691
899.033	4599
899.153	4474
899.273	4447
899.393	4481
899.513	4531
899.633	4538
899.753	4599
899.873	4546
899.993	4599
900.113	4523
900.232	4569
900.352	4561
900.472	4516
900.591	4363
900.711	4500
900.83	4424
900.95	4622
901.069	4691
901.189	4535
901.308	4356
901.427	4306
901.546	4348
901.665	4440
901.784	4493
901.904	4371
902.023	4318
902.141	4147
902.26	4139
902.379	4318
902.498	4211
902.617	4242
902.735	4356
902.854	4375
902.973	4379
903.091	4200
903.21	4238
903.328	4310
903.446	4310
903.565	4272
903.683	4375
903.801	4295
903.919	4386
904.038	4398
904.156	4318
904.274	4428
904.392	4398
904.51	4436
904.627	4409
904.745	4599
904.863	4607
904.981	4390
905.098	4303
905.216	4314
905.334	4394
905.451	4447
905.569	4409
905.686	4519
905.803	4580
905.921	4417
906.038	4546
906.155	4462
906.272	4402
906.389	4443
906.506	4379
906.623	4367
906.74	4402
906.857	4306
906.974	4409
907.091	4550
907.208	4710
907.324	4584
907.441	4474
907.557	4325
907.674	4348
907.79	4314
907.907	4344
908.023	4474
908.139	4459
908.256	4447
908.372	4466
908.488	4421
908.604	4348
908.72	4341
908.836	4360
908.952	4360
909.068	4413
909.184	4531
909.3	4470
909.415	4554
909.531	4535
909.647	4367
909.762	4375
909.878	4386
909.993	4409
910.108	4413
910.224	4402
910.339	4470
910.454	4402
910.57	4348
910.685	4322
910.8	4634
910.915	4584
911.03	4489
911.145	4325
911.259	4356
911.374	4363
911.489	4280
911.604	4272
911.718	4131
911.833	4223
911.947	4093
912.062	4048
912.176	4227
912.291	4207
912.405	4253
912.519	4481
912.633	4485
912.748	4356
912.862	4265
912.976	4177
913.09	4097
913.204	4185
913.318	4276
913.431	4337
913.545	4333
913.659	4421
913.772	4306
913.886	4234
914	4253
914.113	4375
914.226	4440
914.34	4402
914.453	4207
914.566	4409
914.68	4299
914.793	4284
914.906	4143
915.019	4135
915.132	4139
915.245	4188
915.358	4230
915.47	4238
915.583	4303
915.696	4310
915.809	4424
915.921	4436
916.034	4246
916.146	4268
916.259	4246
916.371	4329
916.483	4379
916.595	4291
916.708	4333
916.82	4299
916.932	4306
917.044	4356
917.156	4318
917.268	4234
917.38	4310
917.491	4299
917.603	4356
917.715	4424
917.826	4409
917.938	4341
918.049	4249
918.161	4337
918.272	4535
918.384	4516
918.495	4470
918.606	4306
918.717	4207
918.828	4295
918.939	4383
919.05	4265
919.161	4318
919.272	4093
919.383	4207
919.494	4398
919.604	4645
919.715	4394
919.826	4360
919.936	4375
920.047	4512
920.157	4493
920.267	4630
920.378	4519
920.488	4519
920.598	4675
920.708	4877
920.818	4793
920.928	4797
921.038	4930
921.148	4908
921.258	4577
921.368	4569
921.477	4481
921.587	4474
921.697	4371
921.806	4569
921.916	4413
922.025	4295
922.134	4291
922.244	4230
922.353	4360
922.462	4204
922.571	4101
922.68	4006
922.789	3975
922.898	4025
923.007	4021
923.116	4124
923.224	4074
923.333	4074
923.442	3956
923.55	3949
923.659	4029
923.767	4120
923.876	3991
923.984	4078
924.092	3964
924.201	4071
924.309	4063
924.417	4093
924.525	4086
924.633	4063
924.741	5010
924.849	3918
924.956	4090
925.064	4002
925.172	3865
925.279	4002
925.387	4048
925.494	4093
925.602	4215
925.709	4120
925.816	4051
925.924	4135
926.031	4211
926.138	4181
926.245	4154
926.352	4055
926.459	4234
926.566	4329
926.673	4135
926.779	4093
926.886	4063
926.993	3991
927.099	3918
927.206	3937
927.312	3964
927.419	4010
927.525	3979
927.631	4086
927.737	3941
927.843	3945
927.95	3835
928.056	4002
928.162	4002
928.267	4029
928.373	4675
928.479	4082
928.585	3865
928.69	4013
928.796	4093
928.901	3941
929.007	3842
929.112	4017
929.218	3941
929.323	3937
929.428	3911
929.533	4082
929.638	3926
929.743	3922
929.848	4032
929.953	4010
930.058	3922
930.163	3759
930.267	3842
930.372	3983
930.477	3819
930.581	4093
930.685	3949
930.79	3778
930.894	3911
930.998	3854
931.103	4048
931.207	3724
931.311	3686
931.415	3686
931.519	3542
931.623	3542
