Data from test_V78500241_633.txt Node
Date: Fri Mar 25 16:53:24 CST 2022
User: usil
Spectrometer: V785-0024
Trigger mode: 0
Integration Time (sec): 4.000000E-1
Scans to average: 1
Nonlinearity correction enabled: false
Boxcar width: 0
Storing dark spectrum: false
XAxis mode: Wavelengths
Number of Pixels in Spectrum: 1024
>>>>>Begin Spectral Data<<<<<
801.071	8008
801.214	8008
801.356	7795
801.499	7822
801.641	7776
801.783	7830
801.926	8035
802.068	7909
802.211	7982
802.353	8012
802.496	7879
802.638	7902
802.78	7902
802.923	7890
803.065	7845
803.208	7811
803.35	7951
803.492	8088
803.635	8153
803.777	7947
803.919	8084
804.061	8377
804.204	8138
804.346	8020
804.488	7925
804.63	8062
804.773	7997
804.915	8077
805.057	8259
805.199	8187
805.341	8267
805.483	8374
805.626	8134
805.768	8130
805.91	8172
806.052	8199
806.194	8073
806.336	8317
806.478	8054
806.62	8065
806.762	8187
806.904	8343
807.046	8400
807.188	8408
807.33	8271
807.472	8313
807.614	8168
807.756	8199
807.898	8024
808.04	7849
808.182	7936
808.324	7890
808.465	7921
808.607	8035
808.749	8111
808.891	8218
809.033	8328
809.174	8164
809.316	8035
809.458	8111
809.6	7997
809.741	7967
809.883	8024
810.025	8069
810.166	8043
810.308	8039
810.45	8012
810.591	7830
810.733	7757
810.875	7674
811.016	7594
811.158	7586
811.299	7597
811.441	7693
811.582	7613
811.724	7544
811.865	7586
812.007	7582
812.148	7586
812.29	7578
812.431	7647
812.573	7860
812.714	7997
812.855	8115
812.997	8149
813.138	8336
813.279	8183
813.421	8115
813.562	8035
813.703	7883
813.845	7742
813.986	7457
814.127	7381
814.268	7263
814.41	7236
814.551	7213
814.692	7194
814.833	6985
814.974	7069
815.115	7099
815.256	7008
815.397	6901
815.539	6977
815.68	6795
815.821	6757
815.962	6806
816.103	6825
816.244	6711
816.385	6627
816.526	6597
816.666	6479
816.807	6292
816.948	6414
817.089	6486
817.23	6460
817.371	6308
817.512	6372
817.653	6403
817.793	6357
817.934	6456
818.075	6399
818.216	6391
818.356	6376
818.497	6258
818.638	6148
818.778	6129
818.919	6140
819.06	6167
819.2	6281
819.341	6350
819.481	6308
819.622	6433
819.762	6745
819.903	6642
820.043	6536
820.184	6547
820.324	6540
820.465	6684
820.605	6612
820.746	6627
820.886	6498
821.026	6612
821.167	6639
821.307	6741
821.447	6764
821.588	6582
821.728	6540
821.868	6391
822.008	6258
822.149	6471
822.289	6323
822.429	6144
822.569	6034
822.709	6117
822.849	5855
822.99	5969
823.13	5946
823.27	5920
823.41	5783
823.55	5824
823.69	5764
823.83	5714
823.97	5695
824.11	5524
824.25	5512
824.389	5551
824.529	5509
824.669	5493
824.809	5649
824.949	5619
825.089	5592
825.228	5562
825.368	5406
825.508	5368
825.648	5341
825.787	5398
825.927	5330
826.067	5280
826.206	5311
826.346	5395
826.485	5364
826.625	5349
826.765	5490
826.904	5452
827.044	5250
827.183	5155
827.323	5140
827.462	5201
827.601	5132
827.741	5162
827.88	5185
828.02	5083
828.159	5197
828.298	5265
828.437	5357
828.577	5269
828.716	5444
828.855	5292
828.994	5124
829.134	5197
829.273	5166
829.412	5117
829.551	5162
829.69	5166
829.829	5231
829.968	5337
830.107	5223
830.246	5288
830.385	5113
830.524	5083
830.663	5003
830.802	4976
830.941	4873
831.08	4911
831.219	4991
831.357	4946
831.496	5170
831.635	4911
831.774	4816
831.913	4866
832.051	4694
832.19	4721
832.329	4858
832.467	4683
832.606	4584
832.744	4721
832.883	4740
833.022	4733
833.16	4744
833.299	4805
833.437	4805
833.576	4816
833.714	4797
833.852	4881
833.991	4892
834.129	4999
834.267	4889
834.406	4885
834.544	4991
834.682	4942
834.821	4946
834.959	5136
835.097	5018
835.235	5117
835.373	5045
835.511	5109
835.65	5067
835.788	5025
835.926	4900
836.064	4824
836.202	4900
836.34	5143
836.478	5227
836.615	5109
836.753	5242
836.891	5261
837.029	5284
837.167	5223
837.305	5166
837.443	5094
837.58	5064
837.718	5235
837.856	5166
837.993	5155
838.131	5258
838.269	5201
838.406	5201
838.544	5174
838.681	4987
838.819	4984
838.956	4927
839.094	4904
839.231	4995
839.369	5094
839.506	5395
839.643	5273
839.781	5033
839.918	5045
840.055	5037
840.193	5075
840.33	5140
840.467	5162
840.604	5174
840.742	5383
840.879	5022
841.016	5029
841.153	5151
841.29	5383
841.427	5322
841.564	5288
841.701	5337
841.838	5299
841.975	5216
842.112	5277
842.249	5140
842.385	5090
842.522	5315
842.659	5143
842.796	5113
842.933	5193
843.069	5162
843.206	5124
843.343	5288
843.479	5246
843.616	5292
843.752	5018
843.889	5064
844.025	5227
844.162	5018
844.298	5159
844.435	5094
844.571	5071
844.708	5212
844.844	5296
844.98	5368
845.117	5250
845.253	5098
845.389	5090
845.525	5197
845.661	5143
845.798	5010
845.934	5185
846.07	5029
846.206	5170
846.342	5315
846.478	5170
846.614	4949
846.75	4938
846.886	4953
847.022	5113
847.158	5048
847.294	5033
847.429	5083
847.565	5056
847.701	5292
847.837	4820
847.972	4763
848.108	4972
848.244	4877
848.379	4797
848.515	4710
848.65	4710
848.786	4782
848.921	4759
849.057	4866
849.192	4911
849.328	4790
849.463	4866
849.598	4774
849.734	4755
849.869	4698
850.004	4592
850.14	4653
850.275	4611
850.41	4508
850.545	4550
850.68	4573
850.815	4592
850.95	4615
851.085	4831
851.22	4767
851.355	4656
851.49	4584
851.625	4634
851.76	4622
851.895	4527
852.03	4519
852.165	4634
852.299	4733
852.434	4797
852.569	4752
852.703	4717
852.838	4835
852.973	4942
853.107	4915
853.242	4771
853.376	4630
853.511	4573
853.645	4626
853.78	4774
853.914	4603
854.048	4649
854.183	4645
854.317	4664
854.451	4809
854.585	4683
854.72	4584
854.854	4736
854.988	4596
855.122	4649
855.256	4516
855.39	4656
855.524	4782
855.658	4706
855.792	4687
855.926	4702
856.06	4721
856.194	4774
856.327	4710
856.461	4626
856.595	4596
856.729	4622
856.862	4752
856.996	4691
857.13	4736
857.263	4774
857.397	4778
857.53	4653
857.664	4740
857.797	4736
857.931	4774
858.064	4641
858.197	4725
858.331	4637
858.464	4611
858.597	4508
858.731	4622
858.864	4637
858.997	4580
859.13	4649
859.263	4691
859.396	4721
859.529	4542
859.662	4565
859.795	4519
859.928	4630
860.061	4759
860.194	4740
860.327	4596
860.46	4554
860.592	4672
860.725	4721
860.858	4736
860.99	4588
861.123	4538
861.256	4500
861.388	4599
861.521	5311
861.653	4474
861.786	4413
861.918	4489
862.05	4523
862.183	4558
862.315	4588
862.447	4618
862.58	4516
862.712	4402
862.844	4344
862.976	4504
863.108	4440
863.24	4877
863.372	4356
863.504	4398
863.636	4459
863.768	4550
863.9	4432
864.032	4344
864.164	4398
864.296	4485
864.428	4512
864.559	4500
864.691	4538
864.823	4523
864.954	4481
865.086	4500
865.217	4466
865.349	4409
865.48	4451
865.612	4489
865.743	4637
865.875	4447
866.006	4432
866.137	4481
866.269	4466
866.4	4443
866.531	4440
866.662	4394
866.793	4367
866.924	4383
867.055	4535
867.186	4409
867.317	4402
867.448	4375
867.579	4402
867.71	4383
867.841	4386
867.972	4459
868.103	4409
868.233	4417
868.364	4417
868.495	4523
868.625	4630
868.756	4771
868.886	4565
869.017	4580
869.147	4801
869.278	4736
869.408	4637
869.539	4649
869.669	4714
869.799	4634
869.929	4759
870.06	4740
870.19	4968
870.32	4850
870.45	4896
870.58	4995
870.71	5067
870.84	5094
870.97	4908
871.1	4896
871.23	5128
871.36	5136
871.489	5022
871.619	5079
871.749	5086
871.879	5136
872.008	5140
872.138	5029
872.267	4999
872.397	4828
872.526	4839
872.656	4729
872.785	4790
872.915	4965
873.044	4972
873.173	4900
873.303	4965
873.432	4957
873.561	4949
873.69	4908
873.819	4839
873.948	4938
874.077	4797
874.206	4759
874.335	4801
874.464	4900
874.593	5045
874.722	4999
874.851	5117
874.979	5121
875.108	5033
875.237	4942
875.365	4831
875.494	4873
875.623	4938
875.751	4847
875.88	4911
876.008	4961
876.136	5010
876.265	5178
876.393	5345
876.521	5242
876.65	5208
876.778	5185
876.906	5018
877.034	5037
877.162	5022
877.29	4961
877.418	5056
877.546	5022
877.674	5041
877.802	5045
877.93	5033
878.058	4930
878.185	4858
878.313	4980
878.441	4949
878.568	4824
878.696	4866
878.824	4965
878.951	4946
879.079	5155
879.206	5254
879.333	5124
879.461	5052
879.588	4991
879.715	5102
879.842	5212
879.97	5006
880.097	4786
880.224	4744
880.351	4801
880.478	4812
880.605	4774
880.732	4782
880.859	5071
880.986	4866
881.112	4919
881.239	4771
881.366	4630
881.493	4618
881.619	4656
881.746	4641
881.872	4615
881.999	4653
882.125	4672
882.252	4759
882.378	4843
882.505	4965
882.631	4816
882.757	4634
882.883	4774
883.01	4725
883.136	4660
883.262	4577
883.388	4588
883.514	4763
883.64	4900
883.766	4809
883.892	4679
884.018	4645
884.143	4881
884.269	5006
884.395	4660
884.52	4626
884.646	4641
884.772	4607
884.897	4558
885.023	4679
885.148	4729
885.274	4862
885.399	4774
885.524	4698
885.65	4679
885.775	4740
885.9	4679
886.025	4877
886.15	4801
886.275	4725
886.4	4706
886.525	4702
886.65	4660
886.775	4694
886.9	4896
887.025	5022
887.149	4816
887.274	4626
887.399	4596
887.523	4573
887.648	4569
887.773	4561
887.897	4797
888.021	4748
888.146	4660
888.27	4801
888.395	4927
888.519	4763
888.643	4809
888.767	4812
888.891	4710
889.015	4580
889.139	4637
889.263	4626
889.387	4786
889.511	4866
889.635	4793
889.759	4656
889.883	4622
890.006	4740
890.13	4797
890.254	4649
890.377	4679
890.501	4573
890.624	4527
890.748	4637
890.871	4474
890.995	4436
891.118	4360
891.241	4535
891.364	4508
891.488	4656
891.611	4493
891.734	4550
891.857	4550
891.98	4573
892.103	4656
892.226	4588
892.349	4550
892.471	4394
892.594	4573
892.717	4592
892.839	4550
892.962	4588
893.085	4664
893.207	4618
893.33	4455
893.452	4455
893.575	4675
893.697	4554
893.819	4797
893.941	4790
894.064	4805
894.186	4588
894.308	4519
894.43	4778
894.552	4755
894.674	4755
894.796	4558
894.918	4611
895.04	4596
895.161	4717
895.283	4622
895.405	4554
895.526	4637
895.648	4710
895.769	4630
895.891	4721
896.012	4725
896.134	4774
896.255	4630
896.376	4603
896.498	4626
896.619	4687
896.74	4637
896.861	4588
896.982	4900
897.103	5048
897.224	4801
897.345	4755
897.466	4649
897.587	4744
897.708	4809
897.828	4790
897.949	4736
898.07	4573
898.19	4641
898.311	4862
898.431	4641
898.552	4717
898.672	4847
898.792	4774
898.913	4771
899.033	4607
899.153	4497
899.273	4447
899.393	4504
899.513	4508
899.633	4573
899.753	4546
899.873	4512
899.993	4550
900.113	4519
900.232	4588
900.352	4546
900.472	4500
900.591	4394
900.711	4485
900.83	4493
900.95	4569
901.069	4698
901.189	4565
901.308	4386
901.427	4310
901.546	4424
901.665	4516
901.784	4561
901.904	4375
902.023	4329
902.141	4207
902.26	4200
902.379	4291
902.498	4234
902.617	4196
902.735	4424
902.854	4424
902.973	4367
903.091	4154
903.21	4242
903.328	4329
903.446	4246
903.565	4215
903.683	4318
903.801	4295
903.919	4402
904.038	4459
904.156	4261
904.274	4459
904.392	4428
904.51	4421
904.627	4451
904.745	4558
904.863	4607
904.981	4390
905.098	4318
905.216	4360
905.334	4413
905.451	4447
905.569	4398
905.686	4516
905.803	4607
905.921	4390
906.038	4569
906.155	4459
906.272	4383
906.389	4447
906.506	4356
906.623	4352
906.74	4383
906.857	4322
906.974	4341
907.091	4561
907.208	4694
907.324	4603
907.441	4493
907.557	4337
907.674	4363
907.79	4268
907.907	4383
908.023	4489
908.139	4508
908.256	4413
908.372	4459
908.488	4466
908.604	4325
908.72	4295
908.836	4421
908.952	4367
909.068	4371
909.184	4558
909.3	4421
909.415	4580
909.531	4558
909.647	4337
909.762	4341
909.878	4318
909.993	4440
910.108	4436
910.224	4394
910.339	4485
910.454	4379
910.57	4348
910.685	4333
910.8	4653
910.915	4561
911.03	4504
911.145	4299
911.259	4371
911.374	4337
911.489	4295
911.604	4276
911.718	4158
911.833	4200
911.947	4093
912.062	4036
912.176	4196
912.291	4249
912.405	4242
912.519	4443
912.633	4500
912.748	4405
912.862	4314
912.976	4147
913.09	4097
913.204	4173
913.318	4246
913.431	4379
913.545	4363
913.659	4405
913.772	4363
913.886	4219
914	4211
914.113	4409
914.226	4428
914.34	4390
914.453	4238
914.566	4440
914.68	4325
914.793	4306
914.906	4139
915.019	4109
915.132	4078
915.245	4135
915.358	4207
915.47	4211
915.583	4268
915.696	4227
915.809	4379
915.921	4386
916.034	4249
916.146	4238
916.259	4196
916.371	4402
916.483	4280
916.595	4295
916.708	4314
916.82	4272
916.932	4322
917.044	4322
917.156	4333
917.268	4223
917.38	4306
917.491	4272
917.603	4333
917.715	4428
917.826	4428
917.938	4360
918.049	4204
918.161	4383
918.272	4489
918.384	4512
918.495	4481
918.606	4284
918.717	4207
918.828	4360
918.939	4371
919.05	4261
919.161	4318
919.272	4154
919.383	4185
919.494	4436
919.604	4653
919.715	4447
919.826	4341
919.936	4413
920.047	4535
920.157	4470
920.267	4694
920.378	4508
920.488	4493
920.598	4683
920.708	4866
920.818	4721
920.928	4767
921.038	4980
921.148	4862
921.258	4622
921.368	4500
921.477	4485
921.587	4485
921.697	4329
921.806	4538
921.916	4451
922.025	4261
922.134	4253
922.244	4249
922.353	4295
922.462	4177
922.571	4135
922.68	3991
922.789	3972
922.898	4051
923.007	3987
923.116	4105
923.224	4086
923.333	4097
923.442	4048
923.55	3968
923.659	3968
923.767	4086
923.876	4002
923.984	4082
924.092	3968
924.201	4090
924.309	4112
924.417	4090
924.525	4067
924.633	4078
924.741	5003
924.849	3918
924.956	4093
925.064	3983
925.172	3876
925.279	3964
925.387	4021
925.494	4059
925.602	4223
925.709	4162
925.816	4048
925.924	4078
926.031	4169
926.138	4150
926.245	4169
926.352	4093
926.459	4219
926.566	4287
926.673	4150
926.779	4120
926.886	4067
926.993	3956
927.099	3930
927.206	3949
927.312	3918
927.419	4036
927.525	3979
927.631	4093
927.737	3968
927.843	3888
927.95	3854
928.056	3975
928.162	4013
928.267	4044
928.373	4607
928.479	4082
928.585	3884
928.69	3998
928.796	4048
928.901	3949
929.007	3835
929.112	3979
929.218	3991
929.323	3949
929.428	3983
929.533	4074
929.638	3907
929.743	3956
929.848	4067
929.953	3926
930.058	3945
930.163	3759
930.267	3823
930.372	3968
930.477	3808
930.581	4090
930.685	3949
930.79	3831
930.894	3907
930.998	3873
931.103	4067
931.207	3762
931.311	3701
931.415	3720
931.519	3557
931.623	3576
