Data from test_V78500241_881.txt Node
Date: Fri Mar 25 16:55:07 CST 2022
User: usil
Spectrometer: V785-0024
Trigger mode: 0
Integration Time (sec): 4.000000E-1
Scans to average: 1
Nonlinearity correction enabled: false
Boxcar width: 0
Storing dark spectrum: false
XAxis mode: Wavelengths
Number of Pixels in Spectrum: 1024
>>>>>Begin Spectral Data<<<<<
801.071	8043
801.214	8031
801.356	7887
801.499	7902
801.641	7715
801.783	7849
801.926	7871
802.068	7932
802.211	7921
802.353	8016
802.496	7841
802.638	7921
802.78	7978
802.923	7970
803.065	7799
803.208	7887
803.35	8050
803.492	8096
803.635	8153
803.777	7989
803.919	8115
804.061	8461
804.204	8149
804.346	8092
804.488	7967
804.63	8069
804.773	7978
804.915	8043
805.057	8233
805.199	8164
805.341	8191
805.483	8218
805.626	8176
805.768	8077
805.91	8206
806.052	8134
806.194	8062
806.336	8301
806.478	8111
806.62	8084
806.762	8096
806.904	8229
807.046	8450
807.188	8259
807.33	8279
807.472	8317
807.614	8134
807.756	8062
807.898	7986
808.04	7917
808.182	7902
808.324	7913
808.465	7932
808.607	7993
808.749	8077
808.891	8187
809.033	8317
809.174	8218
809.316	8077
809.458	8077
809.6	8020
809.741	8065
809.883	8092
810.025	8111
810.166	8050
810.308	8054
810.45	8088
810.591	7917
810.733	7822
810.875	7780
811.016	7605
811.158	7529
811.299	7662
811.441	7704
811.582	7700
811.724	7586
811.865	7556
812.007	7544
812.148	7616
812.29	7700
812.431	7753
812.573	7841
812.714	7989
812.855	8123
812.997	8263
813.138	8339
813.279	8172
813.421	8130
813.562	8027
813.703	7894
813.845	7841
813.986	7457
814.127	7278
814.268	7278
814.41	7232
814.551	7137
814.692	7164
814.833	7088
814.974	7084
815.115	7171
815.256	7027
815.397	6939
815.539	6977
815.68	6932
815.821	6753
815.962	6878
816.103	6856
816.244	6753
816.385	6677
816.526	6711
816.666	6555
816.807	6331
816.948	6403
817.089	6517
817.23	6437
817.371	6445
817.512	6456
817.653	6441
817.793	6350
817.934	6380
818.075	6403
818.216	6475
818.356	6418
818.497	6228
818.638	6163
818.778	6171
818.919	6144
819.06	6220
819.2	6334
819.341	6304
819.481	6410
819.622	6566
819.762	6787
819.903	6760
820.043	6646
820.184	6635
820.324	6612
820.465	6677
820.605	6604
820.746	6631
820.886	6513
821.026	6665
821.167	6715
821.307	6749
821.447	6764
821.588	6635
821.728	6593
821.868	6563
822.008	6388
822.149	6414
822.289	6273
822.429	6171
822.569	6034
822.709	6205
822.849	5916
822.99	5923
823.13	6007
823.27	5942
823.41	5741
823.55	5813
823.69	5828
823.83	5798
823.97	5668
824.11	5505
824.25	5554
824.389	5551
824.529	5539
824.669	5520
824.809	5630
824.949	5642
825.089	5649
825.228	5554
825.368	5395
825.508	5341
825.648	5368
825.787	5410
825.927	5379
826.067	5250
826.206	5288
826.346	5364
826.485	5406
826.625	5436
826.765	5577
826.904	5486
827.044	5318
827.183	5189
827.323	5147
827.462	5280
827.601	5208
827.741	5235
827.88	5254
828.02	5140
828.159	5235
828.298	5337
828.437	5391
828.577	5326
828.716	5558
828.855	5318
828.994	5189
829.134	5166
829.273	5197
829.412	5170
829.551	5143
829.69	5189
829.829	5246
829.968	5410
830.107	5288
830.246	5303
830.385	5189
830.524	5136
830.663	5056
830.802	4972
830.941	4923
831.08	4904
831.219	5018
831.357	4965
831.496	5193
831.635	4953
831.774	4854
831.913	4892
832.051	4793
832.19	4782
832.329	4866
832.467	4668
832.606	4626
832.744	4755
832.883	4744
833.022	4744
833.16	4801
833.299	4885
833.437	4839
833.576	4881
833.714	4908
833.852	4919
833.991	4915
834.129	4976
834.267	4987
834.406	4991
834.544	4987
834.682	4961
834.821	5006
834.959	5132
835.097	5003
835.235	5170
835.373	5140
835.511	5117
835.65	5003
835.788	5014
835.926	4946
836.064	4873
836.202	4942
836.34	5185
836.478	5216
836.615	5178
836.753	5265
836.891	5353
837.029	5288
837.167	5235
837.305	5185
837.443	5189
837.58	5159
837.718	5227
837.856	5189
837.993	5166
838.131	5227
838.269	5239
838.406	5223
838.544	5239
838.681	5075
838.819	5056
838.956	4938
839.094	4976
839.231	5060
839.369	5079
839.506	5497
839.643	5239
839.781	5056
839.918	5071
840.055	5094
840.193	5113
840.33	5128
840.467	5151
840.604	5181
840.742	5493
840.879	5086
841.016	5064
841.153	5201
841.29	5372
841.427	5395
841.564	5307
841.701	5357
841.838	5284
841.975	5265
842.112	5273
842.249	5197
842.385	5170
842.522	5334
842.659	5201
842.796	5178
842.933	5212
843.069	5208
843.206	5174
843.343	5322
843.479	5254
843.616	5311
843.752	5075
843.889	5029
844.025	5174
844.162	5014
844.298	5201
844.435	5098
844.571	5056
844.708	5239
844.844	5261
844.98	5337
845.117	5318
845.253	5113
845.389	5060
845.525	5189
845.661	5204
845.798	5022
845.934	5109
846.07	5113
846.206	5155
846.342	5284
846.478	5197
846.614	4987
846.75	4957
846.886	4972
847.022	5166
847.158	5083
847.294	5045
847.429	5128
847.565	5037
847.701	5345
847.837	4870
847.972	4778
848.108	4991
848.244	4946
848.379	4805
848.515	4744
848.65	4752
848.786	4744
848.921	4797
849.057	4885
849.192	4850
849.328	4854
849.463	4904
849.598	4778
849.734	4763
849.869	4714
850.004	4626
850.14	4687
850.275	4637
850.41	4466
850.545	4611
850.68	4630
850.815	4596
850.95	4592
851.085	4847
851.22	4717
851.355	4668
851.49	4607
851.625	4618
851.76	4603
851.895	4641
852.03	4558
852.165	4668
852.299	4744
852.434	4759
852.569	4767
852.703	4733
852.838	4900
852.973	4930
853.107	4942
853.242	4759
853.376	4664
853.511	4561
853.645	4630
853.78	4786
853.914	4710
854.048	4721
854.183	4683
854.317	4748
854.451	4870
854.585	4679
854.72	4698
854.854	4774
854.988	4580
855.122	4596
855.256	4527
855.39	4653
855.524	4744
855.658	4714
855.792	4691
855.926	4702
856.06	4763
856.194	4801
856.327	4653
856.461	4668
856.595	4656
856.729	4626
856.862	4748
856.996	4668
857.13	4755
857.263	4759
857.397	4824
857.53	4653
857.664	4721
857.797	4782
857.931	4778
858.064	4698
858.197	4755
858.331	4683
858.464	4607
858.597	4554
858.731	4618
858.864	4668
858.997	4618
859.13	4675
859.263	4660
859.396	4691
859.529	4664
859.662	4611
859.795	4550
859.928	4615
860.061	4748
860.194	4774
860.327	4618
860.46	4603
860.592	4729
860.725	4763
860.858	4752
860.99	4565
861.123	4500
861.256	4497
861.388	4645
861.521	5345
861.653	4478
861.786	4424
861.918	4443
862.05	4542
862.183	4535
862.315	4641
862.447	4714
862.58	4603
862.712	4413
862.844	4337
862.976	4504
863.108	4466
863.24	4702
863.372	4352
863.504	4424
863.636	4424
863.768	4462
863.9	4474
864.032	4344
864.164	4402
864.296	4508
864.428	4573
864.559	4527
864.691	4512
864.823	4527
864.954	4523
865.086	4459
865.217	4447
865.349	4375
865.48	4455
865.612	4462
865.743	4691
865.875	4470
866.006	4421
866.137	4485
866.269	4474
866.4	4451
866.531	4428
866.662	4405
866.793	4413
866.924	4424
867.055	4481
867.186	4493
867.317	4459
867.448	4409
867.579	4337
867.71	4394
867.841	4386
867.972	4451
868.103	4474
868.233	4436
868.364	4447
868.495	4485
868.625	4679
868.756	4778
868.886	4558
869.017	4660
869.147	4725
869.278	4740
869.408	4687
869.539	4653
869.669	4729
869.799	4626
869.929	4759
870.06	4763
870.19	4934
870.32	4915
870.45	4968
870.58	4961
870.71	5121
870.84	5086
870.97	4995
871.1	4923
871.23	5147
871.36	5098
871.489	4987
871.619	5075
871.749	5140
871.879	5140
872.008	5185
872.138	5010
872.267	4972
872.397	4839
872.526	4790
872.656	4748
872.785	4847
872.915	4923
873.044	5037
873.173	4934
873.303	4927
873.432	4911
873.561	4987
873.69	4892
873.819	4847
873.948	4889
874.077	4824
874.206	4774
874.335	4752
874.464	4900
874.593	5067
874.722	4987
874.851	5113
874.979	5079
875.108	5045
875.237	4942
875.365	4911
875.494	4889
875.623	4946
875.751	4854
875.88	4873
876.008	4915
876.136	5010
876.265	5197
876.393	5307
876.521	5235
876.65	5235
876.778	5132
876.906	5090
877.034	4976
877.162	5018
877.29	5014
877.418	5037
877.546	5083
877.674	5041
877.802	5045
877.93	5052
878.058	4930
878.185	4854
878.313	4957
878.441	4957
878.568	4824
878.696	4892
878.824	4946
878.951	5041
879.079	5193
879.206	5318
879.333	5094
879.461	5022
879.588	5033
879.715	5128
879.842	5277
879.97	5064
880.097	4805
880.224	4774
880.351	4805
880.478	4862
880.605	4786
880.732	4828
880.859	5098
880.986	4923
881.112	4980
881.239	4797
881.366	4687
881.493	4630
881.619	4668
881.746	4710
881.872	4630
881.999	4698
882.125	4717
882.252	4824
882.378	4885
882.505	4984
882.631	4858
882.757	4687
882.883	4771
883.01	4797
883.136	4710
883.262	4653
883.388	4675
883.514	4843
883.64	4885
883.766	4847
883.892	4736
884.018	4774
884.143	4942
884.269	5048
884.395	4710
884.52	4668
884.646	4672
884.772	4649
884.897	4565
885.023	4706
885.148	4839
885.274	4938
885.399	4824
885.524	4729
885.65	4744
885.775	4782
885.9	4721
886.025	4870
886.15	4805
886.275	4805
886.4	4706
886.525	4774
886.65	4664
886.775	4725
886.9	5014
887.025	5045
887.149	4820
887.274	4668
887.399	4622
887.523	4660
887.648	4622
887.773	4603
887.897	4812
888.021	4854
888.146	4691
888.27	4816
888.395	4923
888.519	4843
888.643	4786
888.767	4850
888.891	4714
889.015	4645
889.139	4691
889.263	4637
889.387	4736
889.511	4915
889.635	4816
889.759	4660
889.883	4660
890.006	4725
890.13	4858
890.254	4645
890.377	4683
890.501	4512
890.624	4546
890.748	4668
890.871	4569
890.995	4447
891.118	4409
891.241	4542
891.364	4546
891.488	4698
891.611	4573
891.734	4565
891.857	4622
891.98	4558
892.103	4694
892.226	4653
892.349	4531
892.471	4504
892.594	4569
892.717	4626
892.839	4558
892.962	4603
893.085	4702
893.207	4596
893.33	4500
893.452	4523
893.575	4717
893.697	4599
893.819	4801
893.941	4881
894.064	4843
894.186	4584
894.308	4596
894.43	4759
894.552	4889
894.674	4744
894.796	4611
894.918	4615
895.04	4573
895.161	4702
895.283	4694
895.405	4618
895.526	4615
895.648	4714
895.769	4736
895.891	4740
896.012	4759
896.134	4767
896.255	4694
896.376	4649
896.498	4641
896.619	4660
896.74	4660
896.861	4675
896.982	4968
897.103	5102
897.224	4820
897.345	4748
897.466	4668
897.587	4759
897.708	4908
897.828	4782
897.949	4736
898.07	4584
898.19	4649
898.311	4854
898.431	4710
898.552	4740
898.672	4866
898.792	4778
898.913	4748
899.033	4637
899.153	4538
899.273	4447
899.393	4531
899.513	4558
899.633	4569
899.753	4641
899.873	4508
899.993	4611
900.113	4538
900.232	4637
900.352	4554
900.472	4523
900.591	4405
900.711	4523
900.83	4493
900.95	4615
901.069	4694
901.189	4573
901.308	4409
901.427	4344
901.546	4428
901.665	4523
901.784	4504
901.904	4383
902.023	4413
902.141	4204
902.26	4200
902.379	4318
902.498	4291
902.617	4272
902.735	4379
902.854	4417
902.973	4398
903.091	4272
903.21	4230
903.328	4333
903.446	4265
903.565	4284
903.683	4333
903.801	4341
903.919	4386
904.038	4421
904.156	4341
904.274	4485
904.392	4455
904.51	4440
904.627	4485
904.745	4653
904.863	4660
904.981	4413
905.098	4337
905.216	4386
905.334	4428
905.451	4459
905.569	4462
905.686	4554
905.803	4573
905.921	4451
906.038	4546
906.155	4516
906.272	4398
906.389	4500
906.506	4386
906.623	4367
906.74	4424
906.857	4280
906.974	4386
907.091	4519
907.208	4714
907.324	4637
907.441	4516
907.557	4363
907.674	4375
907.79	4333
907.907	4409
908.023	4512
908.139	4516
908.256	4436
908.372	4497
908.488	4500
908.604	4344
908.72	4367
908.836	4409
908.952	4417
909.068	4451
909.184	4592
909.3	4519
909.415	4637
909.531	4546
909.647	4413
909.762	4383
909.878	4333
909.993	4459
910.108	4481
910.224	4428
910.339	4485
910.454	4428
910.57	4383
910.685	4379
910.8	4721
910.915	4637
911.03	4523
911.145	4341
911.259	4291
911.374	4344
911.489	4322
911.604	4314
911.718	4181
911.833	4211
911.947	4109
912.062	4063
912.176	4287
912.291	4227
912.405	4261
912.519	4550
912.633	4497
912.748	4405
912.862	4314
912.976	4238
913.09	4093
913.204	4200
913.318	4306
913.431	4352
913.545	4383
913.659	4417
913.772	4356
913.886	4310
914	4246
914.113	4371
914.226	4462
914.34	4417
914.453	4238
914.566	4462
914.68	4333
914.793	4322
914.906	4223
915.019	4131
915.132	4078
915.245	4223
915.358	4265
915.47	4242
915.583	4299
915.696	4257
915.809	4394
915.921	4470
916.034	4287
916.146	4261
916.259	4204
916.371	4367
916.483	4409
916.595	4291
916.708	4322
916.82	4306
916.932	4371
917.044	4363
917.156	4379
917.268	4291
917.38	4287
917.491	4322
917.603	4322
917.715	4428
917.826	4493
917.938	4371
918.049	4261
918.161	4417
918.272	4580
918.384	4527
918.495	4474
918.606	4322
918.717	4261
918.828	4329
918.939	4383
919.05	4246
919.161	4352
919.272	4185
919.383	4249
919.494	4500
919.604	4660
919.715	4440
919.826	4379
919.936	4424
920.047	4531
920.157	4489
920.267	4694
920.378	4584
920.488	4493
920.598	4797
920.708	4911
920.818	4786
920.928	4778
921.038	4972
921.148	4942
921.258	4668
921.368	4550
921.477	4531
921.587	4512
921.697	4402
921.806	4538
921.916	4394
922.025	4268
922.134	4276
922.244	4238
922.353	4352
922.462	4204
922.571	4158
922.68	4074
922.789	3975
922.898	4063
923.007	3975
923.116	4135
923.224	4086
923.333	4112
923.442	3960
923.55	4032
923.659	4055
923.767	4090
923.876	4040
923.984	4143
924.092	4025
924.201	4097
924.309	4093
924.417	4162
924.525	4082
924.633	4074
924.741	4877
924.849	3979
924.956	4128
925.064	3949
925.172	3907
925.279	3998
925.387	4093
925.494	4067
925.602	4200
925.709	4227
925.816	4051
925.924	4128
926.031	4227
926.138	4177
926.245	4200
926.352	4086
926.459	4276
926.566	4344
926.673	4166
926.779	4109
926.886	4082
926.993	4025
927.099	3964
927.206	3972
927.312	3937
927.419	4090
927.525	3998
927.631	4071
927.737	4029
927.843	3945
927.95	3823
928.056	3964
928.162	3979
928.267	4055
928.373	4599
928.479	4131
928.585	3846
928.69	4048
928.796	4025
928.901	3975
929.007	3884
929.112	3994
929.218	4040
929.323	3979
929.428	3930
929.533	4166
929.638	3930
929.743	3949
929.848	4032
929.953	4029
930.058	3930
930.163	3804
930.267	3899
930.372	3979
930.477	3857
930.581	4074
930.685	3983
930.79	3857
930.894	3892
930.998	3873
931.103	4093
931.207	3690
931.311	3667
931.415	3637
931.519	3534
931.623	3568
