Data from test_V78500241_158.txt Node
Date: Fri Mar 25 16:50:06 CST 2022
User: usil
Spectrometer: V785-0024
Trigger mode: 0
Integration Time (sec): 4.000000E-1
Scans to average: 1
Nonlinearity correction enabled: false
Boxcar width: 0
Storing dark spectrum: false
XAxis mode: Wavelengths
Number of Pixels in Spectrum: 1024
>>>>>Begin Spectral Data<<<<<
801.071	7986
801.214	7974
801.356	7906
801.499	7852
801.641	7792
801.783	7868
801.926	8043
802.068	7955
802.211	7925
802.353	8050
802.496	7837
802.638	7986
802.78	7906
802.923	7909
803.065	7879
803.208	7830
803.35	7993
803.492	8088
803.635	8210
803.777	8027
803.919	8073
804.061	8370
804.204	8058
804.346	8031
804.488	7898
804.63	8001
804.773	7982
804.915	8073
805.057	8244
805.199	8115
805.341	8195
805.483	8206
805.626	8199
805.768	8088
805.91	8183
806.052	8183
806.194	8039
806.336	8305
806.478	8096
806.62	8073
806.762	8111
806.904	8195
807.046	8423
807.188	8313
807.33	8317
807.472	8290
807.614	8077
807.756	8096
807.898	8005
808.04	7883
808.182	7944
808.324	7871
808.465	7883
808.607	8050
808.749	8134
808.891	8221
809.033	8294
809.174	8237
809.316	8100
809.458	8065
809.6	7928
809.741	8081
809.883	8062
810.025	8062
810.166	8115
810.308	8050
810.45	7986
810.591	7898
810.733	7818
810.875	7727
811.016	7514
811.158	7529
811.299	7609
811.441	7757
811.582	7723
811.724	7586
811.865	7632
812.007	7651
812.148	7620
812.29	7655
812.431	7776
812.573	7978
812.714	8020
812.855	8191
812.997	8309
813.138	8351
813.279	8240
813.421	8081
813.562	8027
813.703	7894
813.845	7833
813.986	7464
814.127	7297
814.268	7225
814.41	7244
814.551	7187
814.692	7221
814.833	7168
814.974	7118
815.115	7217
815.256	6970
815.397	6973
815.539	7012
815.68	6814
815.821	6818
815.962	6932
816.103	6859
816.244	6764
816.385	6646
816.526	6658
816.666	6506
816.807	6380
816.948	6448
817.089	6509
817.23	6525
817.371	6429
817.512	6410
817.653	6437
817.793	6407
817.934	6429
818.075	6445
818.216	6460
818.356	6342
818.497	6251
818.638	6114
818.778	6117
818.919	6155
819.06	6110
819.2	6292
819.341	6369
819.481	6357
819.622	6540
819.762	6760
819.903	6692
820.043	6620
820.184	6585
820.324	6536
820.465	6711
820.605	6688
820.746	6658
820.886	6475
821.026	6715
821.167	6696
821.307	6700
821.447	6802
821.588	6635
821.728	6642
821.868	6490
822.008	6361
822.149	6395
822.289	6422
822.429	6155
822.569	6114
822.709	6110
822.849	5958
822.99	5935
823.13	5908
823.27	5942
823.41	5817
823.55	5767
823.69	5745
823.83	5764
823.97	5684
824.11	5581
824.25	5554
824.389	5573
824.529	5585
824.669	5554
824.809	5608
824.949	5676
825.089	5657
825.228	5516
825.368	5425
825.508	5315
825.648	5345
825.787	5398
825.927	5334
826.067	5379
826.206	5303
826.346	5406
826.485	5433
826.625	5516
826.765	5539
826.904	5528
827.044	5227
827.183	5185
827.323	5174
827.462	5307
827.601	5170
827.741	5185
827.88	5212
828.02	5128
828.159	5223
828.298	5322
828.437	5303
828.577	5296
828.716	5440
828.855	5284
828.994	5151
829.134	5174
829.273	5178
829.412	5132
829.551	5128
829.69	5197
829.829	5269
829.968	5402
830.107	5265
830.246	5261
830.385	5159
830.524	5124
830.663	5086
830.802	4995
830.941	4900
831.08	4942
831.219	5003
831.357	4927
831.496	5147
831.635	4953
831.774	4866
831.913	4866
832.051	4721
832.19	4786
832.329	4896
832.467	4679
832.606	4641
832.744	4763
832.883	4752
833.022	4717
833.16	4820
833.299	4866
833.437	4854
833.576	4782
833.714	4892
833.852	4843
833.991	4908
834.129	4984
834.267	4991
834.406	4908
834.544	4949
834.682	5010
834.821	4968
834.959	5170
835.097	5025
835.235	5155
835.373	5079
835.511	5143
835.65	4957
835.788	5006
835.926	4889
836.064	4911
836.202	4911
836.34	5151
836.478	5254
836.615	5162
836.753	5231
836.891	5303
837.029	5273
837.167	5197
837.305	5227
837.443	5170
837.58	5045
837.718	5269
837.856	5181
837.993	5197
838.131	5227
838.269	5231
838.406	5208
838.544	5208
838.681	5067
838.819	4999
838.956	4934
839.094	4957
839.231	4968
839.369	5079
839.506	5474
839.643	5307
839.781	5037
839.918	5037
840.055	5067
840.193	5117
840.33	5147
840.467	5140
840.604	5208
840.742	5433
840.879	5109
841.016	5079
841.153	5204
841.29	5353
841.427	5296
841.564	5292
841.701	5406
841.838	5284
841.975	5204
842.112	5261
842.249	5178
842.385	5094
842.522	5376
842.659	5162
842.796	5159
842.933	5212
843.069	5117
843.206	5117
843.343	5318
843.479	5261
843.616	5273
843.752	5067
843.889	4999
844.025	5216
844.162	5014
844.298	5216
844.435	5124
844.571	4991
844.708	5197
844.844	5330
844.98	5299
845.117	5265
845.253	5140
845.389	5155
845.525	5124
845.661	5166
845.798	5033
845.934	5113
846.07	5086
846.206	5189
846.342	5277
846.478	5193
846.614	5022
846.75	4972
846.886	5033
847.022	5189
847.158	5041
847.294	5071
847.429	5113
847.565	5060
847.701	5372
847.837	4923
847.972	4843
848.108	4991
848.244	4911
848.379	4759
848.515	4752
848.65	4729
848.786	4786
848.921	4782
849.057	4900
849.192	4904
849.328	4812
849.463	4885
849.598	4809
849.734	4771
849.869	4679
850.004	4656
850.14	4656
850.275	4607
850.41	4561
850.545	4588
850.68	4622
850.815	4573
850.95	4626
851.085	4889
851.22	4778
851.355	4736
851.49	4649
851.625	4580
851.76	4668
851.895	4546
852.03	4561
852.165	4672
852.299	4714
852.434	4793
852.569	4744
852.703	4790
852.838	4843
852.973	4961
853.107	4957
853.242	4763
853.376	4656
853.511	4599
853.645	4626
853.78	4812
853.914	4668
854.048	4683
854.183	4721
854.317	4687
854.451	4889
854.585	4691
854.72	4649
854.854	4752
854.988	4649
855.122	4668
855.256	4546
855.39	4698
855.524	4812
855.658	4736
855.792	4755
855.926	4733
856.06	4767
856.194	4828
856.327	4714
856.461	4603
856.595	4634
856.729	4611
856.862	4793
856.996	4706
857.13	4725
857.263	4717
857.397	4828
857.53	4630
857.664	4733
857.797	4759
857.931	4759
858.064	4694
858.197	4755
858.331	4672
858.464	4599
858.597	4523
858.731	4645
858.864	4687
858.997	4584
859.13	4714
859.263	4675
859.396	4672
859.529	4558
859.662	4588
859.795	4554
859.928	4637
860.061	4812
860.194	4866
860.327	4607
860.46	4527
860.592	4733
860.725	4736
860.858	4752
860.99	4618
861.123	4561
861.256	4542
861.388	4668
861.521	5398
861.653	4478
861.786	4440
861.918	4443
862.05	4592
862.183	4550
862.315	4561
862.447	4653
862.58	4596
862.712	4398
862.844	4344
862.976	4512
863.108	4455
863.24	4896
863.372	4344
863.504	4443
863.636	4409
863.768	4451
863.9	4424
864.032	4367
864.164	4432
864.296	4531
864.428	4588
864.559	4580
864.691	4550
864.823	4500
864.954	4512
865.086	4516
865.217	4455
865.349	4421
865.48	4478
865.612	4546
865.743	4653
865.875	4474
866.006	4443
866.137	4481
866.269	4451
866.4	4440
866.531	4440
866.662	4394
866.793	4417
866.924	4386
867.055	4519
867.186	4459
867.317	4413
867.448	4409
867.579	4383
867.71	4367
867.841	4356
867.972	4523
868.103	4497
868.233	4462
868.364	4424
868.495	4481
868.625	4740
868.756	4774
868.886	4558
869.017	4656
869.147	4790
869.278	4790
869.408	4668
869.539	4634
869.669	4725
869.799	4664
869.929	4793
870.06	4729
870.19	4949
870.32	4942
870.45	4938
870.58	4968
870.71	5105
870.84	5086
870.97	4957
871.1	4915
871.23	5140
871.36	5132
871.489	4999
871.619	5109
871.749	5124
871.879	5136
872.008	5197
872.138	5052
872.267	4984
872.397	4881
872.526	4793
872.656	4725
872.785	4797
872.915	4972
873.044	5079
873.173	4900
873.303	5010
873.432	4968
873.561	4980
873.69	4892
873.819	4835
873.948	4946
874.077	4843
874.206	4786
874.335	4797
874.464	4889
874.593	5022
874.722	4965
874.851	5136
874.979	5083
875.108	5060
875.237	4919
875.365	4896
875.494	4843
875.623	4934
875.751	4870
875.88	4877
876.008	4968
876.136	5018
876.265	5201
876.393	5364
876.521	5284
876.65	5201
876.778	5181
876.906	5128
877.034	5064
877.162	5071
877.29	5022
877.418	5098
877.546	5056
877.674	5029
877.802	5056
877.93	5033
878.058	4934
878.185	4896
878.313	4976
878.441	4957
878.568	4816
878.696	4892
878.824	4965
878.951	5045
879.079	5102
879.206	5269
879.333	5124
879.461	4991
879.588	5041
879.715	5113
879.842	5220
879.97	5010
880.097	4793
880.224	4774
880.351	4805
880.478	4839
880.605	4797
880.732	4774
880.859	5109
880.986	4885
881.112	4889
881.239	4759
881.366	4721
881.493	4611
881.619	4558
881.746	4630
881.872	4653
881.999	4721
882.125	4710
882.252	4778
882.378	4839
882.505	4976
882.631	4835
882.757	4672
882.883	4793
883.01	4763
883.136	4698
883.262	4603
883.388	4599
883.514	4831
883.64	4850
883.766	4812
883.892	4740
884.018	4702
884.143	4896
884.269	5010
884.395	4656
884.52	4664
884.646	4634
884.772	4618
884.897	4588
885.023	4656
885.148	4782
885.274	4843
885.399	4862
885.524	4721
885.65	4725
885.775	4721
885.9	4729
886.025	4866
886.15	4816
886.275	4694
886.4	4656
886.525	4748
886.65	4736
886.775	4721
886.9	4896
887.025	5064
887.149	4801
887.274	4687
887.399	4538
887.523	4615
887.648	4615
887.773	4573
887.897	4782
888.021	4820
888.146	4630
888.27	4797
888.395	4919
888.519	4843
888.643	4858
888.767	4873
888.891	4698
889.015	4577
889.139	4645
889.263	4596
889.387	4767
889.511	4896
889.635	4843
889.759	4672
889.883	4656
890.006	4748
890.13	4816
890.254	4630
890.377	4645
890.501	4550
890.624	4538
890.748	4637
890.871	4546
890.995	4390
891.118	4424
891.241	4523
891.364	4508
891.488	4660
891.611	4512
891.734	4554
891.857	4634
891.98	4588
892.103	4679
892.226	4615
892.349	4550
892.471	4459
892.594	4569
892.717	4637
892.839	4554
892.962	4645
893.085	4740
893.207	4653
893.33	4466
893.452	4531
893.575	4622
893.697	4550
893.819	4782
893.941	4904
894.064	4801
894.186	4588
894.308	4607
894.43	4733
894.552	4767
894.674	4721
894.796	4580
894.918	4584
895.04	4592
895.161	4721
895.283	4664
895.405	4550
895.526	4641
895.648	4668
895.769	4698
895.891	4729
896.012	4694
896.134	4736
896.255	4679
896.376	4637
896.498	4641
896.619	4706
896.74	4641
896.861	4748
896.982	4942
897.103	5052
897.224	4858
897.345	4767
897.466	4740
897.587	4782
897.708	4858
897.828	4782
897.949	4653
898.07	4558
898.19	4653
898.311	4805
898.431	4679
898.552	4755
898.672	4820
898.792	4831
898.913	4767
899.033	4622
899.153	4542
899.273	4432
899.393	4497
899.513	4603
899.633	4565
899.753	4558
899.873	4500
899.993	4618
900.113	4577
900.232	4565
900.352	4512
900.472	4478
900.591	4386
900.711	4516
900.83	4447
900.95	4641
901.069	4714
901.189	4497
901.308	4352
901.427	4325
901.546	4371
901.665	4455
901.784	4504
901.904	4360
902.023	4314
902.141	4211
902.26	4143
902.379	4291
902.498	4249
902.617	4227
902.735	4367
902.854	4398
902.973	4356
903.091	4150
903.21	4246
903.328	4276
903.446	4291
903.565	4227
903.683	4363
903.801	4318
903.919	4386
904.038	4489
904.156	4356
904.274	4493
904.392	4459
904.51	4451
904.627	4489
904.745	4611
904.863	4637
904.981	4405
905.098	4318
905.216	4379
905.334	4466
905.451	4474
905.569	4485
905.686	4611
905.803	4558
905.921	4451
906.038	4561
906.155	4451
906.272	4402
906.389	4504
906.506	4333
906.623	4405
906.74	4421
906.857	4295
906.974	4360
907.091	4565
907.208	4672
907.324	4603
907.441	4516
907.557	4375
907.674	4375
907.79	4337
907.907	4363
908.023	4497
908.139	4497
908.256	4451
908.372	4432
908.488	4466
908.604	4375
908.72	4375
908.836	4383
908.952	4409
909.068	4462
909.184	4603
909.3	4462
909.415	4611
909.531	4630
909.647	4344
909.762	4379
909.878	4337
909.993	4489
910.108	4443
910.224	4436
910.339	4500
910.454	4451
910.57	4421
910.685	4344
910.8	4645
910.915	4618
911.03	4485
911.145	4348
911.259	4356
911.374	4405
911.489	4329
911.604	4257
911.718	4166
911.833	4196
911.947	4071
912.062	4051
912.176	4219
912.291	4272
912.405	4253
912.519	4451
912.633	4538
912.748	4379
912.862	4306
912.976	4166
913.09	4101
913.204	4196
913.318	4246
913.431	4398
913.545	4402
913.659	4466
913.772	4341
913.886	4268
914	4227
914.113	4383
914.226	4470
914.34	4443
914.453	4246
914.566	4478
914.68	4348
914.793	4333
914.906	4147
915.019	4158
915.132	4090
915.245	4200
915.358	4215
915.47	4238
915.583	4287
915.696	4329
915.809	4455
915.921	4421
916.034	4284
916.146	4215
916.259	4227
916.371	4394
916.483	4337
916.595	4314
916.708	4333
916.82	4356
916.932	4333
917.044	4352
917.156	4318
917.268	4265
917.38	4352
917.491	4299
917.603	4386
917.715	4455
917.826	4485
917.938	4371
918.049	4272
918.161	4424
918.272	4512
918.384	4535
918.495	4459
918.606	4280
918.717	4253
918.828	4322
918.939	4413
919.05	4249
919.161	4322
919.272	4166
919.383	4246
919.494	4417
919.604	4714
919.715	4428
919.826	4363
919.936	4436
920.047	4550
920.157	4523
920.267	4706
920.378	4558
920.488	4519
920.598	4714
920.708	4953
920.818	4763
920.928	4767
921.038	4987
921.148	4968
921.258	4615
921.368	4584
921.477	4512
921.587	4481
921.697	4413
921.806	4554
921.916	4478
922.025	4238
922.134	4272
922.244	4177
922.353	4386
922.462	4173
922.571	4139
922.68	4025
922.789	3972
922.898	4044
923.007	4040
923.116	4120
923.224	4071
923.333	4082
923.442	4051
923.55	4021
923.659	4010
923.767	4143
923.876	4051
923.984	4112
924.092	3994
924.201	4131
924.309	4112
924.417	4154
924.525	4120
924.633	4097
924.741	4930
924.849	3956
924.956	4128
925.064	4010
925.172	3907
925.279	4002
925.387	4112
925.494	4067
925.602	4253
925.709	4196
925.816	4067
925.924	4158
926.031	4253
926.138	4207
926.245	4249
926.352	4101
926.459	4322
926.566	4337
926.673	4181
926.779	4067
926.886	4097
926.993	3972
927.099	3994
927.206	3972
927.312	3968
927.419	4093
927.525	4044
927.631	4120
927.737	4006
927.843	3949
927.95	3854
928.056	4002
928.162	4048
928.267	4010
928.373	4721
928.479	4116
928.585	3857
928.69	4063
928.796	4071
928.901	3968
929.007	3850
929.112	4002
929.218	4048
929.323	3945
929.428	3956
929.533	4112
929.638	3918
929.743	3994
929.848	4109
929.953	3953
930.058	3945
930.163	3819
930.267	3869
930.372	3998
930.477	3827
930.581	4055
930.685	3983
930.79	3865
930.894	3880
930.998	3865
931.103	4078
931.207	3751
931.311	3713
931.415	3698
931.519	3542
931.623	3584
