Data from test_V78500241_2748.txt Node
Date: Fri Mar 25 17:08:06 CST 2022
User: usil
Spectrometer: V785-0024
Trigger mode: 0
Integration Time (sec): 4.000000E-1
Scans to average: 1
Nonlinearity correction enabled: false
Boxcar width: 0
Storing dark spectrum: false
XAxis mode: Wavelengths
Number of Pixels in Spectrum: 1024
>>>>>Begin Spectral Data<<<<<
801.071	8035
801.214	8020
801.356	7845
801.499	7921
801.641	7811
801.783	7944
801.926	8005
802.068	7917
802.211	8035
802.353	7982
802.496	7833
802.638	7932
802.78	7890
802.923	7928
803.065	7906
803.208	7883
803.35	8035
803.492	8107
803.635	8157
803.777	8058
803.919	8206
804.061	8434
804.204	8149
804.346	8012
804.488	7982
804.63	8088
804.773	8027
804.915	8119
805.057	8282
805.199	8142
805.341	8142
805.483	8214
805.626	8267
805.768	8088
805.91	8309
806.052	8252
806.194	8073
806.336	8244
806.478	8111
806.62	8123
806.762	8126
806.904	8252
807.046	8442
807.188	8366
807.33	8355
807.472	8374
807.614	8191
807.756	8172
807.898	7978
808.04	7830
808.182	7909
808.324	7807
808.465	7986
808.607	8096
808.749	8157
808.891	8271
809.033	8313
809.174	8191
809.316	8088
809.458	8069
809.6	8035
809.741	8092
809.883	8088
810.025	8081
810.166	8043
810.308	8024
810.45	8050
810.591	7833
810.733	7636
810.875	7651
811.016	7575
811.158	7495
811.299	7616
811.441	7624
811.582	7727
811.724	7563
811.865	7620
812.007	7601
812.148	7601
812.29	7655
812.431	7715
812.573	7890
812.714	8027
812.855	8138
812.997	8225
813.138	8317
813.279	8176
813.421	8138
813.562	8081
813.703	7906
813.845	7738
813.986	7472
814.127	7316
814.268	7270
814.41	7232
814.551	7129
814.692	7221
814.833	7038
814.974	7126
815.115	7072
815.256	6928
815.397	6913
815.539	6977
815.68	6779
815.821	6753
815.962	6897
816.103	6890
816.244	6688
816.385	6608
816.526	6620
816.666	6536
816.807	6281
816.948	6384
817.089	6456
817.23	6452
817.371	6342
817.512	6365
817.653	6376
817.793	6361
817.934	6452
818.075	6433
818.216	6471
818.356	6403
818.497	6258
818.638	6095
818.778	6133
818.919	6083
819.06	6155
819.2	6361
819.341	6277
819.481	6414
819.622	6547
819.762	6760
819.903	6673
820.043	6578
820.184	6620
820.324	6551
820.465	6700
820.605	6608
820.746	6650
820.886	6517
821.026	6639
821.167	6764
821.307	6814
821.447	6749
821.588	6665
821.728	6551
821.868	6525
822.008	6296
822.149	6369
822.289	6426
822.429	6095
822.569	6140
822.709	6102
822.849	5927
822.99	5847
823.13	5912
823.27	5897
823.41	5775
823.55	5790
823.69	5737
823.83	5733
823.97	5665
824.11	5509
824.25	5493
824.389	5539
824.529	5532
824.669	5520
824.809	5608
824.949	5627
825.089	5646
825.228	5528
825.368	5379
825.508	5345
825.648	5315
825.787	5353
825.927	5360
826.067	5341
826.206	5273
826.346	5341
826.485	5406
826.625	5463
826.765	5512
826.904	5463
827.044	5318
827.183	5239
827.323	5166
827.462	5239
827.601	5208
827.741	5185
827.88	5265
828.02	5075
828.159	5273
828.298	5299
828.437	5368
828.577	5322
828.716	5486
828.855	5360
828.994	5189
829.134	5220
829.273	5269
829.412	5178
829.551	5162
829.69	5193
829.829	5220
829.968	5395
830.107	5296
830.246	5315
830.385	5212
830.524	5250
830.663	5098
830.802	5037
830.941	4946
831.08	4885
831.219	5014
831.357	4999
831.496	5155
831.635	4961
831.774	4873
831.913	4885
832.051	4778
832.19	4736
832.329	4816
832.467	4679
832.606	4656
832.744	4790
832.883	4759
833.022	4778
833.16	4812
833.299	4870
833.437	4850
833.576	4873
833.714	4858
833.852	4870
833.991	4919
834.129	4987
834.267	4968
834.406	4934
834.544	5029
834.682	5041
834.821	4995
834.959	5212
835.097	5041
835.235	5185
835.373	5105
835.511	5079
835.65	5079
835.788	5052
835.926	4957
836.064	4919
836.202	4938
836.34	5162
836.478	5223
836.615	5109
836.753	5227
836.891	5368
837.029	5280
837.167	5223
837.305	5212
837.443	5136
837.58	5098
837.718	5292
837.856	5250
837.993	5174
838.131	5246
838.269	5227
838.406	5216
838.544	5193
838.681	5121
838.819	5025
838.956	5006
839.094	4965
839.231	5003
839.369	5071
839.506	5452
839.643	5292
839.781	5102
839.918	5067
840.055	5102
840.193	5128
840.33	5117
840.467	5197
840.604	5212
840.742	5455
840.879	5151
841.016	5132
841.153	5128
841.29	5429
841.427	5360
841.564	5353
841.701	5337
841.838	5288
841.975	5254
842.112	5288
842.249	5212
842.385	5132
842.522	5357
842.659	5220
842.796	5208
842.933	5212
843.069	5185
843.206	5220
843.343	5341
843.479	5273
843.616	5296
843.752	5064
843.889	5086
844.025	5258
844.162	4995
844.298	5258
844.435	5071
844.571	5124
844.708	5208
844.844	5280
844.98	5368
845.117	5364
845.253	5128
845.389	5109
845.525	5197
845.661	5159
845.798	5132
845.934	5201
846.07	5045
846.206	5227
846.342	5322
846.478	5193
846.614	5067
846.75	5025
846.886	4984
847.022	5197
847.158	5037
847.294	5086
847.429	5117
847.565	5064
847.701	5326
847.837	4889
847.972	4790
848.108	4995
848.244	4976
848.379	4820
848.515	4778
848.65	4729
848.786	4816
848.921	4733
849.057	4812
849.192	4942
849.328	4835
849.463	4839
849.598	4771
849.734	4744
849.869	4725
850.004	4660
850.14	4725
850.275	4618
850.41	4569
850.545	4592
850.68	4626
850.815	4660
850.95	4675
851.085	4889
851.22	4752
851.355	4683
851.49	4649
851.625	4672
851.76	4653
851.895	4577
852.03	4569
852.165	4649
852.299	4698
852.434	4847
852.569	4809
852.703	4797
852.838	4900
852.973	4930
853.107	4942
853.242	4752
853.376	4721
853.511	4615
853.645	4698
853.78	4801
853.914	4717
854.048	4744
854.183	4691
854.317	4729
854.451	4885
854.585	4687
854.72	4687
854.854	4778
854.988	4694
855.122	4634
855.256	4512
855.39	4679
855.524	4805
855.658	4729
855.792	4721
855.926	4729
856.06	4774
856.194	4805
856.327	4694
856.461	4641
856.595	4645
856.729	4607
856.862	4763
856.996	4691
857.13	4733
857.263	4801
857.397	4812
857.53	4714
857.664	4748
857.797	4786
857.931	4843
858.064	4721
858.197	4824
858.331	4752
858.464	4645
858.597	4580
858.731	4668
858.864	4664
858.997	4649
859.13	4702
859.263	4710
859.396	4740
859.529	4630
859.662	4615
859.795	4588
859.928	4656
860.061	4778
860.194	4790
860.327	4679
860.46	4618
860.592	4748
860.725	4748
860.858	4733
860.99	4588
861.123	4546
861.256	4516
861.388	4660
861.521	5341
861.653	4508
861.786	4466
861.918	4481
862.05	4519
862.183	4599
862.315	4702
862.447	4634
862.58	4561
862.712	4470
862.844	4348
862.976	4485
863.108	4485
863.24	4835
863.372	4314
863.504	4447
863.636	4428
863.768	4519
863.9	4436
864.032	4386
864.164	4428
864.296	4523
864.428	4546
864.559	4622
864.691	4527
864.823	4573
864.954	4516
865.086	4565
865.217	4535
865.349	4466
865.48	4497
865.612	4546
865.743	4668
865.875	4470
866.006	4493
866.137	4478
866.269	4485
866.4	4436
866.531	4432
866.662	4462
866.793	4447
866.924	4402
867.055	4527
867.186	4478
867.317	4424
867.448	4390
867.579	4386
867.71	4428
867.841	4375
867.972	4489
868.103	4504
868.233	4470
868.364	4455
868.495	4489
868.625	4660
868.756	4797
868.886	4599
869.017	4630
869.147	4847
869.278	4786
869.408	4668
869.539	4634
869.669	4702
869.799	4679
869.929	4786
870.06	4797
870.19	5006
870.32	4927
870.45	4938
870.58	5041
870.71	5109
870.84	5166
870.97	4946
871.1	4946
871.23	5140
871.36	5090
871.489	5018
871.619	5105
871.749	5121
871.879	5189
872.008	5231
872.138	5067
872.267	5022
872.397	4843
872.526	4831
872.656	4717
872.785	4782
872.915	4976
873.044	5075
873.173	4965
873.303	4942
873.432	5010
873.561	4980
873.69	4881
873.819	4930
873.948	4923
874.077	4843
874.206	4801
874.335	4805
874.464	4953
874.593	5067
874.722	5018
874.851	5132
874.979	5102
875.108	5018
875.237	4927
875.365	4889
875.494	4881
875.623	4976
875.751	4850
875.88	4908
876.008	5033
876.136	5037
876.265	5189
876.393	5414
876.521	5273
876.65	5235
876.778	5208
876.906	5132
877.034	5037
877.162	5086
877.29	4984
877.418	5079
877.546	5094
877.674	5102
877.802	5071
877.93	5060
878.058	4946
878.185	4862
878.313	4999
878.441	4991
878.568	4854
878.696	4877
878.824	4980
878.951	5064
879.079	5174
879.206	5357
879.333	5121
879.461	5010
879.588	5025
879.715	5159
879.842	5242
879.97	5010
880.097	4797
880.224	4752
880.351	4812
880.478	4828
880.605	4797
880.732	4854
880.859	5121
880.986	4892
881.112	4900
881.239	4790
881.366	4740
881.493	4592
881.619	4592
881.746	4641
881.872	4653
881.999	4660
882.125	4706
882.252	4828
882.378	4831
882.505	4999
882.631	4816
882.757	4649
882.883	4721
883.01	4782
883.136	4691
883.262	4603
883.388	4653
883.514	4812
883.64	4889
883.766	4828
883.892	4714
884.018	4748
884.143	4900
884.269	5033
884.395	4694
884.52	4649
884.646	4706
884.772	4630
884.897	4550
885.023	4729
885.148	4767
885.274	4900
885.399	4809
885.524	4736
885.65	4687
885.775	4778
885.9	4748
886.025	4835
886.15	4797
886.275	4733
886.4	4691
886.525	4725
886.65	4679
886.775	4725
886.9	4946
887.025	5060
887.149	4820
887.274	4714
887.399	4588
887.523	4656
887.648	4603
887.773	4592
887.897	4759
888.021	4786
888.146	4675
888.27	4786
888.395	4919
888.519	4809
888.643	4870
888.767	4862
888.891	4710
889.015	4634
889.139	4660
889.263	4603
889.387	4740
889.511	4881
889.635	4831
889.759	4679
889.883	4683
890.006	4755
890.13	4866
890.254	4630
890.377	4698
890.501	4535
890.624	4538
890.748	4672
890.871	4493
890.995	4462
891.118	4455
891.241	4485
891.364	4603
891.488	4683
891.611	4531
891.734	4554
891.857	4634
891.98	4580
892.103	4710
892.226	4599
892.349	4599
892.471	4428
892.594	4538
892.717	4653
892.839	4603
892.962	4622
893.085	4679
893.207	4645
893.33	4493
893.452	4538
893.575	4660
893.697	4588
893.819	4801
893.941	4831
894.064	4752
894.186	4622
894.308	4573
894.43	4752
894.552	4843
894.674	4782
894.796	4573
894.918	4618
895.04	4618
895.161	4725
895.283	4664
895.405	4603
895.526	4660
895.648	4733
895.769	4729
895.891	4675
896.012	4759
896.134	4752
896.255	4630
896.376	4622
896.498	4664
896.619	4717
896.74	4630
896.861	4649
896.982	4927
897.103	5128
897.224	4873
897.345	4748
897.466	4668
897.587	4733
897.708	4885
897.828	4786
897.949	4721
898.07	4573
898.19	4649
898.311	4847
898.431	4687
898.552	4748
898.672	4843
898.792	4744
898.913	4786
899.033	4599
899.153	4546
899.273	4440
899.393	4508
899.513	4516
899.633	4516
899.753	4523
899.873	4504
899.993	4588
900.113	4577
900.232	4565
900.352	4565
900.472	4459
900.591	4424
900.711	4523
900.83	4436
900.95	4618
901.069	4679
901.189	4538
901.308	4398
901.427	4360
901.546	4409
901.665	4466
901.784	4558
901.904	4402
902.023	4344
902.141	4238
902.26	4185
902.379	4303
902.498	4276
902.617	4253
902.735	4394
902.854	4360
902.973	4405
903.091	4204
903.21	4215
903.328	4306
903.446	4295
903.565	4280
903.683	4379
903.801	4299
903.919	4402
904.038	4424
904.156	4371
904.274	4443
904.392	4436
904.51	4451
904.627	4554
904.745	4580
904.863	4668
904.981	4432
905.098	4360
905.216	4405
905.334	4466
905.451	4497
905.569	4508
905.686	4592
905.803	4588
905.921	4424
906.038	4607
906.155	4538
906.272	4440
906.389	4500
906.506	4424
906.623	4394
906.74	4409
906.857	4383
906.974	4394
907.091	4611
907.208	4694
907.324	4577
907.441	4558
907.557	4390
907.674	4436
907.79	4333
907.907	4455
908.023	4565
908.139	4550
908.256	4554
908.372	4485
908.488	4443
908.604	4375
908.72	4417
908.836	4409
908.952	4375
909.068	4485
909.184	4645
909.3	4542
909.415	4622
909.531	4596
909.647	4417
909.762	4394
909.878	4363
909.993	4493
910.108	4405
910.224	4424
910.339	4489
910.454	4440
910.57	4428
910.685	4325
910.8	4645
910.915	4626
911.03	4542
911.145	4379
911.259	4402
911.374	4440
911.489	4383
911.604	4322
911.718	4238
911.833	4223
911.947	4158
912.062	4059
912.176	4238
912.291	4333
912.405	4306
912.519	4527
912.633	4558
912.748	4451
912.862	4383
912.976	4204
913.09	4139
913.204	4238
913.318	4325
913.431	4413
913.545	4424
913.659	4489
913.772	4474
913.886	4284
914	4272
914.113	4394
914.226	4500
914.34	4440
914.453	4265
914.566	4451
914.68	4356
914.793	4424
914.906	4196
915.019	4196
915.132	4109
915.245	4181
915.358	4223
915.47	4303
915.583	4261
915.696	4314
915.809	4363
915.921	4432
916.034	4295
916.146	4310
916.259	4227
916.371	4409
916.483	4356
916.595	4276
916.708	4371
916.82	4352
916.932	4356
917.044	4344
917.156	4386
917.268	4246
917.38	4291
917.491	4291
917.603	4318
917.715	4489
917.826	4455
917.938	4398
918.049	4284
918.161	4424
918.272	4561
918.384	4561
918.495	4447
918.606	4379
918.717	4272
918.828	4367
918.939	4318
919.05	4314
919.161	4344
919.272	4154
919.383	4276
919.494	4413
919.604	4637
919.715	4436
919.826	4409
919.936	4447
920.047	4538
920.157	4558
920.267	4752
920.378	4580
920.488	4489
920.598	4721
920.708	4881
920.818	4809
920.928	4736
921.038	5041
921.148	4995
921.258	4649
921.368	4565
921.477	4531
921.587	4485
921.697	4405
921.806	4592
921.916	4436
922.025	4276
922.134	4337
922.244	4227
922.353	4390
922.462	4181
922.571	4173
922.68	4051
922.789	3994
922.898	4040
923.007	4002
923.116	4131
923.224	4059
923.333	4093
923.442	4029
923.55	4044
923.659	4036
923.767	4162
923.876	4071
923.984	4154
924.092	4048
924.201	4150
924.309	4112
924.417	4154
924.525	4063
924.633	4116
924.741	4972
924.849	3972
924.956	4143
925.064	3983
925.172	3964
925.279	3964
925.387	4086
925.494	4082
925.602	4249
925.709	4230
925.816	4036
925.924	4158
926.031	4246
926.138	4169
926.245	4219
926.352	4109
926.459	4325
926.566	4333
926.673	4173
926.779	4131
926.886	4074
926.993	4010
927.099	4002
927.206	3998
927.312	3945
927.419	4093
927.525	4074
927.631	4131
927.737	3994
927.843	3960
927.95	3896
928.056	3949
928.162	4013
928.267	4055
928.373	4694
928.479	4124
928.585	3907
928.69	4067
928.796	4128
928.901	3994
929.007	3903
929.112	4040
929.218	4029
929.323	3998
929.428	3968
929.533	4128
929.638	3930
929.743	3987
929.848	4021
929.953	3979
930.058	3975
930.163	3819
930.267	3838
930.372	4032
930.477	3873
930.581	4097
930.685	3968
930.79	3850
930.894	3945
930.998	3926
931.103	4124
931.207	3770
931.311	3694
931.415	3732
931.519	3591
931.623	3572
