Data from test_V78500241_1305.txt Node
Date: Fri Mar 25 16:58:04 CST 2022
User: usil
Spectrometer: V785-0024
Trigger mode: 0
Integration Time (sec): 4.000000E-1
Scans to average: 1
Nonlinearity correction enabled: false
Boxcar width: 0
Storing dark spectrum: false
XAxis mode: Wavelengths
Number of Pixels in Spectrum: 1024
>>>>>Begin Spectral Data<<<<<
801.071	7982
801.214	8024
801.356	7879
801.499	7894
801.641	7807
801.783	7792
801.926	7986
802.068	7970
802.211	7959
802.353	7989
802.496	7841
802.638	7887
802.78	7970
802.923	7944
803.065	7928
803.208	7974
803.35	7970
803.492	8065
803.635	8138
803.777	8020
803.919	8142
804.061	8454
804.204	8103
804.346	8092
804.488	7997
804.63	8092
804.773	8043
804.915	8119
805.057	8328
805.199	8221
805.341	8218
805.483	8267
805.626	8225
805.768	8210
805.91	8180
806.052	8248
806.194	8130
806.336	8225
806.478	8103
806.62	8016
806.762	8138
806.904	8248
807.046	8434
807.188	8343
807.33	8381
807.472	8332
807.614	8248
807.756	8180
807.898	8020
808.04	7894
808.182	7982
808.324	7871
808.465	7936
808.607	8084
808.749	8115
808.891	8172
809.033	8248
809.174	8199
809.316	8073
809.458	8084
809.6	8012
809.741	8012
809.883	8039
810.025	8069
810.166	8138
810.308	8020
810.45	8058
810.591	7902
810.733	7738
810.875	7715
811.016	7578
811.158	7537
811.299	7578
811.441	7704
811.582	7639
811.724	7643
811.865	7537
812.007	7552
812.148	7594
812.29	7597
812.431	7689
812.573	7871
812.714	8005
812.855	8084
812.997	8206
813.138	8309
813.279	8199
813.421	8187
813.562	7940
813.703	7856
813.845	7719
813.986	7381
814.127	7293
814.268	7274
814.41	7202
814.551	7137
814.692	7209
814.833	7069
814.974	7122
815.115	7141
815.256	6920
815.397	6901
815.539	6947
815.68	6840
815.821	6825
815.962	6852
816.103	6848
816.244	6696
816.385	6688
816.526	6555
816.666	6464
816.807	6342
816.948	6460
817.089	6498
817.23	6414
817.371	6380
817.512	6350
817.653	6331
817.793	6361
817.934	6437
818.075	6464
818.216	6403
818.356	6384
818.497	6254
818.638	6121
818.778	6117
818.919	6125
819.06	6167
819.2	6369
819.341	6334
819.481	6365
819.622	6517
819.762	6711
819.903	6734
820.043	6578
820.184	6570
820.324	6559
820.465	6688
820.605	6700
820.746	6658
820.886	6513
821.026	6669
821.167	6688
821.307	6715
821.447	6726
821.588	6665
821.728	6536
821.868	6563
822.008	6304
822.149	6380
822.289	6308
822.429	6155
822.569	6114
822.709	6125
822.849	5931
822.99	5897
823.13	5958
823.27	5897
823.41	5764
823.55	5794
823.69	5783
823.83	5760
823.97	5672
824.11	5547
824.25	5478
824.389	5573
824.529	5577
824.669	5520
824.809	5585
824.949	5604
825.089	5596
825.228	5512
825.368	5414
825.508	5383
825.648	5326
825.787	5433
825.927	5341
826.067	5284
826.206	5307
826.346	5417
826.485	5376
826.625	5383
826.765	5543
826.904	5410
827.044	5246
827.183	5239
827.323	5170
827.462	5204
827.601	5155
827.741	5201
827.88	5227
828.02	5143
828.159	5208
828.298	5307
828.437	5379
828.577	5269
828.716	5497
828.855	5242
828.994	5140
829.134	5124
829.273	5235
829.412	5159
829.551	5143
829.69	5162
829.829	5220
829.968	5360
830.107	5261
830.246	5258
830.385	5151
830.524	5147
830.663	5018
830.802	5018
830.941	4915
831.08	4809
831.219	4987
831.357	4949
831.496	5201
831.635	4911
831.774	4866
831.913	4923
832.051	4714
832.19	4736
832.329	4862
832.467	4691
832.606	4641
832.744	4740
832.883	4710
833.022	4691
833.16	4774
833.299	4801
833.437	4793
833.576	4774
833.714	4820
833.852	4850
833.991	4881
834.129	4968
834.267	4938
834.406	4892
834.544	5003
834.682	4987
834.821	4942
834.959	5197
835.097	4995
835.235	5159
835.373	5071
835.511	5102
835.65	4980
835.788	5029
835.926	4923
836.064	4904
836.202	4976
836.34	5181
836.478	5201
836.615	5105
836.753	5181
836.891	5288
837.029	5239
837.167	5117
837.305	5170
837.443	5208
837.58	5105
837.718	5280
837.856	5193
837.993	5094
838.131	5204
838.269	5181
838.406	5189
838.544	5193
838.681	5060
838.819	4999
838.956	4885
839.094	4911
839.231	5018
839.369	5071
839.506	5425
839.643	5201
839.781	5045
839.918	5037
840.055	5079
840.193	5086
840.33	5113
840.467	5151
840.604	5208
840.742	5452
840.879	5045
841.016	5094
841.153	5166
841.29	5391
841.427	5322
841.564	5349
841.701	5315
841.838	5242
841.975	5216
842.112	5231
842.249	5143
842.385	5105
842.522	5337
842.659	5162
842.796	5117
842.933	5185
843.069	5098
843.206	5151
843.343	5315
843.479	5220
843.616	5246
843.752	5037
843.889	5018
844.025	5235
844.162	5029
844.298	5178
844.435	5094
844.571	5029
844.708	5231
844.844	5296
844.98	5322
845.117	5284
845.253	5094
845.389	5124
845.525	5121
845.661	5132
845.798	5037
845.934	5094
846.07	5048
846.206	5193
846.342	5280
846.478	5258
846.614	4995
846.75	4930
846.886	4892
847.022	5102
847.158	5041
847.294	5056
847.429	5117
847.565	5022
847.701	5322
847.837	4797
847.972	4812
848.108	4953
848.244	4942
848.379	4748
848.515	4729
848.65	4706
848.786	4744
848.921	4835
849.057	4858
849.192	4904
849.328	4736
849.463	4873
849.598	4782
849.734	4759
849.869	4717
850.004	4607
850.14	4687
850.275	4611
850.41	4523
850.545	4538
850.68	4584
850.815	4637
850.95	4653
851.085	4816
851.22	4759
851.355	4679
851.49	4603
851.625	4592
851.76	4668
851.895	4592
852.03	4516
852.165	4577
852.299	4733
852.434	4801
852.569	4733
852.703	4733
852.838	4812
852.973	4923
853.107	4930
853.242	4729
853.376	4618
853.511	4542
853.645	4618
853.78	4748
853.914	4675
854.048	4694
854.183	4630
854.317	4649
854.451	4892
854.585	4618
854.72	4584
854.854	4721
854.988	4588
855.122	4634
855.256	4500
855.39	4622
855.524	4706
855.658	4706
855.792	4694
855.926	4687
856.06	4717
856.194	4797
856.327	4698
856.461	4645
856.595	4683
856.729	4577
856.862	4717
856.996	4698
857.13	4706
857.263	4759
857.397	4820
857.53	4641
857.664	4729
857.797	4702
857.931	4744
858.064	4675
858.197	4729
858.331	4607
858.464	4607
858.597	4504
858.731	4630
858.864	4634
858.997	4580
859.13	4634
859.263	4702
859.396	4706
859.529	4519
859.662	4542
859.795	4542
859.928	4611
860.061	4793
860.194	4767
860.327	4622
860.46	4542
860.592	4664
860.725	4664
860.858	4702
860.99	4611
861.123	4527
861.256	4493
861.388	4607
861.521	5227
861.653	4436
861.786	4474
861.918	4440
862.05	4508
862.183	4523
862.315	4573
862.447	4622
862.58	4542
862.712	4398
862.844	4322
862.976	4459
863.108	4470
863.24	4858
863.372	4360
863.504	4398
863.636	4421
863.768	4481
863.9	4436
864.032	4333
864.164	4379
864.296	4424
864.428	4478
864.559	4519
864.691	4546
864.823	4497
864.954	4489
865.086	4500
865.217	4443
865.349	4417
865.48	4447
865.612	4474
865.743	4611
865.875	4451
866.006	4417
866.137	4462
866.269	4443
866.4	4394
866.531	4386
866.662	4367
866.793	4428
866.924	4451
867.055	4500
867.186	4413
867.317	4402
867.448	4356
867.579	4390
867.71	4363
867.841	4371
867.972	4451
868.103	4432
868.233	4447
868.364	4474
868.495	4493
868.625	4626
868.756	4687
868.886	4569
869.017	4645
869.147	4744
869.278	4805
869.408	4634
869.539	4618
869.669	4733
869.799	4664
869.929	4767
870.06	4702
870.19	4953
870.32	4892
870.45	4934
870.58	4984
870.71	5060
870.84	5098
870.97	4915
871.1	4915
871.23	5204
871.36	5117
871.489	4999
871.619	5121
871.749	5132
871.879	5083
872.008	5178
872.138	5029
872.267	5003
872.397	4790
872.526	4797
872.656	4706
872.785	4755
872.915	4953
873.044	5006
873.173	4934
873.303	4885
873.432	4915
873.561	4927
873.69	4831
873.819	4858
873.948	4908
874.077	4835
874.206	4710
874.335	4812
874.464	4946
874.593	5033
874.722	4968
874.851	5102
874.979	5075
875.108	5029
875.237	4881
875.365	4866
875.494	4877
875.623	5022
875.751	4740
875.88	4854
876.008	4984
876.136	5052
876.265	5197
876.393	5318
876.521	5254
876.65	5220
876.778	5109
876.906	5037
877.034	5014
877.162	5060
877.29	4961
877.418	5067
877.546	5033
877.674	5022
877.802	4972
877.93	4999
878.058	4915
878.185	4892
878.313	4949
878.441	4930
878.568	4801
878.696	4892
878.824	4930
878.951	4999
879.079	5159
879.206	5284
879.333	5086
879.461	5010
879.588	5003
879.715	5098
879.842	5178
879.97	5022
880.097	4744
880.224	4687
880.351	4812
880.478	4862
880.605	4809
880.732	4752
880.859	5010
880.986	4892
881.112	4930
881.239	4748
881.366	4710
881.493	4599
881.619	4577
881.746	4615
881.872	4599
881.999	4634
882.125	4698
882.252	4763
882.378	4831
882.505	4984
882.631	4793
882.757	4740
882.883	4733
883.01	4740
883.136	4618
883.262	4603
883.388	4611
883.514	4831
883.64	4904
883.766	4767
883.892	4660
884.018	4714
884.143	4862
884.269	4976
884.395	4656
884.52	4626
884.646	4649
884.772	4561
884.897	4580
885.023	4630
885.148	4782
885.274	4805
885.399	4778
885.524	4714
885.65	4759
885.775	4748
885.9	4702
886.025	4820
886.15	4706
886.275	4706
886.4	4622
886.525	4740
886.65	4675
886.775	4679
886.9	4881
887.025	5037
887.149	4809
887.274	4607
887.399	4577
887.523	4622
887.648	4580
887.773	4554
887.897	4717
888.021	4805
888.146	4691
888.27	4755
888.395	4877
888.519	4790
888.643	4767
888.767	4824
888.891	4679
889.015	4615
889.139	4630
889.263	4561
889.387	4733
889.511	4896
889.635	4790
889.759	4653
889.883	4569
890.006	4717
890.13	4843
890.254	4607
890.377	4679
890.501	4550
890.624	4516
890.748	4596
890.871	4481
890.995	4409
891.118	4405
891.241	4538
891.364	4516
891.488	4580
891.611	4500
891.734	4546
891.857	4603
891.98	4504
892.103	4622
892.226	4558
892.349	4485
892.471	4413
892.594	4535
892.717	4615
892.839	4538
892.962	4615
893.085	4653
893.207	4584
893.33	4466
893.452	4478
893.575	4618
893.697	4592
893.819	4744
893.941	4801
894.064	4752
894.186	4554
894.308	4546
894.43	4683
894.552	4778
894.674	4748
894.796	4535
894.918	4622
895.04	4527
895.161	4714
895.283	4672
895.405	4554
895.526	4592
895.648	4698
895.769	4675
895.891	4664
896.012	4729
896.134	4694
896.255	4687
896.376	4630
896.498	4592
896.619	4660
896.74	4615
896.861	4611
896.982	4923
897.103	5052
897.224	4824
897.345	4714
897.466	4656
897.587	4706
897.708	4824
897.828	4721
897.949	4679
898.07	4596
898.19	4664
898.311	4824
898.431	4649
898.552	4702
898.672	4767
898.792	4816
898.913	4721
899.033	4611
899.153	4455
899.273	4375
899.393	4500
899.513	4531
899.633	4485
899.753	4489
899.873	4497
899.993	4569
900.113	4516
900.232	4603
900.352	4538
900.472	4504
900.591	4379
900.711	4481
900.83	4413
900.95	4630
901.069	4641
901.189	4512
901.308	4402
901.427	4322
901.546	4325
901.665	4455
901.784	4478
901.904	4363
902.023	4333
902.141	4253
902.26	4139
902.379	4246
902.498	4242
902.617	4211
902.735	4398
902.854	4337
902.973	4310
903.091	4181
903.21	4230
903.328	4295
903.446	4276
903.565	4287
903.683	4398
903.801	4272
903.919	4409
904.038	4436
904.156	4299
904.274	4417
904.392	4367
904.51	4451
904.627	4470
904.745	4603
904.863	4592
904.981	4398
905.098	4295
905.216	4360
905.334	4417
905.451	4432
905.569	4451
905.686	4561
905.803	4569
905.921	4398
906.038	4535
906.155	4478
906.272	4375
906.389	4428
906.506	4333
906.623	4386
906.74	4367
906.857	4303
906.974	4337
907.091	4615
907.208	4618
907.324	4558
907.441	4523
907.557	4341
907.674	4329
907.79	4284
907.907	4375
908.023	4478
908.139	4478
908.256	4455
908.372	4428
908.488	4459
908.604	4310
908.72	4344
908.836	4363
908.952	4360
909.068	4440
909.184	4523
909.3	4455
909.415	4558
909.531	4531
909.647	4363
909.762	4371
909.878	4337
909.993	4402
910.108	4390
910.224	4424
910.339	4504
910.454	4428
910.57	4337
910.685	4314
910.8	4615
910.915	4588
911.03	4481
911.145	4303
911.259	4352
911.374	4398
911.489	4329
911.604	4310
911.718	4162
911.833	4227
911.947	4040
912.062	4013
912.176	4207
912.291	4230
912.405	4234
912.519	4466
912.633	4481
912.748	4352
912.862	4306
912.976	4227
913.09	4082
913.204	4147
913.318	4215
913.431	4379
913.545	4379
913.659	4394
913.772	4348
913.886	4287
914	4207
914.113	4303
914.226	4363
914.34	4383
914.453	4234
914.566	4436
914.68	4314
914.793	4352
914.906	4181
915.019	4112
915.132	4078
915.245	4143
915.358	4242
915.47	4287
915.583	4192
915.696	4314
915.809	4413
915.921	4451
916.034	4246
916.146	4268
916.259	4230
916.371	4394
916.483	4386
916.595	4246
916.708	4344
916.82	4348
916.932	4318
917.044	4314
917.156	4322
917.268	4246
917.38	4287
917.491	4284
917.603	4344
917.715	4424
917.826	4443
917.938	4344
918.049	4261
918.161	4409
918.272	4542
918.384	4538
918.495	4470
918.606	4287
918.717	4211
918.828	4322
918.939	4383
919.05	4249
919.161	4322
919.272	4169
919.383	4207
919.494	4428
919.604	4653
919.715	4451
919.826	4333
919.936	4367
920.047	4542
920.157	4519
920.267	4717
920.378	4535
920.488	4512
920.598	4683
920.708	4877
920.818	4714
920.928	4733
921.038	4938
921.148	4900
921.258	4618
921.368	4558
921.477	4512
921.587	4478
921.697	4379
921.806	4497
921.916	4413
922.025	4249
922.134	4280
922.244	4287
922.353	4322
922.462	4128
922.571	4169
922.68	4013
922.789	3953
922.898	4025
923.007	3975
923.116	4063
923.224	4048
923.333	4078
923.442	3983
923.55	3918
923.659	4017
923.767	4097
923.876	3979
923.984	4093
924.092	3972
924.201	4051
924.309	4078
924.417	4143
924.525	4086
924.633	4078
924.741	5014
924.849	3949
924.956	4131
925.064	3964
925.172	3903
925.279	3968
925.387	4013
925.494	4048
925.602	4204
925.709	4177
925.816	4017
925.924	4143
926.031	4204
926.138	4181
926.245	4177
926.352	4063
926.459	4246
926.566	4291
926.673	4131
926.779	4101
926.886	4090
926.993	3979
927.099	3953
927.206	3972
927.312	3899
927.419	4048
927.525	4029
927.631	4112
927.737	3964
927.843	3941
927.95	3800
928.056	3918
928.162	3983
928.267	4071
928.373	4679
928.479	4086
928.585	3884
928.69	3991
928.796	4025
928.901	3945
929.007	3846
929.112	3994
929.218	3968
929.323	3953
929.428	3937
929.533	4105
929.638	3918
929.743	3945
929.848	4036
929.953	3998
930.058	3956
930.163	3759
930.267	3793
930.372	3922
930.477	3808
930.581	4112
930.685	3953
930.79	3778
930.894	3880
930.998	3827
931.103	4021
931.207	3705
931.311	3648
931.415	3679
931.519	3576
931.623	3557
