Data from test_V78500241_330.txt Node
Date: Fri Mar 25 16:51:17 CST 2022
User: usil
Spectrometer: V785-0024
Trigger mode: 0
Integration Time (sec): 4.000000E-1
Scans to average: 1
Nonlinearity correction enabled: false
Boxcar width: 0
Storing dark spectrum: false
XAxis mode: Wavelengths
Number of Pixels in Spectrum: 1024
>>>>>Begin Spectral Data<<<<<
801.071	8081
801.214	8073
801.356	7894
801.499	7814
801.641	7864
801.783	7887
801.926	8069
802.068	7955
802.211	8012
802.353	8062
802.496	7875
802.638	7894
802.78	7986
802.923	7955
803.065	7852
803.208	7826
803.35	7970
803.492	8054
803.635	8145
803.777	8012
803.919	8062
804.061	8480
804.204	8168
804.346	8016
804.488	7951
804.63	8058
804.773	8001
804.915	8065
805.057	8271
805.199	8199
805.341	8237
805.483	8290
805.626	8180
805.768	8183
805.91	8233
806.052	8225
806.194	8157
806.336	8252
806.478	8138
806.62	8145
806.762	8138
806.904	8259
807.046	8438
807.188	8427
807.33	8351
807.472	8328
807.614	8149
807.756	8111
807.898	8046
808.04	7856
808.182	7928
808.324	7959
808.465	7925
808.607	8145
808.749	8134
808.891	8252
809.033	8305
809.174	8210
809.316	8103
809.458	8084
809.6	8005
809.741	8039
809.883	7967
810.025	8119
810.166	8077
810.308	8046
810.45	8077
810.591	7879
810.733	7788
810.875	7662
811.016	7525
811.158	7460
811.299	7624
811.441	7780
811.582	7681
811.724	7548
811.865	7658
812.007	7605
812.148	7643
812.29	7594
812.431	7780
812.573	7879
812.714	7906
812.855	8115
812.997	8142
813.138	8309
813.279	8161
813.421	8084
813.562	8031
813.703	7837
813.845	7776
813.986	7525
814.127	7247
814.268	7236
814.41	7179
814.551	7149
814.692	7225
814.833	7156
814.974	7095
815.115	7114
815.256	6943
815.397	6913
815.539	6939
815.68	6840
815.821	6757
815.962	6894
816.103	6878
816.244	6768
816.385	6658
816.526	6650
816.666	6536
816.807	6372
816.948	6429
817.089	6517
817.23	6429
817.371	6452
817.512	6422
817.653	6395
817.793	6429
817.934	6433
818.075	6403
818.216	6433
818.356	6391
818.497	6277
818.638	6060
818.778	6175
818.919	6136
819.06	6095
819.2	6277
819.341	6331
819.481	6369
819.622	6528
819.762	6802
819.903	6722
820.043	6646
820.184	6570
820.324	6631
820.465	6677
820.605	6650
820.746	6646
820.886	6502
821.026	6669
821.167	6741
821.307	6833
821.447	6760
821.588	6715
821.728	6585
821.868	6540
822.008	6407
822.149	6388
822.289	6403
822.429	6239
822.569	6178
822.709	6171
822.849	6019
822.99	5977
823.13	5942
823.27	5942
823.41	5874
823.55	5832
823.69	5832
823.83	5874
823.97	5733
824.11	5604
824.25	5535
824.389	5570
824.529	5627
824.669	5581
824.809	5653
824.949	5710
825.089	5665
825.228	5596
825.368	5440
825.508	5364
825.648	5383
825.787	5417
825.927	5467
826.067	5364
826.206	5296
826.346	5436
826.485	5440
826.625	5482
826.765	5581
826.904	5509
827.044	5303
827.183	5216
827.323	5166
827.462	5284
827.601	5239
827.741	5258
827.88	5273
828.02	5151
828.159	5227
828.298	5341
828.437	5353
828.577	5315
828.716	5577
828.855	5383
828.994	5254
829.134	5185
829.273	5201
829.412	5189
829.551	5170
829.69	5212
829.829	5311
829.968	5398
830.107	5326
830.246	5280
830.385	5258
830.524	5181
830.663	5102
830.802	5056
830.941	4915
831.08	4942
831.219	5018
831.357	5003
831.496	5201
831.635	4965
831.774	4900
831.913	4885
832.051	4820
832.19	4809
832.329	4904
832.467	4729
832.606	4622
832.744	4759
832.883	4782
833.022	4763
833.16	4881
833.299	4843
833.437	4877
833.576	4881
833.714	4919
833.852	4923
833.991	4927
834.129	5018
834.267	4953
834.406	4904
834.544	5029
834.682	5041
834.821	5052
834.959	5162
835.097	4984
835.235	5189
835.373	5067
835.511	5151
835.65	5056
835.788	5048
835.926	4999
836.064	4949
836.202	4942
836.34	5223
836.478	5284
836.615	5204
836.753	5242
836.891	5330
837.029	5288
837.167	5231
837.305	5212
837.443	5143
837.58	5159
837.718	5265
837.856	5254
837.993	5174
838.131	5258
838.269	5265
838.406	5273
838.544	5220
838.681	5136
838.819	5075
838.956	4938
839.094	4976
839.231	5079
839.369	5109
839.506	5486
839.643	5277
839.781	5079
839.918	5067
840.055	5204
840.193	5132
840.33	5155
840.467	5181
840.604	5239
840.742	5486
840.879	5147
841.016	5105
841.153	5181
841.29	5425
841.427	5337
841.564	5368
841.701	5395
841.838	5360
841.975	5284
842.112	5330
842.249	5178
842.385	5117
842.522	5429
842.659	5201
842.796	5147
842.933	5273
843.069	5159
843.206	5242
843.343	5315
843.479	5326
843.616	5277
843.752	5083
843.889	5048
844.025	5299
844.162	5056
844.298	5242
844.435	5124
844.571	5140
844.708	5277
844.844	5284
844.98	5376
845.117	5284
845.253	5193
845.389	5113
845.525	5193
845.661	5220
845.798	5086
845.934	5178
846.07	5140
846.206	5216
846.342	5303
846.478	5242
846.614	5033
846.75	5025
846.886	4976
847.022	5155
847.158	5052
847.294	5094
847.429	5102
847.565	5079
847.701	5345
847.837	4889
847.972	4892
848.108	4999
848.244	4953
848.379	4820
848.515	4748
848.65	4786
848.786	4755
848.921	4828
849.057	4889
849.192	4919
849.328	4873
849.463	4816
849.598	4831
849.734	4790
849.869	4679
850.004	4645
850.14	4736
850.275	4634
850.41	4611
850.545	4580
850.68	4588
850.815	4694
850.95	4710
851.085	4854
851.22	4820
851.355	4698
851.49	4664
851.625	4660
851.76	4675
851.895	4607
852.03	4565
852.165	4660
852.299	4714
852.434	4843
852.569	4755
852.703	4805
852.838	4889
852.973	4976
853.107	4915
853.242	4786
853.376	4733
853.511	4588
853.645	4618
853.78	4828
853.914	4675
854.048	4706
854.183	4698
854.317	4744
854.451	4870
854.585	4706
854.72	4672
854.854	4835
854.988	4626
855.122	4660
855.256	4546
855.39	4675
855.524	4850
855.658	4771
855.792	4805
855.926	4744
856.06	4786
856.194	4831
856.327	4702
856.461	4611
856.595	4683
856.729	4641
856.862	4782
856.996	4771
857.13	4744
857.263	4790
857.397	4847
857.53	4694
857.664	4702
857.797	4793
857.931	4809
858.064	4702
858.197	4805
858.331	4698
858.464	4664
858.597	4500
858.731	4675
858.864	4714
858.997	4618
859.13	4660
859.263	4702
859.396	4740
859.529	4577
859.662	4630
859.795	4584
859.928	4683
860.061	4778
860.194	4835
860.327	4622
860.46	4588
860.592	4733
860.725	4721
860.858	4774
860.99	4592
861.123	4558
861.256	4550
861.388	4706
861.521	5303
861.653	4542
861.786	4481
861.918	4504
862.05	4607
862.183	4615
862.315	4599
862.447	4664
862.58	4542
862.712	4428
862.844	4333
862.976	4481
863.108	4489
863.24	4801
863.372	4356
863.504	4436
863.636	4413
863.768	4508
863.9	4421
864.032	4383
864.164	4443
864.296	4554
864.428	4523
864.559	4615
864.691	4588
864.823	4573
864.954	4519
865.086	4554
865.217	4493
865.349	4447
865.48	4478
865.612	4561
865.743	4634
865.875	4485
866.006	4367
866.137	4531
866.269	4447
866.4	4474
866.531	4455
866.662	4383
866.793	4367
866.924	4443
867.055	4542
867.186	4489
867.317	4478
867.448	4436
867.579	4470
867.71	4428
867.841	4379
867.972	4508
868.103	4474
868.233	4504
868.364	4474
868.495	4516
868.625	4714
868.756	4801
868.886	4546
869.017	4615
869.147	4831
869.278	4809
869.408	4691
869.539	4702
869.669	4774
869.799	4702
869.929	4839
870.06	4759
870.19	4995
870.32	4923
870.45	5003
870.58	5033
870.71	5124
870.84	5124
870.97	4999
871.1	4949
871.23	5166
871.36	5159
871.489	5029
871.619	5045
871.749	5128
871.879	5147
872.008	5197
872.138	5098
872.267	4995
872.397	4881
872.526	4835
872.656	4767
872.785	4854
872.915	4995
873.044	5018
873.173	4957
873.303	4999
873.432	5003
873.561	4999
873.69	4900
873.819	4892
873.948	4984
874.077	4862
874.206	4782
874.335	4839
874.464	4991
874.593	5090
874.722	4965
874.851	5159
874.979	5041
875.108	5033
875.237	4957
875.365	4870
875.494	4889
875.623	4972
875.751	4858
875.88	4949
876.008	4991
876.136	5052
876.265	5239
876.393	5364
876.521	5258
876.65	5231
876.778	5208
876.906	5090
877.034	5075
877.162	5067
877.29	4976
877.418	5117
877.546	5083
877.674	5056
877.802	5048
877.93	5079
878.058	4957
878.185	4949
878.313	4984
878.441	4980
878.568	4816
878.696	4881
878.824	4987
878.951	4995
879.079	5189
879.206	5341
879.333	5132
879.461	4987
879.588	5083
879.715	5143
879.842	5318
879.97	5067
880.097	4805
880.224	4778
880.351	4866
880.478	4835
880.605	4831
880.732	4797
880.859	5124
880.986	4934
881.112	4938
881.239	4805
881.366	4694
881.493	4630
881.619	4565
881.746	4660
881.872	4683
881.999	4649
882.125	4675
882.252	4790
882.378	4839
882.505	4987
882.631	4828
882.757	4668
882.883	4805
883.01	4725
883.136	4706
883.262	4641
883.388	4622
883.514	4870
883.64	4866
883.766	4858
883.892	4710
884.018	4736
884.143	4877
884.269	5048
884.395	4702
884.52	4630
884.646	4675
884.772	4599
884.897	4538
885.023	4698
885.148	4778
885.274	4885
885.399	4797
885.524	4736
885.65	4714
885.775	4744
885.9	4748
886.025	4858
886.15	4824
886.275	4755
886.4	4702
886.525	4759
886.65	4702
886.775	4675
886.9	4938
887.025	5071
887.149	4877
887.274	4637
887.399	4599
887.523	4584
887.648	4596
887.773	4626
887.897	4797
888.021	4805
888.146	4664
888.27	4892
888.395	4927
888.519	4843
888.643	4877
888.767	4850
888.891	4710
889.015	4618
889.139	4645
889.263	4637
889.387	4831
889.511	4904
889.635	4835
889.759	4634
889.883	4668
890.006	4748
890.13	4828
890.254	4641
890.377	4717
890.501	4527
890.624	4535
890.748	4672
890.871	4497
890.995	4474
891.118	4379
891.241	4554
891.364	4550
891.488	4675
891.611	4542
891.734	4565
891.857	4637
891.98	4565
892.103	4668
892.226	4569
892.349	4542
892.471	4428
892.594	4607
892.717	4569
892.839	4554
892.962	4626
893.085	4672
893.207	4596
893.33	4508
893.452	4489
893.575	4691
893.697	4573
893.819	4824
893.941	4873
894.064	4790
894.186	4611
894.308	4542
894.43	4744
894.552	4854
894.674	4733
894.796	4580
894.918	4615
895.04	4622
895.161	4721
895.283	4717
895.405	4596
895.526	4653
895.648	4740
895.769	4717
895.891	4687
896.012	4767
896.134	4778
896.255	4664
896.376	4664
896.498	4660
896.619	4691
896.74	4645
896.861	4687
896.982	4984
897.103	5132
897.224	4877
897.345	4736
897.466	4752
897.587	4782
897.708	4843
897.828	4740
897.949	4740
898.07	4527
898.19	4626
898.311	4881
898.431	4691
898.552	4759
898.672	4835
898.792	4812
898.913	4790
899.033	4675
899.153	4519
899.273	4424
899.393	4527
899.513	4538
899.633	4519
899.753	4546
899.873	4485
899.993	4618
900.113	4546
900.232	4607
900.352	4550
900.472	4500
900.591	4428
900.711	4523
900.83	4493
900.95	4668
901.069	4698
901.189	4527
901.308	4394
901.427	4383
901.546	4375
901.665	4512
901.784	4504
901.904	4341
902.023	4344
902.141	4185
902.26	4181
902.379	4325
902.498	4249
902.617	4249
902.735	4383
902.854	4428
902.973	4356
903.091	4215
903.21	4257
903.328	4322
903.446	4276
903.565	4272
903.683	4333
903.801	4257
903.919	4398
904.038	4474
904.156	4352
904.274	4432
904.392	4417
904.51	4474
904.627	4512
904.745	4569
904.863	4679
904.981	4405
905.098	4295
905.216	4386
905.334	4497
905.451	4466
905.569	4428
905.686	4584
905.803	4588
905.921	4470
906.038	4599
906.155	4474
906.272	4409
906.389	4466
906.506	4356
906.623	4375
906.74	4383
906.857	4344
906.974	4363
907.091	4580
907.208	4706
907.324	4577
907.441	4516
907.557	4379
907.674	4363
907.79	4333
907.907	4443
908.023	4481
908.139	4466
908.256	4428
908.372	4474
908.488	4443
908.604	4329
908.72	4352
908.836	4360
908.952	4360
909.068	4447
909.184	4538
909.3	4489
909.415	4588
909.531	4596
909.647	4386
909.762	4390
909.878	4344
909.993	4432
910.108	4417
910.224	4413
910.339	4508
910.454	4390
910.57	4436
910.685	4284
910.8	4656
910.915	4611
911.03	4569
911.145	4333
911.259	4363
911.374	4367
911.489	4314
911.604	4291
911.718	4188
911.833	4242
911.947	4124
912.062	4097
912.176	4234
912.291	4242
912.405	4253
912.519	4542
912.633	4527
912.748	4386
912.862	4303
912.976	4242
913.09	4147
913.204	4204
913.318	4246
913.431	4386
913.545	4402
913.659	4443
913.772	4325
913.886	4257
914	4207
914.113	4379
914.226	4436
914.34	4375
914.453	4268
914.566	4409
914.68	4318
914.793	4333
914.906	4181
915.019	4116
915.132	4025
915.245	4211
915.358	4207
915.47	4230
915.583	4284
915.696	4314
915.809	4402
915.921	4432
916.034	4257
916.146	4291
916.259	4227
916.371	4424
916.483	4352
916.595	4348
916.708	4303
916.82	4284
916.932	4303
917.044	4325
917.156	4344
917.268	4265
917.38	4284
917.491	4306
917.603	4325
917.715	4440
917.826	4409
917.938	4333
918.049	4215
918.161	4386
918.272	4516
918.384	4519
918.495	4485
918.606	4299
918.717	4238
918.828	4360
918.939	4344
919.05	4268
919.161	4341
919.272	4150
919.383	4253
919.494	4497
919.604	4645
919.715	4405
919.826	4371
919.936	4390
920.047	4554
920.157	4481
920.267	4675
920.378	4580
920.488	4531
920.598	4759
920.708	4949
920.818	4805
920.928	4805
921.038	4953
921.148	4930
921.258	4637
921.368	4565
921.477	4508
921.587	4516
921.697	4367
921.806	4565
921.916	4383
922.025	4242
922.134	4268
922.244	4238
922.353	4356
922.462	4181
922.571	4139
922.68	3987
922.789	4021
922.898	4086
923.007	3983
923.116	4074
923.224	4086
923.333	4059
923.442	3994
923.55	3968
923.659	4017
923.767	4105
923.876	4013
923.984	4154
924.092	3968
924.201	4063
924.309	4078
924.417	4105
924.525	4097
924.633	4109
924.741	4873
924.849	3945
924.956	4139
925.064	3987
925.172	3907
925.279	3960
925.387	4048
925.494	4078
925.602	4246
925.709	4185
925.816	4044
925.924	4150
926.031	4253
926.138	4204
926.245	4196
926.352	4131
926.459	4242
926.566	4322
926.673	4234
926.779	4090
926.886	4112
926.993	4010
927.099	3953
927.206	3972
927.312	3960
927.419	4048
927.525	4055
927.631	4112
927.737	3972
927.843	3953
927.95	3857
928.056	3953
928.162	3991
928.267	4040
928.373	4630
928.479	4093
928.585	3903
928.69	4010
928.796	4090
928.901	3975
929.007	3873
929.112	4032
929.218	3960
929.323	3991
929.428	3964
929.533	4101
929.638	3937
929.743	3975
929.848	4040
929.953	4025
930.058	3956
930.163	3781
930.267	3854
930.372	3979
930.477	3793
930.581	4128
930.685	3960
930.79	3846
930.894	3922
930.998	3850
931.103	4044
931.207	3747
931.311	3720
931.415	3660
931.519	3504
931.623	3561
