Data from test_V78500241_999.txt Node
Date: Fri Mar 25 16:55:56 CST 2022
User: usil
Spectrometer: V785-0024
Trigger mode: 0
Integration Time (sec): 4.000000E-1
Scans to average: 1
Nonlinearity correction enabled: false
Boxcar width: 0
Storing dark spectrum: false
XAxis mode: Wavelengths
Number of Pixels in Spectrum: 1024
>>>>>Begin Spectral Data<<<<<
801.071	8024
801.214	7997
801.356	7890
801.499	7883
801.641	7792
801.783	7822
801.926	7928
802.068	7955
802.211	7936
802.353	8024
802.496	7795
802.638	7841
802.78	7917
802.923	7887
803.065	7913
803.208	7944
803.35	8043
803.492	8088
803.635	8149
803.777	8031
803.919	8176
804.061	8377
804.204	8096
804.346	8031
804.488	8039
804.63	8103
804.773	8050
804.915	8031
805.057	8252
805.199	8195
805.341	8210
805.483	8256
805.626	8267
805.768	8138
805.91	8229
806.052	8191
806.194	8115
806.336	8271
806.478	8084
806.62	8054
806.762	8191
806.904	8214
807.046	8381
807.188	8358
807.33	8275
807.472	8317
807.614	8111
807.756	8123
807.898	8031
808.04	7864
808.182	7940
808.324	7917
808.465	7868
808.607	7997
808.749	8092
808.891	8157
809.033	8221
809.174	8206
809.316	8119
809.458	8016
809.6	7982
809.741	8039
809.883	8073
810.025	8065
810.166	8100
810.308	7989
810.45	8035
810.591	7856
810.733	7811
810.875	7609
811.016	7540
811.158	7487
811.299	7578
811.441	7662
811.582	7658
811.724	7632
811.865	7582
812.007	7552
812.148	7620
812.29	7643
812.431	7757
812.573	7799
812.714	7970
812.855	8134
812.997	8157
813.138	8362
813.279	8210
813.421	8077
813.562	8096
813.703	7921
813.845	7803
813.986	7544
814.127	7255
814.268	7236
814.41	7190
814.551	7118
814.692	7137
814.833	7015
814.974	7149
815.115	7133
815.256	6951
815.397	6924
815.539	6993
815.68	6833
815.821	6776
815.962	6840
816.103	6818
816.244	6722
816.385	6650
816.526	6639
816.666	6536
816.807	6270
816.948	6441
817.089	6475
817.23	6433
817.371	6410
817.512	6410
817.653	6460
817.793	6319
817.934	6388
818.075	6517
818.216	6422
818.356	6407
818.497	6251
818.638	6110
818.778	6209
818.919	6102
819.06	6152
819.2	6319
819.341	6323
819.481	6308
819.622	6566
819.762	6753
819.903	6738
820.043	6604
820.184	6631
820.324	6570
820.465	6684
820.605	6673
820.746	6635
820.886	6486
821.026	6688
821.167	6669
821.307	6848
821.447	6772
821.588	6665
821.728	6536
821.868	6475
822.008	6388
822.149	6403
822.289	6327
822.429	6136
822.569	6133
822.709	6136
822.849	5908
822.99	5942
823.13	5923
823.27	5897
823.41	5783
823.55	5760
823.69	5798
823.83	5756
823.97	5688
824.11	5562
824.25	5562
824.389	5547
824.529	5604
824.669	5535
824.809	5596
824.949	5699
825.089	5615
825.228	5512
825.368	5391
825.508	5368
825.648	5395
825.787	5383
825.927	5391
826.067	5299
826.206	5353
826.346	5334
826.485	5379
826.625	5417
826.765	5528
826.904	5433
827.044	5178
827.183	5208
827.323	5124
827.462	5246
827.601	5185
827.741	5159
827.88	5261
828.02	5105
828.159	5174
828.298	5273
828.437	5379
828.577	5261
828.716	5554
828.855	5360
828.994	5185
829.134	5132
829.273	5189
829.412	5086
829.551	5090
829.69	5193
829.829	5258
829.968	5357
830.107	5288
830.246	5250
830.385	5159
830.524	5102
830.663	5037
830.802	4946
830.941	4862
831.08	4835
831.219	5003
831.357	5041
831.496	5155
831.635	4915
831.774	4858
831.913	4828
832.051	4702
832.19	4736
832.329	4793
832.467	4660
832.606	4637
832.744	4744
832.883	4660
833.022	4725
833.16	4828
833.299	4797
833.437	4820
833.576	4786
833.714	4850
833.852	4850
833.991	4877
834.129	4942
834.267	4934
834.406	4923
834.544	4991
834.682	4999
834.821	4957
834.959	5071
835.097	5029
835.235	5098
835.373	5071
835.511	5105
835.65	5052
835.788	5022
835.926	4927
836.064	4835
836.202	4911
836.34	5147
836.478	5185
836.615	5121
836.753	5235
836.891	5250
837.029	5269
837.167	5170
837.305	5193
837.443	5128
837.58	5064
837.718	5212
837.856	5166
837.993	5113
838.131	5220
838.269	5231
838.406	5181
838.544	5250
838.681	5056
838.819	4991
838.956	4938
839.094	4976
839.231	4980
839.369	5079
839.506	5395
839.643	5273
839.781	5045
839.918	5037
840.055	5083
840.193	5094
840.33	5067
840.467	5079
840.604	5155
840.742	5383
840.879	5090
841.016	5083
841.153	5102
841.29	5364
841.427	5307
841.564	5311
841.701	5337
841.838	5273
841.975	5258
842.112	5269
842.249	5109
842.385	5083
842.522	5341
842.659	5162
842.796	5128
842.933	5212
843.069	5155
843.206	5166
843.343	5349
843.479	5242
843.616	5280
843.752	5018
843.889	4972
844.025	5220
844.162	5048
844.298	5185
844.435	5109
844.571	5048
844.708	5162
844.844	5330
844.98	5303
845.117	5288
845.253	5140
845.389	5071
845.525	5124
845.661	5162
845.798	5052
845.934	5109
846.07	5018
846.206	5181
846.342	5250
846.478	5204
846.614	5041
846.75	4957
846.886	4927
847.022	5117
847.158	4961
847.294	5071
847.429	5105
847.565	5045
847.701	5299
847.837	4831
847.972	4816
848.108	4934
848.244	4953
848.379	4801
848.515	4702
848.65	4710
848.786	4812
848.921	4790
849.057	4877
849.192	4915
849.328	4805
849.463	4835
849.598	4755
849.734	4771
849.869	4645
850.004	4668
850.14	4653
850.275	4577
850.41	4500
850.545	4516
850.68	4653
850.815	4580
850.95	4611
851.085	4820
851.22	4767
851.355	4637
851.49	4584
851.625	4630
851.76	4634
851.895	4561
852.03	4527
852.165	4615
852.299	4683
852.434	4816
852.569	4687
852.703	4759
852.838	4812
852.973	4946
853.107	4877
853.242	4740
853.376	4668
853.511	4531
853.645	4618
853.78	4782
853.914	4668
854.048	4668
854.183	4634
854.317	4733
854.451	4835
854.585	4660
854.72	4588
854.854	4748
854.988	4588
855.122	4618
855.256	4523
855.39	4637
855.524	4793
855.658	4710
855.792	4748
855.926	4714
856.06	4721
856.194	4850
856.327	4672
856.461	4622
856.595	4637
856.729	4580
856.862	4714
856.996	4672
857.13	4717
857.263	4771
857.397	4801
857.53	4653
857.664	4687
857.797	4729
857.931	4767
858.064	4691
858.197	4717
858.331	4634
858.464	4569
858.597	4508
858.731	4702
858.864	4645
858.997	4592
859.13	4687
859.263	4618
859.396	4656
859.529	4565
859.662	4546
859.795	4535
859.928	4588
860.061	4763
860.194	4778
860.327	4588
860.46	4569
860.592	4733
860.725	4759
860.858	4721
860.99	4596
861.123	4519
861.256	4531
861.388	4641
861.521	5231
861.653	4462
861.786	4424
861.918	4428
862.05	4561
862.183	4523
862.315	4546
862.447	4622
862.58	4485
862.712	4375
862.844	4310
862.976	4451
863.108	4462
863.24	4854
863.372	4322
863.504	4421
863.636	4375
863.768	4489
863.9	4451
864.032	4371
864.164	4371
864.296	4398
864.428	4493
864.559	4497
864.691	4542
864.823	4535
864.954	4474
865.086	4466
865.217	4424
865.349	4409
865.48	4443
865.612	4493
865.743	4626
865.875	4516
866.006	4424
866.137	4497
866.269	4428
866.4	4478
866.531	4375
866.662	4371
866.793	4443
866.924	4443
867.055	4500
867.186	4394
867.317	4451
867.448	4398
867.579	4356
867.71	4440
867.841	4337
867.972	4436
868.103	4455
868.233	4432
868.364	4451
868.495	4470
868.625	4660
868.756	4767
868.886	4538
869.017	4618
869.147	4786
869.278	4729
869.408	4641
869.539	4584
869.669	4679
869.799	4653
869.929	4710
870.06	4710
870.19	4961
870.32	4866
870.45	4946
870.58	4987
870.71	5109
870.84	5037
870.97	4911
871.1	4892
871.23	5181
871.36	5128
871.489	4972
871.619	5067
871.749	5045
871.879	5109
872.008	5208
872.138	5048
872.267	5010
872.397	4835
872.526	4786
872.656	4679
872.785	4782
872.915	4930
873.044	5037
873.173	4930
873.303	4934
873.432	4942
873.561	4927
873.69	4828
873.819	4862
873.948	4911
874.077	4843
874.206	4740
874.335	4797
874.464	4949
874.593	5037
874.722	4961
874.851	5117
874.979	5083
875.108	4984
875.237	4930
875.365	4858
875.494	4885
875.623	4942
875.751	4850
875.88	4835
876.008	4965
876.136	5033
876.265	5136
876.393	5288
876.521	5216
876.65	5159
876.778	5162
876.906	5045
877.034	4980
877.162	5056
877.29	4976
877.418	5029
877.546	5014
877.674	5014
877.802	4991
877.93	4984
878.058	4938
878.185	4862
878.313	4904
878.441	4930
878.568	4778
878.696	4862
878.824	4892
878.951	4980
879.079	5117
879.206	5269
879.333	5079
879.461	4961
879.588	4976
879.715	5067
879.842	5193
879.97	4984
880.097	4778
880.224	4714
880.351	4771
880.478	4801
880.605	4793
880.732	4790
880.859	5056
880.986	4854
881.112	4870
881.239	4755
881.366	4675
881.493	4550
881.619	4550
881.746	4634
881.872	4641
881.999	4660
882.125	4691
882.252	4744
882.378	4771
882.505	4953
882.631	4774
882.757	4672
882.883	4725
883.01	4717
883.136	4664
883.262	4584
883.388	4607
883.514	4786
883.64	4866
883.766	4782
883.892	4653
884.018	4710
884.143	4896
884.269	5022
884.395	4653
884.52	4599
884.646	4584
884.772	4554
884.897	4523
885.023	4637
885.148	4782
885.274	4896
885.399	4778
885.524	4687
885.65	4672
885.775	4725
885.9	4725
886.025	4831
886.15	4774
886.275	4668
886.4	4622
886.525	4679
886.65	4683
886.775	4694
886.9	4908
887.025	5037
887.149	4786
887.274	4653
887.399	4622
887.523	4558
887.648	4542
887.773	4554
887.897	4740
888.021	4793
888.146	4698
888.27	4786
888.395	4885
888.519	4790
888.643	4847
888.767	4843
888.891	4664
889.015	4565
889.139	4706
889.263	4603
889.387	4725
889.511	4831
889.635	4774
889.759	4634
889.883	4683
890.006	4710
890.13	4801
890.254	4607
890.377	4683
890.501	4546
890.624	4447
890.748	4603
890.871	4535
890.995	4443
891.118	4363
891.241	4538
891.364	4493
891.488	4626
891.611	4485
891.734	4516
891.857	4535
891.98	4577
892.103	4649
892.226	4550
892.349	4485
892.471	4440
892.594	4531
892.717	4531
892.839	4561
892.962	4550
893.085	4683
893.207	4592
893.33	4443
893.452	4531
893.575	4679
893.697	4565
893.819	4778
893.941	4744
894.064	4721
894.186	4569
894.308	4584
894.43	4744
894.552	4835
894.674	4717
894.796	4497
894.918	4569
895.04	4550
895.161	4702
895.283	4653
895.405	4561
895.526	4603
895.648	4691
895.769	4702
895.891	4698
896.012	4736
896.134	4691
896.255	4634
896.376	4668
896.498	4626
896.619	4660
896.74	4618
896.861	4596
896.982	4911
897.103	5094
897.224	4831
897.345	4733
897.466	4656
897.587	4733
897.708	4824
897.828	4778
897.949	4675
898.07	4554
898.19	4679
898.311	4778
898.431	4660
898.552	4679
898.672	4793
898.792	4782
898.913	4816
899.033	4630
899.153	4493
899.273	4451
899.393	4523
899.513	4500
899.633	4459
899.753	4535
899.873	4516
899.993	4569
900.113	4508
900.232	4565
900.352	4519
900.472	4523
900.591	4390
900.711	4523
900.83	4436
900.95	4565
901.069	4660
901.189	4546
901.308	4367
901.427	4341
901.546	4383
901.665	4478
901.784	4512
901.904	4367
902.023	4329
902.141	4211
902.26	4204
902.379	4287
902.498	4215
902.617	4211
902.735	4360
902.854	4348
902.973	4287
903.091	4215
903.21	4230
903.328	4234
903.446	4310
903.565	4242
903.683	4348
903.801	4295
903.919	4367
904.038	4417
904.156	4383
904.274	4436
904.392	4375
904.51	4432
904.627	4455
904.745	4569
904.863	4599
904.981	4352
905.098	4303
905.216	4348
905.334	4409
905.451	4409
905.569	4443
905.686	4565
905.803	4535
905.921	4424
906.038	4580
906.155	4489
906.272	4436
906.389	4478
906.506	4344
906.623	4356
906.74	4398
906.857	4303
906.974	4394
907.091	4603
907.208	4683
907.324	4607
907.441	4519
907.557	4318
907.674	4356
907.79	4303
907.907	4360
908.023	4470
908.139	4519
908.256	4436
908.372	4455
908.488	4481
908.604	4375
908.72	4310
908.836	4356
908.952	4383
909.068	4409
909.184	4554
909.3	4451
909.415	4584
909.531	4577
909.647	4348
909.762	4314
909.878	4371
909.993	4440
910.108	4413
910.224	4447
910.339	4466
910.454	4394
910.57	4363
910.685	4310
910.8	4641
910.915	4588
911.03	4447
911.145	4306
911.259	4325
911.374	4352
911.489	4242
911.604	4276
911.718	4173
911.833	4162
911.947	4071
912.062	4013
912.176	4200
912.291	4261
912.405	4249
912.519	4493
912.633	4508
912.748	4363
912.862	4295
912.976	4207
913.09	4055
913.204	4150
913.318	4249
913.431	4390
913.545	4383
913.659	4451
913.772	4344
913.886	4227
914	4230
914.113	4360
914.226	4447
914.34	4371
914.453	4230
914.566	4405
914.68	4306
914.793	4303
914.906	4112
915.019	4124
915.132	4063
915.245	4215
915.358	4215
915.47	4242
915.583	4257
915.696	4291
915.809	4413
915.921	4405
916.034	4227
916.146	4249
916.259	4204
916.371	4314
916.483	4325
916.595	4230
916.708	4299
916.82	4306
916.932	4299
917.044	4329
917.156	4314
917.268	4215
917.38	4295
917.491	4306
917.603	4348
917.715	4390
917.826	4436
917.938	4310
918.049	4257
918.161	4379
918.272	4558
918.384	4546
918.495	4424
918.606	4299
918.717	4242
918.828	4348
918.939	4337
919.05	4230
919.161	4303
919.272	4105
919.383	4227
919.494	4432
919.604	4599
919.715	4421
919.826	4333
919.936	4367
920.047	4523
920.157	4542
920.267	4679
920.378	4538
920.488	4481
920.598	4721
920.708	4873
920.818	4748
920.928	4759
921.038	4965
921.148	4862
921.258	4630
921.368	4573
921.477	4500
921.587	4466
921.697	4356
921.806	4573
921.916	4428
922.025	4265
922.134	4253
922.244	4219
922.353	4417
922.462	4196
922.571	4120
922.68	3994
922.789	3956
922.898	4025
923.007	4002
923.116	4074
923.224	4074
923.333	4032
923.442	3979
923.55	4002
923.659	4040
923.767	4112
923.876	3968
923.984	4124
924.092	3987
924.201	4086
924.309	4124
924.417	4090
924.525	4021
924.633	4059
924.741	5052
924.849	3964
924.956	4131
925.064	3968
925.172	3903
925.279	3968
925.387	4063
925.494	4051
925.602	4185
925.709	4200
925.816	3983
925.924	4150
926.031	4265
926.138	4196
926.245	4242
926.352	4090
926.459	4230
926.566	4299
926.673	4139
926.779	4055
926.886	4090
926.993	3983
927.099	3987
927.206	3930
927.312	3960
927.419	4055
927.525	4029
927.631	4032
927.737	3945
927.843	3934
927.95	3835
928.056	3937
928.162	3968
928.267	4044
928.373	4656
928.479	4082
928.585	3876
928.69	4013
928.796	4055
928.901	3979
929.007	3838
929.112	3941
929.218	3930
929.323	3956
929.428	3907
929.533	4120
929.638	3884
929.743	3949
929.848	4082
929.953	3991
930.058	3884
930.163	3781
930.267	3827
930.372	3945
930.477	3819
930.581	4086
930.685	3926
930.79	3846
930.894	3907
930.998	3857
931.103	3972
931.207	3728
931.311	3713
931.415	3686
931.519	3485
931.623	3561
