Data from test_V78500241_272.txt Node
Date: Fri Mar 25 16:50:53 CST 2022
User: usil
Spectrometer: V785-0024
Trigger mode: 0
Integration Time (sec): 4.000000E-1
Scans to average: 1
Nonlinearity correction enabled: false
Boxcar width: 0
Storing dark spectrum: false
XAxis mode: Wavelengths
Number of Pixels in Spectrum: 1024
>>>>>Begin Spectral Data<<<<<
801.071	8005
801.214	7986
801.356	7894
801.499	7837
801.641	7887
801.783	7849
801.926	7959
802.068	7959
802.211	7986
802.353	8065
802.496	7890
802.638	7917
802.78	7932
802.923	7944
803.065	7921
803.208	7883
803.35	7947
803.492	8100
803.635	8119
803.777	8031
803.919	8149
804.061	8431
804.204	8164
804.346	8081
804.488	7928
804.63	8126
804.773	8046
804.915	8077
805.057	8282
805.199	8149
805.341	8172
805.483	8298
805.626	8199
805.768	8077
805.91	8187
806.052	8183
806.194	8073
806.336	8191
806.478	8088
806.62	8043
806.762	8073
806.904	8347
807.046	8511
807.188	8343
807.33	8294
807.472	8309
807.614	8115
807.756	8161
807.898	7928
808.04	7909
808.182	7906
808.324	7989
808.465	7887
808.607	8092
808.749	8149
808.891	8161
809.033	8290
809.174	8145
809.316	8073
809.458	8081
809.6	8024
809.741	8027
809.883	7913
810.025	8077
810.166	8092
810.308	8065
810.45	7982
810.591	7890
810.733	7742
810.875	7571
811.016	7483
811.158	7457
811.299	7636
811.441	7685
811.582	7609
811.724	7441
811.865	7601
812.007	7586
812.148	7655
812.29	7628
812.431	7746
812.573	7879
812.714	7921
812.855	8111
812.997	8202
813.138	8290
813.279	8111
813.421	8153
813.562	8005
813.703	7837
813.845	7799
813.986	7426
814.127	7221
814.268	7282
814.41	7236
814.551	7129
814.692	7126
814.833	7118
814.974	7072
815.115	7046
815.256	6943
815.397	6856
815.539	6943
815.68	6821
815.821	6837
815.962	6837
816.103	6859
816.244	6696
816.385	6627
816.526	6646
816.666	6528
816.807	6281
816.948	6452
817.089	6494
817.23	6437
817.371	6376
817.512	6380
817.653	6395
817.793	6331
817.934	6422
818.075	6448
818.216	6452
818.356	6391
818.497	6232
818.638	6159
818.778	6186
818.919	6095
819.06	6144
819.2	6270
819.341	6281
819.481	6311
819.622	6551
819.762	6696
819.903	6658
820.043	6559
820.184	6551
820.324	6559
820.465	6669
820.605	6597
820.746	6582
820.886	6464
821.026	6646
821.167	6692
821.307	6829
821.447	6772
821.588	6658
821.728	6555
821.868	6460
822.008	6281
822.149	6350
822.289	6361
822.429	6087
822.569	6060
822.709	6129
822.849	5901
822.99	5904
823.13	5969
823.27	5863
823.41	5836
823.55	5710
823.69	5824
823.83	5760
823.97	5638
824.11	5516
824.25	5562
824.389	5581
824.529	5604
824.669	5554
824.809	5634
824.949	5646
825.089	5596
825.228	5566
825.368	5376
825.508	5330
825.648	5360
825.787	5398
825.927	5368
826.067	5376
826.206	5364
826.346	5425
826.485	5417
826.625	5440
826.765	5581
826.904	5467
827.044	5258
827.183	5212
827.323	5155
827.462	5250
827.601	5162
827.741	5227
827.88	5223
828.02	5132
828.159	5261
828.298	5307
828.437	5421
828.577	5322
828.716	5516
828.855	5360
828.994	5174
829.134	5223
829.273	5181
829.412	5178
829.551	5181
829.69	5201
829.829	5322
829.968	5417
830.107	5341
830.246	5330
830.385	5201
830.524	5140
830.663	5155
830.802	5006
830.941	4911
831.08	4968
831.219	5083
831.357	5090
831.496	5212
831.635	5003
831.774	4923
831.913	4915
832.051	4797
832.19	4778
832.329	4900
832.467	4748
832.606	4626
832.744	4767
832.883	4771
833.022	4721
833.16	4828
833.299	4889
833.437	4839
833.576	4801
833.714	4904
833.852	4938
833.991	4938
834.129	4957
834.267	5025
834.406	4953
834.544	5033
834.682	5045
834.821	4999
834.959	5181
835.097	5052
835.235	5201
835.373	5140
835.511	5098
835.65	5105
835.788	5105
835.926	4987
836.064	4968
836.202	5018
836.34	5193
836.478	5231
836.615	5216
836.753	5223
836.891	5330
837.029	5273
837.167	5277
837.305	5261
837.443	5212
837.58	5166
837.718	5242
837.856	5280
837.993	5162
838.131	5318
838.269	5296
838.406	5220
838.544	5250
838.681	5075
838.819	5056
838.956	4965
839.094	4987
839.231	4995
839.369	5117
839.506	5467
839.643	5334
839.781	5124
839.918	5045
840.055	5147
840.193	5155
840.33	5136
840.467	5178
840.604	5288
840.742	5471
840.879	5124
841.016	5128
841.153	5231
841.29	5444
841.427	5395
841.564	5341
841.701	5376
841.838	5311
841.975	5311
842.112	5341
842.249	5166
842.385	5178
842.522	5402
842.659	5231
842.796	5201
842.933	5242
843.069	5159
843.206	5197
843.343	5395
843.479	5261
843.616	5303
843.752	5052
843.889	5083
844.025	5216
844.162	5086
844.298	5280
844.435	5071
844.571	5105
844.708	5254
844.844	5349
844.98	5421
845.117	5334
845.253	5193
845.389	5121
845.525	5193
845.661	5201
845.798	5056
845.934	5159
846.07	5117
846.206	5189
846.342	5288
846.478	5231
846.614	5071
846.75	5018
846.886	5029
847.022	5181
847.158	5003
847.294	5124
847.429	5189
847.565	5113
847.701	5360
847.837	4915
847.972	4847
848.108	4957
848.244	4965
848.379	4809
848.515	4767
848.65	4752
848.786	4752
848.921	4771
849.057	4927
849.192	4892
849.328	4824
849.463	4847
849.598	4843
849.734	4778
849.869	4786
850.004	4672
850.14	4691
850.275	4634
850.41	4519
850.545	4618
850.68	4691
850.815	4641
850.95	4664
851.085	4923
851.22	4801
851.355	4710
851.49	4660
851.625	4691
851.76	4626
851.895	4653
852.03	4626
852.165	4706
852.299	4771
852.434	4828
852.569	4790
852.703	4782
852.838	4812
852.973	4946
853.107	4999
853.242	4755
853.376	4702
853.511	4542
853.645	4679
853.78	4847
853.914	4691
854.048	4733
854.183	4687
854.317	4748
854.451	4873
854.585	4698
854.72	4679
854.854	4763
854.988	4637
855.122	4702
855.256	4554
855.39	4694
855.524	4843
855.658	4759
855.792	4740
855.926	4759
856.06	4812
856.194	4828
856.327	4668
856.461	4675
856.595	4634
856.729	4687
856.862	4759
856.996	4710
857.13	4782
857.263	4801
857.397	4801
857.53	4729
857.664	4729
857.797	4801
857.931	4805
858.064	4767
858.197	4774
858.331	4687
858.464	4675
858.597	4500
858.731	4668
858.864	4683
858.997	4622
859.13	4694
859.263	4733
859.396	4752
859.529	4622
859.662	4615
859.795	4508
859.928	4683
860.061	4744
860.194	4866
860.327	4637
860.46	4588
860.592	4805
860.725	4835
860.858	4790
860.99	4634
861.123	4599
861.256	4569
861.388	4706
861.521	5433
861.653	4523
861.786	4500
861.918	4504
862.05	4573
862.183	4573
862.315	4611
862.447	4668
862.58	4622
862.712	4493
862.844	4386
862.976	4523
863.108	4542
863.24	4889
863.372	4363
863.504	4424
863.636	4481
863.768	4500
863.9	4478
864.032	4375
864.164	4478
864.296	4470
864.428	4584
864.559	4561
864.691	4592
864.823	4527
864.954	4519
865.086	4580
865.217	4443
865.349	4459
865.48	4500
865.612	4519
865.743	4611
865.875	4462
866.006	4497
866.137	4504
866.269	4512
866.4	4485
866.531	4481
866.662	4405
866.793	4451
866.924	4455
867.055	4546
867.186	4447
867.317	4421
867.448	4432
867.579	4436
867.71	4443
867.841	4436
867.972	4485
868.103	4588
868.233	4489
868.364	4478
868.495	4565
868.625	4691
868.756	4801
868.886	4634
869.017	4634
869.147	4820
869.278	4759
869.408	4675
869.539	4649
869.669	4774
869.799	4687
869.929	4786
870.06	4786
870.19	5025
870.32	4908
870.45	4946
870.58	5025
870.71	5155
870.84	5121
870.97	4991
871.1	4915
871.23	5162
871.36	5147
871.489	5113
871.619	5090
871.749	5098
871.879	5162
872.008	5166
872.138	5052
872.267	5048
872.397	4839
872.526	4809
872.656	4771
872.785	4782
872.915	4942
873.044	5086
873.173	4980
873.303	4995
873.432	4965
873.561	4999
873.69	4854
873.819	4866
873.948	4987
874.077	4885
874.206	4771
874.335	4828
874.464	4953
874.593	5098
874.722	5075
874.851	5181
874.979	5071
875.108	5102
875.237	4968
875.365	4919
875.494	4938
875.623	4972
875.751	4881
875.88	4900
876.008	5037
876.136	5105
876.265	5181
876.393	5383
876.521	5330
876.65	5227
876.778	5204
876.906	5094
877.034	5079
877.162	5037
877.29	5033
877.418	5117
877.546	5075
877.674	5086
877.802	5022
877.93	5052
878.058	4991
878.185	4965
878.313	5037
878.441	4953
878.568	4805
878.696	4885
878.824	4957
878.951	5037
879.079	5185
879.206	5303
879.333	5113
879.461	4991
879.588	5048
879.715	5140
879.842	5231
879.97	5064
880.097	4831
880.224	4809
880.351	4881
880.478	4892
880.605	4839
880.732	4812
880.859	5094
880.986	4930
881.112	4919
881.239	4873
881.366	4706
881.493	4660
881.619	4630
881.746	4656
881.872	4675
881.999	4679
882.125	4721
882.252	4801
882.378	4866
882.505	5018
882.631	4858
882.757	4687
882.883	4767
883.01	4752
883.136	4683
883.262	4622
883.388	4649
883.514	4866
883.64	4850
883.766	4831
883.892	4721
884.018	4725
884.143	4919
884.269	5048
884.395	4664
884.52	4645
884.646	4664
884.772	4584
884.897	4618
885.023	4706
885.148	4828
885.274	4987
885.399	4858
885.524	4702
885.65	4714
885.775	4759
885.9	4763
886.025	4984
886.15	4824
886.275	4714
886.4	4649
886.525	4782
886.65	4778
886.775	4714
886.9	4934
887.025	5025
887.149	4911
887.274	4656
887.399	4618
887.523	4634
887.648	4577
887.773	4611
887.897	4774
888.021	4850
888.146	4675
888.27	4839
888.395	4923
888.519	4786
888.643	4850
888.767	4877
888.891	4729
889.015	4668
889.139	4675
889.263	4645
889.387	4793
889.511	4915
889.635	4816
889.759	4653
889.883	4637
890.006	4774
890.13	4870
890.254	4607
890.377	4725
890.501	4580
890.624	4580
890.748	4649
890.871	4508
890.995	4478
891.118	4447
891.241	4558
891.364	4558
891.488	4672
891.611	4542
891.734	4561
891.857	4618
891.98	4542
892.103	4634
892.226	4645
892.349	4527
892.471	4474
892.594	4630
892.717	4599
892.839	4607
892.962	4596
893.085	4694
893.207	4660
893.33	4470
893.452	4535
893.575	4668
893.697	4565
893.819	4809
893.941	4873
894.064	4835
894.186	4607
894.308	4584
894.43	4740
894.552	4862
894.674	4778
894.796	4592
894.918	4599
895.04	4634
895.161	4683
895.283	4698
895.405	4588
895.526	4660
895.648	4698
895.769	4687
895.891	4782
896.012	4733
896.134	4740
896.255	4679
896.376	4660
896.498	4645
896.619	4706
896.74	4649
896.861	4672
896.982	5006
897.103	5056
897.224	4862
897.345	4782
897.466	4725
897.587	4744
897.708	4873
897.828	4778
897.949	4702
898.07	4599
898.19	4664
898.311	4862
898.431	4714
898.552	4771
898.672	4870
898.792	4839
898.913	4759
899.033	4622
899.153	4516
899.273	4413
899.393	4512
899.513	4573
899.633	4523
899.753	4584
899.873	4504
899.993	4577
900.113	4588
900.232	4641
900.352	4603
900.472	4504
900.591	4432
900.711	4516
900.83	4428
900.95	4626
901.069	4698
901.189	4618
901.308	4409
901.427	4367
901.546	4409
901.665	4519
901.784	4554
901.904	4394
902.023	4371
902.141	4200
902.26	4230
902.379	4341
902.498	4287
902.617	4238
902.735	4386
902.854	4424
902.973	4375
903.091	4173
903.21	4249
903.328	4318
903.446	4249
903.565	4287
903.683	4352
903.801	4325
903.919	4405
904.038	4436
904.156	4325
904.274	4436
904.392	4451
904.51	4462
904.627	4504
904.745	4577
904.863	4656
904.981	4402
905.098	4303
905.216	4363
905.334	4436
905.451	4459
905.569	4466
905.686	4561
905.803	4596
905.921	4428
906.038	4550
906.155	4516
906.272	4405
906.389	4481
906.506	4409
906.623	4375
906.74	4394
906.857	4306
906.974	4402
907.091	4512
907.208	4702
907.324	4611
907.441	4516
907.557	4367
907.674	4344
907.79	4356
907.907	4394
908.023	4459
908.139	4531
908.256	4432
908.372	4466
908.488	4478
908.604	4413
908.72	4348
908.836	4348
908.952	4375
909.068	4481
909.184	4630
909.3	4497
909.415	4588
909.531	4596
909.647	4394
909.762	4394
909.878	4341
909.993	4440
910.108	4455
910.224	4417
910.339	4542
910.454	4424
910.57	4379
910.685	4318
910.8	4637
910.915	4630
911.03	4512
911.145	4322
911.259	4360
911.374	4333
911.489	4329
911.604	4337
911.718	4169
911.833	4219
911.947	4116
912.062	4021
912.176	4192
912.291	4261
912.405	4249
912.519	4497
912.633	4558
912.748	4398
912.862	4318
912.976	4207
913.09	4112
913.204	4230
913.318	4314
913.431	4360
913.545	4360
913.659	4474
913.772	4390
913.886	4181
914	4230
914.113	4440
914.226	4443
914.34	4383
914.453	4253
914.566	4447
914.68	4295
914.793	4383
914.906	4223
915.019	4158
915.132	4086
915.245	4169
915.358	4249
915.47	4265
915.583	4310
915.696	4310
915.809	4417
915.921	4504
916.034	4246
916.146	4299
916.259	4242
916.371	4394
916.483	4379
916.595	4299
916.708	4348
916.82	4314
916.932	4329
917.044	4360
917.156	4333
917.268	4272
917.38	4295
917.491	4280
917.603	4322
917.715	4455
917.826	4443
917.938	4386
918.049	4265
918.161	4398
918.272	4546
918.384	4527
918.495	4451
918.606	4356
918.717	4303
918.828	4371
918.939	4379
919.05	4268
919.161	4253
919.272	4196
919.383	4257
919.494	4459
919.604	4653
919.715	4443
919.826	4383
919.936	4409
920.047	4603
920.157	4497
920.267	4729
920.378	4512
920.488	4497
920.598	4698
920.708	4930
920.818	4793
920.928	4755
921.038	4976
921.148	4965
921.258	4675
921.368	4558
921.477	4519
921.587	4485
921.697	4428
921.806	4607
921.916	4440
922.025	4295
922.134	4291
922.244	4268
922.353	4344
922.462	4219
922.571	4143
922.68	4006
922.789	4036
922.898	4063
923.007	4059
923.116	4124
923.224	4097
923.333	4101
923.442	4010
923.55	3994
923.659	4044
923.767	4124
923.876	3991
923.984	4158
924.092	4021
924.201	4078
924.309	4078
924.417	4101
924.525	4078
924.633	4131
924.741	5006
924.849	3956
924.956	4166
925.064	3934
925.172	3911
925.279	3972
925.387	4086
925.494	4071
925.602	4219
925.709	4173
925.816	4051
925.924	4162
926.031	4223
926.138	4181
926.245	4215
926.352	4090
926.459	4223
926.566	4314
926.673	4181
926.779	4093
926.886	4120
926.993	3964
927.099	3960
927.206	3907
927.312	3964
927.419	4063
927.525	4063
927.631	4169
927.737	3960
927.843	3960
927.95	3846
928.056	3953
928.162	4010
928.267	4051
928.373	4694
928.479	4105
928.585	3907
928.69	4040
928.796	4067
928.901	4006
929.007	3800
929.112	4029
929.218	3979
929.323	3941
929.428	3937
929.533	4097
929.638	3896
929.743	3960
929.848	4067
929.953	4032
930.058	3953
930.163	3827
930.267	3816
930.372	3972
930.477	3819
930.581	4101
930.685	3972
930.79	3804
930.894	3915
930.998	3846
931.103	4036
931.207	3732
931.311	3694
931.415	3701
931.519	3515
931.623	3568
