Data from test_V78500241_2057.txt Node
Date: Fri Mar 25 17:03:18 CST 2022
User: usil
Spectrometer: V785-0024
Trigger mode: 0
Integration Time (sec): 4.000000E-1
Scans to average: 1
Nonlinearity correction enabled: false
Boxcar width: 0
Storing dark spectrum: false
XAxis mode: Wavelengths
Number of Pixels in Spectrum: 1024
>>>>>Begin Spectral Data<<<<<
801.071	8031
801.214	7909
801.356	7902
801.499	7776
801.641	7799
801.783	7879
801.926	7947
802.068	7917
802.211	7944
802.353	8008
802.496	7856
802.638	7902
802.78	7906
802.923	7818
803.065	7864
803.208	7864
803.35	8001
803.492	8062
803.635	8187
803.777	7989
803.919	8103
804.061	8362
804.204	8187
804.346	8073
804.488	7982
804.63	8077
804.773	8008
804.915	8180
805.057	8259
805.199	8100
805.341	8172
805.483	8320
805.626	8187
805.768	8123
805.91	8164
806.052	8225
806.194	8077
806.336	8271
806.478	8069
806.62	8084
806.762	8157
806.904	8263
807.046	8415
807.188	8400
807.33	8267
807.472	8362
807.614	8157
807.756	8043
807.898	8001
808.04	7883
808.182	7841
808.324	7902
808.465	7883
808.607	7974
808.749	8073
808.891	8180
809.033	8259
809.174	8187
809.316	8111
809.458	8100
809.6	8031
809.741	8012
809.883	8065
810.025	8039
810.166	8054
810.308	7993
810.45	7986
810.591	7837
810.733	7750
810.875	7693
811.016	7510
811.158	7449
811.299	7636
811.441	7719
811.582	7670
811.724	7613
811.865	7518
812.007	7571
812.148	7613
812.29	7571
812.431	7738
812.573	7875
812.714	7921
812.855	8153
812.997	8195
813.138	8275
813.279	8123
813.421	8084
813.562	7890
813.703	7788
813.845	7719
813.986	7396
814.127	7240
814.268	7187
814.41	7126
814.551	7175
814.692	7285
814.833	7065
814.974	7122
815.115	7145
815.256	6939
815.397	6935
815.539	6943
815.68	6783
815.821	6738
815.962	6852
816.103	6776
816.244	6711
816.385	6601
816.526	6631
816.666	6475
816.807	6289
816.948	6433
817.089	6475
817.23	6441
817.371	6380
817.512	6384
817.653	6357
817.793	6353
817.934	6384
818.075	6433
818.216	6441
818.356	6388
818.497	6220
818.638	6121
818.778	6175
818.919	6163
819.06	6140
819.2	6304
819.341	6361
819.481	6372
819.622	6513
819.762	6707
819.903	6684
820.043	6635
820.184	6585
820.324	6574
820.465	6677
820.605	6604
820.746	6654
820.886	6486
821.026	6673
821.167	6741
821.307	6768
821.447	6734
821.588	6631
821.728	6612
821.868	6475
822.008	6365
822.149	6365
822.289	6315
822.429	6175
822.569	6083
822.709	6098
822.849	5969
822.99	5889
823.13	5897
823.27	5942
823.41	5783
823.55	5741
823.69	5737
823.83	5775
823.97	5592
824.11	5474
824.25	5539
824.389	5501
824.529	5551
824.669	5532
824.809	5547
824.949	5634
825.089	5615
825.228	5592
825.368	5391
825.508	5311
825.648	5353
825.787	5341
825.927	5379
826.067	5288
826.206	5239
826.346	5410
826.485	5395
826.625	5421
826.765	5551
826.904	5486
827.044	5258
827.183	5189
827.323	5140
827.462	5204
827.601	5174
827.741	5174
827.88	5189
828.02	5136
828.159	5231
828.298	5315
828.437	5376
828.577	5280
828.716	5444
828.855	5296
828.994	5113
829.134	5166
829.273	5178
829.412	5086
829.551	5098
829.69	5132
829.829	5235
829.968	5337
830.107	5311
830.246	5307
830.385	5166
830.524	5117
830.663	5041
830.802	4987
830.941	4858
831.08	4881
831.219	5029
831.357	4968
831.496	5216
831.635	4911
831.774	4862
831.913	4824
832.051	4755
832.19	4740
832.329	4828
832.467	4645
832.606	4580
832.744	4714
832.883	4721
833.022	4755
833.16	4763
833.299	4835
833.437	4812
833.576	4782
833.714	4809
833.852	4831
833.991	4862
834.129	4953
834.267	4930
834.406	4885
834.544	4991
834.682	4968
834.821	4953
834.959	5185
835.097	5025
835.235	5083
835.373	5052
835.511	5071
835.65	4984
835.788	5029
835.926	4911
836.064	4915
836.202	4923
836.34	5117
836.478	5216
836.615	5113
836.753	5189
836.891	5250
837.029	5284
837.167	5197
837.305	5201
837.443	5117
837.58	5052
837.718	5197
837.856	5174
837.993	5193
838.131	5201
838.269	5216
838.406	5181
838.544	5128
838.681	5037
838.819	5025
838.956	4915
839.094	4892
839.231	4965
839.369	5033
839.506	5398
839.643	5250
839.781	5041
839.918	5014
840.055	5132
840.193	5083
840.33	5071
840.467	5124
840.604	5147
840.742	5444
840.879	5033
841.016	5045
841.153	5136
841.29	5368
841.427	5315
841.564	5372
841.701	5341
841.838	5269
841.975	5212
842.112	5273
842.249	5151
842.385	5090
842.522	5326
842.659	5178
842.796	5105
842.933	5220
843.069	5102
843.206	5159
843.343	5280
843.479	5227
843.616	5322
843.752	5048
843.889	5037
844.025	5258
844.162	5041
844.298	5189
844.435	5136
844.571	5037
844.708	5170
844.844	5349
844.98	5326
845.117	5273
845.253	5109
845.389	5086
845.525	5181
845.661	5204
845.798	5003
845.934	5181
846.07	5075
846.206	5151
846.342	5296
846.478	5162
846.614	4999
846.75	4987
846.886	4965
847.022	5151
847.158	5033
847.294	5025
847.429	5079
847.565	5056
847.701	5254
847.837	4820
847.972	4774
848.108	4930
848.244	4953
848.379	4774
848.515	4755
848.65	4683
848.786	4740
848.921	4755
849.057	4831
849.192	4915
849.328	4816
849.463	4824
849.598	4771
849.734	4782
849.869	4649
850.004	4622
850.14	4660
850.275	4634
850.41	4516
850.545	4561
850.68	4637
850.815	4599
850.95	4607
851.085	4847
851.22	4748
851.355	4649
851.49	4592
851.625	4634
851.76	4653
851.895	4573
852.03	4516
852.165	4615
852.299	4710
852.434	4771
852.569	4755
852.703	4763
852.838	4839
852.973	4870
853.107	4885
853.242	4771
853.376	4675
853.511	4546
853.645	4607
853.78	4812
853.914	4733
854.048	4683
854.183	4679
854.317	4717
854.451	4889
854.585	4691
854.72	4660
854.854	4767
854.988	4630
855.122	4637
855.256	4535
855.39	4615
855.524	4706
855.658	4771
855.792	4706
855.926	4721
856.06	4759
856.194	4797
856.327	4714
856.461	4611
856.595	4603
856.729	4630
856.862	4778
856.996	4740
857.13	4691
857.263	4763
857.397	4748
857.53	4687
857.664	4656
857.797	4767
857.931	4763
858.064	4714
858.197	4744
858.331	4618
858.464	4603
858.597	4546
858.731	4592
858.864	4618
858.997	4565
859.13	4656
859.263	4679
859.396	4637
859.529	4577
859.662	4550
859.795	4512
859.928	4634
860.061	4755
860.194	4797
860.327	4645
860.46	4527
860.592	4714
860.725	4725
860.858	4714
860.99	4573
861.123	4474
861.256	4497
861.388	4538
861.521	5265
861.653	4466
861.786	4424
861.918	4478
862.05	4538
862.183	4584
862.315	4668
862.447	4637
862.58	4542
862.712	4390
862.844	4329
862.976	4474
863.108	4443
863.24	4801
863.372	4303
863.504	4398
863.636	4379
863.768	4485
863.9	4428
864.032	4360
864.164	4428
864.296	4421
864.428	4538
864.559	4558
864.691	4489
864.823	4489
864.954	4497
865.086	4497
865.217	4375
865.349	4390
865.48	4443
865.612	4538
865.743	4660
865.875	4478
866.006	4421
866.137	4508
866.269	4405
866.4	4394
866.531	4409
866.662	4367
866.793	4390
866.924	4459
867.055	4443
867.186	4455
867.317	4428
867.448	4409
867.579	4379
867.71	4394
867.841	4394
867.972	4474
868.103	4447
868.233	4424
868.364	4459
868.495	4497
868.625	4653
868.756	4717
868.886	4554
869.017	4607
869.147	4759
869.278	4736
869.408	4672
869.539	4645
869.669	4694
869.799	4618
869.929	4733
870.06	4717
870.19	4934
870.32	4862
870.45	4919
870.58	4946
870.71	5033
870.84	5083
870.97	4870
871.1	4889
871.23	5086
871.36	5132
871.489	4987
871.619	5083
871.749	5060
871.879	5151
872.008	5113
872.138	5079
872.267	4984
872.397	4866
872.526	4824
872.656	4702
872.785	4763
872.915	4968
873.044	5014
873.173	4991
873.303	4946
873.432	4965
873.561	4961
873.69	4877
873.819	4828
873.948	4915
874.077	4774
874.206	4771
874.335	4782
874.464	4896
874.593	5105
874.722	4930
874.851	5079
874.979	5045
875.108	4991
875.237	4923
875.365	4889
875.494	4915
875.623	4946
875.751	4782
875.88	4805
876.008	4938
876.136	5045
876.265	5185
876.393	5265
876.521	5231
876.65	5178
876.778	5216
876.906	5094
877.034	5018
877.162	5048
877.29	5025
877.418	5022
877.546	5079
877.674	5037
877.802	5033
877.93	5048
878.058	4900
878.185	4858
878.313	4984
878.441	4896
878.568	4786
878.696	4881
878.824	4980
878.951	4995
879.079	5083
879.206	5296
879.333	5098
879.461	5037
879.588	4968
879.715	5090
879.842	5208
879.97	5022
880.097	4801
880.224	4725
880.351	4721
880.478	4866
880.605	4793
880.732	4752
880.859	5056
880.986	4908
881.112	4919
881.239	4752
881.366	4675
881.493	4573
881.619	4569
881.746	4622
881.872	4664
881.999	4615
882.125	4691
882.252	4744
882.378	4866
882.505	4957
882.631	4774
882.757	4653
882.883	4729
883.01	4725
883.136	4626
883.262	4542
883.388	4558
883.514	4782
883.64	4847
883.766	4778
883.892	4615
884.018	4672
884.143	4892
884.269	5003
884.395	4656
884.52	4596
884.646	4596
884.772	4584
884.897	4558
885.023	4675
885.148	4759
885.274	4873
885.399	4755
885.524	4721
885.65	4683
885.775	4736
885.9	4725
886.025	4812
886.15	4801
886.275	4721
886.4	4653
886.525	4714
886.65	4691
886.775	4683
886.9	4904
887.025	5025
887.149	4835
887.274	4672
887.399	4653
887.523	4527
887.648	4607
887.773	4573
887.897	4733
888.021	4763
888.146	4675
888.27	4824
888.395	4892
888.519	4763
888.643	4786
888.767	4793
888.891	4649
889.015	4565
889.139	4645
889.263	4592
889.387	4801
889.511	4873
889.635	4733
889.759	4622
889.883	4702
890.006	4675
890.13	4805
890.254	4577
890.377	4683
890.501	4531
890.624	4500
890.748	4626
890.871	4500
890.995	4428
891.118	4383
891.241	4440
891.364	4481
891.488	4637
891.611	4519
891.734	4500
891.857	4626
891.98	4546
892.103	4603
892.226	4561
892.349	4519
892.471	4363
892.594	4546
892.717	4542
892.839	4592
892.962	4569
893.085	4599
893.207	4565
893.33	4421
893.452	4474
893.575	4672
893.697	4584
893.819	4812
893.941	4820
894.064	4763
894.186	4550
894.308	4573
894.43	4714
894.552	4771
894.674	4748
894.796	4573
894.918	4588
895.04	4577
895.161	4729
895.283	4649
895.405	4561
895.526	4645
895.648	4683
895.769	4675
895.891	4782
896.012	4763
896.134	4759
896.255	4698
896.376	4675
896.498	4599
896.619	4664
896.74	4615
896.861	4649
896.982	4911
897.103	5045
897.224	4828
897.345	4763
897.466	4714
897.587	4748
897.708	4866
897.828	4847
897.949	4675
898.07	4538
898.19	4672
898.311	4854
898.431	4714
898.552	4702
898.672	4858
898.792	4797
898.913	4763
899.033	4691
899.153	4516
899.273	4474
899.393	4497
899.513	4558
899.633	4569
899.753	4592
899.873	4538
899.993	4615
900.113	4542
900.232	4660
900.352	4554
900.472	4542
900.591	4417
900.711	4565
900.83	4478
900.95	4653
901.069	4736
901.189	4592
901.308	4413
901.427	4383
901.546	4459
901.665	4493
901.784	4535
901.904	4424
902.023	4375
902.141	4219
902.26	4196
902.379	4337
902.498	4303
902.617	4272
902.735	4417
902.854	4402
902.973	4394
903.091	4246
903.21	4249
903.328	4344
903.446	4253
903.565	4280
903.683	4363
903.801	4314
903.919	4447
904.038	4470
904.156	4367
904.274	4474
904.392	4443
904.51	4519
904.627	4531
904.745	4573
904.863	4637
904.981	4421
905.098	4360
905.216	4402
905.334	4474
905.451	4470
905.569	4428
905.686	4637
905.803	4538
905.921	4390
906.038	4588
906.155	4512
906.272	4405
906.389	4558
906.506	4352
906.623	4367
906.74	4440
906.857	4333
906.974	4432
907.091	4588
907.208	4687
907.324	4592
907.441	4542
907.557	4367
907.674	4432
907.79	4360
907.907	4379
908.023	4519
908.139	4489
908.256	4440
908.372	4489
908.488	4512
908.604	4325
908.72	4352
908.836	4451
908.952	4375
909.068	4451
909.184	4603
909.3	4512
909.415	4580
909.531	4535
909.647	4398
909.762	4451
909.878	4390
909.993	4489
910.108	4405
910.224	4459
910.339	4478
910.454	4478
910.57	4375
910.685	4303
910.8	4664
910.915	4596
911.03	4558
911.145	4360
911.259	4352
911.374	4405
911.489	4329
911.604	4276
911.718	4219
911.833	4215
911.947	4128
912.062	4090
912.176	4242
912.291	4272
912.405	4261
912.519	4561
912.633	4531
912.748	4390
912.862	4329
912.976	4230
913.09	4093
913.204	4234
913.318	4246
913.431	4386
913.545	4432
913.659	4493
913.772	4360
913.886	4249
914	4242
914.113	4360
914.226	4432
914.34	4379
914.453	4246
914.566	4478
914.68	4333
914.793	4344
914.906	4162
915.019	4124
915.132	4120
915.245	4204
915.358	4265
915.47	4272
915.583	4265
915.696	4314
915.809	4417
915.921	4436
916.034	4295
916.146	4265
916.259	4268
916.371	4421
916.483	4394
916.595	4322
916.708	4333
916.82	4356
916.932	4363
917.044	4375
917.156	4363
917.268	4299
917.38	4344
917.491	4344
917.603	4360
917.715	4451
917.826	4493
917.938	4440
918.049	4249
918.161	4405
918.272	4569
918.384	4618
918.495	4512
918.606	4272
918.717	4257
918.828	4363
918.939	4394
919.05	4306
919.161	4314
919.272	4173
919.383	4257
919.494	4481
919.604	4664
919.715	4466
919.826	4352
919.936	4459
920.047	4546
920.157	4508
920.267	4759
920.378	4565
920.488	4523
920.598	4755
920.708	4889
920.818	4797
920.928	4763
921.038	4946
921.148	4930
921.258	4649
921.368	4565
921.477	4554
921.587	4447
921.697	4375
921.806	4535
921.916	4470
922.025	4257
922.134	4295
922.244	4249
922.353	4371
922.462	4200
922.571	4131
922.68	4059
922.789	4002
922.898	4082
923.007	3998
923.116	4120
923.224	4078
923.333	4074
923.442	4048
923.55	4044
923.659	4059
923.767	4147
923.876	4017
923.984	4162
924.092	4032
924.201	4124
924.309	4124
924.417	4143
924.525	4078
924.633	4188
924.741	5064
924.849	3941
924.956	4147
925.064	3991
925.172	3941
925.279	3960
925.387	4109
925.494	4101
925.602	4215
925.709	4162
925.816	4051
925.924	4154
926.031	4253
926.138	4158
926.245	4238
926.352	4139
926.459	4272
926.566	4363
926.673	4223
926.779	4116
926.886	4112
926.993	4032
927.099	3983
927.206	3926
927.312	3960
927.419	4093
927.525	4021
927.631	4120
927.737	4017
927.843	4017
927.95	3888
928.056	3991
928.162	4025
928.267	4101
928.373	4607
928.479	4162
928.585	3907
928.69	4010
928.796	4093
928.901	4010
929.007	3907
929.112	4040
929.218	3994
929.323	3975
929.428	3941
929.533	4101
929.638	3918
929.743	3964
929.848	4055
929.953	4017
930.058	3975
930.163	3789
930.267	3846
930.372	4017
930.477	3861
930.581	4086
930.685	3972
930.79	3869
930.894	3857
930.998	3907
931.103	4097
931.207	3766
931.311	3732
931.415	3701
931.519	3564
931.623	3545
