Data from test_V78500241_804.txt Node
Date: Fri Mar 25 16:54:35 CST 2022
User: usil
Spectrometer: V785-0024
Trigger mode: 0
Integration Time (sec): 4.000000E-1
Scans to average: 1
Nonlinearity correction enabled: false
Boxcar width: 0
Storing dark spectrum: false
XAxis mode: Wavelengths
Number of Pixels in Spectrum: 1024
>>>>>Begin Spectral Data<<<<<
801.071	8058
801.214	8039
801.356	7765
801.499	7864
801.641	7856
801.783	7894
801.926	7925
802.068	7970
802.211	7902
802.353	7974
802.496	7856
802.638	7879
802.78	7921
802.923	7902
803.065	7860
803.208	7875
803.35	8039
803.492	8115
803.635	8088
803.777	8050
803.919	8092
804.061	8351
804.204	8005
804.346	8012
804.488	7974
804.63	8050
804.773	8027
804.915	8046
805.057	8237
805.199	8138
805.341	8199
805.483	8320
805.626	8134
805.768	8069
805.91	8199
806.052	8233
806.194	8084
806.336	8294
806.478	8107
806.62	8065
806.762	8046
806.904	8240
807.046	8450
807.188	8301
807.33	8313
807.472	8320
807.614	8111
807.756	8107
807.898	7928
808.04	7849
808.182	7890
808.324	7830
808.465	7833
808.607	8050
808.749	8088
808.891	8153
809.033	8279
809.174	8221
809.316	8096
809.458	8024
809.6	7925
809.741	8027
809.883	8046
810.025	8043
810.166	8027
810.308	7997
810.45	8031
810.591	7841
810.733	7731
810.875	7582
811.016	7529
811.158	7468
811.299	7594
811.441	7715
811.582	7651
811.724	7563
811.865	7487
812.007	7476
812.148	7540
812.29	7597
812.431	7655
812.573	7856
812.714	7928
812.855	8111
812.997	8214
813.138	8305
813.279	8183
813.421	7997
813.562	8016
813.703	7818
813.845	7727
813.986	7438
814.127	7289
814.268	7232
814.41	7213
814.551	7145
814.692	7126
814.833	7069
814.974	7103
815.115	7099
815.256	6939
815.397	6939
815.539	6924
815.68	6848
815.821	6730
815.962	6863
816.103	6810
816.244	6722
816.385	6650
816.526	6589
816.666	6452
816.807	6239
816.948	6407
817.089	6471
817.23	6403
817.371	6376
817.512	6365
817.653	6422
817.793	6338
817.934	6327
818.075	6429
818.216	6369
818.356	6395
818.497	6182
818.638	6064
818.778	6091
818.919	6159
819.06	6076
819.2	6251
819.341	6243
819.481	6300
819.622	6490
819.762	6711
819.903	6692
820.043	6544
820.184	6544
820.324	6517
820.465	6684
820.605	6578
820.746	6627
820.886	6498
821.026	6631
821.167	6711
821.307	6703
821.447	6719
821.588	6635
821.728	6566
821.868	6479
822.008	6319
822.149	6372
822.289	6281
822.429	6159
822.569	6026
822.709	6060
822.849	5889
822.99	5855
823.13	5939
823.27	5901
823.41	5775
823.55	5783
823.69	5718
823.83	5786
823.97	5649
824.11	5493
824.25	5459
824.389	5497
824.529	5573
824.669	5459
824.809	5592
824.949	5627
825.089	5600
825.228	5551
825.368	5379
825.508	5337
825.648	5307
825.787	5376
825.927	5402
826.067	5299
826.206	5261
826.346	5357
826.485	5395
826.625	5353
826.765	5532
826.904	5452
827.044	5258
827.183	5185
827.323	5090
827.462	5193
827.601	5185
827.741	5166
827.88	5151
828.02	5102
828.159	5242
828.298	5261
828.437	5334
828.577	5330
828.716	5417
828.855	5292
828.994	5140
829.134	5098
829.273	5189
829.412	5128
829.551	5121
829.69	5189
829.829	5235
829.968	5387
830.107	5277
830.246	5318
830.385	5136
830.524	5113
830.663	5121
830.802	5056
830.941	4908
831.08	4889
831.219	5029
831.357	5033
831.496	5136
831.635	4961
831.774	4873
831.913	4877
832.051	4774
832.19	4771
832.329	4873
832.467	4714
832.606	4656
832.744	4767
832.883	4687
833.022	4759
833.16	4831
833.299	4873
833.437	4828
833.576	4854
833.714	4908
833.852	4896
833.991	4866
834.129	4999
834.267	4953
834.406	4938
834.544	4980
834.682	4957
834.821	4942
834.959	5174
835.097	5033
835.235	5155
835.373	5109
835.511	5105
835.65	5086
835.788	5094
835.926	4908
836.064	4938
836.202	4930
836.34	5162
836.478	5250
836.615	5132
836.753	5280
836.891	5307
837.029	5254
837.167	5246
837.305	5212
837.443	5178
837.58	5094
837.718	5284
837.856	5193
837.993	5193
838.131	5227
838.269	5201
838.406	5231
838.544	5227
838.681	5090
838.819	5083
838.956	4942
839.094	4930
839.231	5064
839.369	5185
839.506	5440
839.643	5265
839.781	5075
839.918	5014
840.055	5147
840.193	5098
840.33	5155
840.467	5109
840.604	5223
840.742	5417
840.879	5102
841.016	5121
841.153	5162
841.29	5387
841.427	5387
841.564	5379
841.701	5353
841.838	5273
841.975	5220
842.112	5284
842.249	5162
842.385	5117
842.522	5357
842.659	5208
842.796	5216
842.933	5265
843.069	5181
843.206	5189
843.343	5284
843.479	5220
843.616	5277
843.752	5048
843.889	5022
844.025	5261
844.162	5090
844.298	5261
844.435	5128
844.571	5060
844.708	5269
844.844	5254
844.98	5353
845.117	5303
845.253	5178
845.389	5113
845.525	5159
845.661	5185
845.798	5033
845.934	5162
846.07	5060
846.206	5216
846.342	5288
846.478	5216
846.614	5067
846.75	5014
846.886	4953
847.022	5174
847.158	5022
847.294	5105
847.429	5136
847.565	5064
847.701	5330
847.837	4847
847.972	4824
848.108	4968
848.244	4915
848.379	4763
848.515	4786
848.65	4759
848.786	4740
848.921	4786
849.057	4919
849.192	4919
849.328	4862
849.463	4877
849.598	4885
849.734	4771
849.869	4710
850.004	4630
850.14	4668
850.275	4634
850.41	4523
850.545	4618
850.68	4649
850.815	4645
850.95	4653
851.085	4881
851.22	4790
851.355	4672
851.49	4637
851.625	4615
851.76	4675
851.895	4630
852.03	4584
852.165	4637
852.299	4752
852.434	4782
852.569	4805
852.703	4763
852.838	4850
852.973	4949
853.107	4911
853.242	4778
853.376	4683
853.511	4554
853.645	4656
853.78	4812
853.914	4698
854.048	4710
854.183	4649
854.317	4725
854.451	4862
854.585	4714
854.72	4656
854.854	4809
854.988	4618
855.122	4656
855.256	4519
855.39	4664
855.524	4850
855.658	4752
855.792	4717
855.926	4774
856.06	4786
856.194	4809
856.327	4744
856.461	4637
856.595	4588
856.729	4668
856.862	4778
856.996	4694
857.13	4725
857.263	4755
857.397	4828
857.53	4660
857.664	4721
857.797	4774
857.931	4816
858.064	4710
858.197	4793
858.331	4679
858.464	4649
858.597	4558
858.731	4630
858.864	4660
858.997	4607
859.13	4622
859.263	4725
859.396	4714
859.529	4592
859.662	4580
859.795	4558
859.928	4615
860.061	4801
860.194	4801
860.327	4611
860.46	4603
860.592	4733
860.725	4744
860.858	4729
860.99	4546
861.123	4538
861.256	4546
861.388	4611
861.521	5265
861.653	4478
861.786	4451
861.918	4478
862.05	4474
862.183	4607
862.315	4645
862.447	4672
862.58	4542
862.712	4402
862.844	4363
862.976	4478
863.108	4462
863.24	4755
863.372	4333
863.504	4474
863.636	4443
863.768	4481
863.9	4455
864.032	4371
864.164	4443
864.296	4443
864.428	4580
864.559	4577
864.691	4546
864.823	4523
864.954	4531
865.086	4466
865.217	4459
865.349	4398
865.48	4485
865.612	4531
865.743	4649
865.875	4481
866.006	4455
866.137	4466
866.269	4516
866.4	4462
866.531	4447
866.662	4432
866.793	4443
866.924	4447
867.055	4588
867.186	4424
867.317	4466
867.448	4409
867.579	4440
867.71	4417
867.841	4417
867.972	4485
868.103	4474
868.233	4481
868.364	4462
868.495	4542
868.625	4664
868.756	4801
868.886	4580
869.017	4672
869.147	4759
869.278	4774
869.408	4721
869.539	4641
869.669	4733
869.799	4668
869.929	4782
870.06	4740
870.19	4980
870.32	4938
870.45	4961
870.58	5025
870.71	5102
870.84	5105
870.97	4984
871.1	4938
871.23	5170
871.36	5121
871.489	5064
871.619	5140
871.749	5102
871.879	5113
872.008	5208
872.138	5056
872.267	4999
872.397	4850
872.526	4805
872.656	4755
872.785	4828
872.915	4976
873.044	5045
873.173	4930
873.303	4980
873.432	4972
873.561	4923
873.69	4889
873.819	4877
873.948	4949
874.077	4862
874.206	4755
874.335	4847
874.464	4946
874.593	5090
874.722	4968
874.851	5109
874.979	5079
875.108	5029
875.237	4934
875.365	4866
875.494	4919
875.623	4972
875.751	4828
875.88	4889
876.008	4980
876.136	5060
876.265	5174
876.393	5330
876.521	5296
876.65	5193
876.778	5155
876.906	5071
877.034	5003
877.162	5132
877.29	4987
877.418	5079
877.546	5033
877.674	5083
877.802	5003
877.93	5048
878.058	4999
878.185	4892
878.313	4987
878.441	4980
878.568	4793
878.696	4850
878.824	4995
878.951	4991
879.079	5132
879.206	5288
879.333	5109
879.461	4946
879.588	4984
879.715	5155
879.842	5220
879.97	4995
880.097	4790
880.224	4733
880.351	4805
880.478	4828
880.605	4831
880.732	4805
880.859	5113
880.986	4911
881.112	4873
881.239	4831
881.366	4668
881.493	4596
881.619	4618
881.746	4664
881.872	4683
881.999	4672
882.125	4744
882.252	4816
882.378	4824
882.505	4957
882.631	4790
882.757	4664
882.883	4782
883.01	4774
883.136	4694
883.262	4630
883.388	4634
883.514	4839
883.64	4873
883.766	4786
883.892	4683
884.018	4801
884.143	4911
884.269	5025
884.395	4729
884.52	4580
884.646	4672
884.772	4580
884.897	4596
885.023	4683
885.148	4824
885.274	4911
885.399	4805
885.524	4755
885.65	4691
885.775	4763
885.9	4740
886.025	4862
886.15	4759
886.275	4714
886.4	4702
886.525	4736
886.65	4733
886.775	4675
886.9	4915
887.025	5075
887.149	4790
887.274	4641
887.399	4596
887.523	4618
887.648	4565
887.773	4607
887.897	4797
888.021	4782
888.146	4691
888.27	4866
888.395	4946
888.519	4820
888.643	4812
888.767	4839
888.891	4733
889.015	4630
889.139	4641
889.263	4649
889.387	4782
889.511	4930
889.635	4820
889.759	4615
889.883	4653
890.006	4675
890.13	4850
890.254	4660
890.377	4675
890.501	4569
890.624	4538
890.748	4656
890.871	4550
890.995	4451
891.118	4383
891.241	4474
891.364	4588
891.488	4691
891.611	4504
891.734	4588
891.857	4630
891.98	4573
892.103	4668
892.226	4550
892.349	4538
892.471	4436
892.594	4546
892.717	4618
892.839	4561
892.962	4626
893.085	4691
893.207	4611
893.33	4519
893.452	4546
893.575	4679
893.697	4542
893.819	4801
893.941	4843
894.064	4801
894.186	4596
894.308	4577
894.43	4729
894.552	4831
894.674	4774
894.796	4565
894.918	4584
895.04	4641
895.161	4721
895.283	4668
895.405	4599
895.526	4653
895.648	4664
895.769	4706
895.891	4752
896.012	4736
896.134	4721
896.255	4706
896.376	4607
896.498	4649
896.619	4702
896.74	4607
896.861	4618
896.982	4900
897.103	5121
897.224	4809
897.345	4816
897.466	4687
897.587	4778
897.708	4866
897.828	4793
897.949	4660
898.07	4615
898.19	4672
898.311	4847
898.431	4691
898.552	4767
898.672	4801
898.792	4805
898.913	4755
899.033	4603
899.153	4508
899.273	4405
899.393	4478
899.513	4550
899.633	4519
899.753	4538
899.873	4550
899.993	4611
900.113	4546
900.232	4618
900.352	4573
900.472	4470
900.591	4409
900.711	4523
900.83	4459
900.95	4603
901.069	4702
901.189	4504
901.308	4333
901.427	4360
901.546	4375
901.665	4421
901.784	4523
901.904	4413
902.023	4333
902.141	4204
902.26	4204
902.379	4310
902.498	4223
902.617	4234
902.735	4337
902.854	4337
902.973	4379
903.091	4249
903.21	4249
903.328	4287
903.446	4253
903.565	4306
903.683	4363
903.801	4314
903.919	4466
904.038	4451
904.156	4337
904.274	4405
904.392	4352
904.51	4447
904.627	4455
904.745	4611
904.863	4637
904.981	4417
905.098	4329
905.216	4390
905.334	4432
905.451	4428
905.569	4390
905.686	4580
905.803	4538
905.921	4440
906.038	4550
906.155	4466
906.272	4386
906.389	4500
906.506	4333
906.623	4390
906.74	4405
906.857	4352
906.974	4398
907.091	4588
907.208	4660
907.324	4569
907.441	4512
907.557	4325
907.674	4367
907.79	4322
907.907	4341
908.023	4508
908.139	4462
908.256	4394
908.372	4478
908.488	4447
908.604	4295
908.72	4329
908.836	4367
908.952	4344
909.068	4417
909.184	4558
909.3	4535
909.415	4542
909.531	4558
909.647	4402
909.762	4386
909.878	4329
909.993	4447
910.108	4417
910.224	4413
910.339	4516
910.454	4390
910.57	4386
910.685	4329
910.8	4645
910.915	4626
911.03	4516
911.145	4295
911.259	4329
911.374	4386
911.489	4284
911.604	4299
911.718	4207
911.833	4215
911.947	4078
912.062	4013
912.176	4204
912.291	4249
912.405	4246
912.519	4440
912.633	4535
912.748	4398
912.862	4329
912.976	4215
913.09	4051
913.204	4147
913.318	4295
913.431	4371
913.545	4333
913.659	4432
913.772	4386
913.886	4246
914	4246
914.113	4348
914.226	4466
914.34	4379
914.453	4234
914.566	4413
914.68	4325
914.793	4356
914.906	4177
915.019	4116
915.132	4101
915.245	4166
915.358	4223
915.47	4211
915.583	4257
915.696	4337
915.809	4405
915.921	4432
916.034	4261
916.146	4261
916.259	4204
916.371	4390
916.483	4363
916.595	4265
916.708	4318
916.82	4303
916.932	4348
917.044	4360
917.156	4329
917.268	4246
917.38	4318
917.491	4261
917.603	4352
917.715	4421
917.826	4432
917.938	4363
918.049	4276
918.161	4398
918.272	4531
918.384	4542
918.495	4489
918.606	4291
918.717	4246
918.828	4383
918.939	4341
919.05	4230
919.161	4405
919.272	4082
919.383	4261
919.494	4447
919.604	4611
919.715	4459
919.826	4367
919.936	4379
920.047	4565
920.157	4440
920.267	4694
920.378	4577
920.488	4493
920.598	4698
920.708	4881
920.818	4740
920.928	4767
921.038	4949
921.148	4885
921.258	4580
921.368	4584
921.477	4485
921.587	4485
921.697	4386
921.806	4561
921.916	4470
922.025	4261
922.134	4314
922.244	4230
922.353	4280
922.462	4143
922.571	4158
922.68	4006
922.789	3949
922.898	4010
923.007	3991
923.116	4112
923.224	4071
923.333	4063
923.442	4036
923.55	3987
923.659	3998
923.767	4090
923.876	4017
923.984	4128
924.092	3972
924.201	4101
924.309	4059
924.417	4185
924.525	4067
924.633	4086
924.741	4870
924.849	3941
924.956	4112
925.064	3979
925.172	3937
925.279	3941
925.387	4051
925.494	4078
925.602	4223
925.709	4173
925.816	4093
925.924	4101
926.031	4223
926.138	4135
926.245	4128
926.352	4105
926.459	4261
926.566	4341
926.673	4139
926.779	4090
926.886	4143
926.993	3972
927.099	3972
927.206	3949
927.312	3964
927.419	4040
927.525	3998
927.631	4086
927.737	3934
927.843	3865
927.95	3869
928.056	3964
928.162	3991
928.267	4044
928.373	4683
928.479	4086
928.585	3888
928.69	4013
928.796	4078
928.901	3922
929.007	3869
929.112	4013
929.218	3994
929.323	3941
929.428	3915
929.533	4109
929.638	3930
929.743	3968
929.848	4051
929.953	3987
930.058	3873
930.163	3819
930.267	3808
930.372	4040
930.477	3774
930.581	4082
930.685	3926
930.79	3854
930.894	3884
930.998	3842
931.103	4044
931.207	3698
931.311	3709
931.415	3671
931.519	3488
931.623	3557
