Data from test_V78500241_1932.txt Node
Date: Fri Mar 25 17:02:26 CST 2022
User: usil
Spectrometer: V785-0024
Trigger mode: 0
Integration Time (sec): 4.000000E-1
Scans to average: 1
Nonlinearity correction enabled: false
Boxcar width: 0
Storing dark spectrum: false
XAxis mode: Wavelengths
Number of Pixels in Spectrum: 1024
>>>>>Begin Spectral Data<<<<<
801.071	7993
801.214	7989
801.356	7818
801.499	7898
801.641	7883
801.783	7860
801.926	7997
802.068	7967
802.211	7970
802.353	7974
802.496	7875
802.638	7906
802.78	7833
802.923	7928
803.065	7856
803.208	7887
803.35	7989
803.492	8058
803.635	8134
803.777	8035
803.919	8142
804.061	8461
804.204	8210
804.346	8081
804.488	7978
804.63	8054
804.773	8024
804.915	8084
805.057	8279
805.199	8221
805.341	8221
805.483	8256
805.626	8221
805.768	8161
805.91	8176
806.052	8233
806.194	8183
806.336	8244
806.478	8168
806.62	8084
806.762	8172
806.904	8294
807.046	8427
807.188	8358
807.33	8332
807.472	8313
807.614	8187
807.756	8164
807.898	8001
808.04	7875
808.182	7841
808.324	7883
808.465	7917
808.607	8043
808.749	8161
808.891	8187
809.033	8298
809.174	8294
809.316	8058
809.458	8077
809.6	8069
809.741	8050
809.883	8077
810.025	8103
810.166	8043
810.308	8020
810.45	7986
810.591	7769
810.733	7719
810.875	7704
811.016	7525
811.158	7480
811.299	7578
811.441	7708
811.582	7700
811.724	7571
811.865	7578
812.007	7639
812.148	7548
812.29	7628
812.431	7799
812.573	7833
812.714	7982
812.855	8138
812.997	8214
813.138	8282
813.279	8214
813.421	8100
813.562	8035
813.703	7909
813.845	7723
813.986	7426
814.127	7236
814.268	7225
814.41	7187
814.551	7232
814.692	7259
814.833	7129
814.974	7099
815.115	7171
815.256	7004
815.397	6970
815.539	7031
815.68	6829
815.821	6772
815.962	6905
816.103	6886
816.244	6764
816.385	6642
816.526	6662
816.666	6513
816.807	6292
816.948	6490
817.089	6422
817.23	6414
817.371	6433
817.512	6384
817.653	6391
817.793	6327
817.934	6445
818.075	6475
818.216	6429
818.356	6452
818.497	6296
818.638	6129
818.778	6159
818.919	6087
819.06	6125
819.2	6403
819.341	6380
819.481	6448
819.622	6483
819.762	6760
819.903	6696
820.043	6525
820.184	6665
820.324	6650
820.465	6700
820.605	6696
820.746	6692
820.886	6547
821.026	6646
821.167	6677
821.307	6833
821.447	6776
821.588	6707
821.728	6627
821.868	6540
822.008	6311
822.149	6391
822.289	6380
822.429	6140
822.569	6091
822.709	6129
822.849	5923
822.99	5950
823.13	5958
823.27	5996
823.41	5798
823.55	5809
823.69	5775
823.83	5813
823.97	5745
824.11	5509
824.25	5482
824.389	5547
824.529	5611
824.669	5528
824.809	5619
824.949	5699
825.089	5627
825.228	5535
825.368	5391
825.508	5395
825.648	5360
825.787	5414
825.927	5425
826.067	5296
826.206	5311
826.346	5429
826.485	5387
826.625	5452
826.765	5577
826.904	5486
827.044	5246
827.183	5239
827.323	5178
827.462	5254
827.601	5185
827.741	5227
827.88	5250
828.02	5128
828.159	5261
828.298	5337
828.437	5299
828.577	5322
828.716	5486
828.855	5353
828.994	5174
829.134	5140
829.273	5235
829.412	5155
829.551	5189
829.69	5208
829.829	5292
829.968	5387
830.107	5288
830.246	5273
830.385	5181
830.524	5124
830.663	5052
830.802	4957
830.941	4885
831.08	4923
831.219	4991
831.357	5022
831.496	5102
831.635	4942
831.774	4881
831.913	4786
832.051	4736
832.19	4790
832.329	4797
832.467	4698
832.606	4618
832.744	4797
832.883	4725
833.022	4725
833.16	4793
833.299	4839
833.437	4885
833.576	4858
833.714	4870
833.852	4850
833.991	4911
834.129	4923
834.267	4953
834.406	4923
834.544	4984
834.682	4999
834.821	4972
834.959	5242
835.097	5003
835.235	5189
835.373	5090
835.511	5109
835.65	5056
835.788	5064
835.926	4987
836.064	4873
836.202	4984
836.34	5170
836.478	5239
836.615	5197
836.753	5155
836.891	5311
837.029	5231
837.167	5223
837.305	5223
837.443	5132
837.58	5105
837.718	5258
837.856	5223
837.993	5155
838.131	5246
838.269	5242
838.406	5227
838.544	5212
838.681	5086
838.819	4995
838.956	4938
839.094	4885
839.231	4968
839.369	5083
839.506	5421
839.643	5292
839.781	5041
839.918	5064
840.055	5117
840.193	5128
840.33	5090
840.467	5151
840.604	5204
840.742	5455
840.879	5086
841.016	5143
841.153	5121
841.29	5349
841.427	5326
841.564	5334
841.701	5379
841.838	5311
841.975	5254
842.112	5231
842.249	5178
842.385	5178
842.522	5345
842.659	5159
842.796	5109
842.933	5231
843.069	5159
843.206	5162
843.343	5368
843.479	5265
843.616	5246
843.752	5079
843.889	4991
844.025	5220
844.162	4976
844.298	5212
844.435	5117
844.571	5102
844.708	5174
844.844	5292
844.98	5414
845.117	5277
845.253	5159
845.389	5079
845.525	5166
845.661	5140
845.798	5045
845.934	5193
846.07	5124
846.206	5147
846.342	5292
846.478	5193
846.614	5018
846.75	4980
846.886	4984
847.022	5109
847.158	4972
847.294	5033
847.429	5147
847.565	5037
847.701	5311
847.837	4858
847.972	4820
848.108	4957
848.244	4938
848.379	4854
848.515	4691
848.65	4752
848.786	4721
848.921	4835
849.057	4854
849.192	4927
849.328	4850
849.463	4866
849.598	4809
849.734	4755
849.869	4675
850.004	4577
850.14	4645
850.275	4588
850.41	4504
850.545	4596
850.68	4634
850.815	4615
850.95	4641
851.085	4866
851.22	4748
851.355	4675
851.49	4618
851.625	4668
851.76	4656
851.895	4615
852.03	4558
852.165	4675
852.299	4691
852.434	4805
852.569	4736
852.703	4740
852.838	4862
852.973	4938
853.107	4976
853.242	4740
853.376	4607
853.511	4554
853.645	4660
853.78	4820
853.914	4710
854.048	4691
854.183	4668
854.317	4656
854.451	4873
854.585	4683
854.72	4649
854.854	4748
854.988	4573
855.122	4664
855.256	4512
855.39	4710
855.524	4763
855.658	4687
855.792	4672
855.926	4736
856.06	4774
856.194	4786
856.327	4710
856.461	4626
856.595	4649
856.729	4675
856.862	4698
856.996	4733
857.13	4740
857.263	4763
857.397	4805
857.53	4687
857.664	4740
857.797	4774
857.931	4729
858.064	4645
858.197	4774
858.331	4687
858.464	4592
858.597	4596
858.731	4645
858.864	4672
858.997	4641
859.13	4683
859.263	4683
859.396	4702
859.529	4584
859.662	4565
859.795	4538
859.928	4656
860.061	4733
860.194	4801
860.327	4641
860.46	4561
860.592	4691
860.725	4729
860.858	4691
860.99	4538
861.123	4504
861.256	4508
861.388	4603
861.521	5292
861.653	4516
861.786	4398
861.918	4466
862.05	4523
862.183	4580
862.315	4603
862.447	4618
862.58	4607
862.712	4417
862.844	4352
862.976	4493
863.108	4493
863.24	4771
863.372	4322
863.504	4489
863.636	4402
863.768	4485
863.9	4447
864.032	4360
864.164	4443
864.296	4462
864.428	4550
864.559	4561
864.691	4519
864.823	4527
864.954	4478
865.086	4500
865.217	4500
865.349	4432
865.48	4443
865.612	4478
865.743	4611
865.875	4489
866.006	4413
866.137	4462
866.269	4436
866.4	4421
866.531	4432
866.662	4363
866.793	4394
866.924	4421
867.055	4508
867.186	4459
867.317	4405
867.448	4348
867.579	4356
867.71	4432
867.841	4367
867.972	4493
868.103	4443
868.233	4489
868.364	4428
868.495	4470
868.625	4687
868.756	4767
868.886	4607
869.017	4622
869.147	4801
869.278	4744
869.408	4645
869.539	4710
869.669	4717
869.799	4687
869.929	4786
870.06	4717
870.19	4991
870.32	4923
870.45	4949
870.58	5025
870.71	5105
870.84	5052
870.97	4927
871.1	4870
871.23	5140
871.36	5140
871.489	5056
871.619	5071
871.749	5121
871.879	5193
872.008	5181
872.138	5048
872.267	4961
872.397	4839
872.526	4858
872.656	4694
872.785	4824
872.915	4980
873.044	5067
873.173	4870
873.303	4976
873.432	4987
873.561	4934
873.69	4885
873.819	4896
873.948	4881
874.077	4790
874.206	4843
874.335	4824
874.464	4934
874.593	5048
874.722	4976
874.851	5094
874.979	5075
875.108	5041
875.237	4961
875.365	4885
875.494	4873
875.623	4961
875.751	4850
875.88	4881
876.008	4999
876.136	5018
876.265	5220
876.393	5372
876.521	5181
876.65	5254
876.778	5178
876.906	5060
877.034	5056
877.162	5056
877.29	5006
877.418	5018
877.546	5003
877.674	5083
877.802	5018
877.93	5025
878.058	4885
878.185	4923
878.313	4991
878.441	4961
878.568	4771
878.696	4870
878.824	4946
878.951	5003
879.079	5083
879.206	5265
879.333	5124
879.461	5025
879.588	5006
879.715	5121
879.842	5204
879.97	4999
880.097	4782
880.224	4763
880.351	4805
880.478	4854
880.605	4812
880.732	4820
880.859	5105
880.986	4930
881.112	4915
881.239	4797
881.366	4721
881.493	4622
881.619	4577
881.746	4580
881.872	4668
881.999	4679
882.125	4687
882.252	4790
882.378	4820
882.505	4949
882.631	4767
882.757	4675
882.883	4725
883.01	4698
883.136	4664
883.262	4558
883.388	4664
883.514	4847
883.64	4866
883.766	4733
883.892	4634
884.018	4691
884.143	4911
884.269	4968
884.395	4637
884.52	4672
884.646	4664
884.772	4603
884.897	4542
885.023	4687
885.148	4774
885.274	4896
885.399	4850
885.524	4725
885.65	4672
885.775	4763
885.9	4698
886.025	4889
886.15	4774
886.275	4748
886.4	4664
886.525	4725
886.65	4702
886.775	4698
886.9	4908
887.025	5060
887.149	4812
887.274	4656
887.399	4550
887.523	4611
887.648	4558
887.773	4599
887.897	4801
888.021	4717
888.146	4691
888.27	4805
888.395	4900
888.519	4809
888.643	4790
888.767	4835
888.891	4675
889.015	4607
889.139	4622
889.263	4599
889.387	4744
889.511	4915
889.635	4831
889.759	4702
889.883	4615
890.006	4782
890.13	4835
890.254	4618
890.377	4729
890.501	4519
890.624	4538
890.748	4660
890.871	4481
890.995	4428
891.118	4398
891.241	4489
891.364	4531
891.488	4645
891.611	4500
891.734	4580
891.857	4558
891.98	4592
892.103	4626
892.226	4542
892.349	4504
892.471	4390
892.594	4558
892.717	4592
892.839	4531
892.962	4561
893.085	4672
893.207	4584
893.33	4424
893.452	4516
893.575	4634
893.697	4603
893.819	4763
893.941	4843
894.064	4740
894.186	4577
894.308	4603
894.43	4752
894.552	4793
894.674	4744
894.796	4546
894.918	4615
895.04	4470
895.161	4691
895.283	4668
895.405	4577
895.526	4641
895.648	4675
895.769	4641
895.891	4763
896.012	4748
896.134	4752
896.255	4675
896.376	4653
896.498	4607
896.619	4710
896.74	4645
896.861	4626
896.982	4984
897.103	5064
897.224	4820
897.345	4710
897.466	4611
897.587	4771
897.708	4854
897.828	4759
897.949	4607
898.07	4512
898.19	4649
898.311	4839
898.431	4683
898.552	4672
898.672	4793
898.792	4763
898.913	4752
899.033	4645
899.153	4485
899.273	4428
899.393	4462
899.513	4497
899.633	4519
899.753	4546
899.873	4470
899.993	4573
900.113	4481
900.232	4523
900.352	4558
900.472	4489
900.591	4421
900.711	4485
900.83	4432
900.95	4622
901.069	4691
901.189	4538
901.308	4356
901.427	4299
901.546	4398
901.665	4447
901.784	4523
901.904	4360
902.023	4303
902.141	4223
902.26	4177
902.379	4284
902.498	4223
902.617	4234
902.735	4329
902.854	4398
902.973	4367
903.091	4234
903.21	4219
903.328	4299
903.446	4261
903.565	4265
903.683	4306
903.801	4280
903.919	4371
904.038	4371
904.156	4322
904.274	4443
904.392	4421
904.51	4455
904.627	4481
904.745	4588
904.863	4668
904.981	4398
905.098	4344
905.216	4348
905.334	4497
905.451	4428
905.569	4478
905.686	4497
905.803	4592
905.921	4409
906.038	4531
906.155	4478
906.272	4394
906.389	4478
906.506	4386
906.623	4344
906.74	4390
906.857	4318
906.974	4344
907.091	4550
907.208	4656
907.324	4596
907.441	4504
907.557	4333
907.674	4310
907.79	4337
907.907	4402
908.023	4451
908.139	4466
908.256	4417
908.372	4466
908.488	4421
908.604	4318
908.72	4341
908.836	4390
908.952	4375
909.068	4398
909.184	4615
909.3	4459
909.415	4611
909.531	4512
909.647	4341
909.762	4386
909.878	4310
909.993	4424
910.108	4421
910.224	4417
910.339	4459
910.454	4405
910.57	4390
910.685	4322
910.8	4664
910.915	4561
911.03	4443
911.145	4360
911.259	4295
911.374	4276
911.489	4272
911.604	4287
911.718	4147
911.833	4154
911.947	4044
912.062	4040
912.176	4227
912.291	4230
912.405	4253
912.519	4455
912.633	4485
912.748	4390
912.862	4314
912.976	4200
913.09	4101
913.204	4158
913.318	4227
913.431	4329
913.545	4333
913.659	4455
913.772	4314
913.886	4265
914	4219
914.113	4329
914.226	4436
914.34	4367
914.453	4246
914.566	4436
914.68	4325
914.793	4272
914.906	4200
915.019	4147
915.132	4071
915.245	4185
915.358	4196
915.47	4261
915.583	4318
915.696	4322
915.809	4383
915.921	4379
916.034	4230
916.146	4227
916.259	4192
916.371	4367
916.483	4344
916.595	4272
916.708	4318
916.82	4314
916.932	4341
917.044	4322
917.156	4352
917.268	4196
917.38	4246
917.491	4246
917.603	4379
917.715	4402
917.826	4413
917.938	4383
918.049	4166
918.161	4390
918.272	4504
918.384	4497
918.495	4440
918.606	4291
918.717	4227
918.828	4348
918.939	4398
919.05	4265
919.161	4295
919.272	4120
919.383	4238
919.494	4440
919.604	4580
919.715	4417
919.826	4325
919.936	4443
920.047	4523
920.157	4447
920.267	4683
920.378	4523
920.488	4443
920.598	4702
920.708	4892
920.818	4759
920.928	4752
921.038	4911
921.148	4885
921.258	4622
921.368	4550
921.477	4470
921.587	4417
921.697	4352
921.806	4531
921.916	4440
922.025	4272
922.134	4257
922.244	4192
922.353	4306
922.462	4185
922.571	4116
922.68	3983
922.789	3941
922.898	4013
923.007	3998
923.116	4067
923.224	4036
923.333	4059
923.442	3991
923.55	3972
923.659	4059
923.767	4109
923.876	4010
923.984	4131
924.092	3983
924.201	4044
924.309	4082
924.417	4147
924.525	4017
924.633	4135
924.741	5102
924.849	3880
924.956	4131
925.064	3964
925.172	3941
925.279	3945
925.387	4074
925.494	4082
925.602	4169
925.709	4211
925.816	4082
925.924	4162
926.031	4230
926.138	4131
926.245	4230
926.352	4112
926.459	4242
926.566	4303
926.673	4147
926.779	4082
926.886	4048
926.993	3994
927.099	3915
927.206	3949
927.312	3960
927.419	4025
927.525	4048
927.631	4032
927.737	3937
927.843	3937
927.95	3804
928.056	3899
928.162	4006
928.267	4063
928.373	4546
928.479	4101
928.585	3873
928.69	4032
928.796	4051
928.901	3964
929.007	3804
929.112	3994
929.218	3964
929.323	3918
929.428	3941
929.533	4120
929.638	3873
929.743	3907
929.848	4048
929.953	4029
930.058	3926
930.163	3755
930.267	3800
930.372	3987
930.477	3778
930.581	4097
930.685	3956
930.79	3789
930.894	3888
930.998	3850
931.103	4021
931.207	3675
931.311	3686
931.415	3690
931.519	3500
931.623	3504
