Data from test_V78500241_2568.txt Node
Date: Fri Mar 25 17:06:51 CST 2022
User: usil
Spectrometer: V785-0024
Trigger mode: 0
Integration Time (sec): 4.000000E-1
Scans to average: 1
Nonlinearity correction enabled: false
Boxcar width: 0
Storing dark spectrum: false
XAxis mode: Wavelengths
Number of Pixels in Spectrum: 1024
>>>>>Begin Spectral Data<<<<<
801.071	7947
801.214	8027
801.356	7864
801.499	7837
801.641	7803
801.783	7849
801.926	7970
802.068	7955
802.211	7959
802.353	8020
802.496	7837
802.638	7913
802.78	7887
802.923	7936
803.065	7906
803.208	7902
803.35	8020
803.492	8084
803.635	8145
803.777	8008
803.919	8202
804.061	8366
804.204	8161
804.346	8054
804.488	7982
804.63	8058
804.773	8016
804.915	8168
805.057	8313
805.199	8176
805.341	8195
805.483	8279
805.626	8275
805.768	8183
805.91	8259
806.052	8233
806.194	8172
806.336	8263
806.478	8134
806.62	8054
806.762	8084
806.904	8263
807.046	8492
807.188	8408
807.33	8336
807.472	8434
807.614	8202
807.756	8233
807.898	8081
808.04	7944
808.182	7913
808.324	7940
808.465	7890
808.607	8142
808.749	8206
808.891	8240
809.033	8362
809.174	8191
809.316	8126
809.458	8069
809.6	8012
809.741	8077
809.883	7993
810.025	8164
810.166	8088
810.308	8081
810.45	8035
810.591	7902
810.733	7769
810.875	7674
811.016	7563
811.158	7537
811.299	7594
811.441	7753
811.582	7753
811.724	7609
811.865	7510
812.007	7647
812.148	7605
812.29	7677
812.431	7784
812.573	7921
812.714	7989
812.855	8119
812.997	8309
813.138	8374
813.279	8130
813.421	8081
813.562	8008
813.703	7906
813.845	7811
813.986	7468
814.127	7293
814.268	7198
814.41	7263
814.551	7228
814.692	7213
814.833	7095
814.974	7126
815.115	7137
815.256	7027
815.397	6966
815.539	6920
815.68	6856
815.821	6764
815.962	6871
816.103	6875
816.244	6783
816.385	6669
816.526	6627
816.666	6513
816.807	6304
816.948	6509
817.089	6475
817.23	6483
817.371	6414
817.512	6403
817.653	6380
817.793	6350
817.934	6452
818.075	6506
818.216	6479
818.356	6399
818.497	6285
818.638	6258
818.778	6144
818.919	6152
819.06	6228
819.2	6357
819.341	6395
819.481	6426
819.622	6563
819.762	6741
819.903	6760
820.043	6635
820.184	6612
820.324	6665
820.465	6711
820.605	6707
820.746	6730
820.886	6551
821.026	6669
821.167	6810
821.307	6886
821.447	6795
821.588	6692
821.728	6612
821.868	6570
822.008	6403
822.149	6407
822.289	6365
822.429	6216
822.569	6136
822.709	6152
822.849	5988
822.99	5882
823.13	5980
823.27	5939
823.41	5794
823.55	5802
823.69	5764
823.83	5874
823.97	5691
824.11	5604
824.25	5551
824.389	5604
824.529	5577
824.669	5615
824.809	5680
824.949	5714
825.089	5646
825.228	5551
825.368	5448
825.508	5357
825.648	5410
825.787	5448
825.927	5345
826.067	5341
826.206	5349
826.346	5410
826.485	5429
826.625	5425
826.765	5570
826.904	5497
827.044	5280
827.183	5208
827.323	5208
827.462	5288
827.601	5231
827.741	5193
827.88	5269
828.02	5086
828.159	5258
828.298	5341
828.437	5391
828.577	5311
828.716	5509
828.855	5368
828.994	5246
829.134	5216
829.273	5220
829.412	5189
829.551	5178
829.69	5181
829.829	5242
829.968	5398
830.107	5311
830.246	5318
830.385	5178
830.524	5155
830.663	5079
830.802	5037
830.941	4904
831.08	4915
831.219	4987
831.357	5010
831.496	5155
831.635	4953
831.774	4904
831.913	4866
832.051	4771
832.19	4748
832.329	4824
832.467	4721
832.606	4656
832.744	4774
832.883	4755
833.022	4744
833.16	4820
833.299	4904
833.437	4843
833.576	4866
833.714	4828
833.852	4904
833.991	4938
834.129	5022
834.267	4938
834.406	4938
834.544	5006
834.682	5041
834.821	4934
834.959	5193
835.097	5071
835.235	5140
835.373	5094
835.511	5117
835.65	5098
835.788	4972
835.926	4919
836.064	4889
836.202	4984
836.34	5151
836.478	5212
836.615	5132
836.753	5212
836.891	5303
837.029	5239
837.167	5223
837.305	5204
837.443	5181
837.58	5098
837.718	5265
837.856	5181
837.993	5201
838.131	5288
838.269	5239
838.406	5242
838.544	5178
838.681	5052
838.819	5014
838.956	4949
839.094	4923
839.231	5022
839.369	5090
839.506	5471
839.643	5273
839.781	5105
839.918	5079
840.055	5136
840.193	5121
840.33	5113
840.467	5193
840.604	5159
840.742	5433
840.879	5102
841.016	5147
841.153	5155
841.29	5410
841.427	5360
841.564	5330
841.701	5402
841.838	5280
841.975	5201
842.112	5303
842.249	5166
842.385	5136
842.522	5360
842.659	5155
842.796	5181
842.933	5246
843.069	5162
843.206	5201
843.343	5296
843.479	5311
843.616	5307
843.752	5071
843.889	5090
844.025	5296
844.162	5018
844.298	5231
844.435	5071
844.571	5064
844.708	5208
844.844	5292
844.98	5299
845.117	5341
845.253	5193
845.389	5094
845.525	5178
845.661	5102
845.798	5075
845.934	5159
846.07	5041
846.206	5216
846.342	5273
846.478	5189
846.614	5056
846.75	4957
846.886	4946
847.022	5128
847.158	5090
847.294	5086
847.429	5132
847.565	5052
847.701	5303
847.837	4900
847.972	4873
848.108	4984
848.244	4984
848.379	4782
848.515	4763
848.65	4733
848.786	4786
848.921	4752
849.057	4870
849.192	4938
849.328	4870
849.463	4889
849.598	4858
849.734	4805
849.869	4694
850.004	4626
850.14	4710
850.275	4641
850.41	4512
850.545	4611
850.68	4596
850.815	4626
850.95	4706
851.085	4850
851.22	4801
851.355	4645
851.49	4622
851.625	4683
851.76	4672
851.895	4561
852.03	4558
852.165	4698
852.299	4729
852.434	4843
852.569	4691
852.703	4782
852.838	4847
852.973	4972
853.107	4900
853.242	4740
853.376	4687
853.511	4580
853.645	4618
853.78	4854
853.914	4748
854.048	4637
854.183	4679
854.317	4710
854.451	4831
854.585	4691
854.72	4607
854.854	4778
854.988	4573
855.122	4637
855.256	4584
855.39	4672
855.524	4812
855.658	4778
855.792	4698
855.926	4759
856.06	4759
856.194	4809
856.327	4675
856.461	4630
856.595	4672
856.729	4687
856.862	4755
856.996	4683
857.13	4778
857.263	4797
857.397	4850
857.53	4672
857.664	4702
857.797	4793
857.931	4831
858.064	4687
858.197	4725
858.331	4656
858.464	4660
858.597	4535
858.731	4691
858.864	4615
858.997	4618
859.13	4675
859.263	4706
859.396	4691
859.529	4618
859.662	4577
859.795	4538
859.928	4668
860.061	4767
860.194	4744
860.327	4615
860.46	4599
860.592	4736
860.725	4694
860.858	4752
860.99	4618
861.123	4527
861.256	4523
861.388	4618
861.521	5288
861.653	4516
861.786	4451
861.918	4451
862.05	4470
862.183	4531
862.315	4603
862.447	4672
862.58	4519
862.712	4394
862.844	4310
862.976	4527
863.108	4542
863.24	4748
863.372	4360
863.504	4455
863.636	4325
863.768	4516
863.9	4466
864.032	4337
864.164	4409
864.296	4459
864.428	4588
864.559	4569
864.691	4542
864.823	4546
864.954	4531
865.086	4523
865.217	4485
865.349	4451
865.48	4478
865.612	4508
865.743	4637
865.875	4478
866.006	4466
866.137	4493
866.269	4440
866.4	4386
866.531	4459
866.662	4447
866.793	4436
866.924	4443
867.055	4573
867.186	4508
867.317	4474
867.448	4432
867.579	4417
867.71	4394
867.841	4390
867.972	4481
868.103	4504
868.233	4428
868.364	4455
868.495	4493
868.625	4744
868.756	4717
868.886	4558
869.017	4626
869.147	4793
869.278	4790
869.408	4679
869.539	4634
869.669	4767
869.799	4622
869.929	4778
870.06	4774
870.19	4961
870.32	4934
870.45	4946
870.58	5041
870.71	5124
870.84	5086
870.97	4923
871.1	4885
871.23	5105
871.36	5117
871.489	5025
871.619	5094
871.749	5071
871.879	5151
872.008	5197
872.138	5079
872.267	5018
872.397	4885
872.526	4782
872.656	4759
872.785	4835
872.915	4908
873.044	5037
873.173	4976
873.303	4961
873.432	4949
873.561	4984
873.69	4942
873.819	4858
873.948	4965
874.077	4885
874.206	4809
874.335	4858
874.464	4953
874.593	5060
874.722	4961
874.851	5151
874.979	5048
875.108	5037
875.237	4923
875.365	4900
875.494	4946
875.623	4957
875.751	4835
875.88	4904
876.008	4946
876.136	5083
876.265	5231
876.393	5326
876.521	5265
876.65	5261
876.778	5181
876.906	5128
877.034	5025
877.162	5143
877.29	5029
877.418	5037
877.546	5048
877.674	5098
877.802	5025
877.93	5018
878.058	4946
878.185	4889
878.313	4984
878.441	4938
878.568	4786
878.696	4900
878.824	4987
878.951	5003
879.079	5143
879.206	5326
879.333	5102
879.461	5014
879.588	4965
879.715	5098
879.842	5280
879.97	5006
880.097	4744
880.224	4729
880.351	4790
880.478	4790
880.605	4771
880.732	4778
880.859	5060
880.986	4885
881.112	4927
881.239	4774
881.366	4660
881.493	4637
881.619	4641
881.746	4653
881.872	4641
881.999	4660
882.125	4729
882.252	4778
882.378	4828
882.505	4938
882.631	4824
882.757	4672
882.883	4755
883.01	4740
883.136	4683
883.262	4588
883.388	4637
883.514	4778
883.64	4828
883.766	4793
883.892	4660
884.018	4706
884.143	4927
884.269	4995
884.395	4691
884.52	4626
884.646	4664
884.772	4599
884.897	4561
885.023	4694
885.148	4820
885.274	4900
885.399	4790
885.524	4733
885.65	4725
885.775	4782
885.9	4687
886.025	4889
886.15	4782
886.275	4679
886.4	4675
886.525	4691
886.65	4660
886.775	4672
886.9	4953
887.025	5029
887.149	4847
887.274	4634
887.399	4580
887.523	4542
887.648	4538
887.773	4577
887.897	4797
888.021	4790
888.146	4675
888.27	4793
888.395	4877
888.519	4843
888.643	4790
888.767	4862
888.891	4691
889.015	4634
889.139	4660
889.263	4596
889.387	4763
889.511	4862
889.635	4790
889.759	4672
889.883	4626
890.006	4748
890.13	4828
890.254	4672
890.377	4725
890.501	4569
890.624	4516
890.748	4660
890.871	4516
890.995	4421
891.118	4405
891.241	4493
891.364	4546
891.488	4592
891.611	4565
891.734	4565
891.857	4607
891.98	4512
892.103	4672
892.226	4615
892.349	4558
892.471	4436
892.594	4519
892.717	4592
892.839	4565
892.962	4637
893.085	4664
893.207	4637
893.33	4451
893.452	4512
893.575	4683
893.697	4596
893.819	4809
893.941	4862
894.064	4767
894.186	4592
894.308	4554
894.43	4733
894.552	4797
894.674	4759
894.796	4512
894.918	4584
895.04	4531
895.161	4706
895.283	4668
895.405	4569
895.526	4664
895.648	4694
895.769	4675
895.891	4721
896.012	4759
896.134	4702
896.255	4675
896.376	4637
896.498	4588
896.619	4664
896.74	4569
896.861	4611
896.982	4889
897.103	5056
897.224	4805
897.345	4714
897.466	4668
897.587	4744
897.708	4831
897.828	4786
897.949	4675
898.07	4561
898.19	4656
898.311	4847
898.431	4679
898.552	4759
898.672	4801
898.792	4816
898.913	4687
899.033	4584
899.153	4489
899.273	4440
899.393	4497
899.513	4523
899.633	4546
899.753	4481
899.873	4474
899.993	4611
900.113	4527
900.232	4599
900.352	4516
900.472	4500
900.591	4405
900.711	4489
900.83	4424
900.95	4630
901.069	4683
901.189	4497
901.308	4356
901.427	4299
901.546	4333
901.665	4516
901.784	4527
901.904	4356
902.023	4295
902.141	4196
902.26	4169
902.379	4291
902.498	4249
902.617	4223
902.735	4398
902.854	4386
902.973	4363
903.091	4158
903.21	4242
903.328	4257
903.446	4246
903.565	4227
903.683	4318
903.801	4299
903.919	4432
904.038	4466
904.156	4253
904.274	4413
904.392	4413
904.51	4413
904.627	4485
904.745	4546
904.863	4649
904.981	4386
905.098	4322
905.216	4455
905.334	4432
905.451	4443
905.569	4417
905.686	4527
905.803	4573
905.921	4390
906.038	4554
906.155	4481
906.272	4413
906.389	4470
906.506	4360
906.623	4363
906.74	4375
906.857	4295
906.974	4375
907.091	4531
907.208	4714
907.324	4584
907.441	4512
907.557	4394
907.674	4325
907.79	4295
907.907	4402
908.023	4466
908.139	4485
908.256	4436
908.372	4489
908.488	4432
908.604	4344
908.72	4341
908.836	4405
908.952	4356
909.068	4417
909.184	4558
909.3	4523
909.415	4565
909.531	4569
909.647	4348
909.762	4379
909.878	4363
909.993	4413
910.108	4383
910.224	4424
910.339	4508
910.454	4402
910.57	4352
910.685	4333
910.8	4641
910.915	4588
911.03	4485
911.145	4287
911.259	4322
911.374	4379
911.489	4299
911.604	4287
911.718	4135
911.833	4227
911.947	4086
912.062	4055
912.176	4188
912.291	4261
912.405	4280
912.519	4462
912.633	4478
912.748	4348
912.862	4257
912.976	4215
913.09	4124
913.204	4192
913.318	4257
913.431	4371
913.545	4337
913.659	4398
913.772	4341
913.886	4234
914	4314
914.113	4379
914.226	4398
914.34	4402
914.453	4204
914.566	4440
914.68	4280
914.793	4276
914.906	4150
915.019	4071
915.132	4040
915.245	4162
915.358	4211
915.47	4227
915.583	4299
915.696	4303
915.809	4386
915.921	4409
916.034	4230
916.146	4188
916.259	4234
916.371	4421
916.483	4367
916.595	4207
916.708	4284
916.82	4344
916.932	4299
917.044	4314
917.156	4295
917.268	4200
917.38	4303
917.491	4268
917.603	4375
917.715	4402
917.826	4470
917.938	4352
918.049	4242
918.161	4363
918.272	4508
918.384	4512
918.495	4417
918.606	4295
918.717	4268
918.828	4287
918.939	4337
919.05	4238
919.161	4329
919.272	4147
919.383	4227
919.494	4489
919.604	4615
919.715	4417
919.826	4306
919.936	4390
920.047	4523
920.157	4455
920.267	4714
920.378	4474
920.488	4531
920.598	4725
920.708	4862
920.818	4752
920.928	4774
921.038	4927
921.148	4930
921.258	4596
921.368	4584
921.477	4474
921.587	4474
921.697	4390
921.806	4554
921.916	4409
922.025	4234
922.134	4295
922.244	4261
922.353	4360
922.462	4177
922.571	4139
922.68	4021
922.789	3998
922.898	4006
923.007	4002
923.116	4109
923.224	4067
923.333	4067
923.442	4017
923.55	3956
923.659	4067
923.767	4109
923.876	3998
923.984	4124
924.092	3964
924.201	4097
924.309	4044
924.417	4090
924.525	4040
924.633	4086
924.741	5048
924.849	3918
924.956	4097
925.064	3930
925.172	3880
925.279	3968
925.387	4059
925.494	4025
925.602	4188
925.709	4162
925.816	4074
925.924	4067
926.031	4238
926.138	4154
926.245	4185
926.352	4090
926.459	4219
926.566	4341
926.673	4120
926.779	4032
926.886	4093
926.993	3994
927.099	3945
927.206	3934
927.312	3953
927.419	4029
927.525	4021
927.631	4093
927.737	3975
927.843	3918
927.95	3842
928.056	3964
928.162	3975
928.267	4021
928.373	4546
928.479	4120
928.585	3888
928.69	4002
928.796	4082
928.901	3972
929.007	3804
929.112	4013
929.218	3949
929.323	3960
929.428	3930
929.533	4097
929.638	3934
929.743	3994
929.848	4071
929.953	4032
930.058	3907
930.163	3793
930.267	3785
930.372	4021
930.477	3793
930.581	4059
930.685	3937
930.79	3797
930.894	3884
930.998	3854
931.103	4032
931.207	3679
931.311	3709
931.415	3682
931.519	3504
931.623	3545
