Data from test_V78500241_1225.txt Node
Date: Fri Mar 25 16:57:31 CST 2022
User: usil
Spectrometer: V785-0024
Trigger mode: 0
Integration Time (sec): 4.000000E-1
Scans to average: 1
Nonlinearity correction enabled: false
Boxcar width: 0
Storing dark spectrum: false
XAxis mode: Wavelengths
Number of Pixels in Spectrum: 1024
>>>>>Begin Spectral Data<<<<<
801.071	8069
801.214	8123
801.356	7856
801.499	7864
801.641	7830
801.783	7856
801.926	7993
802.068	7978
802.211	8050
802.353	7989
802.496	7894
802.638	7845
802.78	7997
802.923	7928
803.065	7890
803.208	7940
803.35	8065
803.492	8100
803.635	8161
803.777	8138
803.919	8161
804.061	8469
804.204	8161
804.346	8069
804.488	8031
804.63	8164
804.773	7986
804.915	8088
805.057	8240
805.199	8199
805.341	8195
805.483	8328
805.626	8206
805.768	8130
805.91	8233
806.052	8214
806.194	8138
806.336	8286
806.478	8138
806.62	8069
806.762	8138
806.904	8309
807.046	8454
807.188	8313
807.33	8362
807.472	8286
807.614	8157
807.756	8134
807.898	8065
808.04	7925
808.182	7921
808.324	7906
808.465	8020
808.607	8027
808.749	8126
808.891	8206
809.033	8309
809.174	8259
809.316	8073
809.458	7997
809.6	8005
809.741	8008
809.883	8020
810.025	8126
810.166	8088
810.308	8073
810.45	7986
810.591	7921
810.733	7731
810.875	7685
811.016	7529
811.158	7514
811.299	7636
811.441	7723
811.582	7670
811.724	7563
811.865	7567
812.007	7571
812.148	7639
812.29	7651
812.431	7746
812.573	7928
812.714	7978
812.855	8077
812.997	8187
813.138	8252
813.279	8183
813.421	8134
813.562	8035
813.703	7898
813.845	7746
813.986	7476
814.127	7213
814.268	7228
814.41	7301
814.551	7114
814.692	7160
814.833	7095
814.974	7149
815.115	7145
815.256	7015
815.397	6935
815.539	7004
815.68	6844
815.821	6783
815.962	6829
816.103	6825
816.244	6829
816.385	6677
816.526	6646
816.666	6483
816.807	6308
816.948	6433
817.089	6445
817.23	6448
817.371	6433
817.512	6391
817.653	6388
817.793	6399
817.934	6441
818.075	6483
818.216	6391
818.356	6361
818.497	6281
818.638	6102
818.778	6186
818.919	6129
819.06	6144
819.2	6353
819.341	6372
819.481	6380
819.622	6490
819.762	6715
819.903	6753
820.043	6642
820.184	6521
820.324	6589
820.465	6654
820.605	6684
820.746	6604
820.886	6547
821.026	6681
821.167	6681
821.307	6757
821.447	6776
821.588	6703
821.728	6536
821.868	6494
822.008	6292
822.149	6388
822.289	6384
822.429	6125
822.569	6076
822.709	6140
822.849	5901
822.99	5870
823.13	5969
823.27	5950
823.41	5779
823.55	5775
823.69	5775
823.83	5809
823.97	5657
824.11	5535
824.25	5524
824.389	5539
824.529	5668
824.669	5535
824.809	5703
824.949	5649
825.089	5630
825.228	5543
825.368	5364
825.508	5368
825.648	5360
825.787	5387
825.927	5410
826.067	5296
826.206	5357
826.346	5414
826.485	5368
826.625	5402
826.765	5509
826.904	5414
827.044	5250
827.183	5151
827.323	5140
827.462	5254
827.601	5162
827.741	5151
827.88	5258
828.02	5140
828.159	5208
828.298	5273
828.437	5406
828.577	5239
828.716	5433
828.855	5303
828.994	5143
829.134	5151
829.273	5178
829.412	5193
829.551	5181
829.69	5166
829.829	5235
829.968	5341
830.107	5292
830.246	5307
830.385	5136
830.524	5159
830.663	5071
830.802	5025
830.941	4854
831.08	4889
831.219	4976
831.357	4976
831.496	5170
831.635	4942
831.774	4831
831.913	4873
832.051	4729
832.19	4733
832.329	4771
832.467	4729
832.606	4717
832.744	4767
832.883	4679
833.022	4687
833.16	4782
833.299	4843
833.437	4877
833.576	4828
833.714	4885
833.852	4873
833.991	4820
834.129	4961
834.267	4953
834.406	4870
834.544	4946
834.682	4987
834.821	4980
834.959	5181
835.097	4980
835.235	5140
835.373	5094
835.511	5064
835.65	5022
835.788	5041
835.926	4904
836.064	4889
836.202	4919
836.34	5189
836.478	5185
836.615	5151
836.753	5223
836.891	5254
837.029	5280
837.167	5212
837.305	5181
837.443	5155
837.58	5048
837.718	5246
837.856	5155
837.993	5174
838.131	5239
838.269	5178
838.406	5193
838.544	5159
838.681	5037
838.819	5006
838.956	4904
839.094	4896
839.231	4957
839.369	5086
839.506	5459
839.643	5216
839.781	5064
839.918	4984
840.055	5113
840.193	5086
840.33	5140
840.467	5132
840.604	5223
840.742	5459
840.879	5067
841.016	5083
841.153	5113
841.29	5360
841.427	5330
841.564	5353
841.701	5353
841.838	5311
841.975	5246
842.112	5273
842.249	5113
842.385	5098
842.522	5318
842.659	5193
842.796	5128
842.933	5212
843.069	5155
843.206	5216
843.343	5299
843.479	5261
843.616	5242
843.752	5022
843.889	5064
844.025	5212
844.162	5045
844.298	5212
844.435	5121
844.571	4976
844.708	5159
844.844	5273
844.98	5299
845.117	5299
845.253	5151
845.389	5086
845.525	5185
845.661	5197
845.798	5075
845.934	5132
846.07	5079
846.206	5151
846.342	5296
846.478	5185
846.614	5048
846.75	4953
846.886	4949
847.022	5178
847.158	5022
847.294	5037
847.429	5098
847.565	5056
847.701	5254
847.837	4858
847.972	4801
848.108	4938
848.244	4927
848.379	4793
848.515	4729
848.65	4721
848.786	4729
848.921	4744
849.057	4877
849.192	4930
849.328	4774
849.463	4839
849.598	4763
849.734	4752
849.869	4740
850.004	4626
850.14	4710
850.275	4615
850.41	4512
850.545	4550
850.68	4577
850.815	4622
850.95	4630
851.085	4809
851.22	4733
851.355	4698
851.49	4664
851.625	4664
851.76	4698
851.895	4550
852.03	4535
852.165	4656
852.299	4759
852.434	4828
852.569	4736
852.703	4805
852.838	4870
852.973	4965
853.107	4965
853.242	4801
853.376	4710
853.511	4561
853.645	4637
853.78	4820
853.914	4717
854.048	4714
854.183	4668
854.317	4714
854.451	4889
854.585	4748
854.72	4679
854.854	4790
854.988	4702
855.122	4664
855.256	4592
855.39	4717
855.524	4793
855.658	4729
855.792	4714
855.926	4736
856.06	4763
856.194	4812
856.327	4675
856.461	4641
856.595	4645
856.729	4664
856.862	4801
856.996	4740
857.13	4721
857.263	4778
857.397	4862
857.53	4694
857.664	4759
857.797	4790
857.931	4793
858.064	4748
858.197	4740
858.331	4721
858.464	4630
858.597	4546
858.731	4656
858.864	4698
858.997	4641
859.13	4714
859.263	4740
859.396	4714
859.529	4607
859.662	4649
859.795	4596
859.928	4660
860.061	4828
860.194	4797
860.327	4634
860.46	4542
860.592	4809
860.725	4733
860.858	4744
860.99	4618
861.123	4531
861.256	4554
861.388	4630
861.521	5368
861.653	4535
861.786	4478
861.918	4519
862.05	4538
862.183	4573
862.315	4588
862.447	4694
862.58	4584
862.712	4462
862.844	4348
862.976	4478
863.108	4508
863.24	4885
863.372	4363
863.504	4421
863.636	4405
863.768	4519
863.9	4436
864.032	4421
864.164	4440
864.296	4508
864.428	4580
864.559	4550
864.691	4546
864.823	4573
864.954	4523
865.086	4554
865.217	4489
865.349	4424
865.48	4470
865.612	4489
865.743	4611
865.875	4493
866.006	4466
866.137	4474
866.269	4470
866.4	4459
866.531	4440
866.662	4394
866.793	4428
866.924	4417
867.055	4531
867.186	4455
867.317	4432
867.448	4424
867.579	4386
867.71	4478
867.841	4436
867.972	4470
868.103	4466
868.233	4489
868.364	4489
868.495	4550
868.625	4656
868.756	4767
868.886	4580
869.017	4668
869.147	4778
869.278	4774
869.408	4653
869.539	4645
869.669	4744
869.799	4691
869.929	4736
870.06	4748
870.19	4942
870.32	4976
870.45	4949
870.58	5003
870.71	5166
870.84	5094
870.97	4946
871.1	4911
871.23	5197
871.36	5178
871.489	5079
871.619	5094
871.749	5060
871.879	5166
872.008	5239
872.138	5067
872.267	5029
872.397	4896
872.526	4873
872.656	4744
872.785	4850
872.915	4934
873.044	5041
873.173	4927
873.303	5052
873.432	5018
873.561	4938
873.69	4850
873.819	4885
873.948	4984
874.077	4858
874.206	4786
874.335	4839
874.464	4946
874.593	5121
874.722	4991
874.851	5132
874.979	5075
875.108	5052
875.237	4965
875.365	4953
875.494	4870
875.623	5045
875.751	4820
875.88	4953
876.008	4946
876.136	5056
876.265	5239
876.393	5421
876.521	5269
876.65	5208
876.778	5231
876.906	5071
877.034	5037
877.162	5048
877.29	4995
877.418	5083
877.546	5094
877.674	5075
877.802	5022
877.93	5022
878.058	4942
878.185	4896
878.313	4987
878.441	4949
878.568	4843
878.696	4934
878.824	4961
878.951	5006
879.079	5159
879.206	5372
879.333	5105
879.461	4961
879.588	5041
879.715	5185
879.842	5254
879.97	5003
880.097	4786
880.224	4782
880.351	4805
880.478	4858
880.605	4793
880.732	4816
880.859	5113
880.986	4908
881.112	4904
881.239	4831
881.366	4717
881.493	4653
881.619	4615
881.746	4656
881.872	4626
881.999	4668
882.125	4694
882.252	4820
882.378	4889
882.505	4934
882.631	4816
882.757	4694
882.883	4744
883.01	4733
883.136	4691
883.262	4645
883.388	4592
883.514	4771
883.64	4900
883.766	4748
883.892	4710
884.018	4748
884.143	4911
884.269	5048
884.395	4679
884.52	4626
884.646	4664
884.772	4607
884.897	4584
885.023	4687
885.148	4767
885.274	4862
885.399	4801
885.524	4729
885.65	4729
885.775	4752
885.9	4721
886.025	4896
886.15	4805
886.275	4778
886.4	4664
886.525	4755
886.65	4675
886.775	4691
886.9	4908
887.025	5056
887.149	4797
887.274	4656
887.399	4603
887.523	4683
887.648	4630
887.773	4618
887.897	4782
888.021	4820
888.146	4672
888.27	4847
888.395	4892
888.519	4797
888.643	4850
888.767	4816
888.891	4668
889.015	4626
889.139	4668
889.263	4607
889.387	4740
889.511	4892
889.635	4771
889.759	4691
889.883	4607
890.006	4740
890.13	4862
890.254	4607
890.377	4656
890.501	4577
890.624	4523
890.748	4637
890.871	4542
890.995	4462
891.118	4390
891.241	4550
891.364	4561
891.488	4702
891.611	4573
891.734	4531
891.857	4653
891.98	4584
892.103	4687
892.226	4641
892.349	4577
892.471	4466
892.594	4527
892.717	4577
892.839	4599
892.962	4637
893.085	4664
893.207	4626
893.33	4489
893.452	4584
893.575	4698
893.697	4641
893.819	4828
893.941	4828
894.064	4771
894.186	4653
894.308	4645
894.43	4698
894.552	4850
894.674	4778
894.796	4580
894.918	4611
895.04	4592
895.161	4733
895.283	4687
895.405	4596
895.526	4664
895.648	4714
895.769	4725
895.891	4691
896.012	4748
896.134	4710
896.255	4668
896.376	4683
896.498	4622
896.619	4694
896.74	4584
896.861	4668
896.982	4957
897.103	5060
897.224	4843
897.345	4763
897.466	4714
897.587	4763
897.708	4885
897.828	4767
897.949	4672
898.07	4653
898.19	4672
898.311	4839
898.431	4698
898.552	4721
898.672	4870
898.792	4854
898.913	4771
899.033	4702
899.153	4504
899.273	4432
899.393	4542
899.513	4592
899.633	4531
899.753	4497
899.873	4558
899.993	4641
900.113	4516
900.232	4588
900.352	4577
900.472	4493
900.591	4367
900.711	4512
900.83	4432
900.95	4603
901.069	4660
901.189	4588
901.308	4398
901.427	4318
901.546	4402
901.665	4508
901.784	4546
901.904	4371
902.023	4348
902.141	4223
902.26	4204
902.379	4291
902.498	4276
902.617	4276
902.735	4379
902.854	4402
902.973	4417
903.091	4219
903.21	4234
903.328	4268
903.446	4276
903.565	4257
903.683	4386
903.801	4310
903.919	4405
904.038	4447
904.156	4276
904.274	4474
904.392	4443
904.51	4474
904.627	4451
904.745	4622
904.863	4653
904.981	4417
905.098	4337
905.216	4375
905.334	4443
905.451	4443
905.569	4447
905.686	4554
905.803	4611
905.921	4390
906.038	4535
906.155	4462
906.272	4379
906.389	4459
906.506	4348
906.623	4375
906.74	4402
906.857	4333
906.974	4367
907.091	4584
907.208	4668
907.324	4626
907.441	4538
907.557	4402
907.674	4344
907.79	4344
907.907	4409
908.023	4478
908.139	4478
908.256	4394
908.372	4485
908.488	4466
908.604	4428
908.72	4318
908.836	4375
908.952	4413
909.068	4474
909.184	4577
909.3	4443
909.415	4618
909.531	4592
909.647	4409
909.762	4405
909.878	4333
909.993	4459
910.108	4413
910.224	4417
910.339	4470
910.454	4386
910.57	4337
910.685	4291
910.8	4664
910.915	4615
911.03	4512
911.145	4356
911.259	4360
911.374	4413
911.489	4291
911.604	4280
911.718	4147
911.833	4192
911.947	4086
912.062	4017
912.176	4257
912.291	4246
912.405	4268
912.519	4497
912.633	4531
912.748	4390
912.862	4284
912.976	4265
913.09	4101
913.204	4200
913.318	4230
913.431	4367
913.545	4371
913.659	4481
913.772	4409
913.886	4238
914	4188
914.113	4421
914.226	4417
914.34	4390
914.453	4249
914.566	4459
914.68	4356
914.793	4363
914.906	4139
915.019	4150
915.132	4090
915.245	4207
915.358	4200
915.47	4223
915.583	4280
915.696	4306
915.809	4421
915.921	4413
916.034	4227
916.146	4310
916.259	4196
916.371	4367
916.483	4360
916.595	4272
916.708	4379
916.82	4341
916.932	4383
917.044	4341
917.156	4348
917.268	4246
917.38	4268
917.491	4295
917.603	4333
917.715	4428
917.826	4386
917.938	4375
918.049	4257
918.161	4394
918.272	4538
918.384	4523
918.495	4432
918.606	4337
918.717	4234
918.828	4348
918.939	4344
919.05	4227
919.161	4371
919.272	4135
919.383	4234
919.494	4451
919.604	4634
919.715	4493
919.826	4360
919.936	4409
920.047	4565
920.157	4481
920.267	4698
920.378	4550
920.488	4535
920.598	4755
920.708	4885
920.818	4801
920.928	4782
921.038	4942
921.148	4904
921.258	4637
921.368	4523
921.477	4466
921.587	4455
921.697	4356
921.806	4546
921.916	4379
922.025	4272
922.134	4287
922.244	4196
922.353	4363
922.462	4166
922.571	4139
922.68	4002
922.789	3968
922.898	4025
923.007	4021
923.116	4112
923.224	4029
923.333	4074
923.442	3945
923.55	3972
923.659	4036
923.767	4128
923.876	3972
923.984	4105
924.092	4021
924.201	4105
924.309	4135
924.417	4101
924.525	4074
924.633	4055
924.741	5086
924.849	3911
924.956	4154
925.064	3987
925.172	3949
925.279	3922
925.387	4112
925.494	4067
925.602	4204
925.709	4173
925.816	4017
925.924	4124
926.031	4265
926.138	4200
926.245	4211
926.352	4105
926.459	4291
926.566	4325
926.673	4154
926.779	4105
926.886	4101
926.993	3953
927.099	3956
927.206	3964
927.312	3991
927.419	4017
927.525	4021
927.631	4097
927.737	3964
927.843	3930
927.95	3857
928.056	3945
928.162	4010
928.267	4048
928.373	4721
928.479	4116
928.585	3899
928.69	4029
928.796	4082
928.901	3945
929.007	3831
929.112	4063
929.218	4002
929.323	3964
929.428	3960
929.533	4063
929.638	3926
929.743	3975
929.848	4071
929.953	4021
930.058	3880
930.163	3804
930.267	3823
930.372	4021
930.477	3816
930.581	4048
930.685	3941
930.79	3808
930.894	3873
930.998	3880
931.103	4025
931.207	3743
931.311	3682
931.415	3660
931.519	3542
931.623	3523
