Data from test_V78500241_2540.txt Node
Date: Fri Mar 25 17:06:39 CST 2022
User: usil
Spectrometer: V785-0024
Trigger mode: 0
Integration Time (sec): 4.000000E-1
Scans to average: 1
Nonlinearity correction enabled: false
Boxcar width: 0
Storing dark spectrum: false
XAxis mode: Wavelengths
Number of Pixels in Spectrum: 1024
>>>>>Begin Spectral Data<<<<<
801.071	8084
801.214	8046
801.356	7894
801.499	7818
801.641	7761
801.783	7784
801.926	7955
802.068	7947
802.211	7986
802.353	8031
802.496	7925
802.638	7917
802.78	7940
802.923	7913
803.065	7871
803.208	7860
803.35	8008
803.492	8088
803.635	8240
803.777	8081
803.919	8088
804.061	8480
804.204	8225
804.346	8096
804.488	7955
804.63	8119
804.773	8016
804.915	8092
805.057	8271
805.199	8202
805.341	8176
805.483	8237
805.626	8233
805.768	8111
805.91	8214
806.052	8221
806.194	8123
806.336	8271
806.478	8073
806.62	8069
806.762	8134
806.904	8252
807.046	8499
807.188	8389
807.33	8229
807.472	8332
807.614	8157
807.756	8123
807.898	8016
808.04	7845
808.182	7864
808.324	7898
808.465	7894
808.607	8039
808.749	8153
808.891	8259
809.033	8309
809.174	8237
809.316	8119
809.458	8088
809.6	8016
809.741	8046
809.883	8069
810.025	8161
810.166	8096
810.308	8077
810.45	7997
810.591	7883
810.733	7795
810.875	7719
811.016	7506
811.158	7533
811.299	7594
811.441	7742
811.582	7708
811.724	7575
811.865	7575
812.007	7578
812.148	7662
812.29	7632
812.431	7738
812.573	7856
812.714	7959
812.855	8081
812.997	8237
813.138	8298
813.279	8138
813.421	8100
813.562	8046
813.703	7928
813.845	7761
813.986	7460
814.127	7217
814.268	7274
814.41	7149
814.551	7137
814.692	7160
814.833	7061
814.974	7122
815.115	7152
815.256	6954
815.397	6943
815.539	7019
815.68	6810
815.821	6783
815.962	6852
816.103	6814
816.244	6662
816.385	6612
816.526	6635
816.666	6479
816.807	6289
816.948	6414
817.089	6445
817.23	6395
817.371	6395
817.512	6407
817.653	6395
817.793	6357
817.934	6407
818.075	6483
818.216	6437
818.356	6452
818.497	6262
818.638	6148
818.778	6133
818.919	6110
819.06	6178
819.2	6327
819.341	6323
819.481	6395
819.622	6532
819.762	6776
819.903	6665
820.043	6642
820.184	6597
820.324	6631
820.465	6738
820.605	6642
820.746	6665
820.886	6544
821.026	6677
821.167	6764
821.307	6783
821.447	6795
821.588	6711
821.728	6593
821.868	6502
822.008	6391
822.149	6403
822.289	6384
822.429	6129
822.569	6148
822.709	6114
822.849	5946
822.99	5923
823.13	5885
823.27	5946
823.41	5840
823.55	5828
823.69	5767
823.83	5817
823.97	5665
824.11	5516
824.25	5566
824.389	5573
824.529	5566
824.669	5532
824.809	5642
824.949	5672
825.089	5615
825.228	5630
825.368	5376
825.508	5349
825.648	5372
825.787	5417
825.927	5410
826.067	5334
826.206	5269
826.346	5406
826.485	5417
826.625	5459
826.765	5558
826.904	5436
827.044	5223
827.183	5193
827.323	5083
827.462	5258
827.601	5159
827.741	5220
827.88	5239
828.02	5121
828.159	5197
828.298	5299
828.437	5360
828.577	5235
828.716	5486
828.855	5357
828.994	5151
829.134	5151
829.273	5181
829.412	5140
829.551	5162
829.69	5170
829.829	5235
829.968	5360
830.107	5269
830.246	5284
830.385	5128
830.524	5083
830.663	5060
830.802	4965
830.941	4904
831.08	4892
831.219	4938
831.357	4976
831.496	5178
831.635	4904
831.774	4862
831.913	4839
832.051	4683
832.19	4763
832.329	4835
832.467	4664
832.606	4618
832.744	4725
832.883	4717
833.022	4729
833.16	4759
833.299	4812
833.437	4847
833.576	4793
833.714	4858
833.852	4896
833.991	4908
834.129	5003
834.267	4999
834.406	4911
834.544	4999
834.682	4984
834.821	4980
834.959	5124
835.097	5003
835.235	5113
835.373	5083
835.511	5060
835.65	5056
835.788	5071
835.926	4953
836.064	4900
836.202	4968
836.34	5140
836.478	5220
836.615	5079
836.753	5250
836.891	5288
837.029	5269
837.167	5174
837.305	5166
837.443	5121
837.58	5079
837.718	5235
837.856	5162
837.993	5102
838.131	5231
838.269	5212
838.406	5239
838.544	5193
838.681	4995
838.819	4961
838.956	4889
839.094	4904
839.231	4987
839.369	5056
839.506	5410
839.643	5292
839.781	5105
839.918	5033
840.055	5083
840.193	5102
840.33	5109
840.467	5132
840.604	5189
840.742	5455
840.879	5083
841.016	5121
841.153	5181
841.29	5326
841.427	5326
841.564	5292
841.701	5368
841.838	5284
841.975	5242
842.112	5288
842.249	5102
842.385	5124
842.522	5299
842.659	5159
842.796	5105
842.933	5216
843.069	5155
843.206	5109
843.343	5349
843.479	5212
843.616	5258
843.752	5003
843.889	5029
844.025	5216
844.162	5048
844.298	5227
844.435	5056
844.571	5090
844.708	5178
844.844	5341
844.98	5372
845.117	5299
845.253	5140
845.389	5105
845.525	5159
845.661	5174
845.798	5064
845.934	5117
846.07	5064
846.206	5204
846.342	5311
846.478	5189
846.614	5029
846.75	4965
846.886	4930
847.022	5132
847.158	5037
847.294	5037
847.429	5094
847.565	5033
847.701	5357
847.837	4904
847.972	4824
848.108	4976
848.244	4919
848.379	4771
848.515	4717
848.65	4691
848.786	4714
848.921	4809
849.057	4870
849.192	4881
849.328	4809
849.463	4862
849.598	4835
849.734	4774
849.869	4721
850.004	4618
850.14	4706
850.275	4584
850.41	4535
850.545	4588
850.68	4558
850.815	4637
850.95	4599
851.085	4839
851.22	4755
851.355	4630
851.49	4660
851.625	4592
851.76	4641
851.895	4569
852.03	4577
852.165	4618
852.299	4752
852.434	4774
852.569	4717
852.703	4797
852.838	4835
852.973	4957
853.107	4946
853.242	4797
853.376	4668
853.511	4527
853.645	4607
853.78	4782
853.914	4710
854.048	4672
854.183	4649
854.317	4668
854.451	4850
854.585	4725
854.72	4607
854.854	4755
854.988	4569
855.122	4622
855.256	4497
855.39	4664
855.524	4755
855.658	4717
855.792	4668
855.926	4702
856.06	4752
856.194	4793
856.327	4702
856.461	4630
856.595	4607
856.729	4683
856.862	4736
856.996	4744
857.13	4740
857.263	4797
857.397	4786
857.53	4622
857.664	4740
857.797	4702
857.931	4812
858.064	4698
858.197	4782
858.331	4668
858.464	4664
858.597	4500
858.731	4641
858.864	4584
858.997	4588
859.13	4645
859.263	4736
859.396	4733
859.529	4558
859.662	4580
859.795	4512
859.928	4618
860.061	4733
860.194	4748
860.327	4611
860.46	4558
860.592	4687
860.725	4721
860.858	4694
860.99	4550
861.123	4508
861.256	4516
861.388	4611
861.521	5151
861.653	4489
861.786	4440
861.918	4443
862.05	4504
862.183	4542
862.315	4546
862.447	4611
862.58	4535
862.712	4367
862.844	4329
862.976	4451
863.108	4474
863.24	4721
863.372	4303
863.504	4417
863.636	4409
863.768	4462
863.9	4440
864.032	4390
864.164	4405
864.296	4485
864.428	4577
864.559	4527
864.691	4497
864.823	4523
864.954	4512
865.086	4531
865.217	4489
865.349	4402
865.48	4428
865.612	4440
865.743	4599
865.875	4474
866.006	4413
866.137	4462
866.269	4409
866.4	4489
866.531	4421
866.662	4379
866.793	4424
866.924	4402
867.055	4489
867.186	4478
867.317	4394
867.448	4333
867.579	4371
867.71	4390
867.841	4352
867.972	4470
868.103	4417
868.233	4436
868.364	4432
868.495	4493
868.625	4656
868.756	4748
868.886	4603
869.017	4649
869.147	4740
869.278	4748
869.408	4618
869.539	4637
869.669	4759
869.799	4653
869.929	4771
870.06	4717
870.19	4942
870.32	4934
870.45	4919
870.58	4991
870.71	5086
870.84	5113
870.97	4927
871.1	4923
871.23	5136
871.36	5128
871.489	5006
871.619	5010
871.749	5037
871.879	5147
872.008	5174
872.138	5037
872.267	5041
872.397	4862
872.526	4774
872.656	4702
872.785	4824
872.915	4904
873.044	5060
873.173	4953
873.303	4972
873.432	4949
873.561	4908
873.69	4892
873.819	4889
873.948	4904
874.077	4809
874.206	4786
874.335	4767
874.464	4892
874.593	5098
874.722	5025
874.851	5128
874.979	5025
875.108	5014
875.237	4862
875.365	4904
875.494	4843
875.623	5025
875.751	4839
875.88	4870
876.008	4999
876.136	5018
876.265	5216
876.393	5311
876.521	5250
876.65	5208
876.778	5170
876.906	5143
877.034	4938
877.162	5067
877.29	4980
877.418	5083
877.546	5041
877.674	5037
877.802	5025
877.93	5041
878.058	4896
878.185	4862
878.313	4991
878.441	4965
878.568	4809
878.696	4862
878.824	4946
878.951	4957
879.079	5185
879.206	5284
879.333	5098
879.461	4965
879.588	4965
879.715	5121
879.842	5178
879.97	4953
880.097	4778
880.224	4767
880.351	4816
880.478	4835
880.605	4774
880.732	4816
880.859	5064
880.986	4904
881.112	4946
881.239	4801
881.366	4691
881.493	4599
881.619	4615
881.746	4660
881.872	4607
881.999	4664
882.125	4660
882.252	4801
882.378	4862
882.505	4915
882.631	4839
882.757	4691
882.883	4714
883.01	4702
883.136	4641
883.262	4641
883.388	4660
883.514	4831
883.64	4877
883.766	4774
883.892	4656
884.018	4675
884.143	4889
884.269	4957
884.395	4672
884.52	4641
884.646	4634
884.772	4569
884.897	4523
885.023	4679
885.148	4801
885.274	4858
885.399	4877
885.524	4740
885.65	4725
885.775	4694
885.9	4706
886.025	4812
886.15	4790
886.275	4736
886.4	4672
886.525	4725
886.65	4687
886.775	4691
886.9	4858
887.025	5079
887.149	4831
887.274	4672
887.399	4550
887.523	4588
887.648	4599
887.773	4626
887.897	4755
888.021	4831
888.146	4698
888.27	4797
888.395	4919
888.519	4801
888.643	4847
888.767	4824
888.891	4645
889.015	4538
889.139	4660
889.263	4580
889.387	4736
889.511	4862
889.635	4797
889.759	4649
889.883	4675
890.006	4729
890.13	4809
890.254	4588
890.377	4664
890.501	4531
890.624	4519
890.748	4641
890.871	4516
890.995	4459
891.118	4390
891.241	4497
891.364	4519
891.488	4649
891.611	4485
891.734	4500
891.857	4599
891.98	4584
892.103	4660
892.226	4508
892.349	4489
892.471	4398
892.594	4607
892.717	4603
892.839	4554
892.962	4603
893.085	4714
893.207	4577
893.33	4470
893.452	4531
893.575	4641
893.697	4607
893.819	4831
893.941	4801
894.064	4710
894.186	4546
894.308	4523
894.43	4706
894.552	4786
894.674	4710
894.796	4497
894.918	4569
895.04	4546
895.161	4748
895.283	4675
895.405	4653
895.526	4656
895.648	4702
895.769	4698
895.891	4698
896.012	4714
896.134	4717
896.255	4672
896.376	4580
896.498	4645
896.619	4641
896.74	4527
896.861	4675
896.982	4904
897.103	5098
897.224	4809
897.345	4714
897.466	4679
897.587	4752
897.708	4862
897.828	4771
897.949	4656
898.07	4607
898.19	4634
898.311	4839
898.431	4698
898.552	4698
898.672	4778
898.792	4801
898.913	4714
899.033	4641
899.153	4493
899.273	4417
899.393	4466
899.513	4527
899.633	4519
899.753	4527
899.873	4531
899.993	4565
900.113	4546
900.232	4588
900.352	4550
900.472	4447
900.591	4371
900.711	4470
900.83	4459
900.95	4523
901.069	4679
901.189	4542
901.308	4341
901.427	4352
901.546	4325
901.665	4493
901.784	4451
901.904	4352
902.023	4322
902.141	4200
902.26	4215
902.379	4249
902.498	4249
902.617	4227
902.735	4394
902.854	4405
902.973	4322
903.091	4200
903.21	4188
903.328	4272
903.446	4272
903.565	4219
903.683	4348
903.801	4261
903.919	4398
904.038	4436
904.156	4303
904.274	4428
904.392	4409
904.51	4440
904.627	4485
904.745	4618
904.863	4599
904.981	4390
905.098	4360
905.216	4409
905.334	4421
905.451	4405
905.569	4383
905.686	4508
905.803	4554
905.921	4405
906.038	4542
906.155	4481
906.272	4348
906.389	4459
906.506	4306
906.623	4383
906.74	4402
906.857	4280
906.974	4337
907.091	4584
907.208	4634
907.324	4561
907.441	4489
907.557	4352
907.674	4383
907.79	4344
907.907	4383
908.023	4459
908.139	4493
908.256	4432
908.372	4459
908.488	4466
908.604	4337
908.72	4291
908.836	4386
908.952	4363
909.068	4417
909.184	4558
909.3	4478
909.415	4554
909.531	4554
909.647	4325
909.762	4398
909.878	4314
909.993	4466
910.108	4398
910.224	4337
910.339	4481
910.454	4405
910.57	4329
910.685	4310
910.8	4668
910.915	4607
911.03	4512
911.145	4310
911.259	4337
911.374	4329
911.489	4287
911.604	4249
911.718	4177
911.833	4166
911.947	4071
912.062	3972
912.176	4211
912.291	4253
912.405	4230
912.519	4481
912.633	4474
912.748	4390
912.862	4314
912.976	4211
913.09	4067
913.204	4158
913.318	4196
913.431	4390
913.545	4390
913.659	4428
913.772	4314
913.886	4234
914	4192
914.113	4375
914.226	4402
914.34	4375
914.453	4177
914.566	4409
914.68	4276
914.793	4314
914.906	4169
915.019	4120
915.132	4074
915.245	4169
915.358	4223
915.47	4204
915.583	4227
915.696	4303
915.809	4375
915.921	4402
916.034	4257
916.146	4227
916.259	4173
916.371	4322
916.483	4371
916.595	4287
916.708	4318
916.82	4276
916.932	4352
917.044	4348
917.156	4310
917.268	4242
917.38	4280
917.491	4246
917.603	4348
917.715	4386
917.826	4440
917.938	4333
918.049	4276
918.161	4379
918.272	4519
918.384	4546
918.495	4489
918.606	4284
918.717	4268
918.828	4341
918.939	4394
919.05	4280
919.161	4310
919.272	4135
919.383	4227
919.494	4443
919.604	4630
919.715	4481
919.826	4337
919.936	4481
920.047	4558
920.157	4535
920.267	4706
920.378	4573
920.488	4561
920.598	4748
920.708	4927
920.818	4755
920.928	4835
921.038	5006
921.148	4892
921.258	4653
921.368	4615
921.477	4542
921.587	4504
921.697	4421
921.806	4580
921.916	4462
922.025	4360
922.134	4318
922.244	4295
922.353	4344
922.462	4227
922.571	4158
922.68	4074
922.789	4017
922.898	4055
923.007	4002
923.116	4150
923.224	4109
923.333	4124
923.442	4040
923.55	4059
923.659	4036
923.767	4105
923.876	4048
923.984	4154
924.092	4051
924.201	4150
924.309	4173
924.417	4181
924.525	4090
924.633	4128
924.741	5136
924.849	3934
924.956	4188
925.064	4032
925.172	3953
925.279	3998
925.387	4128
925.494	4074
925.602	4242
925.709	4238
925.816	4059
925.924	4223
926.031	4280
926.138	4188
926.245	4261
926.352	4128
926.459	4261
926.566	4337
926.673	4169
926.779	4112
926.886	4112
926.993	4055
927.099	3987
927.206	4002
927.312	4025
927.419	4086
927.525	4051
927.631	4116
927.737	4002
927.843	3956
927.95	3869
928.056	4025
928.162	4036
928.267	4032
928.373	4660
928.479	4166
928.585	3911
928.69	4055
928.796	4105
928.901	3983
929.007	3873
929.112	3991
929.218	3987
929.323	3998
929.428	3983
929.533	4185
929.638	3926
929.743	3979
929.848	4074
929.953	4055
930.058	3968
930.163	3819
930.267	3823
930.372	4006
930.477	3854
930.581	4128
930.685	3987
930.79	3880
930.894	3953
930.998	3892
931.103	4074
931.207	3740
931.311	3709
931.415	3675
931.519	3538
931.623	3557
