Data from test_V78500241_1944.txt Node
Date: Fri Mar 25 17:02:31 CST 2022
User: usil
Spectrometer: V785-0024
Trigger mode: 0
Integration Time (sec): 4.000000E-1
Scans to average: 1
Nonlinearity correction enabled: false
Boxcar width: 0
Storing dark spectrum: false
XAxis mode: Wavelengths
Number of Pixels in Spectrum: 1024
>>>>>Begin Spectral Data<<<<<
801.071	7947
801.214	7997
801.356	7841
801.499	7849
801.641	7818
801.783	7845
801.926	7925
802.068	7944
802.211	7955
802.353	7940
802.496	7871
802.638	7852
802.78	7894
802.923	7898
803.065	7902
803.208	7822
803.35	7875
803.492	8115
803.635	8138
803.777	7936
803.919	8134
804.061	8434
804.204	8210
804.346	8096
804.488	7887
804.63	8039
804.773	7940
804.915	8031
805.057	8263
805.199	8142
805.341	8237
805.483	8206
805.626	8168
805.768	8161
805.91	8199
806.052	8164
806.194	8077
806.336	8324
806.478	8020
806.62	8073
806.762	8115
806.904	8301
807.046	8495
807.188	8358
807.33	8286
807.472	8351
807.614	8119
807.756	8168
807.898	7963
808.04	7845
808.182	7837
808.324	7788
808.465	7928
808.607	8096
808.749	8103
808.891	8202
809.033	8339
809.174	8240
809.316	8126
809.458	8073
809.6	8046
809.741	8027
809.883	8020
810.025	8073
810.166	8027
810.308	8039
810.45	8016
810.591	7871
810.733	7776
810.875	7636
811.016	7480
811.158	7457
811.299	7613
811.441	7685
811.582	7628
811.724	7514
811.865	7594
812.007	7597
812.148	7563
812.29	7620
812.431	7723
812.573	7845
812.714	7970
812.855	8145
812.997	8195
813.138	8393
813.279	8237
813.421	8012
813.562	7978
813.703	7814
813.845	7753
813.986	7415
814.127	7206
814.268	7236
814.41	7179
814.551	7213
814.692	7194
814.833	7156
814.974	7149
815.115	7179
815.256	6996
815.397	6909
815.539	6878
815.68	6833
815.821	6764
815.962	6913
816.103	6837
816.244	6681
816.385	6582
816.526	6627
816.666	6483
816.807	6357
816.948	6426
817.089	6536
817.23	6414
817.371	6437
817.512	6365
817.653	6376
817.793	6331
817.934	6376
818.075	6471
818.216	6433
818.356	6391
818.497	6224
818.638	6133
818.778	6182
818.919	6125
819.06	6235
819.2	6327
819.341	6292
819.481	6369
819.622	6578
819.762	6760
819.903	6642
820.043	6521
820.184	6566
820.324	6570
820.465	6684
820.605	6700
820.746	6688
820.886	6528
821.026	6692
821.167	6692
821.307	6779
821.447	6757
821.588	6738
821.728	6585
821.868	6532
822.008	6357
822.149	6410
822.289	6361
822.429	6125
822.569	6087
822.709	6102
822.849	5958
822.99	5935
823.13	5908
823.27	5870
823.41	5813
823.55	5748
823.69	5710
823.83	5775
823.97	5596
824.11	5455
824.25	5501
824.389	5528
824.529	5589
824.669	5493
824.809	5619
824.949	5627
825.089	5627
825.228	5535
825.368	5387
825.508	5334
825.648	5349
825.787	5414
825.927	5360
826.067	5254
826.206	5261
826.346	5387
826.485	5463
826.625	5387
826.765	5520
826.904	5471
827.044	5265
827.183	5231
827.323	5098
827.462	5280
827.601	5227
827.741	5181
827.88	5181
828.02	5113
828.159	5235
828.298	5288
828.437	5417
828.577	5284
828.716	5467
828.855	5280
828.994	5151
829.134	5151
829.273	5121
829.412	5113
829.551	5140
829.69	5189
829.829	5231
829.968	5398
830.107	5315
830.246	5246
830.385	5181
830.524	5132
830.663	5105
830.802	4976
830.941	4881
831.08	4847
831.219	4999
831.357	4946
831.496	5201
831.635	4908
831.774	4843
831.913	4850
832.051	4717
832.19	4744
832.329	4816
832.467	4702
832.606	4672
832.744	4679
832.883	4740
833.022	4740
833.16	4805
833.299	4805
833.437	4816
833.576	4786
833.714	4858
833.852	4877
833.991	4870
834.129	4991
834.267	4949
834.406	4923
834.544	5010
834.682	4927
834.821	4949
834.959	5193
835.097	4995
835.235	5117
835.373	5170
835.511	5086
835.65	5029
835.788	5006
835.926	4946
836.064	4843
836.202	4923
836.34	5155
836.478	5250
836.615	5178
836.753	5212
836.891	5307
837.029	5242
837.167	5216
837.305	5170
837.443	5117
837.58	5098
837.718	5258
837.856	5189
837.993	5181
838.131	5204
838.269	5220
838.406	5254
838.544	5178
838.681	5079
838.819	5010
838.956	4873
839.094	4908
839.231	4980
839.369	5083
839.506	5372
839.643	5288
839.781	5048
839.918	5006
840.055	5109
840.193	5083
840.33	5064
840.467	5128
840.604	5102
840.742	5467
840.879	5045
841.016	5086
841.153	5124
841.29	5334
841.427	5372
841.564	5311
841.701	5383
841.838	5303
841.975	5223
842.112	5280
842.249	5151
842.385	5117
842.522	5322
842.659	5208
842.796	5075
842.933	5174
843.069	5147
843.206	5189
843.343	5250
843.479	5250
843.616	5254
843.752	4991
843.889	5048
844.025	5239
844.162	5022
844.298	5181
844.435	5086
844.571	5064
844.708	5193
844.844	5261
844.98	5273
845.117	5265
845.253	5140
845.389	5045
845.525	5166
845.661	5094
845.798	5037
845.934	5136
846.07	5048
846.206	5155
846.342	5250
846.478	5166
846.614	5018
846.75	4949
846.886	4942
847.022	5159
847.158	5014
847.294	4991
847.429	5105
847.565	5060
847.701	5288
847.837	4831
847.972	4820
848.108	4946
848.244	4942
848.379	4786
848.515	4755
848.65	4710
848.786	4694
848.921	4790
849.057	4843
849.192	4911
849.328	4854
849.463	4854
849.598	4774
849.734	4759
849.869	4702
850.004	4618
850.14	4664
850.275	4645
850.41	4542
850.545	4573
850.68	4660
850.815	4672
850.95	4615
851.085	4771
851.22	4793
851.355	4637
851.49	4565
851.625	4607
851.76	4637
851.895	4588
852.03	4550
852.165	4649
852.299	4683
852.434	4782
852.569	4793
852.703	4744
852.838	4870
852.973	4923
853.107	4919
853.242	4755
853.376	4702
853.511	4546
853.645	4630
853.78	4786
853.914	4664
854.048	4694
854.183	4683
854.317	4740
854.451	4862
854.585	4641
854.72	4672
854.854	4725
854.988	4634
855.122	4622
855.256	4519
855.39	4672
855.524	4752
855.658	4759
855.792	4694
855.926	4786
856.06	4759
856.194	4828
856.327	4664
856.461	4618
856.595	4630
856.729	4634
856.862	4755
856.996	4687
857.13	4687
857.263	4797
857.397	4778
857.53	4649
857.664	4721
857.797	4748
857.931	4759
858.064	4714
858.197	4729
858.331	4622
858.464	4561
858.597	4527
858.731	4565
858.864	4618
858.997	4577
859.13	4710
859.263	4615
859.396	4714
859.529	4538
859.662	4546
859.795	4527
859.928	4618
860.061	4721
860.194	4736
860.327	4615
860.46	4546
860.592	4710
860.725	4679
860.858	4721
860.99	4592
861.123	4569
861.256	4508
861.388	4599
861.521	5269
861.653	4508
861.786	4432
861.918	4474
862.05	4542
862.183	4538
862.315	4546
862.447	4672
862.58	4550
862.712	4375
862.844	4333
862.976	4497
863.108	4481
863.24	4816
863.372	4367
863.504	4436
863.636	4413
863.768	4508
863.9	4447
864.032	4383
864.164	4405
864.296	4432
864.428	4554
864.559	4599
864.691	4542
864.823	4523
864.954	4440
865.086	4516
865.217	4447
865.349	4459
865.48	4409
865.612	4489
865.743	4611
865.875	4497
866.006	4436
866.137	4455
866.269	4398
866.4	4405
866.531	4402
866.662	4394
866.793	4417
866.924	4409
867.055	4512
867.186	4417
867.317	4417
867.448	4363
867.579	4379
867.71	4390
867.841	4344
867.972	4466
868.103	4436
868.233	4455
868.364	4398
868.495	4485
868.625	4626
868.756	4736
868.886	4550
869.017	4637
869.147	4744
869.278	4752
869.408	4691
869.539	4584
869.669	4759
869.799	4656
869.929	4733
870.06	4630
870.19	4946
870.32	4877
870.45	4942
870.58	5025
870.71	5064
870.84	5083
870.97	4900
871.1	4908
871.23	5132
871.36	5102
871.489	5003
871.619	5102
871.749	5098
871.879	5109
872.008	5159
872.138	5022
872.267	4965
872.397	4877
872.526	4820
872.656	4740
872.785	4824
872.915	4984
873.044	5048
873.173	4938
873.303	4870
873.432	4934
873.561	4938
873.69	4877
873.819	4828
873.948	4885
874.077	4847
874.206	4714
874.335	4797
874.464	4911
874.593	5029
874.722	4991
874.851	5086
874.979	5033
875.108	5010
875.237	4892
875.365	4866
875.494	4896
875.623	4987
875.751	4854
875.88	4854
876.008	5006
876.136	4999
876.265	5208
876.393	5326
876.521	5254
876.65	5212
876.778	5132
876.906	5064
877.034	5029
877.162	5056
877.29	4995
877.418	5041
877.546	5029
877.674	5037
877.802	5003
877.93	5037
878.058	4911
878.185	4904
878.313	4923
878.441	4965
878.568	4801
878.696	4885
878.824	4938
878.951	4972
879.079	5128
879.206	5231
879.333	5048
879.461	4953
879.588	4987
879.715	5124
879.842	5250
879.97	5014
880.097	4744
880.224	4736
880.351	4847
880.478	4831
880.605	4816
880.732	4755
880.859	5071
880.986	4900
881.112	4889
881.239	4797
881.366	4733
881.493	4622
881.619	4599
881.746	4672
881.872	4626
881.999	4622
882.125	4691
882.252	4755
882.378	4809
882.505	4957
882.631	4797
882.757	4675
882.883	4725
883.01	4740
883.136	4622
883.262	4611
883.388	4626
883.514	4816
883.64	4854
883.766	4774
883.892	4698
884.018	4771
884.143	4923
884.269	4995
884.395	4599
884.52	4649
884.646	4637
884.772	4580
884.897	4519
885.023	4607
885.148	4759
885.274	4866
885.399	4850
885.524	4702
885.65	4706
885.775	4706
885.9	4698
886.025	4847
886.15	4778
886.275	4717
886.4	4626
886.525	4755
886.65	4702
886.775	4683
886.9	4885
887.025	4991
887.149	4786
887.274	4664
887.399	4637
887.523	4611
887.648	4569
887.773	4554
887.897	4790
888.021	4805
888.146	4694
888.27	4797
888.395	4885
888.519	4793
888.643	4828
888.767	4835
888.891	4634
889.015	4637
889.139	4641
889.263	4596
889.387	4744
889.511	4858
889.635	4809
889.759	4649
889.883	4649
890.006	4675
890.13	4858
890.254	4611
890.377	4694
890.501	4554
890.624	4493
890.748	4668
890.871	4538
890.995	4417
891.118	4383
891.241	4493
891.364	4519
891.488	4675
891.611	4489
891.734	4554
891.857	4645
891.98	4512
892.103	4630
892.226	4592
892.349	4512
892.471	4481
892.594	4565
892.717	4618
892.839	4550
892.962	4569
893.085	4634
893.207	4618
893.33	4436
893.452	4489
893.575	4656
893.697	4504
893.819	4782
893.941	4820
894.064	4767
894.186	4561
894.308	4618
894.43	4706
894.552	4774
894.674	4767
894.796	4558
894.918	4558
895.04	4592
895.161	4710
895.283	4675
895.405	4618
895.526	4626
895.648	4672
895.769	4683
895.891	4755
896.012	4729
896.134	4752
896.255	4660
896.376	4668
896.498	4653
896.619	4679
896.74	4565
896.861	4603
896.982	4919
897.103	5052
897.224	4839
897.345	4725
897.466	4645
897.587	4668
897.708	4828
897.828	4824
897.949	4641
898.07	4542
898.19	4622
898.311	4786
898.431	4588
898.552	4748
898.672	4778
898.792	4778
898.913	4717
899.033	4611
899.153	4489
899.273	4428
899.393	4497
899.513	4489
899.633	4519
899.753	4481
899.873	4474
899.993	4618
900.113	4519
900.232	4561
900.352	4550
900.472	4500
900.591	4417
900.711	4500
900.83	4409
900.95	4622
901.069	4687
901.189	4538
901.308	4337
901.427	4306
901.546	4344
901.665	4485
901.784	4542
901.904	4386
902.023	4329
902.141	4238
902.26	4166
902.379	4337
902.498	4227
902.617	4207
902.735	4436
902.854	4337
902.973	4322
903.091	4215
903.21	4230
903.328	4322
903.446	4227
903.565	4227
903.683	4360
903.801	4268
903.919	4383
904.038	4432
904.156	4314
904.274	4424
904.392	4363
904.51	4470
904.627	4447
904.745	4599
904.863	4588
904.981	4371
905.098	4344
905.216	4360
905.334	4424
905.451	4459
905.569	4398
905.686	4573
905.803	4546
905.921	4367
906.038	4508
906.155	4481
906.272	4409
906.389	4436
906.506	4383
906.623	4390
906.74	4386
906.857	4337
906.974	4394
907.091	4546
907.208	4668
907.324	4626
907.441	4519
907.557	4383
907.674	4299
907.79	4310
907.907	4333
908.023	4478
908.139	4485
908.256	4443
908.372	4508
908.488	4447
908.604	4310
908.72	4352
908.836	4402
908.952	4371
909.068	4409
909.184	4596
909.3	4485
909.415	4569
909.531	4535
909.647	4325
909.762	4325
909.878	4344
909.993	4413
910.108	4394
910.224	4409
910.339	4466
910.454	4405
910.57	4352
910.685	4284
910.8	4656
910.915	4634
911.03	4489
911.145	4306
911.259	4356
911.374	4318
911.489	4272
911.604	4306
911.718	4215
911.833	4257
911.947	4074
912.062	4032
912.176	4204
912.291	4238
912.405	4257
912.519	4440
912.633	4474
912.748	4352
912.862	4306
912.976	4181
913.09	4128
913.204	4143
913.318	4261
913.431	4352
913.545	4337
913.659	4417
913.772	4344
913.886	4306
914	4211
914.113	4398
914.226	4390
914.34	4375
914.453	4249
914.566	4413
914.68	4322
914.793	4314
914.906	4150
915.019	4128
915.132	4074
915.245	4204
915.358	4219
915.47	4204
915.583	4242
915.696	4314
915.809	4417
915.921	4402
916.034	4242
916.146	4299
916.259	4238
916.371	4386
916.483	4306
916.595	4257
916.708	4322
916.82	4287
916.932	4291
917.044	4360
917.156	4329
917.268	4242
917.38	4276
917.491	4295
917.603	4337
917.715	4375
917.826	4409
917.938	4356
918.049	4211
918.161	4379
918.272	4550
918.384	4584
918.495	4390
918.606	4303
918.717	4238
918.828	4322
918.939	4306
919.05	4219
919.161	4322
919.272	4150
919.383	4234
919.494	4424
919.604	4622
919.715	4432
919.826	4356
919.936	4413
920.047	4512
920.157	4462
920.267	4675
920.378	4577
920.488	4474
920.598	4698
920.708	4885
920.818	4805
920.928	4763
921.038	4942
921.148	4915
921.258	4645
921.368	4596
921.477	4512
921.587	4474
921.697	4390
921.806	4561
921.916	4459
922.025	4272
922.134	4314
922.244	4223
922.353	4314
922.462	4181
922.571	4131
922.68	3975
922.789	4017
922.898	4013
923.007	3983
923.116	4124
923.224	4051
923.333	4036
923.442	3922
923.55	3964
923.659	4029
923.767	4112
923.876	4025
923.984	4147
924.092	3983
924.201	4082
924.309	4086
924.417	4158
924.525	4025
924.633	4082
924.741	5037
924.849	3930
924.956	4135
925.064	3972
925.172	3888
925.279	3964
925.387	4067
925.494	4078
925.602	4215
925.709	4143
925.816	4059
925.924	4116
926.031	4238
926.138	4143
926.245	4177
926.352	4101
926.459	4215
926.566	4303
926.673	4131
926.779	4082
926.886	4071
926.993	3968
927.099	3949
927.206	3964
927.312	3994
927.419	4044
927.525	3979
927.631	4067
927.737	3941
927.843	3930
927.95	3854
928.056	3972
928.162	3926
928.267	4048
928.373	4584
928.479	4128
928.585	3903
928.69	3968
928.796	4044
928.901	3941
929.007	3766
929.112	4021
929.218	3987
929.323	3930
929.428	3968
929.533	4101
929.638	3903
929.743	3968
929.848	4048
929.953	4021
930.058	3907
930.163	3774
930.267	3827
930.372	3960
930.477	3781
930.581	4078
930.685	3937
930.79	3842
930.894	3896
930.998	3873
931.103	4055
931.207	3724
931.311	3705
931.415	3675
931.519	3523
931.623	3549
