Data from test_V78500241_31.txt Node
Date: Fri Mar 25 16:49:13 CST 2022
User: usil
Spectrometer: V785-0024
Trigger mode: 0
Integration Time (sec): 4.000000E-1
Scans to average: 1
Nonlinearity correction enabled: false
Boxcar width: 0
Storing dark spectrum: false
XAxis mode: Wavelengths
Number of Pixels in Spectrum: 1024
>>>>>Begin Spectral Data<<<<<
801.071	8043
801.214	8088
801.356	7940
801.499	7951
801.641	7913
801.783	7902
801.926	8039
802.068	8062
802.211	8008
802.353	8039
802.496	8012
802.638	7982
802.78	7993
802.923	7963
803.065	7925
803.208	7967
803.35	7978
803.492	8142
803.635	8248
803.777	7955
803.919	8126
804.061	8549
804.204	8130
804.346	8164
804.488	8024
804.63	8153
804.773	8012
804.915	8123
805.057	8328
805.199	8244
805.341	8313
805.483	8355
805.626	8317
805.768	8244
805.91	8298
806.052	8195
806.194	8187
806.336	8351
806.478	8210
806.62	8153
806.762	8244
806.904	8259
807.046	8568
807.188	8438
807.33	8450
807.472	8396
807.614	8259
807.756	8202
807.898	8092
808.04	7970
808.182	8062
808.324	7921
808.465	7947
808.607	8046
808.749	8172
808.891	8244
809.033	8339
809.174	8233
809.316	8073
809.458	8039
809.6	8050
809.741	8100
809.883	8012
810.025	8229
810.166	8164
810.308	8084
810.45	8054
810.591	7993
810.733	7890
810.875	7727
811.016	7639
811.158	7559
811.299	7712
811.441	7856
811.582	7780
811.724	7677
811.865	7674
812.007	7715
812.148	7651
812.29	7765
812.431	7818
812.573	7898
812.714	8020
812.855	8180
812.997	8237
813.138	8454
813.279	8267
813.421	8202
813.562	8081
813.703	7902
813.845	7837
813.986	7533
814.127	7312
814.268	7278
814.41	7266
814.551	7202
814.692	7305
814.833	7145
814.974	7198
815.115	7251
815.256	7000
815.397	6977
815.539	6973
815.68	6840
815.821	6852
815.962	6913
816.103	6901
816.244	6875
816.385	6722
816.526	6662
816.666	6677
816.807	6429
816.948	6536
817.089	6555
817.23	6517
817.371	6464
817.512	6460
817.653	6403
817.793	6445
817.934	6464
818.075	6532
818.216	6506
818.356	6467
818.497	6338
818.638	6209
818.778	6277
818.919	6224
819.06	6235
819.2	6353
819.341	6509
819.481	6452
819.622	6642
819.762	6810
819.903	6802
820.043	6711
820.184	6650
820.324	6692
820.465	6806
820.605	6696
820.746	6669
820.886	6559
821.026	6764
821.167	6764
821.307	6890
821.447	6840
821.588	6760
821.728	6604
821.868	6521
822.008	6422
822.149	6410
822.289	6437
822.429	6228
822.569	6175
822.709	6182
822.849	6060
822.99	5999
823.13	6015
823.27	5999
823.41	5866
823.55	5885
823.69	5847
823.83	5908
823.97	5779
824.11	5638
824.25	5615
824.389	5634
824.529	5676
824.669	5611
824.809	5695
824.949	5794
825.089	5714
825.228	5619
825.368	5436
825.508	5425
825.648	5474
825.787	5501
825.927	5436
826.067	5421
826.206	5318
826.346	5436
826.485	5486
826.625	5516
826.765	5634
826.904	5539
827.044	5269
827.183	5299
827.323	5204
827.462	5299
827.601	5280
827.741	5269
827.88	5269
828.02	5170
828.159	5307
828.298	5345
828.437	5452
828.577	5372
828.716	5528
828.855	5372
828.994	5265
829.134	5284
829.273	5254
829.412	5197
829.551	5201
829.69	5223
829.829	5341
829.968	5444
830.107	5318
830.246	5337
830.385	5288
830.524	5239
830.663	5113
830.802	5018
830.941	4949
831.08	4908
831.219	5045
831.357	5045
831.496	5208
831.635	5006
831.774	4934
831.913	4980
832.051	4786
832.19	4843
832.329	4900
832.467	4752
832.606	4706
832.744	4782
832.883	4714
833.022	4854
833.16	4877
833.299	4873
833.437	4927
833.576	4896
833.714	4938
833.852	4915
833.991	5022
834.129	5056
834.267	4995
834.406	4980
834.544	5022
834.682	5033
834.821	5067
834.959	5201
835.097	5083
835.235	5170
835.373	5151
835.511	5181
835.65	5071
835.788	5086
835.926	5006
836.064	4923
836.202	5010
836.34	5277
836.478	5322
836.615	5136
836.753	5288
836.891	5368
837.029	5368
837.167	5318
837.305	5250
837.443	5223
837.58	5136
837.718	5280
837.856	5204
837.993	5239
838.131	5280
838.269	5235
838.406	5277
838.544	5239
838.681	5064
838.819	5086
838.956	5014
839.094	4911
839.231	5056
839.369	5166
839.506	5516
839.643	5345
839.781	5151
839.918	5094
840.055	5147
840.193	5162
840.33	5197
840.467	5204
840.604	5242
840.742	5535
840.879	5162
841.016	5185
841.153	5166
841.29	5448
841.427	5402
841.564	5402
841.701	5467
841.838	5318
841.975	5315
842.112	5322
842.249	5216
842.385	5170
842.522	5387
842.659	5311
842.796	5216
842.933	5299
843.069	5231
843.206	5223
843.343	5376
843.479	5315
843.616	5341
843.752	5079
843.889	5067
844.025	5246
844.162	5105
844.298	5193
844.435	5159
844.571	5102
844.708	5280
844.844	5391
844.98	5410
845.117	5383
845.253	5204
845.389	5147
845.525	5254
845.661	5231
845.798	5124
845.934	5185
846.07	5109
846.206	5254
846.342	5372
846.478	5250
846.614	5064
846.75	5098
846.886	4972
847.022	5220
847.158	5048
847.294	5185
847.429	5193
847.565	5185
847.701	5376
847.837	4957
847.972	4889
848.108	5018
848.244	5003
848.379	4820
848.515	4790
848.65	4782
848.786	4809
848.921	4831
849.057	4923
849.192	4942
849.328	4896
849.463	4873
849.598	4866
849.734	4828
849.869	4759
850.004	4717
850.14	4759
850.275	4634
850.41	4558
850.545	4660
850.68	4611
850.815	4664
850.95	4694
851.085	4900
851.22	4812
851.355	4687
851.49	4675
851.625	4729
851.76	4694
851.895	4615
852.03	4577
852.165	4702
852.299	4782
852.434	4831
852.569	4805
852.703	4793
852.838	4934
852.973	4961
853.107	4995
853.242	4843
853.376	4702
853.511	4577
853.645	4691
853.78	4820
853.914	4767
854.048	4744
854.183	4691
854.317	4744
854.451	4957
854.585	4759
854.72	4691
854.854	4820
854.988	4626
855.122	4683
855.256	4599
855.39	4694
855.524	4854
855.658	4797
855.792	4755
855.926	4733
856.06	4816
856.194	4858
856.327	4755
856.461	4710
856.595	4675
856.729	4664
856.862	4809
856.996	4786
857.13	4767
857.263	4831
857.397	4801
857.53	4649
857.664	4812
857.797	4858
857.931	4824
858.064	4759
858.197	4778
858.331	4752
858.464	4691
858.597	4592
858.731	4675
858.864	4634
858.997	4626
859.13	4752
859.263	4744
859.396	4755
859.529	4641
859.662	4577
859.795	4565
859.928	4755
860.061	4843
860.194	4850
860.327	4668
860.46	4611
860.592	4755
860.725	4774
860.858	4774
860.99	4641
861.123	4527
861.256	4531
861.388	4683
861.521	5421
861.653	4558
861.786	4489
861.918	4542
862.05	4580
862.183	4618
862.315	4668
862.447	4687
862.58	4588
862.712	4436
862.844	4436
862.976	4527
863.108	4538
863.24	4946
863.372	4379
863.504	4481
863.636	4455
863.768	4538
863.9	4481
864.032	4386
864.164	4459
864.296	4516
864.428	4577
864.559	4599
864.691	4607
864.823	4660
864.954	4523
865.086	4569
865.217	4497
865.349	4474
865.48	4508
865.612	4523
865.743	4679
865.875	4519
866.006	4554
866.137	4512
866.269	4478
866.4	4500
866.531	4455
866.662	4421
866.793	4455
866.924	4459
867.055	4558
867.186	4531
867.317	4447
867.448	4375
867.579	4443
867.71	4432
867.841	4409
867.972	4497
868.103	4561
868.233	4489
868.364	4531
868.495	4550
868.625	4725
868.756	4820
868.886	4618
869.017	4664
869.147	4824
869.278	4862
869.408	4675
869.539	4710
869.669	4790
869.799	4706
869.929	4828
870.06	4793
870.19	4987
870.32	4984
870.45	5022
870.58	5083
870.71	5132
870.84	5185
870.97	4961
871.1	4949
871.23	5242
871.36	5124
871.489	5105
871.619	5170
871.749	5151
871.879	5174
872.008	5269
872.138	5162
872.267	5052
872.397	4877
872.526	4862
872.656	4801
872.785	4824
872.915	5052
873.044	5113
873.173	5003
873.303	5018
873.432	5029
873.561	5006
873.69	4968
873.819	4900
873.948	4965
874.077	4858
874.206	4759
874.335	4828
874.464	5006
874.593	5090
874.722	5064
874.851	5197
874.979	5124
875.108	5128
875.237	4980
875.365	4881
875.494	4938
875.623	5006
875.751	4900
875.88	4927
876.008	5037
876.136	5113
876.265	5220
876.393	5433
876.521	5292
876.65	5292
876.778	5223
876.906	5162
877.034	5094
877.162	5090
877.29	5010
877.418	5143
877.546	5113
877.674	5094
877.802	5029
877.93	5045
878.058	4972
878.185	4930
878.313	5003
878.441	5025
878.568	4843
878.696	4919
878.824	5014
878.951	5071
879.079	5174
879.206	5334
879.333	5185
879.461	4991
879.588	5071
879.715	5181
879.842	5231
879.97	5075
880.097	4877
880.224	4771
880.351	4866
880.478	4828
880.605	4782
880.732	4835
880.859	5140
880.986	4976
881.112	4980
881.239	4828
881.366	4729
881.493	4656
881.619	4622
881.746	4714
881.872	4691
881.999	4721
882.125	4672
882.252	4839
882.378	4919
882.505	5006
882.631	4839
882.757	4820
882.883	4774
883.01	4820
883.136	4733
883.262	4649
883.388	4687
883.514	4835
883.64	4866
883.766	4843
883.892	4710
884.018	4752
884.143	4938
884.269	5079
884.395	4679
884.52	4679
884.646	4714
884.772	4618
884.897	4577
885.023	4725
885.148	4854
885.274	4896
885.399	4896
885.524	4790
885.65	4786
885.775	4774
885.9	4729
886.025	4927
886.15	4793
886.275	4812
886.4	4710
886.525	4763
886.65	4744
886.775	4714
886.9	4938
887.025	5048
887.149	4782
887.274	4717
887.399	4626
887.523	4649
887.648	4679
887.773	4672
887.897	4767
888.021	4843
888.146	4736
888.27	4877
888.395	4965
888.519	4843
888.643	4843
888.767	4862
888.891	4714
889.015	4691
889.139	4714
889.263	4626
889.387	4759
889.511	4934
889.635	4866
889.759	4740
889.883	4702
890.006	4767
890.13	4881
890.254	4672
890.377	4752
890.501	4615
890.624	4577
890.748	4683
890.871	4546
890.995	4500
891.118	4440
891.241	4519
891.364	4607
891.488	4603
891.611	4500
891.734	4584
891.857	4664
891.98	4592
892.103	4672
892.226	4637
892.349	4561
892.471	4470
892.594	4618
892.717	4637
892.839	4592
892.962	4656
893.085	4714
893.207	4660
893.33	4542
893.452	4558
893.575	4683
893.697	4622
893.819	4801
893.941	4812
894.064	4786
894.186	4622
894.308	4672
894.43	4820
894.552	4915
894.674	4843
894.796	4577
894.918	4649
895.04	4626
895.161	4755
895.283	4744
895.405	4580
895.526	4664
895.648	4744
895.769	4710
895.891	4774
896.012	4733
896.134	4797
896.255	4706
896.376	4717
896.498	4637
896.619	4740
896.74	4698
896.861	4763
896.982	4957
897.103	5064
897.224	4881
897.345	4763
897.466	4653
897.587	4824
897.708	4927
897.828	4862
897.949	4725
898.07	4634
898.19	4752
898.311	4881
898.431	4698
898.552	4782
898.672	4866
898.792	4858
898.913	4774
899.033	4649
899.153	4565
899.273	4440
899.393	4554
899.513	4569
899.633	4550
899.753	4596
899.873	4561
899.993	4618
900.113	4618
900.232	4622
900.352	4558
900.472	4615
900.591	4440
900.711	4500
900.83	4516
900.95	4656
901.069	4748
901.189	4596
901.308	4405
901.427	4371
901.546	4402
901.665	4519
901.784	4538
901.904	4424
902.023	4352
902.141	4211
902.26	4169
902.379	4360
902.498	4284
902.617	4299
902.735	4428
902.854	4413
902.973	4402
903.091	4253
903.21	4249
903.328	4367
903.446	4318
903.565	4360
903.683	4360
903.801	4303
903.919	4447
904.038	4455
904.156	4383
904.274	4531
904.392	4428
904.51	4493
904.627	4497
904.745	4592
904.863	4675
904.981	4447
905.098	4348
905.216	4363
905.334	4481
905.451	4462
905.569	4451
905.686	4599
905.803	4618
905.921	4436
906.038	4603
906.155	4516
906.272	4466
906.389	4516
906.506	4390
906.623	4375
906.74	4459
906.857	4325
906.974	4405
907.091	4611
907.208	4714
907.324	4618
907.441	4569
907.557	4367
907.674	4375
907.79	4383
907.907	4436
908.023	4535
908.139	4527
908.256	4500
908.372	4451
908.488	4478
908.604	4390
908.72	4344
908.836	4413
908.952	4409
909.068	4443
909.184	4580
909.3	4565
909.415	4611
909.531	4607
909.647	4379
909.762	4440
909.878	4409
909.993	4474
910.108	4440
910.224	4428
910.339	4519
910.454	4466
910.57	4459
910.685	4379
910.8	4687
910.915	4645
911.03	4554
911.145	4383
911.259	4375
911.374	4413
911.489	4375
911.604	4371
911.718	4196
911.833	4280
911.947	4135
912.062	4074
912.176	4287
912.291	4306
912.405	4261
912.519	4504
912.633	4565
912.748	4379
912.862	4375
912.976	4265
913.09	4139
913.204	4204
913.318	4234
913.431	4424
913.545	4424
913.659	4485
913.772	4386
913.886	4306
914	4242
914.113	4424
914.226	4489
914.34	4455
914.453	4265
914.566	4455
914.68	4341
914.793	4367
914.906	4230
915.019	4162
915.132	4124
915.245	4177
915.358	4299
915.47	4211
915.583	4325
915.696	4386
915.809	4459
915.921	4481
916.034	4291
916.146	4295
916.259	4261
916.371	4409
916.483	4398
916.595	4299
916.708	4352
916.82	4360
916.932	4367
917.044	4333
917.156	4367
917.268	4265
917.38	4344
917.491	4318
917.603	4383
917.715	4462
917.826	4489
917.938	4436
918.049	4253
918.161	4481
918.272	4630
918.384	4580
918.495	4500
918.606	4341
918.717	4272
918.828	4428
918.939	4447
919.05	4276
919.161	4383
919.272	4192
919.383	4272
919.494	4508
919.604	4683
919.715	4478
919.826	4375
919.936	4462
920.047	4542
920.157	4550
920.267	4759
920.378	4592
920.488	4561
920.598	4797
920.708	4957
920.818	4870
920.928	4763
921.038	4995
921.148	4965
921.258	4649
921.368	4573
921.477	4550
921.587	4561
921.697	4405
921.806	4637
921.916	4470
922.025	4287
922.134	4318
922.244	4303
922.353	4363
922.462	4230
922.571	4154
922.68	4017
922.789	4048
922.898	4040
923.007	4074
923.116	4135
923.224	4147
923.333	4112
923.442	4078
923.55	4002
923.659	4097
923.767	4162
923.876	4059
923.984	4158
924.092	4017
924.201	4139
924.309	4147
924.417	4188
924.525	4135
924.633	4139
924.741	5060
924.849	3972
924.956	4158
925.064	4013
925.172	3956
925.279	3994
925.387	4051
925.494	4093
925.602	4268
925.709	4227
925.816	4059
925.924	4169
926.031	4265
926.138	4204
926.245	4265
926.352	4105
926.459	4310
926.566	4333
926.673	4166
926.779	4147
926.886	4124
926.993	4032
927.099	3968
927.206	3994
927.312	4002
927.419	4082
927.525	4063
927.631	4120
927.737	3983
927.843	4025
927.95	3838
928.056	4021
928.162	4010
928.267	4086
928.373	4714
928.479	4192
928.585	3945
928.69	4082
928.796	4143
928.901	4074
929.007	3876
929.112	4044
929.218	4021
929.323	4010
929.428	3991
929.533	4177
929.638	3941
929.743	4017
929.848	4105
929.953	4002
930.058	3994
930.163	3804
930.267	3876
930.372	4017
930.477	3865
930.581	4131
930.685	3983
930.79	3880
930.894	3907
930.998	3907
931.103	4093
931.207	3774
931.311	3717
931.415	3701
931.519	3549
931.623	3576
