Data from test_V78500241_1036.txt Node
Date: Fri Mar 25 16:56:12 CST 2022
User: usil
Spectrometer: V785-0024
Trigger mode: 0
Integration Time (sec): 4.000000E-1
Scans to average: 1
Nonlinearity correction enabled: false
Boxcar width: 0
Storing dark spectrum: false
XAxis mode: Wavelengths
Number of Pixels in Spectrum: 1024
>>>>>Begin Spectral Data<<<<<
801.071	7997
801.214	8077
801.356	7860
801.499	7879
801.641	7799
801.783	7837
801.926	7928
802.068	8012
802.211	7986
802.353	7967
802.496	7826
802.638	7860
802.78	7944
802.923	7921
803.065	7921
803.208	7841
803.35	7947
803.492	8077
803.635	8180
803.777	8008
803.919	8142
804.061	8480
804.204	8195
804.346	8005
804.488	7986
804.63	8149
804.773	8024
804.915	8100
805.057	8317
805.199	8157
805.341	8244
805.483	8138
805.626	8180
805.768	8126
805.91	8206
806.052	8267
806.194	8050
806.336	8358
806.478	8050
806.62	8164
806.762	8172
806.904	8267
807.046	8324
807.188	8339
807.33	8282
807.472	8328
807.614	8119
807.756	8111
807.898	7963
808.04	7856
808.182	7864
808.324	7913
808.465	7921
808.607	8069
808.749	8115
808.891	8206
809.033	8294
809.174	8168
809.316	8092
809.458	8084
809.6	8001
809.741	8039
809.883	8016
810.025	8062
810.166	8050
810.308	8001
810.45	8062
810.591	7902
810.733	7666
810.875	7651
811.016	7499
811.158	7449
811.299	7556
811.441	7708
811.582	7670
811.724	7578
811.865	7499
812.007	7537
812.148	7594
812.29	7639
812.431	7742
812.573	7879
812.714	7974
812.855	8119
812.997	8240
813.138	8282
813.279	8142
813.421	8054
813.562	8062
813.703	7871
813.845	7693
813.986	7419
814.127	7312
814.268	7194
814.41	7187
814.551	7145
814.692	7133
814.833	7072
814.974	7065
815.115	7126
815.256	6970
815.397	6844
815.539	6935
815.68	6818
815.821	6738
815.962	6875
816.103	6798
816.244	6730
816.385	6658
816.526	6616
816.666	6483
816.807	6254
816.948	6403
817.089	6494
817.23	6429
817.371	6361
817.512	6346
817.653	6414
817.793	6369
817.934	6399
818.075	6452
818.216	6422
818.356	6471
818.497	6254
818.638	6148
818.778	6114
818.919	6167
819.06	6186
819.2	6323
819.341	6338
819.481	6361
819.622	6559
819.762	6734
819.903	6764
820.043	6639
820.184	6540
820.324	6559
820.465	6673
820.605	6688
820.746	6623
820.886	6517
821.026	6612
821.167	6639
821.307	6806
821.447	6772
821.588	6700
821.728	6528
821.868	6467
822.008	6357
822.149	6380
822.289	6296
822.429	6209
822.569	6091
822.709	6053
822.849	5885
822.99	5889
823.13	6007
823.27	5916
823.41	5737
823.55	5824
823.69	5783
823.83	5745
823.97	5634
824.11	5505
824.25	5497
824.389	5562
824.529	5577
824.669	5535
824.809	5600
824.949	5638
825.089	5611
825.228	5520
825.368	5395
825.508	5337
825.648	5368
825.787	5414
825.927	5376
826.067	5318
826.206	5330
826.346	5368
826.485	5406
826.625	5444
826.765	5543
826.904	5474
827.044	5261
827.183	5197
827.323	5094
827.462	5258
827.601	5170
827.741	5223
827.88	5216
828.02	5105
828.159	5235
828.298	5330
828.437	5334
828.577	5261
828.716	5417
828.855	5299
828.994	5162
829.134	5143
829.273	5162
829.412	5121
829.551	5140
829.69	5113
829.829	5231
829.968	5322
830.107	5246
830.246	5280
830.385	5147
830.524	5143
830.663	5071
830.802	4976
830.941	4843
831.08	4828
831.219	5033
831.357	4919
831.496	5170
831.635	4904
831.774	4889
831.913	4892
832.051	4752
832.19	4748
832.329	4850
832.467	4694
832.606	4618
832.744	4740
832.883	4702
833.022	4729
833.16	4812
833.299	4820
833.437	4809
833.576	4812
833.714	4847
833.852	4873
833.991	4862
834.129	4927
834.267	4984
834.406	4889
834.544	5018
834.682	4934
834.821	5006
834.959	5151
835.097	4995
835.235	5170
835.373	5090
835.511	5098
835.65	5018
835.788	5014
835.926	4858
836.064	4797
836.202	4923
836.34	5185
836.478	5201
836.615	5075
836.753	5204
836.891	5288
837.029	5216
837.167	5181
837.305	5162
837.443	5094
837.58	5071
837.718	5277
837.856	5185
837.993	5128
838.131	5242
838.269	5178
838.406	5174
838.544	5159
838.681	5022
838.819	5022
838.956	4900
839.094	4843
839.231	4949
839.369	5083
839.506	5395
839.643	5265
839.781	5041
839.918	5048
840.055	5064
840.193	5132
840.33	5045
840.467	5181
840.604	5132
840.742	5463
840.879	5105
841.016	5117
841.153	5113
841.29	5364
841.427	5303
841.564	5326
841.701	5315
841.838	5265
841.975	5231
842.112	5231
842.249	5098
842.385	5075
842.522	5311
842.659	5174
842.796	5124
842.933	5181
843.069	5140
843.206	5140
843.343	5322
843.479	5212
843.616	5239
843.752	5033
843.889	4987
844.025	5174
844.162	5014
844.298	5193
844.435	5113
844.571	4999
844.708	5223
844.844	5307
844.98	5341
845.117	5315
845.253	5147
845.389	5067
845.525	5159
845.661	5113
845.798	5041
845.934	5117
846.07	5052
846.206	5185
846.342	5269
846.478	5151
846.614	4995
846.75	4965
846.886	4934
847.022	5132
847.158	5064
847.294	5075
847.429	5064
847.565	5010
847.701	5280
847.837	4824
847.972	4809
848.108	4915
848.244	4919
848.379	4812
848.515	4691
848.65	4683
848.786	4706
848.921	4759
849.057	4847
849.192	4881
849.328	4767
849.463	4828
849.598	4748
849.734	4744
849.869	4637
850.004	4607
850.14	4607
850.275	4649
850.41	4500
850.545	4558
850.68	4599
850.815	4569
850.95	4675
851.085	4896
851.22	4683
851.355	4668
851.49	4592
851.625	4584
851.76	4611
851.895	4550
852.03	4481
852.165	4660
852.299	4710
852.434	4755
852.569	4744
852.703	4767
852.838	4820
852.973	4927
853.107	4911
853.242	4755
853.376	4706
853.511	4531
853.645	4596
853.78	4782
853.914	4664
854.048	4641
854.183	4653
854.317	4698
854.451	4850
854.585	4656
854.72	4645
854.854	4729
854.988	4611
855.122	4607
855.256	4519
855.39	4618
855.524	4725
855.658	4744
855.792	4675
855.926	4714
856.06	4740
856.194	4755
856.327	4691
856.461	4622
856.595	4588
856.729	4622
856.862	4748
856.996	4664
857.13	4706
857.263	4763
857.397	4782
857.53	4607
857.664	4683
857.797	4763
857.931	4793
858.064	4668
858.197	4744
858.331	4668
858.464	4603
858.597	4485
858.731	4622
858.864	4687
858.997	4550
859.13	4634
859.263	4668
859.396	4672
859.529	4554
859.662	4558
859.795	4550
859.928	4672
860.061	4782
860.194	4805
860.327	4645
860.46	4558
860.592	4729
860.725	4660
860.858	4694
860.99	4577
861.123	4519
861.256	4512
861.388	4599
861.521	5318
861.653	4470
861.786	4409
861.918	4512
862.05	4451
862.183	4538
862.315	4637
862.447	4603
862.58	4577
862.712	4424
862.844	4314
862.976	4508
863.108	4459
863.24	4896
863.372	4325
863.504	4451
863.636	4451
863.768	4440
863.9	4379
864.032	4367
864.164	4440
864.296	4447
864.428	4519
864.559	4558
864.691	4535
864.823	4512
864.954	4459
865.086	4527
865.217	4462
865.349	4394
865.48	4424
865.612	4535
865.743	4603
865.875	4428
866.006	4447
866.137	4424
866.269	4421
866.4	4428
866.531	4447
866.662	4383
866.793	4417
866.924	4447
867.055	4474
867.186	4409
867.317	4398
867.448	4417
867.579	4383
867.71	4375
867.841	4344
867.972	4428
868.103	4436
868.233	4466
868.364	4436
868.495	4481
868.625	4569
868.756	4698
868.886	4550
869.017	4603
869.147	4767
869.278	4702
869.408	4641
869.539	4634
869.669	4729
869.799	4653
869.929	4706
870.06	4748
870.19	4953
870.32	4911
870.45	4885
870.58	4991
870.71	5083
870.84	5075
870.97	4949
871.1	4889
871.23	5109
871.36	5109
871.489	5033
871.619	5075
871.749	5083
871.879	5105
872.008	5113
872.138	5086
872.267	4946
872.397	4835
872.526	4774
872.656	4706
872.785	4820
872.915	4961
873.044	5048
873.173	4923
873.303	4972
873.432	4927
873.561	4877
873.69	4896
873.819	4843
873.948	4908
874.077	4793
874.206	4759
874.335	4759
874.464	4866
874.593	5014
874.722	4889
874.851	5064
874.979	5022
875.108	5006
875.237	4942
875.365	4858
875.494	4843
875.623	4942
875.751	4862
875.88	4866
876.008	4976
876.136	5006
876.265	5193
876.393	5330
876.521	5204
876.65	5201
876.778	5098
876.906	5041
877.034	5006
877.162	5037
877.29	4961
877.418	5010
877.546	4995
877.674	5056
877.802	5010
877.93	4976
878.058	4942
878.185	4915
878.313	4949
878.441	4953
878.568	4767
878.696	4858
878.824	4927
878.951	4961
879.079	5117
879.206	5250
879.333	5079
879.461	4942
879.588	4999
879.715	5128
879.842	5212
879.97	5033
880.097	4744
880.224	4755
880.351	4782
880.478	4904
880.605	4774
880.732	4763
880.859	5113
880.986	4862
881.112	4915
881.239	4790
881.366	4668
881.493	4596
881.619	4558
881.746	4649
881.872	4630
881.999	4664
882.125	4672
882.252	4759
882.378	4812
882.505	4953
882.631	4805
882.757	4630
882.883	4748
883.01	4694
883.136	4675
883.262	4626
883.388	4603
883.514	4824
883.64	4843
883.766	4763
883.892	4656
884.018	4706
884.143	4908
884.269	5018
884.395	4634
884.52	4653
884.646	4622
884.772	4596
884.897	4519
885.023	4687
885.148	4774
885.274	4843
885.399	4771
885.524	4683
885.65	4656
885.775	4748
885.9	4664
886.025	4873
886.15	4748
886.275	4717
886.4	4630
886.525	4748
886.65	4664
886.775	4649
886.9	4870
887.025	5033
887.149	4771
887.274	4603
887.399	4569
887.523	4569
887.648	4618
887.773	4561
887.897	4763
888.021	4793
888.146	4634
888.27	4828
888.395	4892
888.519	4771
888.643	4790
888.767	4797
888.891	4653
889.015	4615
889.139	4607
889.263	4573
889.387	4721
889.511	4870
889.635	4778
889.759	4634
889.883	4611
890.006	4763
890.13	4824
890.254	4649
890.377	4653
890.501	4523
890.624	4474
890.748	4569
890.871	4497
890.995	4428
891.118	4386
891.241	4500
891.364	4615
891.488	4569
891.611	4489
891.734	4519
891.857	4637
891.98	4516
892.103	4630
892.226	4554
892.349	4531
892.471	4356
892.594	4481
892.717	4554
892.839	4554
892.962	4603
893.085	4675
893.207	4622
893.33	4417
893.452	4516
893.575	4622
893.697	4611
893.819	4790
893.941	4801
894.064	4755
894.186	4580
894.308	4577
894.43	4656
894.552	4850
894.674	4714
894.796	4538
894.918	4577
895.04	4554
895.161	4683
895.283	4630
895.405	4596
895.526	4584
895.648	4668
895.769	4683
895.891	4672
896.012	4656
896.134	4675
896.255	4675
896.376	4618
896.498	4577
896.619	4664
896.74	4660
896.861	4664
896.982	4919
897.103	5060
897.224	4854
897.345	4782
897.466	4660
897.587	4687
897.708	4828
897.828	4805
897.949	4698
898.07	4516
898.19	4630
898.311	4831
898.431	4630
898.552	4691
898.672	4778
898.792	4793
898.913	4706
899.033	4641
899.153	4485
899.273	4367
899.393	4500
899.513	4508
899.633	4512
899.753	4516
899.873	4527
899.993	4573
900.113	4565
900.232	4599
900.352	4523
900.472	4485
900.591	4402
900.711	4455
900.83	4398
900.95	4588
901.069	4664
901.189	4546
901.308	4428
901.427	4344
901.546	4325
901.665	4440
901.784	4447
901.904	4356
902.023	4299
902.141	4150
902.26	4215
902.379	4249
902.498	4219
902.617	4185
902.735	4394
902.854	4386
902.973	4371
903.091	4196
903.21	4211
903.328	4322
903.446	4287
903.565	4280
903.683	4310
903.801	4280
903.919	4363
904.038	4405
904.156	4341
904.274	4447
904.392	4413
904.51	4432
904.627	4466
904.745	4580
904.863	4649
904.981	4363
905.098	4295
905.216	4394
905.334	4424
905.451	4417
905.569	4440
905.686	4599
905.803	4573
905.921	4402
906.038	4561
906.155	4489
906.272	4405
906.389	4451
906.506	4310
906.623	4363
906.74	4360
906.857	4299
906.974	4344
907.091	4558
907.208	4653
907.324	4577
907.441	4508
907.557	4325
907.674	4344
907.79	4280
907.907	4371
908.023	4428
908.139	4451
908.256	4413
908.372	4500
908.488	4447
908.604	4348
908.72	4360
908.836	4360
908.952	4398
909.068	4402
909.184	4588
909.3	4462
909.415	4603
909.531	4565
909.647	4310
909.762	4379
909.878	4295
909.993	4440
910.108	4432
910.224	4390
910.339	4466
910.454	4371
910.57	4299
910.685	4287
910.8	4603
910.915	4626
911.03	4493
911.145	4325
911.259	4261
911.374	4371
911.489	4291
911.604	4253
911.718	4181
911.833	4120
911.947	4074
912.062	4017
912.176	4162
912.291	4253
912.405	4246
912.519	4470
912.633	4516
912.748	4402
912.862	4287
912.976	4200
913.09	4090
913.204	4158
913.318	4287
913.431	4379
913.545	4379
913.659	4413
913.772	4379
913.886	4261
914	4150
914.113	4352
914.226	4432
914.34	4360
914.453	4223
914.566	4455
914.68	4265
914.793	4333
914.906	4169
915.019	4150
915.132	4074
915.245	4162
915.358	4238
915.47	4204
915.583	4265
915.696	4299
915.809	4421
915.921	4428
916.034	4261
916.146	4257
916.259	4192
916.371	4383
916.483	4303
916.595	4280
916.708	4310
916.82	4322
916.932	4325
917.044	4318
917.156	4371
917.268	4207
917.38	4219
917.491	4276
917.603	4337
917.715	4421
917.826	4409
917.938	4363
918.049	4207
918.161	4428
918.272	4558
918.384	4466
918.495	4459
918.606	4276
918.717	4253
918.828	4291
918.939	4375
919.05	4253
919.161	4337
919.272	4116
919.383	4215
919.494	4451
919.604	4653
919.715	4443
919.826	4333
919.936	4363
920.047	4500
920.157	4500
920.267	4653
920.378	4523
920.488	4531
920.598	4691
920.708	4831
920.818	4733
920.928	4752
921.038	4927
921.148	4923
921.258	4599
921.368	4542
921.477	4489
921.587	4462
921.697	4363
921.806	4569
921.916	4421
922.025	4261
922.134	4261
922.244	4211
922.353	4348
922.462	4192
922.571	4116
922.68	3991
922.789	3994
922.898	4044
923.007	3987
923.116	4063
923.224	4124
923.333	4086
923.442	3968
923.55	3968
923.659	4025
923.767	4128
923.876	3998
923.984	4139
924.092	3987
924.201	4097
924.309	4093
924.417	4139
924.525	4021
924.633	4101
924.741	4980
924.849	3903
924.956	4082
925.064	3937
925.172	3903
925.279	3960
925.387	4048
925.494	4032
925.602	4242
925.709	4181
925.816	4017
925.924	4135
926.031	4238
926.138	4185
926.245	4185
926.352	4032
926.459	4257
926.566	4322
926.673	4135
926.779	4078
926.886	4063
926.993	3949
927.099	3968
927.206	3987
927.312	3918
927.419	4017
927.525	4067
927.631	4112
927.737	3964
927.843	3888
927.95	3781
928.056	3930
928.162	3956
928.267	4032
928.373	4679
928.479	4101
928.585	3892
928.69	4036
928.796	4082
928.901	3922
929.007	3880
929.112	3987
929.218	3972
929.323	3941
929.428	3956
929.533	4082
929.638	3941
929.743	3998
929.848	4021
929.953	4032
930.058	3899
930.163	3781
930.267	3854
930.372	3972
930.477	3804
930.581	4093
930.685	3945
930.79	3808
930.894	3884
930.998	3842
931.103	3987
931.207	3713
931.311	3736
931.415	3675
931.519	3549
931.623	3549
