Data from test_V78500241_1339.txt Node
Date: Fri Mar 25 16:58:18 CST 2022
User: usil
Spectrometer: V785-0024
Trigger mode: 0
Integration Time (sec): 4.000000E-1
Scans to average: 1
Nonlinearity correction enabled: false
Boxcar width: 0
Storing dark spectrum: false
XAxis mode: Wavelengths
Number of Pixels in Spectrum: 1024
>>>>>Begin Spectral Data<<<<<
801.071	8043
801.214	8016
801.356	7906
801.499	7871
801.641	7784
801.783	7830
801.926	7970
802.068	7936
802.211	7993
802.353	7963
802.496	7887
802.638	7887
802.78	7928
802.923	8001
803.065	7868
803.208	7902
803.35	7989
803.492	8054
803.635	8206
803.777	8084
803.919	8195
804.061	8522
804.204	8176
804.346	8088
804.488	8035
804.63	8096
804.773	7982
804.915	8149
805.057	8400
805.199	8157
805.341	8214
805.483	8248
805.626	8259
805.768	8123
805.91	8252
806.052	8218
806.194	8058
806.336	8282
806.478	8138
806.62	8054
806.762	8138
806.904	8244
807.046	8541
807.188	8271
807.33	8336
807.472	8301
807.614	8145
807.756	8081
807.898	7974
808.04	7932
808.182	7913
808.324	7879
808.465	7917
808.607	8062
808.749	8161
808.891	8176
809.033	8294
809.174	8187
809.316	8069
809.458	8031
809.6	7993
809.741	8016
809.883	8069
810.025	8088
810.166	8088
810.308	8016
810.45	8016
810.591	8001
810.733	7753
810.875	7643
811.016	7548
811.158	7514
811.299	7632
811.441	7693
811.582	7746
811.724	7613
811.865	7563
812.007	7499
812.148	7540
812.29	7651
812.431	7738
812.573	7841
812.714	7955
812.855	8138
812.997	8176
813.138	8275
813.279	8202
813.421	8119
813.562	8031
813.703	7852
813.845	7746
813.986	7457
814.127	7255
814.268	7228
814.41	7118
814.551	7152
814.692	7247
814.833	7038
814.974	7107
815.115	7118
815.256	7015
815.397	6932
815.539	6970
815.68	6810
815.821	6798
815.962	6882
816.103	6772
816.244	6711
816.385	6665
816.526	6601
816.666	6532
816.807	6319
816.948	6441
817.089	6448
817.23	6464
817.371	6342
817.512	6426
817.653	6388
817.793	6350
817.934	6422
818.075	6494
818.216	6460
818.356	6403
818.497	6296
818.638	6072
818.778	6171
818.919	6182
819.06	6201
819.2	6289
819.341	6323
819.481	6384
819.622	6525
819.762	6768
819.903	6738
820.043	6555
820.184	6574
820.324	6551
820.465	6726
820.605	6669
820.746	6635
820.886	6517
821.026	6696
821.167	6673
821.307	6700
821.447	6684
821.588	6730
821.728	6570
821.868	6509
822.008	6357
822.149	6384
822.289	6361
822.429	6133
822.569	6057
822.709	6079
822.849	5908
822.99	5908
823.13	5927
823.27	5904
823.41	5836
823.55	5786
823.69	5733
823.83	5729
823.97	5657
824.11	5512
824.25	5516
824.389	5604
824.529	5554
824.669	5551
824.809	5600
824.949	5627
825.089	5657
825.228	5585
825.368	5391
825.508	5372
825.648	5315
825.787	5383
825.927	5406
826.067	5284
826.206	5258
826.346	5410
826.485	5452
826.625	5448
826.765	5543
826.904	5478
827.044	5265
827.183	5208
827.323	5079
827.462	5227
827.601	5231
827.741	5239
827.88	5189
828.02	5147
828.159	5246
828.298	5284
828.437	5349
828.577	5227
828.716	5493
828.855	5315
828.994	5128
829.134	5140
829.273	5242
829.412	5151
829.551	5159
829.69	5128
829.829	5273
829.968	5364
830.107	5239
830.246	5254
830.385	5162
830.524	5124
830.663	5067
830.802	4942
830.941	4866
831.08	4858
831.219	4965
831.357	4984
831.496	5143
831.635	4934
831.774	4828
831.913	4835
832.051	4706
832.19	4706
832.329	4843
832.467	4649
832.606	4656
832.744	4721
832.883	4717
833.022	4755
833.16	4748
833.299	4759
833.437	4797
833.576	4847
833.714	4839
833.852	4862
833.991	4873
834.129	4949
834.267	4923
834.406	4862
834.544	4972
834.682	4961
834.821	4930
834.959	5185
835.097	4976
835.235	5124
835.373	5041
835.511	5075
835.65	5025
835.788	5029
835.926	4923
836.064	4896
836.202	4938
836.34	5117
836.478	5143
836.615	5140
836.753	5201
836.891	5220
837.029	5246
837.167	5132
837.305	5189
837.443	5178
837.58	5124
837.718	5250
837.856	5162
837.993	5128
838.131	5235
838.269	5170
838.406	5189
838.544	5231
838.681	5037
838.819	5025
838.956	4862
839.094	4900
839.231	4972
839.369	5064
839.506	5417
839.643	5288
839.781	5075
839.918	4987
840.055	5098
840.193	5052
840.33	5132
840.467	5132
840.604	5242
840.742	5463
840.879	5064
841.016	5090
841.153	5128
841.29	5357
841.427	5364
841.564	5341
841.701	5337
841.838	5269
841.975	5254
842.112	5265
842.249	5197
842.385	5067
842.522	5357
842.659	5208
842.796	5090
842.933	5124
843.069	5155
843.206	5151
843.343	5322
843.479	5227
843.616	5250
843.752	4995
843.889	5014
844.025	5216
844.162	4999
844.298	5189
844.435	5064
844.571	4999
844.708	5174
844.844	5296
844.98	5341
845.117	5261
845.253	5155
845.389	5033
845.525	5185
845.661	5143
845.798	5041
845.934	5117
846.07	5029
846.206	5220
846.342	5254
846.478	5162
846.614	5075
846.75	4987
846.886	4934
847.022	5113
847.158	4976
847.294	5045
847.429	5056
847.565	5056
847.701	5322
847.837	4850
847.972	4782
848.108	4972
848.244	4987
848.379	4725
848.515	4740
848.65	4736
848.786	4706
848.921	4767
849.057	4858
849.192	4889
849.328	4790
849.463	4854
849.598	4801
849.734	4744
849.869	4656
850.004	4588
850.14	4656
850.275	4634
850.41	4485
850.545	4531
850.68	4607
850.815	4630
850.95	4615
851.085	4809
851.22	4748
851.355	4637
851.49	4622
851.625	4607
851.76	4603
851.895	4538
852.03	4516
852.165	4653
852.299	4687
852.434	4767
852.569	4645
852.703	4744
852.838	4835
852.973	4953
853.107	4957
853.242	4706
853.376	4622
853.511	4531
853.645	4630
853.78	4812
853.914	4694
854.048	4672
854.183	4645
854.317	4744
854.451	4801
854.585	4653
854.72	4630
854.854	4759
854.988	4599
855.122	4637
855.256	4565
855.39	4691
855.524	4759
855.658	4740
855.792	4706
855.926	4706
856.06	4702
856.194	4786
856.327	4679
856.461	4592
856.595	4698
856.729	4577
856.862	4755
856.996	4664
857.13	4752
857.263	4763
857.397	4778
857.53	4672
857.664	4721
857.797	4702
857.931	4763
858.064	4630
858.197	4721
858.331	4653
858.464	4538
858.597	4542
858.731	4664
858.864	4630
858.997	4580
859.13	4645
859.263	4683
859.396	4664
859.529	4603
859.662	4519
859.795	4558
859.928	4668
860.061	4729
860.194	4786
860.327	4603
860.46	4565
860.592	4694
860.725	4752
860.858	4668
860.99	4561
861.123	4474
861.256	4531
861.388	4561
861.521	5299
861.653	4497
861.786	4489
861.918	4447
862.05	4481
862.183	4542
862.315	4573
862.447	4653
862.58	4550
862.712	4394
862.844	4363
862.976	4516
863.108	4428
863.24	4908
863.372	4276
863.504	4440
863.636	4375
863.768	4443
863.9	4447
864.032	4367
864.164	4405
864.296	4489
864.428	4504
864.559	4531
864.691	4500
864.823	4504
864.954	4500
865.086	4470
865.217	4466
865.349	4440
865.48	4481
865.612	4527
865.743	4603
865.875	4451
866.006	4432
866.137	4481
866.269	4417
866.4	4402
866.531	4443
866.662	4383
866.793	4443
866.924	4436
867.055	4519
867.186	4413
867.317	4409
867.448	4394
867.579	4367
867.71	4405
867.841	4303
867.972	4489
868.103	4451
868.233	4447
868.364	4417
868.495	4478
868.625	4630
868.756	4801
868.886	4596
869.017	4599
869.147	4763
869.278	4748
869.408	4683
869.539	4592
869.669	4672
869.799	4721
869.929	4729
870.06	4717
870.19	4915
870.32	4919
870.45	4934
870.58	4957
870.71	5075
870.84	5086
870.97	4892
871.1	4911
871.23	5105
871.36	5151
871.489	5010
871.619	5109
871.749	5102
871.879	5090
872.008	5147
872.138	5045
872.267	4968
872.397	4801
872.526	4843
872.656	4691
872.785	4820
872.915	4908
873.044	5014
873.173	4904
873.303	4953
873.432	4987
873.561	4934
873.69	4870
873.819	4892
873.948	4866
874.077	4774
874.206	4778
874.335	4809
874.464	4911
874.593	5006
874.722	4980
874.851	5083
874.979	4999
875.108	5056
875.237	4892
875.365	4900
875.494	4892
875.623	4991
875.751	4816
875.88	4828
876.008	4984
876.136	5037
876.265	5178
876.393	5345
876.521	5235
876.65	5201
876.778	5075
876.906	5048
877.034	4968
877.162	5018
877.29	5018
877.418	5037
877.546	5117
877.674	5003
877.802	5022
877.93	4980
878.058	4968
878.185	4877
878.313	4987
878.441	4965
878.568	4797
878.696	4927
878.824	4961
878.951	4987
879.079	5113
879.206	5296
879.333	5060
879.461	4980
879.588	4946
879.715	5086
879.842	5185
879.97	5037
880.097	4809
880.224	4752
880.351	4790
880.478	4831
880.605	4831
880.732	4805
880.859	5067
880.986	4927
881.112	4862
881.239	4721
881.366	4656
881.493	4580
881.619	4588
881.746	4607
881.872	4679
881.999	4668
882.125	4675
882.252	4782
882.378	4812
882.505	4904
882.631	4774
882.757	4706
882.883	4687
883.01	4714
883.136	4683
883.262	4584
883.388	4565
883.514	4835
883.64	4877
883.766	4774
883.892	4634
884.018	4710
884.143	4866
884.269	4991
884.395	4672
884.52	4596
884.646	4618
884.772	4565
884.897	4527
885.023	4637
885.148	4767
885.274	4889
885.399	4824
885.524	4698
885.65	4687
885.775	4714
885.9	4729
886.025	4835
886.15	4782
886.275	4687
886.4	4645
886.525	4683
886.65	4653
886.775	4706
886.9	4889
887.025	5014
887.149	4820
887.274	4672
887.399	4558
887.523	4592
887.648	4516
887.773	4561
887.897	4733
888.021	4820
888.146	4668
888.27	4831
888.395	4885
888.519	4782
888.643	4843
888.767	4835
888.891	4664
889.015	4565
889.139	4630
889.263	4656
889.387	4797
889.511	4866
889.635	4744
889.759	4618
889.883	4653
890.006	4679
890.13	4782
890.254	4569
890.377	4698
890.501	4558
890.624	4538
890.748	4630
890.871	4531
890.995	4447
891.118	4417
891.241	4538
891.364	4512
891.488	4649
891.611	4531
891.734	4580
891.857	4592
891.98	4546
892.103	4615
892.226	4634
892.349	4519
892.471	4432
892.594	4516
892.717	4565
892.839	4561
892.962	4523
893.085	4664
893.207	4550
893.33	4447
893.452	4527
893.575	4656
893.697	4554
893.819	4786
893.941	4816
894.064	4748
894.186	4584
894.308	4588
894.43	4721
894.552	4862
894.674	4786
894.796	4531
894.918	4630
895.04	4577
895.161	4660
895.283	4626
895.405	4588
895.526	4634
895.648	4683
895.769	4687
895.891	4714
896.012	4714
896.134	4733
896.255	4706
896.376	4637
896.498	4615
896.619	4615
896.74	4603
896.861	4637
896.982	4968
897.103	5071
897.224	4812
897.345	4717
897.466	4706
897.587	4717
897.708	4858
897.828	4759
897.949	4668
898.07	4516
898.19	4653
898.311	4824
898.431	4641
898.552	4694
898.672	4771
898.792	4771
898.913	4675
899.033	4607
899.153	4466
899.273	4481
899.393	4523
899.513	4554
899.633	4584
899.753	4523
899.873	4481
899.993	4630
900.113	4550
900.232	4538
900.352	4538
900.472	4443
900.591	4386
900.711	4436
900.83	4459
900.95	4599
901.069	4637
901.189	4550
901.308	4341
901.427	4287
901.546	4325
901.665	4481
901.784	4531
901.904	4367
902.023	4322
902.141	4173
902.26	4128
902.379	4249
902.498	4253
902.617	4242
902.735	4371
902.854	4413
902.973	4367
903.091	4169
903.21	4204
903.328	4325
903.446	4219
903.565	4265
903.683	4344
903.801	4261
903.919	4417
904.038	4409
904.156	4287
904.274	4405
904.392	4386
904.51	4421
904.627	4443
904.745	4550
904.863	4565
904.981	4413
905.098	4295
905.216	4333
905.334	4413
905.451	4413
905.569	4451
905.686	4531
905.803	4542
905.921	4424
906.038	4565
906.155	4474
906.272	4375
906.389	4470
906.506	4329
906.623	4409
906.74	4352
906.857	4314
906.974	4390
907.091	4550
907.208	4675
907.324	4599
907.441	4493
907.557	4310
907.674	4318
907.79	4280
907.907	4363
908.023	4519
908.139	4447
908.256	4390
908.372	4440
908.488	4440
908.604	4352
908.72	4306
908.836	4344
908.952	4398
909.068	4405
909.184	4554
909.3	4489
909.415	4596
909.531	4554
909.647	4329
909.762	4322
909.878	4295
909.993	4447
910.108	4398
910.224	4413
910.339	4500
910.454	4390
910.57	4379
910.685	4333
910.8	4611
910.915	4577
911.03	4474
911.145	4299
911.259	4322
911.374	4337
911.489	4276
911.604	4268
911.718	4173
911.833	4173
911.947	4059
912.062	4006
912.176	4188
912.291	4242
912.405	4223
912.519	4451
912.633	4516
912.748	4390
912.862	4291
912.976	4139
913.09	4109
913.204	4219
913.318	4219
913.431	4348
913.545	4405
913.659	4443
913.772	4341
913.886	4261
914	4249
914.113	4356
914.226	4466
914.34	4398
914.453	4200
914.566	4478
914.68	4329
914.793	4329
914.906	4147
915.019	4112
915.132	4048
915.245	4185
915.358	4223
915.47	4185
915.583	4268
915.696	4303
915.809	4398
915.921	4402
916.034	4223
916.146	4276
916.259	4207
916.371	4402
916.483	4314
916.595	4234
916.708	4318
916.82	4303
916.932	4257
917.044	4344
917.156	4287
917.268	4223
917.38	4238
917.491	4268
917.603	4314
917.715	4383
917.826	4459
917.938	4367
918.049	4242
918.161	4375
918.272	4550
918.384	4516
918.495	4432
918.606	4265
918.717	4234
918.828	4325
918.939	4322
919.05	4261
919.161	4310
919.272	4169
919.383	4265
919.494	4436
919.604	4637
919.715	4474
919.826	4386
919.936	4390
920.047	4516
920.157	4478
920.267	4736
920.378	4512
920.488	4508
920.598	4687
920.708	4866
920.818	4702
920.928	4725
921.038	4984
921.148	4889
921.258	4672
921.368	4500
921.477	4504
921.587	4447
921.697	4325
921.806	4497
921.916	4432
922.025	4204
922.134	4265
922.244	4223
922.353	4341
922.462	4173
922.571	4116
922.68	4082
922.789	3979
922.898	3991
923.007	3941
923.116	4090
923.224	4029
923.333	4097
923.442	3968
923.55	4032
923.659	4029
923.767	4139
923.876	3994
923.984	4078
924.092	3979
924.201	4078
924.309	4097
924.417	4154
924.525	4048
924.633	4082
924.741	5037
924.849	3911
924.956	4154
925.064	4002
925.172	3903
925.279	4002
925.387	4059
925.494	4067
925.602	4185
925.709	4181
925.816	4048
925.924	4124
926.031	4234
926.138	4162
926.245	4200
926.352	4135
926.459	4265
926.566	4306
926.673	4147
926.779	4074
926.886	4109
926.993	3983
927.099	3934
927.206	3934
927.312	3907
927.419	4059
927.525	4036
927.631	4078
927.737	3945
927.843	3994
927.95	3865
928.056	3918
928.162	3953
928.267	4067
928.373	4641
928.479	4078
928.585	3880
928.69	4010
928.796	4040
928.901	3956
929.007	3842
929.112	4010
929.218	3968
929.323	3994
929.428	3949
929.533	4124
929.638	3911
929.743	3975
929.848	4036
929.953	3994
930.058	3896
930.163	3793
930.267	3816
930.372	3983
930.477	3804
930.581	4105
930.685	3903
930.79	3846
930.894	3907
930.998	3804
931.103	4051
931.207	3690
931.311	3713
931.415	3644
931.519	3492
931.623	3545
