Data from test_V78500241_717.txt Node
Date: Fri Mar 25 16:53:59 CST 2022
User: usil
Spectrometer: V785-0024
Trigger mode: 0
Integration Time (sec): 4.000000E-1
Scans to average: 1
Nonlinearity correction enabled: false
Boxcar width: 0
Storing dark spectrum: false
XAxis mode: Wavelengths
Number of Pixels in Spectrum: 1024
>>>>>Begin Spectral Data<<<<<
801.071	8054
801.214	8062
801.356	7818
801.499	7841
801.641	7780
801.783	7845
801.926	8012
802.068	7970
802.211	7947
802.353	8058
802.496	7902
802.638	7902
802.78	7944
802.923	7970
803.065	7909
803.208	7959
803.35	7997
803.492	8073
803.635	8164
803.777	7963
803.919	8126
804.061	8370
804.204	8134
804.346	7982
804.488	8005
804.63	8107
804.773	8027
804.915	8100
805.057	8301
805.199	8237
805.341	8157
805.483	8233
805.626	8286
805.768	8107
805.91	8172
806.052	8168
806.194	8107
806.336	8336
806.478	8130
806.62	8103
806.762	8183
806.904	8233
807.046	8499
807.188	8427
807.33	8336
807.472	8290
807.614	8142
807.756	8107
807.898	7925
808.04	7940
808.182	7902
808.324	7944
808.465	7928
808.607	8119
808.749	8103
808.891	8202
809.033	8286
809.174	8244
809.316	8062
809.458	8043
809.6	7955
809.741	8058
809.883	8088
810.025	8088
810.166	8073
810.308	7955
810.45	8062
810.591	7875
810.733	7727
810.875	7738
811.016	7556
811.158	7480
811.299	7597
811.441	7693
811.582	7674
811.724	7605
811.865	7518
812.007	7533
812.148	7586
812.29	7620
812.431	7708
812.573	7814
812.714	7879
812.855	8183
812.997	8233
813.138	8305
813.279	8195
813.421	8100
813.562	7978
813.703	7894
813.845	7712
813.986	7537
814.127	7289
814.268	7244
814.41	7194
814.551	7145
814.692	7137
814.833	6996
814.974	7095
815.115	7110
815.256	6924
815.397	6966
815.539	7008
815.68	6875
815.821	6810
815.962	6920
816.103	6852
816.244	6741
816.385	6593
816.526	6612
816.666	6502
816.807	6224
816.948	6422
817.089	6456
817.23	6456
817.371	6414
817.512	6372
817.653	6372
817.793	6380
817.934	6384
818.075	6490
818.216	6391
818.356	6384
818.497	6273
818.638	6136
818.778	6167
818.919	6117
819.06	6182
819.2	6342
819.341	6350
819.481	6399
819.622	6525
819.762	6707
819.903	6745
820.043	6612
820.184	6532
820.324	6646
820.465	6726
820.605	6597
820.746	6582
820.886	6494
821.026	6597
821.167	6662
821.307	6833
821.447	6711
821.588	6658
821.728	6578
821.868	6486
822.008	6350
822.149	6365
822.289	6376
822.429	6129
822.569	6087
822.709	6098
822.849	5912
822.99	5908
823.13	5935
823.27	5923
823.41	5760
823.55	5748
823.69	5733
823.83	5748
823.97	5661
824.11	5524
824.25	5520
824.389	5512
824.529	5547
824.669	5482
824.809	5657
824.949	5649
825.089	5596
825.228	5570
825.368	5493
825.508	5280
825.648	5330
825.787	5360
825.927	5387
826.067	5341
826.206	5345
826.346	5448
826.485	5345
826.625	5395
826.765	5532
826.904	5505
827.044	5261
827.183	5231
827.323	5098
827.462	5250
827.601	5174
827.741	5185
827.88	5220
828.02	5090
828.159	5261
828.298	5299
828.437	5391
828.577	5299
828.716	5463
828.855	5311
828.994	5181
829.134	5159
829.273	5147
829.412	5094
829.551	5079
829.69	5147
829.829	5280
829.968	5357
830.107	5269
830.246	5269
830.385	5151
830.524	5159
830.663	5056
830.802	5003
830.941	4892
831.08	4885
831.219	4999
831.357	4972
831.496	5151
831.635	4923
831.774	4862
831.913	4858
832.051	4752
832.19	4744
832.329	4862
832.467	4668
832.606	4637
832.744	4740
832.883	4729
833.022	4714
833.16	4790
833.299	4839
833.437	4812
833.576	4801
833.714	4896
833.852	4831
833.991	4934
834.129	4961
834.267	4965
834.406	4900
834.544	4984
834.682	4953
834.821	4946
834.959	5147
835.097	4995
835.235	5128
835.373	5117
835.511	5121
835.65	5025
835.788	5052
835.926	4873
836.064	4877
836.202	4934
836.34	5143
836.478	5204
836.615	5090
836.753	5204
836.891	5284
837.029	5208
837.167	5170
837.305	5151
837.443	5151
837.58	5056
837.718	5208
837.856	5132
837.993	5124
838.131	5254
838.269	5136
838.406	5197
838.544	5227
838.681	5067
838.819	5041
838.956	4968
839.094	4904
839.231	4972
839.369	5071
839.506	5471
839.643	5261
839.781	5086
839.918	4991
840.055	5105
840.193	5143
840.33	5143
840.467	5147
840.604	5155
840.742	5459
840.879	5056
841.016	5056
841.153	5147
841.29	5379
841.427	5307
841.564	5330
841.701	5383
841.838	5258
841.975	5208
842.112	5284
842.249	5117
842.385	5086
842.522	5337
842.659	5201
842.796	5170
842.933	5201
843.069	5121
843.206	5128
843.343	5357
843.479	5181
843.616	5254
843.752	5018
843.889	5029
844.025	5220
844.162	5010
844.298	5201
844.435	5094
844.571	5029
844.708	5201
844.844	5330
844.98	5318
845.117	5231
845.253	5117
845.389	5067
845.525	5109
845.661	5159
845.798	5052
845.934	5128
846.07	5094
846.206	5143
846.342	5258
846.478	5193
846.614	4991
846.75	4942
846.886	4908
847.022	5083
847.158	5014
847.294	5071
847.429	5083
847.565	5022
847.701	5273
847.837	4885
847.972	4782
848.108	4980
848.244	4896
848.379	4801
848.515	4714
848.65	4702
848.786	4702
848.921	4744
849.057	4946
849.192	4900
849.328	4786
849.463	4854
849.598	4831
849.734	4793
849.869	4733
850.004	4694
850.14	4611
850.275	4607
850.41	4558
850.545	4519
850.68	4607
850.815	4634
850.95	4634
851.085	4850
851.22	4759
851.355	4649
851.49	4634
851.625	4630
851.76	4660
851.895	4516
852.03	4516
852.165	4645
852.299	4740
852.434	4774
852.569	4710
852.703	4793
852.838	4831
852.973	4938
853.107	4961
853.242	4744
853.376	4675
853.511	4531
853.645	4630
853.78	4790
853.914	4725
854.048	4653
854.183	4653
854.317	4698
854.451	4782
854.585	4694
854.72	4634
854.854	4725
854.988	4607
855.122	4641
855.256	4493
855.39	4637
855.524	4752
855.658	4714
855.792	4702
855.926	4683
856.06	4702
856.194	4812
856.327	4691
856.461	4622
856.595	4626
856.729	4596
856.862	4694
856.996	4683
857.13	4717
857.263	4759
857.397	4767
857.53	4679
857.664	4725
857.797	4752
857.931	4736
858.064	4691
858.197	4744
858.331	4622
858.464	4592
858.597	4497
858.731	4645
858.864	4615
858.997	4618
859.13	4660
859.263	4664
859.396	4672
859.529	4599
859.662	4535
859.795	4497
859.928	4683
860.061	4767
860.194	4748
860.327	4611
860.46	4561
860.592	4656
860.725	4740
860.858	4683
860.99	4649
861.123	4538
861.256	4523
861.388	4607
861.521	5341
861.653	4474
861.786	4443
861.918	4478
862.05	4519
862.183	4554
862.315	4550
862.447	4664
862.58	4550
862.712	4462
862.844	4325
862.976	4478
863.108	4470
863.24	4881
863.372	4318
863.504	4402
863.636	4417
863.768	4474
863.9	4421
864.032	4375
864.164	4409
864.296	4447
864.428	4561
864.559	4519
864.691	4493
864.823	4512
864.954	4508
865.086	4436
865.217	4443
865.349	4352
865.48	4447
865.612	4462
865.743	4675
865.875	4466
866.006	4409
866.137	4466
866.269	4432
866.4	4474
866.531	4470
866.662	4398
866.793	4409
866.924	4443
867.055	4489
867.186	4462
867.317	4402
867.448	4344
867.579	4402
867.71	4371
867.841	4352
867.972	4455
868.103	4466
868.233	4516
868.364	4462
868.495	4455
868.625	4626
868.756	4733
868.886	4538
869.017	4577
869.147	4767
869.278	4740
869.408	4672
869.539	4630
869.669	4725
869.799	4649
869.929	4755
870.06	4767
870.19	4923
870.32	4930
870.45	4949
870.58	4984
870.71	5098
870.84	5071
870.97	4889
871.1	4923
871.23	5094
871.36	5071
871.489	5022
871.619	5094
871.749	5045
871.879	5140
872.008	5166
872.138	5136
872.267	5003
872.397	4847
872.526	4767
872.656	4733
872.785	4866
872.915	4927
873.044	5060
873.173	4946
873.303	4949
873.432	4961
873.561	4927
873.69	4919
873.819	4892
873.948	4923
874.077	4790
874.206	4736
874.335	4771
874.464	4904
874.593	5109
874.722	4953
874.851	5102
874.979	5102
875.108	5014
875.237	4896
875.365	4858
875.494	4866
875.623	4984
875.751	4812
875.88	4866
876.008	4942
876.136	5067
876.265	5197
876.393	5269
876.521	5246
876.65	5235
876.778	5132
876.906	5075
877.034	5029
877.162	5010
877.29	4961
877.418	5064
877.546	5033
877.674	5029
877.802	5003
877.93	4984
878.058	4938
878.185	4889
878.313	4938
878.441	4968
878.568	4790
878.696	4915
878.824	4927
878.951	4961
879.079	5105
879.206	5292
879.333	5094
879.461	4999
879.588	5071
879.715	5143
879.842	5231
879.97	5022
880.097	4816
880.224	4706
880.351	4805
880.478	4763
880.605	4759
880.732	4816
880.859	5109
880.986	4892
881.112	4904
881.239	4835
881.366	4615
881.493	4592
881.619	4577
881.746	4653
881.872	4672
881.999	4618
882.125	4702
882.252	4793
882.378	4850
882.505	4934
882.631	4809
882.757	4702
882.883	4729
883.01	4714
883.136	4637
883.262	4596
883.388	4569
883.514	4797
883.64	4873
883.766	4816
883.892	4687
884.018	4710
884.143	4919
884.269	5006
884.395	4683
884.52	4615
884.646	4630
884.772	4588
884.897	4580
885.023	4622
885.148	4778
885.274	4870
885.399	4767
885.524	4694
885.65	4694
885.775	4668
885.9	4714
886.025	4831
886.15	4778
886.275	4740
886.4	4672
886.525	4714
886.65	4679
886.775	4683
886.9	4911
887.025	5075
887.149	4820
887.274	4660
887.399	4546
887.523	4618
887.648	4527
887.773	4592
887.897	4752
888.021	4805
888.146	4675
888.27	4824
888.395	4923
888.519	4809
888.643	4824
888.767	4793
888.891	4649
889.015	4561
889.139	4664
889.263	4592
889.387	4736
889.511	4847
889.635	4767
889.759	4660
889.883	4599
890.006	4740
890.13	4862
890.254	4622
890.377	4725
890.501	4554
890.624	4500
890.748	4577
890.871	4508
890.995	4451
891.118	4371
891.241	4497
891.364	4546
891.488	4653
891.611	4527
891.734	4527
891.857	4588
891.98	4580
892.103	4641
892.226	4599
892.349	4523
892.471	4428
892.594	4527
892.717	4615
892.839	4550
892.962	4535
893.085	4649
893.207	4592
893.33	4478
893.452	4466
893.575	4679
893.697	4577
893.819	4820
893.941	4854
894.064	4793
894.186	4588
894.308	4546
894.43	4733
894.552	4812
894.674	4729
894.796	4519
894.918	4580
895.04	4599
895.161	4710
895.283	4656
895.405	4565
895.526	4630
895.648	4672
895.769	4729
895.891	4664
896.012	4725
896.134	4763
896.255	4694
896.376	4653
896.498	4641
896.619	4702
896.74	4637
896.861	4649
896.982	4915
897.103	5086
897.224	4812
897.345	4752
897.466	4641
897.587	4729
897.708	4854
897.828	4793
897.949	4660
898.07	4580
898.19	4618
898.311	4839
898.431	4668
898.552	4763
898.672	4793
898.792	4816
898.913	4721
899.033	4634
899.153	4550
899.273	4398
899.393	4493
899.513	4516
899.633	4500
899.753	4516
899.873	4523
899.993	4561
900.113	4489
900.232	4550
900.352	4542
900.472	4500
900.591	4398
900.711	4500
900.83	4413
900.95	4573
901.069	4626
901.189	4527
901.308	4360
901.427	4314
901.546	4348
901.665	4470
901.784	4535
901.904	4356
902.023	4314
902.141	4238
902.26	4173
902.379	4291
902.498	4238
902.617	4211
902.735	4367
902.854	4409
902.973	4337
903.091	4219
903.21	4227
903.328	4272
903.446	4265
903.565	4242
903.683	4310
903.801	4284
903.919	4383
904.038	4413
904.156	4337
904.274	4432
904.392	4383
904.51	4394
904.627	4504
904.745	4523
904.863	4634
904.981	4367
905.098	4287
905.216	4356
905.334	4436
905.451	4413
905.569	4428
905.686	4527
905.803	4542
905.921	4409
906.038	4485
906.155	4508
906.272	4398
906.389	4440
906.506	4337
906.623	4356
906.74	4417
906.857	4303
906.974	4318
907.091	4561
907.208	4710
907.324	4565
907.441	4474
907.557	4390
907.674	4322
907.79	4261
907.907	4375
908.023	4478
908.139	4443
908.256	4390
908.372	4451
908.488	4478
908.604	4371
908.72	4310
908.836	4356
908.952	4356
909.068	4417
909.184	4542
909.3	4546
909.415	4603
909.531	4573
909.647	4383
909.762	4379
909.878	4333
909.993	4432
910.108	4409
910.224	4443
910.339	4455
910.454	4417
910.57	4352
910.685	4287
910.8	4672
910.915	4565
911.03	4519
911.145	4318
911.259	4329
911.374	4386
911.489	4310
911.604	4261
911.718	4185
911.833	4204
911.947	4093
912.062	3998
912.176	4238
912.291	4257
912.405	4257
912.519	4462
912.633	4470
912.748	4337
912.862	4287
912.976	4185
913.09	4109
913.204	4219
913.318	4249
913.431	4398
913.545	4348
913.659	4478
913.772	4386
913.886	4204
914	4185
914.113	4405
914.226	4485
914.34	4440
914.453	4230
914.566	4436
914.68	4280
914.793	4310
914.906	4143
915.019	4124
915.132	4063
915.245	4131
915.358	4211
915.47	4265
915.583	4261
915.696	4287
915.809	4375
915.921	4402
916.034	4215
916.146	4253
916.259	4242
916.371	4333
916.483	4386
916.595	4268
916.708	4295
916.82	4348
916.932	4341
917.044	4272
917.156	4322
917.268	4204
917.38	4322
917.491	4303
917.603	4371
917.715	4451
917.826	4440
917.938	4348
918.049	4207
918.161	4409
918.272	4558
918.384	4569
918.495	4455
918.606	4337
918.717	4230
918.828	4344
918.939	4348
919.05	4234
919.161	4325
919.272	4109
919.383	4188
919.494	4455
919.604	4637
919.715	4466
919.826	4409
919.936	4436
920.047	4527
920.157	4489
920.267	4698
920.378	4504
920.488	4519
920.598	4683
920.708	4904
920.818	4698
920.928	4793
921.038	4968
921.148	4923
921.258	4653
921.368	4573
921.477	4523
921.587	4447
921.697	4386
921.806	4508
921.916	4443
922.025	4280
922.134	4257
922.244	4230
922.353	4333
922.462	4173
922.571	4120
922.68	4051
922.789	4006
922.898	4040
923.007	3968
923.116	4044
923.224	4059
923.333	4109
923.442	4006
923.55	3945
923.659	3994
923.767	4105
923.876	3991
923.984	4128
924.092	3975
924.201	4101
924.309	4124
924.417	4097
924.525	4063
924.633	4105
924.741	5060
924.849	3907
924.956	4101
925.064	3968
925.172	3899
925.279	3968
925.387	4025
925.494	4059
925.602	4177
925.709	4128
925.816	4048
925.924	4131
926.031	4230
926.138	4207
926.245	4211
926.352	4078
926.459	4234
926.566	4276
926.673	4135
926.779	4086
926.886	4063
926.993	3987
927.099	3968
927.206	3911
927.312	3930
927.419	4044
927.525	4013
927.631	4120
927.737	3960
927.843	3922
927.95	3831
928.056	3979
928.162	3975
928.267	4093
928.373	4672
928.479	4109
928.585	3857
928.69	4036
928.796	4032
928.901	4006
929.007	3827
929.112	3979
929.218	3983
929.323	3945
929.428	3953
929.533	4097
929.638	3926
929.743	3987
929.848	4082
929.953	3972
930.058	3949
930.163	3728
930.267	3827
930.372	3994
930.477	3804
930.581	4120
930.685	3956
930.79	3816
930.894	3934
930.998	3819
931.103	4071
931.207	3736
931.311	3701
931.415	3637
931.519	3511
931.623	3542
