Data from test_V78500241_275.txt Node
Date: Fri Mar 25 16:50:54 CST 2022
User: usil
Spectrometer: V785-0024
Trigger mode: 0
Integration Time (sec): 4.000000E-1
Scans to average: 1
Nonlinearity correction enabled: false
Boxcar width: 0
Storing dark spectrum: false
XAxis mode: Wavelengths
Number of Pixels in Spectrum: 1024
>>>>>Begin Spectral Data<<<<<
801.071	7993
801.214	8027
801.356	7864
801.499	7879
801.641	7830
801.783	7818
801.926	7982
802.068	7978
802.211	7951
802.353	8031
802.496	7856
802.638	7928
802.78	7944
802.923	7970
803.065	7894
803.208	7906
803.35	7959
803.492	8092
803.635	8081
803.777	7986
803.919	8149
804.061	8400
804.204	8183
804.346	8039
804.488	7909
804.63	8062
804.773	7989
804.915	8065
805.057	8286
805.199	8172
805.341	8153
805.483	8271
805.626	8180
805.768	8126
805.91	8202
806.052	8240
806.194	8012
806.336	8252
806.478	8176
806.62	8084
806.762	8126
806.904	8252
807.046	8400
807.188	8355
807.33	8298
807.472	8286
807.614	8123
807.756	8084
807.898	8039
808.04	7845
808.182	7955
808.324	7974
808.465	7970
808.607	8073
808.749	8107
808.891	8134
809.033	8259
809.174	8168
809.316	8039
809.458	8073
809.6	7982
809.741	8046
809.883	7940
810.025	8111
810.166	8084
810.308	8016
810.45	7986
810.591	7936
810.733	7685
810.875	7636
811.016	7567
811.158	7445
811.299	7597
811.441	7765
811.582	7696
811.724	7506
811.865	7582
812.007	7616
812.148	7594
812.29	7620
812.431	7772
812.573	7833
812.714	7967
812.855	8046
812.997	8191
813.138	8294
813.279	8233
813.421	8130
813.562	8012
813.703	7894
813.845	7750
813.986	7373
814.127	7225
814.268	7183
814.41	7225
814.551	7202
814.692	7149
814.833	7046
814.974	7076
815.115	7076
815.256	6882
815.397	6920
815.539	6958
815.68	6840
815.821	6806
815.962	6875
816.103	6764
816.244	6749
816.385	6635
816.526	6623
816.666	6540
816.807	6365
816.948	6414
817.089	6460
817.23	6399
817.371	6292
817.512	6319
817.653	6353
817.793	6407
817.934	6410
818.075	6418
818.216	6422
818.356	6384
818.497	6262
818.638	6106
818.778	6159
818.919	6163
819.06	6095
819.2	6266
819.341	6311
819.481	6346
819.622	6452
819.762	6703
819.903	6623
820.043	6574
820.184	6608
820.324	6525
820.465	6658
820.605	6631
820.746	6589
820.886	6433
821.026	6623
821.167	6627
821.307	6798
821.447	6688
821.588	6559
821.728	6589
821.868	6456
822.008	6327
822.149	6353
822.289	6372
822.429	6133
822.569	6072
822.709	6095
822.849	5897
822.99	5885
823.13	5878
823.27	5901
823.41	5840
823.55	5832
823.69	5771
823.83	5790
823.97	5699
824.11	5520
824.25	5532
824.389	5570
824.529	5535
824.669	5547
824.809	5665
824.949	5649
825.089	5642
825.228	5573
825.368	5391
825.508	5330
825.648	5326
825.787	5425
825.927	5406
826.067	5303
826.206	5284
826.346	5417
826.485	5421
826.625	5398
826.765	5554
826.904	5509
827.044	5284
827.183	5280
827.323	5166
827.462	5273
827.601	5204
827.741	5250
827.88	5277
828.02	5128
828.159	5254
828.298	5345
828.437	5341
828.577	5242
828.716	5543
828.855	5330
828.994	5170
829.134	5162
829.273	5227
829.412	5212
829.551	5162
829.69	5181
829.829	5284
829.968	5436
830.107	5296
830.246	5341
830.385	5197
830.524	5174
830.663	5071
830.802	5041
830.941	4927
831.08	4938
831.219	5018
831.357	5037
831.496	5170
831.635	4965
831.774	4930
831.913	4870
832.051	4805
832.19	4809
832.329	4877
832.467	4782
832.606	4641
832.744	4816
832.883	4759
833.022	4778
833.16	4843
833.299	4828
833.437	4831
833.576	4854
833.714	4873
833.852	4919
833.991	4915
834.129	5056
834.267	4991
834.406	4934
834.544	5003
834.682	5056
834.821	5029
834.959	5197
835.097	5052
835.235	5170
835.373	5086
835.511	5170
835.65	5083
835.788	5045
835.926	4953
836.064	4911
836.202	4911
836.34	5235
836.478	5334
836.615	5155
836.753	5296
836.891	5292
837.029	5284
837.167	5185
837.305	5174
837.443	5155
837.58	5113
837.718	5254
837.856	5239
837.993	5185
838.131	5318
838.269	5239
838.406	5265
838.544	5216
838.681	5090
838.819	5105
838.956	4965
839.094	4911
839.231	5045
839.369	5105
839.506	5505
839.643	5292
839.781	5128
839.918	5052
840.055	5124
840.193	5143
840.33	5155
840.467	5159
840.604	5181
840.742	5444
840.879	5113
841.016	5166
841.153	5185
841.29	5402
841.427	5322
841.564	5345
841.701	5364
841.838	5326
841.975	5258
842.112	5292
842.249	5170
842.385	5136
842.522	5360
842.659	5273
842.796	5201
842.933	5201
843.069	5181
843.206	5231
843.343	5364
843.479	5246
843.616	5322
843.752	5136
843.889	5056
844.025	5197
844.162	5094
844.298	5223
844.435	5143
844.571	5037
844.708	5220
844.844	5372
844.98	5341
845.117	5326
845.253	5197
845.389	5136
845.525	5185
845.661	5159
845.798	5083
845.934	5113
846.07	5117
846.206	5254
846.342	5288
846.478	5201
846.614	5052
846.75	4957
846.886	4980
847.022	5166
847.158	5086
847.294	5162
847.429	5140
847.565	5102
847.701	5337
847.837	4881
847.972	4824
848.108	4995
848.244	4995
848.379	4831
848.515	4748
848.65	4767
848.786	4820
848.921	4816
849.057	4862
849.192	4984
849.328	4866
849.463	4854
849.598	4816
849.734	4820
849.869	4710
850.004	4698
850.14	4634
850.275	4653
850.41	4607
850.545	4588
850.68	4675
850.815	4641
850.95	4694
851.085	4885
851.22	4790
851.355	4752
851.49	4691
851.625	4615
851.76	4660
851.895	4607
852.03	4596
852.165	4691
852.299	4774
852.434	4816
852.569	4740
852.703	4816
852.838	4873
852.973	5006
853.107	4968
853.242	4786
853.376	4702
853.511	4611
853.645	4694
853.78	4820
853.914	4702
854.048	4736
854.183	4679
854.317	4759
854.451	4885
854.585	4733
854.72	4675
854.854	4805
854.988	4618
855.122	4622
855.256	4599
855.39	4706
855.524	4801
855.658	4763
855.792	4733
855.926	4774
856.06	4805
856.194	4835
856.327	4740
856.461	4645
856.595	4668
856.729	4630
856.862	4778
856.996	4717
857.13	4767
857.263	4774
857.397	4831
857.53	4675
857.664	4774
857.797	4835
857.931	4889
858.064	4771
858.197	4786
858.331	4641
858.464	4656
858.597	4558
858.731	4664
858.864	4683
858.997	4656
859.13	4653
859.263	4725
859.396	4740
859.529	4622
859.662	4637
859.795	4584
859.928	4687
860.061	4786
860.194	4831
860.327	4637
860.46	4618
860.592	4721
860.725	4767
860.858	4744
860.99	4603
861.123	4580
861.256	4508
861.388	4622
861.521	5471
861.653	4558
861.786	4478
861.918	4516
862.05	4573
862.183	4603
862.315	4630
862.447	4683
862.58	4622
862.712	4417
862.844	4394
862.976	4550
863.108	4493
863.24	4946
863.372	4341
863.504	4451
863.636	4428
863.768	4508
863.9	4470
864.032	4386
864.164	4417
864.296	4500
864.428	4588
864.559	4603
864.691	4603
864.823	4565
864.954	4508
865.086	4523
865.217	4542
865.349	4485
865.48	4493
865.612	4538
865.743	4641
865.875	4523
866.006	4436
866.137	4516
866.269	4485
866.4	4485
866.531	4497
866.662	4447
866.793	4424
866.924	4421
867.055	4519
867.186	4474
867.317	4447
867.448	4405
867.579	4413
867.71	4455
867.841	4424
867.972	4493
868.103	4466
868.233	4470
868.364	4451
868.495	4493
868.625	4702
868.756	4790
868.886	4596
869.017	4641
869.147	4831
869.278	4790
869.408	4698
869.539	4653
869.669	4793
869.799	4664
869.929	4755
870.06	4759
870.19	4961
870.32	4946
870.45	4930
870.58	5048
870.71	5124
870.84	5136
870.97	4942
871.1	4949
871.23	5178
871.36	5147
871.489	5048
871.619	5136
871.749	5086
871.879	5136
872.008	5208
872.138	5064
872.267	5006
872.397	4911
872.526	4816
872.656	4782
872.785	4831
872.915	5048
873.044	5064
873.173	5006
873.303	4946
873.432	4949
873.561	5018
873.69	4870
873.819	4885
873.948	4972
874.077	4835
874.206	4805
874.335	4816
874.464	4953
874.593	5102
874.722	5003
874.851	5113
874.979	5102
875.108	5105
875.237	4927
875.365	4862
875.494	4873
875.623	5045
875.751	4858
875.88	4938
876.008	4965
876.136	5033
876.265	5227
876.393	5315
876.521	5318
876.65	5223
876.778	5201
876.906	5079
877.034	5025
877.162	5045
877.29	4961
877.418	5098
877.546	5086
877.674	5048
877.802	5109
877.93	5014
878.058	4968
878.185	4873
878.313	4980
878.441	4949
878.568	4801
878.696	4854
878.824	4995
878.951	5037
879.079	5162
879.206	5299
879.333	5121
879.461	5025
879.588	5025
879.715	5159
879.842	5216
879.97	4980
880.097	4828
880.224	4782
880.351	4820
880.478	4881
880.605	4801
880.732	4793
880.859	5143
880.986	4889
881.112	4934
881.239	4778
881.366	4702
881.493	4683
881.619	4622
881.746	4641
881.872	4649
881.999	4714
882.125	4717
882.252	4866
882.378	4862
882.505	4972
882.631	4858
882.757	4698
882.883	4744
883.01	4767
883.136	4694
883.262	4618
883.388	4660
883.514	4816
883.64	4915
883.766	4828
883.892	4714
884.018	4717
884.143	4873
884.269	5071
884.395	4755
884.52	4634
884.646	4668
884.772	4664
884.897	4645
885.023	4649
885.148	4736
885.274	4831
885.399	4824
885.524	4664
885.65	4733
885.775	4797
885.9	4771
886.025	4854
886.15	4790
886.275	4782
886.4	4721
886.525	4786
886.65	4698
886.775	4691
886.9	4896
887.025	5052
887.149	4839
887.274	4660
887.399	4603
887.523	4580
887.648	4599
887.773	4622
887.897	4763
888.021	4831
888.146	4706
888.27	4839
888.395	4911
888.519	4816
888.643	4828
888.767	4873
888.891	4714
889.015	4664
889.139	4656
889.263	4569
889.387	4778
889.511	4892
889.635	4801
889.759	4653
889.883	4668
890.006	4729
890.13	4820
890.254	4675
890.377	4687
890.501	4580
890.624	4592
890.748	4618
890.871	4516
890.995	4459
891.118	4440
891.241	4508
891.364	4554
891.488	4618
891.611	4531
891.734	4554
891.857	4603
891.98	4538
892.103	4679
892.226	4584
892.349	4558
892.471	4462
892.594	4565
892.717	4615
892.839	4580
892.962	4611
893.085	4694
893.207	4607
893.33	4478
893.452	4558
893.575	4668
893.697	4580
893.819	4831
893.941	4858
894.064	4786
894.186	4611
894.308	4550
894.43	4721
894.552	4824
894.674	4812
894.796	4596
894.918	4599
895.04	4588
895.161	4729
895.283	4714
895.405	4607
895.526	4698
895.648	4675
895.769	4729
895.891	4683
896.012	4698
896.134	4714
896.255	4706
896.376	4717
896.498	4622
896.619	4721
896.74	4656
896.861	4641
896.982	4911
897.103	5102
897.224	4816
897.345	4771
897.466	4714
897.587	4729
897.708	4858
897.828	4767
897.949	4672
898.07	4607
898.19	4634
898.311	4881
898.431	4729
898.552	4729
898.672	4854
898.792	4839
898.913	4767
899.033	4649
899.153	4554
899.273	4459
899.393	4500
899.513	4561
899.633	4535
899.753	4538
899.873	4538
899.993	4615
900.113	4622
900.232	4596
900.352	4558
900.472	4523
900.591	4402
900.711	4500
900.83	4459
900.95	4622
901.069	4706
901.189	4577
901.308	4386
901.427	4360
901.546	4440
901.665	4497
901.784	4554
901.904	4394
902.023	4310
902.141	4230
902.26	4177
902.379	4341
902.498	4253
902.617	4219
902.735	4409
902.854	4409
902.973	4356
903.091	4246
903.21	4234
903.328	4360
903.446	4295
903.565	4303
903.683	4360
903.801	4280
903.919	4432
904.038	4440
904.156	4371
904.274	4466
904.392	4383
904.51	4451
904.627	4478
904.745	4611
904.863	4656
904.981	4424
905.098	4367
905.216	4417
905.334	4470
905.451	4519
905.569	4432
905.686	4622
905.803	4645
905.921	4405
906.038	4618
906.155	4538
906.272	4523
906.389	4493
906.506	4409
906.623	4447
906.74	4443
906.857	4352
906.974	4421
907.091	4592
907.208	4733
907.324	4611
907.441	4580
907.557	4405
907.674	4402
907.79	4363
907.907	4462
908.023	4538
908.139	4535
908.256	4497
908.372	4565
908.488	4512
908.604	4398
908.72	4352
908.836	4409
908.952	4436
909.068	4550
909.184	4615
909.3	4538
909.415	4660
909.531	4637
909.647	4424
909.762	4421
909.878	4386
909.993	4455
910.108	4481
910.224	4440
910.339	4538
910.454	4451
910.57	4459
910.685	4371
910.8	4687
910.915	4706
911.03	4519
911.145	4386
911.259	4432
911.374	4443
911.489	4363
911.604	4352
911.718	4284
911.833	4215
911.947	4139
912.062	4097
912.176	4284
912.291	4337
912.405	4299
912.519	4474
912.633	4558
912.748	4432
912.862	4356
912.976	4261
913.09	4135
913.204	4188
913.318	4344
913.431	4440
913.545	4421
913.659	4500
913.772	4386
913.886	4287
914	4314
914.113	4428
914.226	4489
914.34	4447
914.453	4276
914.566	4474
914.68	4325
914.793	4360
914.906	4230
915.019	4131
915.132	4150
915.245	4242
915.358	4268
915.47	4303
915.583	4268
915.696	4325
915.809	4466
915.921	4516
916.034	4287
916.146	4333
916.259	4280
916.371	4424
916.483	4440
916.595	4322
916.708	4379
916.82	4356
916.932	4329
917.044	4413
917.156	4402
917.268	4272
917.38	4306
917.491	4344
917.603	4390
917.715	4481
917.826	4489
917.938	4390
918.049	4246
918.161	4405
918.272	4660
918.384	4573
918.495	4497
918.606	4367
918.717	4291
918.828	4398
918.939	4413
919.05	4306
919.161	4363
919.272	4181
919.383	4253
919.494	4485
919.604	4672
919.715	4455
919.826	4402
919.936	4432
920.047	4569
920.157	4508
920.267	4740
920.378	4649
920.488	4546
920.598	4778
920.708	4968
920.818	4801
920.928	4805
921.038	5003
921.148	4965
921.258	4645
921.368	4588
921.477	4592
921.587	4512
921.697	4413
921.806	4618
921.916	4489
922.025	4325
922.134	4333
922.244	4287
922.353	4360
922.462	4215
922.571	4143
922.68	4059
922.789	3994
922.898	4082
923.007	4025
923.116	4131
923.224	4097
923.333	4139
923.442	4044
923.55	4017
923.659	4071
923.767	4139
923.876	4044
923.984	4215
924.092	4010
924.201	4105
924.309	4131
924.417	4147
924.525	4143
924.633	4158
924.741	5098
924.849	3964
924.956	4154
925.064	3998
925.172	3968
925.279	4013
925.387	4078
925.494	4082
925.602	4223
925.709	4242
925.816	4124
925.924	4158
926.031	4238
926.138	4230
926.245	4219
926.352	4166
926.459	4318
926.566	4348
926.673	4200
926.779	4143
926.886	4128
926.993	4048
927.099	4013
927.206	4029
927.312	3991
927.419	4101
927.525	4025
927.631	4135
927.737	4013
927.843	3983
927.95	3876
928.056	3975
928.162	4063
928.267	4067
928.373	4729
928.479	4135
928.585	3945
928.69	4078
928.796	4128
928.901	4025
929.007	3915
929.112	4044
929.218	3960
929.323	3991
929.428	3972
929.533	4162
929.638	3956
929.743	3979
929.848	4082
929.953	4021
930.058	3979
930.163	3812
930.267	3880
930.372	3983
930.477	3873
930.581	4139
930.685	3979
930.79	3884
930.894	3892
930.998	3949
931.103	4082
931.207	3762
931.311	3724
931.415	3709
931.519	3523
931.623	3553
