Data from test_V78500241_2346.txt Node
Date: Fri Mar 25 17:05:18 CST 2022
User: usil
Spectrometer: V785-0024
Trigger mode: 0
Integration Time (sec): 4.000000E-1
Scans to average: 1
Nonlinearity correction enabled: false
Boxcar width: 0
Storing dark spectrum: false
XAxis mode: Wavelengths
Number of Pixels in Spectrum: 1024
>>>>>Begin Spectral Data<<<<<
801.071	8031
801.214	8020
801.356	7841
801.499	7849
801.641	7833
801.783	7795
801.926	7974
802.068	7955
802.211	7986
802.353	8024
802.496	7803
802.638	7917
802.78	7890
802.923	7856
803.065	7871
803.208	7849
803.35	7959
803.492	8149
803.635	8149
803.777	8031
803.919	8058
804.061	8423
804.204	8176
804.346	8054
804.488	7982
804.63	8138
804.773	8043
804.915	8115
805.057	8324
805.199	8054
805.341	8259
805.483	8279
805.626	8176
805.768	8172
805.91	8206
806.052	8176
806.194	8096
806.336	8324
806.478	8096
806.62	8092
806.762	8153
806.904	8259
807.046	8412
807.188	8317
807.33	8305
807.472	8347
807.614	8168
807.756	8176
807.898	8043
808.04	7822
808.182	7837
808.324	7864
808.465	7921
808.607	8031
808.749	8149
808.891	8221
809.033	8377
809.174	8225
809.316	8096
809.458	8088
809.6	7982
809.741	8100
809.883	8084
810.025	8142
810.166	8149
810.308	8001
810.45	8039
810.591	7837
810.733	7772
810.875	7685
811.016	7575
811.158	7434
811.299	7537
811.441	7727
811.582	7674
811.724	7559
811.865	7540
812.007	7559
812.148	7605
812.29	7647
812.431	7811
812.573	7890
812.714	7970
812.855	8092
812.997	8214
813.138	8263
813.279	8161
813.421	8084
813.562	8012
813.703	7818
813.845	7757
813.986	7419
814.127	7240
814.268	7187
814.41	7217
814.551	7228
814.692	7213
814.833	7042
814.974	7072
815.115	7114
815.256	7000
815.397	6996
815.539	6947
815.68	6878
815.821	6772
815.962	6867
816.103	6798
816.244	6711
816.385	6662
816.526	6559
816.666	6517
816.807	6262
816.948	6460
817.089	6429
817.23	6407
817.371	6353
817.512	6346
817.653	6361
817.793	6311
817.934	6399
818.075	6448
818.216	6494
818.356	6410
818.497	6266
818.638	6148
818.778	6178
818.919	6140
819.06	6209
819.2	6273
819.341	6338
819.481	6357
819.622	6509
819.762	6734
819.903	6681
820.043	6650
820.184	6582
820.324	6578
820.465	6745
820.605	6722
820.746	6711
820.886	6540
821.026	6730
821.167	6707
821.307	6810
821.447	6757
821.588	6730
821.728	6532
821.868	6551
822.008	6323
822.149	6414
822.289	6403
822.429	6190
822.569	6129
822.709	6121
822.849	5961
822.99	5920
823.13	5908
823.27	6011
823.41	5802
823.55	5870
823.69	5794
823.83	5790
823.97	5668
824.11	5577
824.25	5524
824.389	5615
824.529	5585
824.669	5592
824.809	5688
824.949	5691
825.089	5638
825.228	5611
825.368	5402
825.508	5379
825.648	5410
825.787	5395
825.927	5417
826.067	5334
826.206	5296
826.346	5467
826.485	5433
826.625	5509
826.765	5600
826.904	5554
827.044	5326
827.183	5250
827.323	5159
827.462	5254
827.601	5258
827.741	5273
827.88	5258
828.02	5212
828.159	5280
828.298	5368
828.437	5406
828.577	5322
828.716	5474
828.855	5345
828.994	5204
829.134	5181
829.273	5223
829.412	5162
829.551	5140
829.69	5181
829.829	5315
829.968	5395
830.107	5414
830.246	5341
830.385	5227
830.524	5159
830.663	5098
830.802	4968
830.941	4972
831.08	4904
831.219	4972
831.357	5003
831.496	5189
831.635	4984
831.774	4870
831.913	4850
832.051	4850
832.19	4809
832.329	4908
832.467	4729
832.606	4694
832.744	4721
832.883	4755
833.022	4736
833.16	4812
833.299	4900
833.437	4862
833.576	4866
833.714	4908
833.852	4915
833.991	5014
834.129	5006
834.267	4991
834.406	4949
834.544	5018
834.682	5045
834.821	4991
834.959	5193
835.097	5056
835.235	5212
835.373	5124
835.511	5124
835.65	5090
835.788	5029
835.926	4930
836.064	4900
836.202	4953
836.34	5193
836.478	5258
836.615	5136
836.753	5254
836.891	5299
837.029	5311
837.167	5227
837.305	5174
837.443	5212
837.58	5140
837.718	5299
837.856	5220
837.993	5170
838.131	5318
838.269	5299
838.406	5204
838.544	5216
838.681	5094
838.819	5045
838.956	4953
839.094	4949
839.231	4942
839.369	5075
839.506	5452
839.643	5360
839.781	5113
839.918	5052
840.055	5155
840.193	5105
840.33	5197
840.467	5121
840.604	5204
840.742	5471
840.879	5132
841.016	5105
841.153	5212
841.29	5444
841.427	5383
841.564	5379
841.701	5360
841.838	5284
841.975	5212
842.112	5273
842.249	5159
842.385	5178
842.522	5337
842.659	5242
842.796	5124
842.933	5227
843.069	5151
843.206	5193
843.343	5337
843.479	5292
843.616	5269
843.752	5014
843.889	5025
844.025	5277
844.162	5083
844.298	5231
844.435	5083
844.571	5090
844.708	5269
844.844	5296
844.98	5326
845.117	5292
845.253	5159
845.389	5136
845.525	5155
845.661	5162
845.798	5029
845.934	5170
846.07	5060
846.206	5235
846.342	5299
846.478	5201
846.614	5048
846.75	5014
846.886	4957
847.022	5136
847.158	5045
847.294	5083
847.429	5136
847.565	5067
847.701	5326
847.837	4923
847.972	4854
848.108	5003
848.244	4980
848.379	4839
848.515	4778
848.65	4744
848.786	4763
848.921	4820
849.057	4946
849.192	4889
849.328	4816
849.463	4885
849.598	4858
849.734	4854
849.869	4710
850.004	4615
850.14	4729
850.275	4660
850.41	4580
850.545	4592
850.68	4637
850.815	4660
850.95	4653
851.085	4801
851.22	4820
851.355	4694
851.49	4660
851.625	4668
851.76	4649
851.895	4626
852.03	4523
852.165	4691
852.299	4763
852.434	4824
852.569	4744
852.703	4797
852.838	4885
852.973	4949
853.107	4953
853.242	4763
853.376	4668
853.511	4569
853.645	4630
853.78	4873
853.914	4740
854.048	4698
854.183	4649
854.317	4736
854.451	4873
854.585	4679
854.72	4656
854.854	4771
854.988	4599
855.122	4694
855.256	4546
855.39	4660
855.524	4797
855.658	4755
855.792	4702
855.926	4782
856.06	4790
856.194	4812
856.327	4714
856.461	4615
856.595	4656
856.729	4698
856.862	4752
856.996	4721
857.13	4797
857.263	4774
857.397	4835
857.53	4698
857.664	4816
857.797	4786
857.931	4782
858.064	4733
858.197	4786
858.331	4687
858.464	4672
858.597	4542
858.731	4630
858.864	4687
858.997	4649
859.13	4645
859.263	4733
859.396	4691
859.529	4561
859.662	4592
859.795	4592
859.928	4656
860.061	4771
860.194	4801
860.327	4664
860.46	4554
860.592	4706
860.725	4748
860.858	4771
860.99	4584
861.123	4546
861.256	4523
861.388	4611
861.521	5288
861.653	4546
861.786	4478
861.918	4466
862.05	4546
862.183	4558
862.315	4649
862.447	4714
862.58	4508
862.712	4440
862.844	4337
862.976	4493
863.108	4493
863.24	4889
863.372	4394
863.504	4485
863.636	4371
863.768	4508
863.9	4432
864.032	4394
864.164	4459
864.296	4474
864.428	4516
864.559	4588
864.691	4618
864.823	4561
864.954	4508
865.086	4565
865.217	4497
865.349	4409
865.48	4474
865.612	4531
865.743	4649
865.875	4497
866.006	4508
866.137	4459
866.269	4500
866.4	4432
866.531	4459
866.662	4413
866.793	4417
866.924	4417
867.055	4519
867.186	4493
867.317	4481
867.448	4421
867.579	4375
867.71	4386
867.841	4421
867.972	4485
868.103	4440
868.233	4470
868.364	4447
868.495	4554
868.625	4687
868.756	4801
868.886	4603
869.017	4630
869.147	4854
869.278	4786
869.408	4664
869.539	4668
869.669	4744
869.799	4694
869.929	4782
870.06	4790
870.19	5022
870.32	4934
870.45	4934
870.58	5041
870.71	5083
870.84	5128
870.97	4934
871.1	4873
871.23	5109
871.36	5174
871.489	5079
871.619	5075
871.749	5094
871.879	5155
872.008	5193
872.138	5060
872.267	5033
872.397	4870
872.526	4801
872.656	4714
872.785	4820
872.915	4930
873.044	5056
873.173	4980
873.303	4961
873.432	4961
873.561	4995
873.69	4866
873.819	4881
873.948	4915
874.077	4831
874.206	4812
874.335	4877
874.464	4972
874.593	5079
874.722	4995
874.851	5124
874.979	5056
875.108	5067
875.237	4892
875.365	4896
875.494	4885
875.623	4984
875.751	4870
875.88	4881
876.008	4968
876.136	5022
876.265	5273
876.393	5345
876.521	5318
876.65	5265
876.778	5178
876.906	5075
877.034	5071
877.162	5052
877.29	5014
877.418	5022
877.546	5098
877.674	5067
877.802	5056
877.93	5048
878.058	4961
878.185	4927
878.313	5018
878.441	4987
878.568	4850
878.696	4927
878.824	4965
878.951	4999
879.079	5181
879.206	5296
879.333	5147
879.461	4980
879.588	4976
879.715	5143
879.842	5235
879.97	5064
880.097	4862
880.224	4774
880.351	4801
880.478	4870
880.605	4847
880.732	4793
880.859	5071
880.986	4904
881.112	4873
881.239	4793
881.366	4698
881.493	4622
881.619	4596
881.746	4675
881.872	4687
881.999	4637
882.125	4691
882.252	4790
882.378	4752
882.505	4995
882.631	4839
882.757	4710
882.883	4740
883.01	4740
883.136	4706
883.262	4599
883.388	4664
883.514	4801
883.64	4862
883.766	4820
883.892	4706
884.018	4687
884.143	4828
884.269	5014
884.395	4679
884.52	4687
884.646	4668
884.772	4607
884.897	4565
885.023	4672
885.148	4755
885.274	4854
885.399	4854
885.524	4683
885.65	4717
885.775	4744
885.9	4733
886.025	4881
886.15	4763
886.275	4763
886.4	4664
886.525	4733
886.65	4675
886.775	4706
886.9	4927
887.025	5037
887.149	4801
887.274	4675
887.399	4599
887.523	4558
887.648	4580
887.773	4622
887.897	4797
888.021	4759
888.146	4721
888.27	4831
888.395	4923
888.519	4820
888.643	4839
888.767	4835
888.891	4683
889.015	4687
889.139	4672
889.263	4656
889.387	4809
889.511	4877
889.635	4831
889.759	4653
889.883	4660
890.006	4702
890.13	4839
890.254	4660
890.377	4725
890.501	4531
890.624	4504
890.748	4622
890.871	4504
890.995	4466
891.118	4383
891.241	4554
891.364	4577
891.488	4626
891.611	4489
891.734	4558
891.857	4672
891.98	4542
892.103	4694
892.226	4615
892.349	4535
892.471	4436
892.594	4596
892.717	4577
892.839	4504
892.962	4573
893.085	4687
893.207	4546
893.33	4516
893.452	4584
893.575	4683
893.697	4561
893.819	4831
893.941	4881
894.064	4767
894.186	4603
894.308	4584
894.43	4729
894.552	4850
894.674	4740
894.796	4577
894.918	4634
895.04	4558
895.161	4717
895.283	4660
895.405	4580
895.526	4634
895.648	4687
895.769	4733
895.891	4725
896.012	4767
896.134	4721
896.255	4649
896.376	4626
896.498	4637
896.619	4694
896.74	4641
896.861	4679
896.982	4927
897.103	5075
897.224	4828
897.345	4752
897.466	4694
897.587	4729
897.708	4881
897.828	4843
897.949	4653
898.07	4554
898.19	4668
898.311	4809
898.431	4687
898.552	4733
898.672	4839
898.792	4755
898.913	4721
899.033	4668
899.153	4527
899.273	4413
899.393	4523
899.513	4565
899.633	4508
899.753	4569
899.873	4466
899.993	4603
900.113	4546
900.232	4546
900.352	4554
900.472	4512
900.591	4375
900.711	4489
900.83	4436
900.95	4656
901.069	4656
901.189	4569
901.308	4398
901.427	4360
901.546	4379
901.665	4432
901.784	4516
901.904	4390
902.023	4333
902.141	4169
902.26	4204
902.379	4306
902.498	4257
902.617	4234
902.735	4383
902.854	4447
902.973	4344
903.091	4211
903.21	4246
903.328	4284
903.446	4272
903.565	4306
903.683	4375
903.801	4287
903.919	4360
904.038	4462
904.156	4280
904.274	4451
904.392	4367
904.51	4508
904.627	4451
904.745	4630
904.863	4645
904.981	4367
905.098	4238
905.216	4363
905.334	4447
905.451	4459
905.569	4417
905.686	4527
905.803	4554
905.921	4386
906.038	4626
906.155	4504
906.272	4409
906.389	4470
906.506	4337
906.623	4379
906.74	4398
906.857	4348
906.974	4352
907.091	4599
907.208	4714
907.324	4588
907.441	4470
907.557	4360
907.674	4371
907.79	4352
907.907	4352
908.023	4519
908.139	4481
908.256	4379
908.372	4508
908.488	4459
908.604	4394
908.72	4337
908.836	4371
908.952	4390
909.068	4451
909.184	4645
909.3	4428
909.415	4577
909.531	4527
909.647	4341
909.762	4356
909.878	4329
909.993	4455
910.108	4413
910.224	4409
910.339	4512
910.454	4436
910.57	4333
910.685	4287
910.8	4637
910.915	4596
911.03	4497
911.145	4314
911.259	4352
911.374	4363
911.489	4295
911.604	4299
911.718	4200
911.833	4200
911.947	4116
912.062	4017
912.176	4223
912.291	4276
912.405	4306
912.519	4481
912.633	4504
912.748	4398
912.862	4337
912.976	4204
913.09	4109
913.204	4181
913.318	4310
913.431	4348
913.545	4348
913.659	4462
913.772	4409
913.886	4219
914	4230
914.113	4356
914.226	4481
914.34	4329
914.453	4261
914.566	4413
914.68	4322
914.793	4341
914.906	4215
915.019	4169
915.132	4112
915.245	4169
915.358	4261
915.47	4268
915.583	4253
915.696	4265
915.809	4447
915.921	4451
916.034	4268
916.146	4234
916.259	4268
916.371	4383
916.483	4318
916.595	4318
916.708	4295
916.82	4280
916.932	4383
917.044	4291
917.156	4333
917.268	4253
917.38	4284
917.491	4291
917.603	4348
917.715	4417
917.826	4394
917.938	4375
918.049	4196
918.161	4356
918.272	4558
918.384	4535
918.495	4462
918.606	4299
918.717	4253
918.828	4352
918.939	4394
919.05	4215
919.161	4352
919.272	4143
919.383	4234
919.494	4436
919.604	4630
919.715	4447
919.826	4344
919.936	4363
920.047	4554
920.157	4500
920.267	4752
920.378	4573
920.488	4519
920.598	4710
920.708	4862
920.818	4740
920.928	4736
921.038	4965
921.148	4946
921.258	4626
921.368	4580
921.477	4485
921.587	4424
921.697	4405
921.806	4500
921.916	4455
922.025	4246
922.134	4341
922.244	4234
922.353	4322
922.462	4147
922.571	4166
922.68	4036
922.789	3987
922.898	4067
923.007	4006
923.116	4101
923.224	4082
923.333	4025
923.442	4044
923.55	4029
923.659	4078
923.767	4101
923.876	4006
923.984	4177
924.092	3998
924.201	4097
924.309	4090
924.417	4166
924.525	4055
924.633	4097
924.741	5022
924.849	3922
924.956	4090
925.064	3956
925.172	3941
925.279	3956
925.387	4051
925.494	4017
925.602	4223
925.709	4200
925.816	3972
925.924	4158
926.031	4207
926.138	4166
926.245	4200
926.352	4139
926.459	4265
926.566	4249
926.673	4154
926.779	4124
926.886	4059
926.993	3994
927.099	3983
927.206	3956
927.312	3945
927.419	4074
927.525	3994
927.631	4128
927.737	3945
927.843	3918
927.95	3869
928.056	3964
928.162	3991
928.267	4067
928.373	4584
928.479	4086
928.585	3854
928.69	3987
928.796	4025
928.901	3987
929.007	3800
929.112	3979
929.218	3987
929.323	3892
929.428	3926
929.533	4120
929.638	3941
929.743	3983
929.848	4044
929.953	4021
930.058	3915
930.163	3766
930.267	3797
930.372	3983
930.477	3804
930.581	4044
930.685	3991
930.79	3831
930.894	3903
930.998	3842
931.103	4032
931.207	3694
931.311	3713
931.415	3682
931.519	3504
931.623	3572
