Data from test_V78500241_1073.txt Node
Date: Fri Mar 25 16:56:27 CST 2022
User: usil
Spectrometer: V785-0024
Trigger mode: 0
Integration Time (sec): 4.000000E-1
Scans to average: 1
Nonlinearity correction enabled: false
Boxcar width: 0
Storing dark spectrum: false
XAxis mode: Wavelengths
Number of Pixels in Spectrum: 1024
>>>>>Begin Spectral Data<<<<<
801.071	8100
801.214	8043
801.356	7860
801.499	7898
801.641	7833
801.783	7822
801.926	7986
802.068	7989
802.211	7982
802.353	7928
802.496	7780
802.638	7887
802.78	7925
802.923	7909
803.065	7982
803.208	7833
803.35	8008
803.492	8119
803.635	8187
803.777	8081
803.919	8149
804.061	8427
804.204	8240
804.346	8092
804.488	8024
804.63	8138
804.773	8039
804.915	8145
805.057	8290
805.199	8191
805.341	8237
805.483	8290
805.626	8214
805.768	8168
805.91	8259
806.052	8237
806.194	8115
806.336	8328
806.478	8168
806.62	8054
806.762	8126
806.904	8275
807.046	8393
807.188	8408
807.33	8320
807.472	8298
807.614	8126
807.756	8149
807.898	8107
808.04	7925
808.182	7879
808.324	7879
808.465	7955
808.607	8142
808.749	8058
808.891	8244
809.033	8332
809.174	8259
809.316	8016
809.458	8115
809.6	7986
809.741	8062
809.883	8035
810.025	8142
810.166	8069
810.308	8058
810.45	8005
810.591	7883
810.733	7772
810.875	7643
811.016	7556
811.158	7544
811.299	7590
811.441	7700
811.582	7643
811.724	7578
811.865	7537
812.007	7632
812.148	7605
812.29	7655
812.431	7750
812.573	7963
812.714	7967
812.855	8164
812.997	8176
813.138	8309
813.279	8229
813.421	8119
813.562	7989
813.703	7894
813.845	7811
813.986	7411
814.127	7251
814.268	7285
814.41	7206
814.551	7263
814.692	7145
814.833	7099
814.974	7038
815.115	7118
815.256	7012
815.397	6928
815.539	6939
815.68	6833
815.821	6791
815.962	6837
816.103	6844
816.244	6753
816.385	6681
816.526	6662
816.666	6521
816.807	6319
816.948	6509
817.089	6502
817.23	6528
817.371	6414
817.512	6437
817.653	6399
817.793	6437
817.934	6433
818.075	6456
818.216	6536
818.356	6391
818.497	6247
818.638	6133
818.778	6171
818.919	6182
819.06	6175
819.2	6311
819.341	6346
819.481	6361
819.622	6540
819.762	6711
819.903	6665
820.043	6601
820.184	6563
820.324	6593
820.465	6696
820.605	6741
820.746	6631
820.886	6540
821.026	6654
821.167	6722
821.307	6798
821.447	6798
821.588	6677
821.728	6589
821.868	6456
822.008	6315
822.149	6323
822.289	6285
822.429	6239
822.569	6133
822.709	6087
822.849	5999
822.99	5904
823.13	5912
823.27	5942
823.41	5764
823.55	5775
823.69	5752
823.83	5840
823.97	5684
824.11	5528
824.25	5467
824.389	5539
824.529	5615
824.669	5562
824.809	5573
824.949	5657
825.089	5665
825.228	5608
825.368	5433
825.508	5406
825.648	5372
825.787	5455
825.927	5417
826.067	5299
826.206	5277
826.346	5452
826.485	5410
826.625	5471
826.765	5589
826.904	5482
827.044	5269
827.183	5258
827.323	5201
827.462	5269
827.601	5185
827.741	5231
827.88	5185
828.02	5162
828.159	5299
828.298	5315
828.437	5402
828.577	5288
828.716	5455
828.855	5345
828.994	5181
829.134	5223
829.273	5216
829.412	5117
829.551	5147
829.69	5178
829.829	5326
829.968	5417
830.107	5337
830.246	5235
830.385	5185
830.524	5166
830.663	5102
830.802	4991
830.941	4919
831.08	4801
831.219	5022
831.357	4957
831.496	5159
831.635	4961
831.774	4881
831.913	4835
832.051	4801
832.19	4824
832.329	4835
832.467	4675
832.606	4649
832.744	4721
832.883	4710
833.022	4759
833.16	4820
833.299	4847
833.437	4843
833.576	4835
833.714	4858
833.852	4858
833.991	4915
834.129	4976
834.267	4934
834.406	4927
834.544	4995
834.682	4934
834.821	4957
834.959	5204
835.097	5033
835.235	5155
835.373	5094
835.511	5117
835.65	5086
835.788	5041
835.926	4919
836.064	4915
836.202	4919
836.34	5239
836.478	5223
836.615	5185
836.753	5208
836.891	5318
837.029	5223
837.167	5170
837.305	5143
837.443	5185
837.58	5105
837.718	5258
837.856	5204
837.993	5170
838.131	5193
838.269	5231
838.406	5140
838.544	5193
838.681	5018
838.819	5014
838.956	4870
839.094	4923
839.231	4972
839.369	5098
839.506	5444
839.643	5311
839.781	5022
839.918	5056
840.055	5124
840.193	5094
840.33	5121
840.467	5147
840.604	5181
840.742	5429
840.879	5109
841.016	5117
841.153	5159
841.29	5379
841.427	5307
841.564	5307
841.701	5372
841.838	5307
841.975	5235
842.112	5231
842.249	5117
842.385	5109
842.522	5360
842.659	5181
842.796	5102
842.933	5155
843.069	5193
843.206	5136
843.343	5318
843.479	5261
843.616	5273
843.752	4949
843.889	4976
844.025	5223
844.162	5022
844.298	5193
844.435	5117
844.571	5094
844.708	5235
844.844	5303
844.98	5299
845.117	5315
845.253	5067
845.389	5105
845.525	5121
845.661	5162
845.798	5022
845.934	5155
846.07	5102
846.206	5181
846.342	5269
846.478	5178
846.614	5025
846.75	5006
846.886	4976
847.022	5147
847.158	5003
847.294	5098
847.429	5086
847.565	5025
847.701	5307
847.837	4854
847.972	4786
848.108	4927
848.244	4930
848.379	4782
848.515	4714
848.65	4714
848.786	4725
848.921	4774
849.057	4889
849.192	4900
849.328	4831
849.463	4866
849.598	4790
849.734	4782
849.869	4706
850.004	4634
850.14	4691
850.275	4637
850.41	4550
850.545	4592
850.68	4622
850.815	4577
850.95	4630
851.085	4835
851.22	4763
851.355	4702
851.49	4649
851.625	4626
851.76	4668
851.895	4550
852.03	4599
852.165	4687
852.299	4744
852.434	4759
852.569	4778
852.703	4733
852.838	4824
852.973	4930
853.107	4934
853.242	4687
853.376	4683
853.511	4565
853.645	4626
853.78	4778
853.914	4664
854.048	4702
854.183	4649
854.317	4733
854.451	4847
854.585	4679
854.72	4664
854.854	4736
854.988	4580
855.122	4607
855.256	4550
855.39	4653
855.524	4786
855.658	4710
855.792	4729
855.926	4721
856.06	4717
856.194	4801
856.327	4725
856.461	4630
856.595	4611
856.729	4653
856.862	4767
856.996	4744
857.13	4736
857.263	4801
857.397	4824
857.53	4668
857.664	4702
857.797	4805
857.931	4786
858.064	4679
858.197	4702
858.331	4706
858.464	4618
858.597	4542
858.731	4618
858.864	4649
858.997	4618
859.13	4664
859.263	4710
859.396	4687
859.529	4573
859.662	4577
859.795	4508
859.928	4611
860.061	4733
860.194	4736
860.327	4626
860.46	4565
860.592	4698
860.725	4767
860.858	4767
860.99	4611
861.123	4519
861.256	4542
861.388	4653
861.521	5337
861.653	4508
861.786	4443
861.918	4489
862.05	4546
862.183	4569
862.315	4637
862.447	4672
862.58	4531
862.712	4379
862.844	4325
862.976	4466
863.108	4405
863.24	4896
863.372	4341
863.504	4402
863.636	4436
863.768	4474
863.9	4440
864.032	4375
864.164	4394
864.296	4436
864.428	4538
864.559	4512
864.691	4550
864.823	4512
864.954	4504
865.086	4489
865.217	4417
865.349	4402
865.48	4451
865.612	4462
865.743	4580
865.875	4428
866.006	4451
866.137	4489
866.269	4466
866.4	4436
866.531	4398
866.662	4375
866.793	4455
866.924	4481
867.055	4493
867.186	4451
867.317	4428
867.448	4325
867.579	4394
867.71	4402
867.841	4337
867.972	4421
868.103	4443
868.233	4428
868.364	4485
868.495	4542
868.625	4634
868.756	4740
868.886	4569
869.017	4611
869.147	4748
869.278	4778
869.408	4683
869.539	4649
869.669	4740
869.799	4645
869.929	4778
870.06	4778
870.19	4942
870.32	4892
870.45	4934
870.58	5022
870.71	5079
870.84	5105
870.97	4980
871.1	4847
871.23	5105
871.36	5136
871.489	5018
871.619	5174
871.749	5086
871.879	5102
872.008	5159
872.138	5098
872.267	4976
872.397	4885
872.526	4786
872.656	4714
872.785	4793
872.915	4938
873.044	5003
873.173	4961
873.303	4911
873.432	4995
873.561	4957
873.69	4889
873.819	4881
873.948	4919
874.077	4850
874.206	4691
874.335	4793
874.464	4942
874.593	5033
874.722	4972
874.851	5079
874.979	5090
875.108	4930
875.237	4904
875.365	4892
875.494	4843
875.623	4961
875.751	4767
875.88	4919
876.008	4995
876.136	5029
876.265	5204
876.393	5318
876.521	5197
876.65	5201
876.778	5197
876.906	5071
877.034	4984
877.162	5022
877.29	4987
877.418	5010
877.546	5071
877.674	5041
877.802	5003
877.93	5025
878.058	4953
878.185	4870
878.313	4984
878.441	4942
878.568	4790
878.696	4870
878.824	5006
878.951	4999
879.079	5075
879.206	5265
879.333	5109
879.461	4965
879.588	5014
879.715	5136
879.842	5220
879.97	4938
880.097	4809
880.224	4729
880.351	4835
880.478	4774
880.605	4831
880.732	4793
880.859	5037
880.986	4892
881.112	4896
881.239	4774
881.366	4660
881.493	4573
881.619	4573
881.746	4584
881.872	4645
881.999	4618
882.125	4653
882.252	4710
882.378	4858
882.505	4946
882.631	4790
882.757	4694
882.883	4729
883.01	4729
883.136	4668
883.262	4596
883.388	4634
883.514	4820
883.64	4816
883.766	4801
883.892	4672
884.018	4679
884.143	4923
884.269	4980
884.395	4683
884.52	4607
884.646	4634
884.772	4592
884.897	4550
885.023	4660
885.148	4740
885.274	4870
885.399	4755
885.524	4694
885.65	4702
885.775	4763
885.9	4691
886.025	4896
886.15	4759
886.275	4793
886.4	4656
886.525	4782
886.65	4683
886.775	4698
886.9	4911
887.025	5048
887.149	4763
887.274	4653
887.399	4580
887.523	4599
887.648	4569
887.773	4599
887.897	4759
888.021	4763
888.146	4649
888.27	4824
888.395	4881
888.519	4793
888.643	4809
888.767	4809
888.891	4672
889.015	4626
889.139	4626
889.263	4611
889.387	4748
889.511	4904
889.635	4786
889.759	4675
889.883	4599
890.006	4672
890.13	4820
890.254	4584
890.377	4694
890.501	4546
890.624	4508
890.748	4675
890.871	4485
890.995	4428
891.118	4367
891.241	4508
891.364	4531
891.488	4653
891.611	4538
891.734	4573
891.857	4653
891.98	4523
892.103	4656
892.226	4607
892.349	4466
892.471	4344
892.594	4561
892.717	4584
892.839	4580
892.962	4519
893.085	4626
893.207	4599
893.33	4451
893.452	4516
893.575	4698
893.697	4588
893.819	4725
893.941	4801
894.064	4771
894.186	4542
894.308	4573
894.43	4694
894.552	4824
894.674	4702
894.796	4504
894.918	4599
895.04	4561
895.161	4706
895.283	4675
895.405	4554
895.526	4634
895.648	4675
895.769	4698
895.891	4717
896.012	4752
896.134	4691
896.255	4664
896.376	4645
896.498	4622
896.619	4675
896.74	4592
896.861	4675
896.982	4927
897.103	5033
897.224	4847
897.345	4748
897.466	4645
897.587	4717
897.708	4835
897.828	4736
897.949	4622
898.07	4546
898.19	4611
898.311	4767
898.431	4691
898.552	4729
898.672	4774
898.792	4801
898.913	4649
899.033	4645
899.153	4519
899.273	4447
899.393	4500
899.513	4519
899.633	4500
899.753	4542
899.873	4504
899.993	4561
900.113	4538
900.232	4558
900.352	4542
900.472	4508
900.591	4451
900.711	4481
900.83	4440
900.95	4580
901.069	4660
901.189	4493
901.308	4356
901.427	4310
901.546	4356
901.665	4466
901.784	4512
901.904	4371
902.023	4310
902.141	4185
902.26	4177
902.379	4272
902.498	4253
902.617	4215
902.735	4375
902.854	4386
902.973	4367
903.091	4188
903.21	4219
903.328	4306
903.446	4249
903.565	4223
903.683	4344
903.801	4223
903.919	4363
904.038	4489
904.156	4329
904.274	4409
904.392	4398
904.51	4478
904.627	4466
904.745	4523
904.863	4592
904.981	4363
905.098	4322
905.216	4386
905.334	4432
905.451	4405
905.569	4447
905.686	4531
905.803	4577
905.921	4394
906.038	4542
906.155	4455
906.272	4360
906.389	4443
906.506	4314
906.623	4375
906.74	4379
906.857	4265
906.974	4329
907.091	4573
907.208	4630
907.324	4542
907.441	4447
907.557	4363
907.674	4276
907.79	4322
907.907	4318
908.023	4493
908.139	4485
908.256	4371
908.372	4409
908.488	4409
908.604	4367
908.72	4352
908.836	4344
908.952	4295
909.068	4447
909.184	4504
909.3	4470
909.415	4542
909.531	4538
909.647	4402
909.762	4352
909.878	4337
909.993	4447
910.108	4428
910.224	4413
910.339	4489
910.454	4413
910.57	4360
910.685	4337
910.8	4626
910.915	4599
911.03	4428
911.145	4325
911.259	4352
911.374	4352
911.489	4284
911.604	4280
911.718	4196
911.833	4162
911.947	4048
912.062	4021
912.176	4211
912.291	4211
912.405	4234
912.519	4443
912.633	4504
912.748	4394
912.862	4268
912.976	4185
913.09	4059
913.204	4128
913.318	4207
913.431	4333
913.545	4379
913.659	4390
913.772	4329
913.886	4261
914	4234
914.113	4344
914.226	4443
914.34	4360
914.453	4249
914.566	4455
914.68	4227
914.793	4272
914.906	4162
915.019	4124
915.132	4044
915.245	4147
915.358	4196
915.47	4253
915.583	4249
915.696	4230
915.809	4402
915.921	4500
916.034	4272
916.146	4280
916.259	4158
916.371	4402
916.483	4344
916.595	4230
916.708	4341
916.82	4295
916.932	4333
917.044	4314
917.156	4363
917.268	4207
917.38	4246
917.491	4253
917.603	4325
917.715	4409
917.826	4455
917.938	4284
918.049	4257
918.161	4383
918.272	4508
918.384	4519
918.495	4519
918.606	4276
918.717	4207
918.828	4299
918.939	4310
919.05	4234
919.161	4352
919.272	4128
919.383	4192
919.494	4481
919.604	4622
919.715	4394
919.826	4360
919.936	4386
920.047	4523
920.157	4500
920.267	4672
920.378	4519
920.488	4519
920.598	4717
920.708	4889
920.818	4744
920.928	4748
921.038	4911
921.148	4892
921.258	4588
921.368	4538
921.477	4504
921.587	4462
921.697	4337
921.806	4523
921.916	4409
922.025	4287
922.134	4291
922.244	4219
922.353	4303
922.462	4169
922.571	4128
922.68	3968
922.789	3975
922.898	4029
923.007	3991
923.116	4071
923.224	4074
923.333	4086
923.442	3964
923.55	3979
923.659	4013
923.767	4109
923.876	3975
923.984	4124
924.092	4002
924.201	4101
924.309	4135
924.417	4112
924.525	4032
924.633	4078
924.741	4995
924.849	3945
924.956	4120
925.064	3941
925.172	3854
925.279	3956
925.387	4078
925.494	4074
925.602	4268
925.709	4147
925.816	4071
925.924	4109
926.031	4192
926.138	4139
926.245	4215
926.352	4124
926.459	4246
926.566	4280
926.673	4166
926.779	4059
926.886	4044
926.993	3934
927.099	3941
927.206	3934
927.312	3953
927.419	4013
927.525	3991
927.631	4055
927.737	3945
927.843	3922
927.95	3816
928.056	3922
928.162	3953
928.267	4071
928.373	4634
928.479	4109
928.585	3854
928.69	4002
928.796	4044
928.901	3949
929.007	3888
929.112	4002
929.218	3987
929.323	3964
929.428	3930
929.533	4093
929.638	3907
929.743	3915
929.848	4032
929.953	3972
930.058	3911
930.163	3766
930.267	3816
930.372	3975
930.477	3766
930.581	4078
930.685	3911
930.79	3819
930.894	3846
930.998	3861
931.103	4063
931.207	3724
931.311	3717
931.415	3686
931.519	3469
931.623	3561
