Data from test_V78500241_976.txt Node
Date: Fri Mar 25 16:55:47 CST 2022
User: usil
Spectrometer: V785-0024
Trigger mode: 0
Integration Time (sec): 4.000000E-1
Scans to average: 1
Nonlinearity correction enabled: false
Boxcar width: 0
Storing dark spectrum: false
XAxis mode: Wavelengths
Number of Pixels in Spectrum: 1024
>>>>>Begin Spectral Data<<<<<
801.071	8027
801.214	7959
801.356	7822
801.499	7833
801.641	7757
801.783	7780
801.926	7906
802.068	7906
802.211	7898
802.353	7932
802.496	7753
802.638	7871
802.78	7837
802.923	7894
803.065	7856
803.208	7852
803.35	8005
803.492	8084
803.635	8096
803.777	7967
803.919	8142
804.061	8438
804.204	8115
804.346	8046
804.488	8020
804.63	8103
804.773	7989
804.915	8100
805.057	8267
805.199	8164
805.341	8180
805.483	8313
805.626	8157
805.768	8100
805.91	8259
806.052	8123
806.194	8077
806.336	8275
806.478	8107
806.62	8073
806.762	8062
806.904	8237
807.046	8396
807.188	8362
807.33	8286
807.472	8336
807.614	8168
807.756	8111
807.898	7997
808.04	7887
808.182	7887
808.324	7894
808.465	7849
808.607	8035
808.749	8126
808.891	8130
809.033	8294
809.174	8256
809.316	8065
809.458	8016
809.6	7963
809.741	8073
809.883	7993
810.025	8096
810.166	8062
810.308	7982
810.45	8031
810.591	7951
810.733	7757
810.875	7632
811.016	7578
811.158	7537
811.299	7628
811.441	7734
811.582	7704
811.724	7601
811.865	7537
812.007	7597
812.148	7613
812.29	7586
812.431	7734
812.573	7887
812.714	7928
812.855	8164
812.997	8202
813.138	8263
813.279	8233
813.421	8157
813.562	8062
813.703	7928
813.845	7826
813.986	7487
814.127	7308
814.268	7232
814.41	7198
814.551	7141
814.692	7168
814.833	7057
814.974	7114
815.115	7088
815.256	7015
815.397	6993
815.539	6943
815.68	6844
815.821	6821
815.962	6776
816.103	6829
816.244	6772
816.385	6612
816.526	6635
816.666	6517
816.807	6338
816.948	6426
817.089	6544
817.23	6498
817.371	6376
817.512	6410
817.653	6376
817.793	6376
817.934	6407
818.075	6395
818.216	6399
818.356	6414
818.497	6220
818.638	6175
818.778	6159
818.919	6197
819.06	6167
819.2	6334
819.341	6346
819.481	6395
819.622	6551
819.762	6707
819.903	6730
820.043	6635
820.184	6566
820.324	6544
820.465	6669
820.605	6669
820.746	6662
820.886	6521
821.026	6665
821.167	6734
821.307	6818
821.447	6726
821.588	6612
821.728	6566
821.868	6467
822.008	6384
822.149	6365
822.289	6388
822.429	6144
822.569	6087
822.709	6125
822.849	5901
822.99	5920
823.13	5901
823.27	5893
823.41	5790
823.55	5794
823.69	5775
823.83	5779
823.97	5691
824.11	5566
824.25	5509
824.389	5528
824.529	5592
824.669	5570
824.809	5668
824.949	5672
825.089	5619
825.228	5566
825.368	5429
825.508	5322
825.648	5326
825.787	5372
825.927	5357
826.067	5349
826.206	5284
826.346	5379
826.485	5459
826.625	5391
826.765	5554
826.904	5512
827.044	5265
827.183	5162
827.323	5109
827.462	5261
827.601	5140
827.741	5216
827.88	5235
828.02	5102
828.159	5292
828.298	5254
828.437	5349
828.577	5353
828.716	5493
828.855	5265
828.994	5204
829.134	5170
829.273	5208
829.412	5121
829.551	5159
829.69	5143
829.829	5265
829.968	5349
830.107	5292
830.246	5334
830.385	5155
830.524	5140
830.663	5105
830.802	5006
830.941	4900
831.08	4877
831.219	4995
831.357	4999
831.496	5143
831.635	4911
831.774	4881
831.913	4850
832.051	4714
832.19	4729
832.329	4839
832.467	4729
832.606	4607
832.744	4706
832.883	4729
833.022	4774
833.16	4835
833.299	4797
833.437	4835
833.576	4847
833.714	4881
833.852	4866
833.991	4938
834.129	4961
834.267	4984
834.406	4862
834.544	4999
834.682	5003
834.821	4904
834.959	5121
835.097	5022
835.235	5151
835.373	5067
835.511	5086
835.65	5033
835.788	5010
835.926	4908
836.064	4847
836.202	4919
836.34	5223
836.478	5189
836.615	5117
836.753	5220
836.891	5269
837.029	5284
837.167	5220
837.305	5128
837.443	5147
837.58	5151
837.718	5231
837.856	5185
837.993	5151
838.131	5227
838.269	5162
838.406	5162
838.544	5185
838.681	5022
838.819	5037
838.956	4900
839.094	4892
839.231	4976
839.369	5102
839.506	5417
839.643	5220
839.781	5079
839.918	5045
840.055	5064
840.193	5109
840.33	5124
840.467	5147
840.604	5178
840.742	5433
840.879	5033
841.016	5128
841.153	5128
841.29	5391
841.427	5337
841.564	5296
841.701	5387
841.838	5269
841.975	5216
842.112	5265
842.249	5064
842.385	5124
842.522	5353
842.659	5166
842.796	5193
842.933	5239
843.069	5166
843.206	5147
843.343	5284
843.479	5280
843.616	5265
843.752	5010
843.889	5029
844.025	5189
844.162	4999
844.298	5181
844.435	5098
844.571	5064
844.708	5174
844.844	5258
844.98	5360
845.117	5299
845.253	5189
845.389	5105
845.525	5159
845.661	5143
845.798	5067
845.934	5143
846.07	5048
846.206	5132
846.342	5265
846.478	5189
846.614	5025
846.75	5003
846.886	4927
847.022	5124
847.158	5022
847.294	5052
847.429	5128
847.565	5086
847.701	5242
847.837	4843
847.972	4847
848.108	4999
848.244	4984
848.379	4786
848.515	4759
848.65	4725
848.786	4755
848.921	4847
849.057	4870
849.192	4908
849.328	4839
849.463	4831
849.598	4805
849.734	4793
849.869	4683
850.004	4637
850.14	4675
850.275	4641
850.41	4523
850.545	4592
850.68	4611
850.815	4637
850.95	4645
851.085	4854
851.22	4736
851.355	4687
851.49	4596
851.625	4645
851.76	4607
851.895	4554
852.03	4527
852.165	4618
852.299	4721
852.434	4831
852.569	4797
852.703	4767
852.838	4873
852.973	4987
853.107	4961
853.242	4733
853.376	4679
853.511	4558
853.645	4569
853.78	4809
853.914	4714
854.048	4683
854.183	4687
854.317	4634
854.451	4816
854.585	4721
854.72	4641
854.854	4782
854.988	4577
855.122	4615
855.256	4535
855.39	4615
855.524	4774
855.658	4702
855.792	4733
855.926	4725
856.06	4755
856.194	4797
856.327	4717
856.461	4679
856.595	4618
856.729	4626
856.862	4729
856.996	4694
857.13	4736
857.263	4740
857.397	4721
857.53	4702
857.664	4710
857.797	4759
857.931	4778
858.064	4725
858.197	4717
858.331	4645
858.464	4599
858.597	4523
858.731	4656
858.864	4618
858.997	4603
859.13	4645
859.263	4698
859.396	4694
859.529	4497
859.662	4584
859.795	4561
859.928	4618
860.061	4740
860.194	4744
860.327	4599
860.46	4626
860.592	4672
860.725	4710
860.858	4725
860.99	4577
861.123	4493
861.256	4512
861.388	4584
861.521	5273
861.653	4443
861.786	4451
861.918	4470
862.05	4527
862.183	4538
862.315	4592
862.447	4626
862.58	4618
862.712	4386
862.844	4314
862.976	4493
863.108	4470
863.24	4828
863.372	4356
863.504	4413
863.636	4413
863.768	4470
863.9	4413
864.032	4337
864.164	4367
864.296	4466
864.428	4554
864.559	4599
864.691	4558
864.823	4527
864.954	4508
865.086	4500
865.217	4478
865.349	4421
865.48	4424
865.612	4470
865.743	4626
865.875	4443
866.006	4462
866.137	4375
866.269	4440
866.4	4462
866.531	4394
866.662	4466
866.793	4398
866.924	4386
867.055	4497
867.186	4447
867.317	4417
867.448	4360
867.579	4421
867.71	4383
867.841	4417
867.972	4421
868.103	4424
868.233	4440
868.364	4436
868.495	4527
868.625	4683
868.756	4763
868.886	4569
869.017	4641
869.147	4767
869.278	4797
869.408	4664
869.539	4645
869.669	4725
869.799	4645
869.929	4744
870.06	4755
870.19	4942
870.32	4930
870.45	4934
870.58	4991
870.71	5147
870.84	5048
870.97	4965
871.1	4942
871.23	5060
871.36	5102
871.489	4999
871.619	5094
871.749	5067
871.879	5147
872.008	5201
872.138	5037
872.267	4984
872.397	4881
872.526	4812
872.656	4706
872.785	4767
872.915	4942
873.044	5052
873.173	4949
873.303	4957
873.432	4968
873.561	4896
873.69	4866
873.819	4847
873.948	4930
874.077	4820
874.206	4778
874.335	4767
874.464	4930
874.593	5006
874.722	4976
874.851	5102
874.979	5048
875.108	4987
875.237	4870
875.365	4885
875.494	4847
875.623	4961
875.751	4847
875.88	4900
876.008	4987
876.136	5022
876.265	5193
876.393	5345
876.521	5280
876.65	5220
876.778	5162
876.906	5048
877.034	5037
877.162	5098
877.29	4927
877.418	5048
877.546	5098
877.674	5079
877.802	5029
877.93	4995
878.058	4930
878.185	4801
878.313	4923
878.441	4915
878.568	4816
878.696	4881
878.824	4953
878.951	4991
879.079	5121
879.206	5303
879.333	5075
879.461	4961
879.588	5010
879.715	5105
879.842	5227
879.97	5037
880.097	4778
880.224	4771
880.351	4797
880.478	4812
880.605	4793
880.732	4786
880.859	5086
880.986	4885
881.112	4896
881.239	4793
881.366	4656
881.493	4618
881.619	4565
881.746	4634
881.872	4668
881.999	4668
882.125	4679
882.252	4801
882.378	4831
882.505	4942
882.631	4816
882.757	4714
882.883	4702
883.01	4767
883.136	4668
883.262	4603
883.388	4538
883.514	4797
883.64	4847
883.766	4774
883.892	4653
884.018	4691
884.143	4904
884.269	5025
884.395	4653
884.52	4660
884.646	4637
884.772	4592
884.897	4535
885.023	4626
885.148	4805
885.274	4870
885.399	4828
885.524	4679
885.65	4672
885.775	4702
885.9	4729
886.025	4862
886.15	4793
886.275	4706
886.4	4714
886.525	4790
886.65	4660
886.775	4679
886.9	4908
887.025	5037
887.149	4790
887.274	4683
887.399	4584
887.523	4637
887.648	4565
887.773	4573
887.897	4729
888.021	4790
888.146	4645
888.27	4812
888.395	4870
888.519	4839
888.643	4778
888.767	4839
888.891	4656
889.015	4577
889.139	4683
889.263	4637
889.387	4755
889.511	4870
889.635	4740
889.759	4611
889.883	4618
890.006	4714
890.13	4835
890.254	4561
890.377	4656
890.501	4550
890.624	4481
890.748	4660
890.871	4470
890.995	4440
891.118	4367
891.241	4523
891.364	4550
891.488	4626
891.611	4504
891.734	4561
891.857	4611
891.98	4569
892.103	4668
892.226	4577
892.349	4497
892.471	4428
892.594	4531
892.717	4592
892.839	4558
892.962	4535
893.085	4656
893.207	4569
893.33	4440
893.452	4565
893.575	4656
893.697	4596
893.819	4778
893.941	4824
894.064	4725
894.186	4527
894.308	4603
894.43	4771
894.552	4801
894.674	4706
894.796	4550
894.918	4565
895.04	4561
895.161	4694
895.283	4660
895.405	4554
895.526	4611
895.648	4683
895.769	4656
895.891	4710
896.012	4729
896.134	4721
896.255	4702
896.376	4675
896.498	4611
896.619	4672
896.74	4637
896.861	4626
896.982	4881
897.103	5056
897.224	4816
897.345	4733
897.466	4653
897.587	4733
897.708	4820
897.828	4786
897.949	4672
898.07	4618
898.19	4607
898.311	4801
898.431	4702
898.552	4755
898.672	4733
898.792	4820
898.913	4755
899.033	4607
899.153	4538
899.273	4386
899.393	4512
899.513	4531
899.633	4485
899.753	4512
899.873	4489
899.993	4599
900.113	4531
900.232	4584
900.352	4512
900.472	4421
900.591	4398
900.711	4493
900.83	4428
900.95	4611
901.069	4687
901.189	4523
901.308	4363
901.427	4310
901.546	4367
901.665	4489
901.784	4519
901.904	4360
902.023	4310
902.141	4192
902.26	4154
902.379	4310
902.498	4177
902.617	4196
902.735	4417
902.854	4402
902.973	4337
903.091	4196
903.21	4215
903.328	4310
903.446	4284
903.565	4234
903.683	4344
903.801	4276
903.919	4424
904.038	4383
904.156	4329
904.274	4390
904.392	4371
904.51	4402
904.627	4417
904.745	4569
904.863	4596
904.981	4432
905.098	4257
905.216	4337
905.334	4436
905.451	4443
905.569	4421
905.686	4550
905.803	4519
905.921	4413
906.038	4535
906.155	4462
906.272	4363
906.389	4443
906.506	4329
906.623	4325
906.74	4440
906.857	4261
906.974	4333
907.091	4527
907.208	4679
907.324	4580
907.441	4455
907.557	4352
907.674	4356
907.79	4314
907.907	4398
908.023	4459
908.139	4436
908.256	4436
908.372	4443
908.488	4436
908.604	4314
908.72	4329
908.836	4333
908.952	4337
909.068	4421
909.184	4580
909.3	4478
909.415	4592
909.531	4535
909.647	4375
909.762	4363
909.878	4337
909.993	4386
910.108	4390
910.224	4440
910.339	4500
910.454	4455
910.57	4344
910.685	4257
910.8	4672
910.915	4607
911.03	4489
911.145	4367
911.259	4333
911.374	4413
911.489	4310
911.604	4272
911.718	4147
911.833	4143
911.947	4048
912.062	4017
912.176	4223
912.291	4261
912.405	4272
912.519	4436
912.633	4466
912.748	4329
912.862	4306
912.976	4158
913.09	4128
913.204	4185
913.318	4192
913.431	4352
913.545	4348
913.659	4436
913.772	4348
913.886	4253
914	4185
914.113	4371
914.226	4451
914.34	4417
914.453	4215
914.566	4428
914.68	4299
914.793	4306
914.906	4154
915.019	4097
915.132	4071
915.245	4181
915.358	4169
915.47	4200
915.583	4242
915.696	4299
915.809	4409
915.921	4436
916.034	4295
916.146	4246
916.259	4215
916.371	4363
916.483	4333
916.595	4234
916.708	4303
916.82	4348
916.932	4314
917.044	4303
917.156	4352
917.268	4227
917.38	4261
917.491	4287
917.603	4329
917.715	4398
917.826	4459
917.938	4348
918.049	4211
918.161	4413
918.272	4508
918.384	4508
918.495	4428
918.606	4337
918.717	4227
918.828	4306
918.939	4352
919.05	4227
919.161	4287
919.272	4093
919.383	4295
919.494	4447
919.604	4672
919.715	4424
919.826	4348
919.936	4402
920.047	4531
920.157	4512
920.267	4702
920.378	4561
920.488	4542
920.598	4755
920.708	4915
920.818	4710
920.928	4740
921.038	4946
921.148	4900
921.258	4653
921.368	4554
921.477	4500
921.587	4443
921.697	4314
921.806	4523
921.916	4409
922.025	4234
922.134	4219
922.244	4207
922.353	4352
922.462	4154
922.571	4158
922.68	3987
922.789	3941
922.898	4013
923.007	3994
923.116	4048
923.224	4021
923.333	4067
923.442	3968
923.55	3991
923.659	4010
923.767	4074
923.876	4010
923.984	4124
924.092	3991
924.201	4067
924.309	4078
924.417	4135
924.525	4044
924.633	4059
924.741	5052
924.849	3857
924.956	4116
925.064	3983
925.172	3861
925.279	3956
925.387	4071
925.494	4051
925.602	4230
925.709	4154
925.816	4055
925.924	4128
926.031	4166
926.138	4166
926.245	4234
926.352	4040
926.459	4249
926.566	4337
926.673	4181
926.779	4078
926.886	4082
926.993	3956
927.099	3964
927.206	3956
927.312	3964
927.419	4082
927.525	4055
927.631	4025
927.737	3964
927.843	3915
927.95	3835
928.056	3949
928.162	3960
928.267	4002
928.373	4702
928.479	4154
928.585	3865
928.69	3987
928.796	4128
928.901	3991
929.007	3808
929.112	4013
929.218	3979
929.323	3975
929.428	3945
929.533	4086
929.638	3888
929.743	3907
929.848	4036
929.953	3960
930.058	3915
930.163	3800
930.267	3808
930.372	3956
930.477	3819
930.581	4048
930.685	3892
930.79	3800
930.894	3850
930.998	3842
931.103	4021
931.207	3770
931.311	3682
931.415	3625
931.519	3488
931.623	3542
