Data from test_V78500241_1989.txt Node
Date: Fri Mar 25 17:02:49 CST 2022
User: usil
Spectrometer: V785-0024
Trigger mode: 0
Integration Time (sec): 4.000000E-1
Scans to average: 1
Nonlinearity correction enabled: false
Boxcar width: 0
Storing dark spectrum: false
XAxis mode: Wavelengths
Number of Pixels in Spectrum: 1024
>>>>>Begin Spectral Data<<<<<
801.071	8005
801.214	7951
801.356	7864
801.499	7814
801.641	7753
801.783	7761
801.926	7989
802.068	7898
802.211	7955
802.353	7959
802.496	7875
802.638	7795
802.78	7852
802.923	7856
803.065	7868
803.208	7883
803.35	7982
803.492	8058
803.635	8157
803.777	7982
803.919	8138
804.061	8412
804.204	8176
804.346	8065
804.488	7932
804.63	8088
804.773	7986
804.915	8134
805.057	8343
805.199	8164
805.341	8233
805.483	8237
805.626	8176
805.768	8088
805.91	8202
806.052	8195
806.194	8062
806.336	8301
806.478	8111
806.62	8077
806.762	8077
806.904	8252
807.046	8522
807.188	8286
807.33	8309
807.472	8358
807.614	8176
807.756	8168
807.898	8008
808.04	7849
808.182	7921
808.324	7875
808.465	7928
808.607	8035
808.749	8073
808.891	8237
809.033	8195
809.174	8233
809.316	8138
809.458	8058
809.6	8008
809.741	8020
809.883	8031
810.025	8073
810.166	7993
810.308	7955
810.45	7944
810.591	7833
810.733	7689
810.875	7734
811.016	7533
811.158	7407
811.299	7502
811.441	7597
811.582	7647
811.724	7548
811.865	7514
812.007	7578
812.148	7540
812.29	7632
812.431	7795
812.573	7887
812.714	7913
812.855	8187
812.997	8210
813.138	8210
813.279	8126
813.421	8050
813.562	7967
813.703	7799
813.845	7746
813.986	7407
814.127	7259
814.268	7228
814.41	7175
814.551	7129
814.692	7156
814.833	7084
814.974	7095
815.115	7152
815.256	6928
815.397	6962
815.539	6871
815.68	6840
815.821	6768
815.962	6837
816.103	6814
816.244	6688
816.385	6525
816.526	6597
816.666	6521
816.807	6300
816.948	6418
817.089	6460
817.23	6486
817.371	6338
817.512	6426
817.653	6372
817.793	6391
817.934	6380
818.075	6433
818.216	6414
818.356	6426
818.497	6273
818.638	6114
818.778	6155
818.919	6106
819.06	6140
819.2	6296
819.341	6311
819.481	6300
819.622	6525
819.762	6772
819.903	6719
820.043	6536
820.184	6559
820.324	6589
820.465	6738
820.605	6677
820.746	6608
820.886	6426
821.026	6677
821.167	6707
821.307	6818
821.447	6798
821.588	6650
821.728	6536
821.868	6448
822.008	6369
822.149	6319
822.289	6346
822.429	6201
822.569	6102
822.709	6091
822.849	5920
822.99	5901
823.13	5885
823.27	5931
823.41	5786
823.55	5813
823.69	5710
823.83	5813
823.97	5642
824.11	5520
824.25	5520
824.389	5573
824.529	5589
824.669	5490
824.809	5581
824.949	5653
825.089	5524
825.228	5543
825.368	5364
825.508	5364
825.648	5353
825.787	5391
825.927	5391
826.067	5307
826.206	5277
826.346	5387
826.485	5360
826.625	5448
826.765	5532
826.904	5444
827.044	5223
827.183	5201
827.323	5094
827.462	5193
827.601	5140
827.741	5166
827.88	5208
828.02	5094
828.159	5223
828.298	5273
828.437	5398
828.577	5277
828.716	5528
828.855	5296
828.994	5113
829.134	5151
829.273	5189
829.412	5189
829.551	5086
829.69	5181
829.829	5170
829.968	5391
830.107	5280
830.246	5227
830.385	5181
830.524	5083
830.663	5041
830.802	4968
830.941	4896
831.08	4873
831.219	4968
831.357	4938
831.496	5124
831.635	4946
831.774	4850
831.913	4854
832.051	4729
832.19	4805
832.329	4797
832.467	4717
832.606	4634
832.744	4694
832.883	4752
833.022	4714
833.16	4793
833.299	4782
833.437	4786
833.576	4881
833.714	4862
833.852	4828
833.991	4828
834.129	5010
834.267	4911
834.406	4885
834.544	4987
834.682	4934
834.821	4965
834.959	5166
835.097	4968
835.235	5151
835.373	5083
835.511	5090
835.65	5025
835.788	5022
835.926	4911
836.064	4850
836.202	4870
836.34	5185
836.478	5201
836.615	5098
836.753	5201
836.891	5288
837.029	5201
837.167	5208
837.305	5159
837.443	5136
837.58	5064
837.718	5242
837.856	5239
837.993	5140
838.131	5223
838.269	5197
838.406	5151
838.544	5185
838.681	4987
838.819	5006
838.956	4889
839.094	4930
839.231	4961
839.369	5079
839.506	5425
839.643	5288
839.781	5109
839.918	4987
840.055	5083
840.193	5067
840.33	5083
840.467	5140
840.604	5128
840.742	5444
840.879	5060
841.016	5083
841.153	5155
841.29	5372
841.427	5299
841.564	5296
841.701	5391
841.838	5277
841.975	5201
842.112	5239
842.249	5136
842.385	5083
842.522	5315
842.659	5159
842.796	5098
842.933	5197
843.069	5128
843.206	5132
843.343	5299
843.479	5208
843.616	5292
843.752	5033
843.889	4976
844.025	5204
844.162	5014
844.298	5212
844.435	5086
844.571	5083
844.708	5162
844.844	5299
844.98	5330
845.117	5280
845.253	5147
845.389	5105
845.525	5185
845.661	5124
845.798	5052
845.934	5121
846.07	5010
846.206	5185
846.342	5307
846.478	5185
846.614	5025
846.75	4987
846.886	4930
847.022	5170
847.158	5014
847.294	5006
847.429	5102
847.565	5056
847.701	5326
847.837	4809
847.972	4824
848.108	4934
848.244	4889
848.379	4763
848.515	4759
848.65	4721
848.786	4721
848.921	4797
849.057	4866
849.192	4873
849.328	4801
849.463	4839
849.598	4847
849.734	4725
849.869	4653
850.004	4607
850.14	4683
850.275	4607
850.41	4535
850.545	4584
850.68	4603
850.815	4634
850.95	4622
851.085	4790
851.22	4752
851.355	4660
851.49	4618
851.625	4653
851.76	4691
851.895	4538
852.03	4489
852.165	4634
852.299	4714
852.434	4786
852.569	4710
852.703	4778
852.838	4873
852.973	4900
853.107	4923
853.242	4752
853.376	4694
853.511	4542
853.645	4611
853.78	4778
853.914	4714
854.048	4675
854.183	4672
854.317	4725
854.451	4816
854.585	4694
854.72	4611
854.854	4752
854.988	4607
855.122	4645
855.256	4554
855.39	4664
855.524	4801
855.658	4714
855.792	4706
855.926	4706
856.06	4736
856.194	4778
856.327	4717
856.461	4615
856.595	4626
856.729	4683
856.862	4759
856.996	4694
857.13	4771
857.263	4755
857.397	4782
857.53	4622
857.664	4729
857.797	4759
857.931	4778
858.064	4649
858.197	4774
858.331	4668
858.464	4622
858.597	4546
858.731	4634
858.864	4584
858.997	4603
859.13	4656
859.263	4683
859.396	4668
859.529	4584
859.662	4561
859.795	4531
859.928	4542
860.061	4752
860.194	4702
860.327	4580
860.46	4546
860.592	4679
860.725	4679
860.858	4672
860.99	4535
861.123	4508
861.256	4580
861.388	4626
861.521	5128
861.653	4531
861.786	4474
861.918	4466
862.05	4489
862.183	4546
862.315	4565
862.447	4668
862.58	4565
862.712	4375
862.844	4360
862.976	4413
863.108	4447
863.24	4790
863.372	4314
863.504	4409
863.636	4428
863.768	4447
863.9	4455
864.032	4344
864.164	4421
864.296	4451
864.428	4573
864.559	4561
864.691	4508
864.823	4531
864.954	4466
865.086	4504
865.217	4417
865.349	4405
865.48	4428
865.612	4527
865.743	4634
865.875	4474
866.006	4428
866.137	4432
866.269	4398
866.4	4390
866.531	4390
866.662	4386
866.793	4379
866.924	4428
867.055	4497
867.186	4421
867.317	4421
867.448	4348
867.579	4371
867.71	4356
867.841	4356
867.972	4398
868.103	4455
868.233	4432
868.364	4405
868.495	4508
868.625	4656
868.756	4755
868.886	4565
869.017	4561
869.147	4771
869.278	4755
869.408	4649
869.539	4630
869.669	4675
869.799	4584
869.929	4793
870.06	4683
870.19	4946
870.32	4949
870.45	4923
870.58	4957
870.71	5075
870.84	5075
870.97	4923
871.1	4870
871.23	5083
871.36	5113
871.489	5048
871.619	5041
871.749	5022
871.879	5159
872.008	5162
872.138	5014
872.267	4972
872.397	4820
872.526	4816
872.656	4767
872.785	4812
872.915	4976
873.044	5033
873.173	4953
873.303	4972
873.432	4930
873.561	4919
873.69	4831
873.819	4839
873.948	4908
874.077	4843
874.206	4782
874.335	4828
874.464	4900
874.593	5033
874.722	4972
874.851	5052
874.979	5071
875.108	5064
875.237	4934
875.365	4889
875.494	4927
875.623	4934
875.751	4839
875.88	4889
876.008	4991
876.136	5018
876.265	5189
876.393	5315
876.521	5227
876.65	5174
876.778	5136
876.906	5113
877.034	5025
877.162	5014
877.29	4972
877.418	5060
877.546	4976
877.674	5037
877.802	4965
877.93	5060
878.058	4946
878.185	4831
878.313	4976
878.441	4908
878.568	4763
878.696	4862
878.824	4965
878.951	4976
879.079	5181
879.206	5265
879.333	5094
879.461	4980
879.588	5003
879.715	5109
879.842	5223
879.97	4995
880.097	4771
880.224	4714
880.351	4778
880.478	4828
880.605	4809
880.732	4847
880.859	5056
880.986	4904
881.112	4885
881.239	4786
881.366	4634
881.493	4565
881.619	4592
881.746	4634
881.872	4634
881.999	4645
882.125	4679
882.252	4801
882.378	4809
882.505	4972
882.631	4820
882.757	4679
882.883	4767
883.01	4740
883.136	4698
883.262	4596
883.388	4622
883.514	4733
883.64	4877
883.766	4763
883.892	4675
884.018	4679
884.143	4972
884.269	5010
884.395	4660
884.52	4618
884.646	4618
884.772	4546
884.897	4546
885.023	4637
885.148	4767
885.274	4835
885.399	4793
885.524	4748
885.65	4675
885.775	4714
885.9	4752
886.025	4824
886.15	4782
886.275	4653
886.4	4664
886.525	4714
886.65	4694
886.775	4748
886.9	4923
887.025	5056
887.149	4828
887.274	4653
887.399	4603
887.523	4588
887.648	4569
887.773	4580
887.897	4771
888.021	4801
888.146	4675
888.27	4816
888.395	4957
888.519	4816
888.643	4843
888.767	4790
888.891	4653
889.015	4603
889.139	4675
889.263	4596
889.387	4748
889.511	4889
889.635	4793
889.759	4588
889.883	4641
890.006	4687
890.13	4786
890.254	4588
890.377	4634
890.501	4535
890.624	4546
890.748	4615
890.871	4462
890.995	4462
891.118	4379
891.241	4531
891.364	4565
891.488	4615
891.611	4489
891.734	4542
891.857	4577
891.98	4523
892.103	4630
892.226	4573
892.349	4535
892.471	4470
892.594	4508
892.717	4554
892.839	4535
892.962	4611
893.085	4660
893.207	4599
893.33	4459
893.452	4558
893.575	4649
893.697	4561
893.819	4763
893.941	4820
894.064	4793
894.186	4607
894.308	4550
894.43	4721
894.552	4805
894.674	4721
894.796	4546
894.918	4584
895.04	4588
895.161	4702
895.283	4630
895.405	4603
895.526	4618
895.648	4733
895.769	4714
895.891	4687
896.012	4729
896.134	4725
896.255	4637
896.376	4615
896.498	4637
896.619	4675
896.74	4573
896.861	4645
896.982	4892
897.103	5071
897.224	4839
897.345	4759
897.466	4645
897.587	4755
897.708	4824
897.828	4744
897.949	4645
898.07	4527
898.19	4626
898.311	4782
898.431	4698
898.552	4679
898.672	4801
898.792	4778
898.913	4664
899.033	4607
899.153	4493
899.273	4428
899.393	4550
899.513	4558
899.633	4519
899.753	4546
899.873	4531
899.993	4592
900.113	4504
900.232	4519
900.352	4489
900.472	4516
900.591	4402
900.711	4516
900.83	4409
900.95	4603
901.069	4683
901.189	4519
901.308	4371
901.427	4280
901.546	4363
901.665	4390
901.784	4538
901.904	4386
902.023	4306
902.141	4169
902.26	4143
902.379	4268
902.498	4242
902.617	4219
902.735	4337
902.854	4413
902.973	4333
903.091	4219
903.21	4219
903.328	4322
903.446	4223
903.565	4265
903.683	4329
903.801	4314
903.919	4341
904.038	4432
904.156	4310
904.274	4383
904.392	4386
904.51	4459
904.627	4405
904.745	4531
904.863	4618
904.981	4436
905.098	4310
905.216	4371
905.334	4409
905.451	4421
905.569	4440
905.686	4508
905.803	4550
905.921	4443
906.038	4470
906.155	4462
906.272	4356
906.389	4451
906.506	4322
906.623	4341
906.74	4390
906.857	4295
906.974	4375
907.091	4535
907.208	4637
907.324	4516
907.441	4451
907.557	4287
907.674	4348
907.79	4344
907.907	4394
908.023	4531
908.139	4424
908.256	4428
908.372	4481
908.488	4466
908.604	4337
908.72	4306
908.836	4344
908.952	4398
909.068	4383
909.184	4535
909.3	4451
909.415	4573
909.531	4542
909.647	4314
909.762	4344
909.878	4363
909.993	4413
910.108	4394
910.224	4363
910.339	4432
910.454	4402
910.57	4375
910.685	4333
910.8	4603
910.915	4550
911.03	4497
911.145	4306
911.259	4337
911.374	4363
911.489	4295
911.604	4261
911.718	4169
911.833	4227
911.947	4078
912.062	4025
912.176	4223
912.291	4246
912.405	4261
912.519	4485
912.633	4504
912.748	4405
912.862	4329
912.976	4223
913.09	4071
913.204	4227
913.318	4261
913.431	4394
913.545	4402
913.659	4443
913.772	4322
913.886	4272
914	4207
914.113	4405
914.226	4447
914.34	4409
914.453	4238
914.566	4474
914.68	4356
914.793	4371
914.906	4188
915.019	4173
915.132	4086
915.245	4196
915.358	4284
915.47	4287
915.583	4287
915.696	4363
915.809	4447
915.921	4455
916.034	4310
916.146	4272
916.259	4291
916.371	4398
916.483	4417
916.595	4329
916.708	4344
916.82	4402
916.932	4375
917.044	4371
917.156	4341
917.268	4265
917.38	4310
917.491	4303
917.603	4360
917.715	4470
917.826	4500
917.938	4409
918.049	4268
918.161	4455
918.272	4554
918.384	4618
918.495	4512
918.606	4344
918.717	4261
918.828	4417
918.939	4394
919.05	4318
919.161	4341
919.272	4169
919.383	4261
919.494	4455
919.604	4675
919.715	4443
919.826	4363
919.936	4481
920.047	4569
920.157	4489
920.267	4717
920.378	4573
920.488	4550
920.598	4721
920.708	4900
920.818	4824
920.928	4835
921.038	4957
921.148	4946
921.258	4679
921.368	4546
921.477	4538
921.587	4478
921.697	4379
921.806	4565
921.916	4428
922.025	4306
922.134	4276
922.244	4200
922.353	4383
922.462	4200
922.571	4166
922.68	4029
922.789	4040
922.898	4090
923.007	4044
923.116	4124
923.224	4116
923.333	4074
923.442	4010
923.55	4017
923.659	4048
923.767	4143
923.876	4021
923.984	4139
924.092	4025
924.201	4147
924.309	4116
924.417	4147
924.525	4086
924.633	4181
924.741	5094
924.849	3896
924.956	4154
925.064	4029
925.172	3934
925.279	3945
925.387	4124
925.494	4143
925.602	4185
925.709	4166
925.816	4097
925.924	4192
926.031	4246
926.138	4181
926.245	4196
926.352	4112
926.459	4234
926.566	4333
926.673	4173
926.779	4105
926.886	4109
926.993	3994
927.099	3987
927.206	3964
927.312	3953
927.419	4124
927.525	4055
927.631	4105
927.737	3975
927.843	4013
927.95	3888
928.056	3987
928.162	4006
928.267	4078
928.373	4634
928.479	4131
928.585	3934
928.69	4032
928.796	4082
928.901	3949
929.007	3880
929.112	3991
929.218	3998
929.323	3945
929.428	3979
929.533	4196
929.638	3934
929.743	3994
929.848	4101
929.953	4006
930.058	3941
930.163	3827
930.267	3861
930.372	4021
930.477	3854
930.581	4120
930.685	3987
930.79	3869
930.894	3896
930.998	3896
931.103	4029
931.207	3751
931.311	3690
931.415	3713
931.519	3568
931.623	3599
