Data from test_V78500241_414.txt Node
Date: Fri Mar 25 16:51:52 CST 2022
User: usil
Spectrometer: V785-0024
Trigger mode: 0
Integration Time (sec): 4.000000E-1
Scans to average: 1
Nonlinearity correction enabled: false
Boxcar width: 0
Storing dark spectrum: false
XAxis mode: Wavelengths
Number of Pixels in Spectrum: 1024
>>>>>Begin Spectral Data<<<<<
801.071	8058
801.214	8020
801.356	7909
801.499	7917
801.641	7799
801.783	7852
801.926	8020
802.068	7959
802.211	7959
802.353	8043
802.496	7845
802.638	7928
802.78	7932
802.923	7909
803.065	7849
803.208	7822
803.35	7940
803.492	7967
803.635	8077
803.777	7932
803.919	8107
804.061	8484
804.204	8210
804.346	8020
804.488	7944
804.63	8077
804.773	7940
804.915	8119
805.057	8259
805.199	8138
805.341	8119
805.483	8233
805.626	8096
805.768	8016
805.91	8081
806.052	8183
806.194	8149
806.336	8336
806.478	8134
806.62	8134
806.762	8191
806.904	8187
807.046	8427
807.188	8305
807.33	8267
807.472	8328
807.614	8172
807.756	8164
807.898	7993
808.04	7833
808.182	7951
808.324	7913
808.465	7917
808.607	8084
808.749	8157
808.891	8191
809.033	8214
809.174	8210
809.316	8138
809.458	8077
809.6	7970
809.741	7978
809.883	8046
810.025	8077
810.166	8103
810.308	8084
810.45	7955
810.591	7868
810.733	7776
810.875	7666
811.016	7499
811.158	7578
811.299	7636
811.441	7742
811.582	7681
811.724	7647
811.865	7628
812.007	7651
812.148	7662
812.29	7655
812.431	7833
812.573	7860
812.714	8005
812.855	8183
812.997	8180
813.138	8339
813.279	8176
813.421	8172
813.562	8107
813.703	7940
813.845	7830
813.986	7510
814.127	7362
814.268	7194
814.41	7259
814.551	7179
814.692	7232
814.833	7103
814.974	7183
815.115	7038
815.256	6935
815.397	6928
815.539	6951
815.68	6783
815.821	6791
815.962	6871
816.103	6852
816.244	6795
816.385	6703
816.526	6650
816.666	6506
816.807	6331
816.948	6498
817.089	6445
817.23	6376
817.371	6346
817.512	6308
817.653	6429
817.793	6372
817.934	6403
818.075	6498
818.216	6433
818.356	6426
818.497	6243
818.638	6095
818.778	6129
818.919	6159
819.06	6106
819.2	6327
819.341	6311
819.481	6334
819.622	6486
819.762	6688
819.903	6673
820.043	6620
820.184	6616
820.324	6593
820.465	6669
820.605	6627
820.746	6608
820.886	6486
821.026	6707
821.167	6650
821.307	6848
821.447	6753
821.588	6635
821.728	6593
821.868	6426
822.008	6334
822.149	6357
822.289	6380
822.429	6083
822.569	6136
822.709	6159
822.849	5939
822.99	5939
823.13	6007
823.27	5908
823.41	5779
823.55	5775
823.69	5809
823.83	5745
823.97	5672
824.11	5543
824.25	5512
824.389	5611
824.529	5623
824.669	5608
824.809	5676
824.949	5714
825.089	5661
825.228	5589
825.368	5440
825.508	5372
825.648	5402
825.787	5436
825.927	5474
826.067	5299
826.206	5337
826.346	5436
826.485	5436
826.625	5512
826.765	5551
826.904	5547
827.044	5280
827.183	5277
827.323	5155
827.462	5296
827.601	5162
827.741	5208
827.88	5284
828.02	5185
828.159	5326
828.298	5307
828.437	5395
828.577	5315
828.716	5532
828.855	5337
828.994	5235
829.134	5223
829.273	5220
829.412	5231
829.551	5136
829.69	5223
829.829	5303
829.968	5398
830.107	5318
830.246	5284
830.385	5204
830.524	5197
830.663	5102
830.802	4999
830.941	4976
831.08	4953
831.219	5067
831.357	5003
831.496	5208
831.635	4938
831.774	4889
831.913	4892
832.051	4786
832.19	4824
832.329	4873
832.467	4736
832.606	4675
832.744	4744
832.883	4782
833.022	4782
833.16	4850
833.299	4870
833.437	4858
833.576	4828
833.714	4896
833.852	4915
833.991	4934
834.129	4961
834.267	5010
834.406	4957
834.544	5037
834.682	5018
834.821	5037
834.959	5223
835.097	5037
835.235	5223
835.373	5159
835.511	5193
835.65	5086
835.788	5071
835.926	4961
836.064	4957
836.202	4984
836.34	5246
836.478	5296
836.615	5235
836.753	5220
836.891	5337
837.029	5261
837.167	5208
837.305	5185
837.443	5166
837.58	5143
837.718	5273
837.856	5239
837.993	5201
838.131	5269
838.269	5239
838.406	5223
838.544	5254
838.681	5086
838.819	5033
838.956	4961
839.094	4923
839.231	5029
839.369	5132
839.506	5459
839.643	5311
839.781	5105
839.918	5067
840.055	5124
840.193	5132
840.33	5174
840.467	5170
840.604	5227
840.742	5459
840.879	5174
841.016	5102
841.153	5174
841.29	5414
841.427	5368
841.564	5326
841.701	5364
841.838	5345
841.975	5250
842.112	5326
842.249	5181
842.385	5159
842.522	5353
842.659	5174
842.796	5162
842.933	5223
843.069	5143
843.206	5197
843.343	5360
843.479	5269
843.616	5280
843.752	5094
843.889	5033
844.025	5265
844.162	5033
844.298	5280
844.435	5117
844.571	5071
844.708	5250
844.844	5345
844.98	5391
845.117	5307
845.253	5197
845.389	5128
845.525	5132
845.661	5208
845.798	5083
845.934	5162
846.07	5132
846.206	5246
846.342	5280
846.478	5193
846.614	5056
846.75	5060
846.886	5003
847.022	5166
847.158	5143
847.294	5090
847.429	5121
847.565	5109
847.701	5337
847.837	4877
847.972	4835
848.108	4980
848.244	4984
848.379	4858
848.515	4786
848.65	4763
848.786	4793
848.921	4831
849.057	4877
849.192	4953
849.328	4847
849.463	4896
849.598	4854
849.734	4790
849.869	4786
850.004	4706
850.14	4675
850.275	4626
850.41	4523
850.545	4603
850.68	4630
850.815	4630
850.95	4694
851.085	4843
851.22	4843
851.355	4702
851.49	4637
851.625	4694
851.76	4691
851.895	4592
852.03	4596
852.165	4687
852.299	4736
852.434	4774
852.569	4801
852.703	4771
852.838	4839
852.973	4976
853.107	4995
853.242	4748
853.376	4759
853.511	4596
853.645	4679
853.78	4805
853.914	4717
854.048	4649
854.183	4698
854.317	4721
854.451	4885
854.585	4740
854.72	4679
854.854	4774
854.988	4611
855.122	4679
855.256	4558
855.39	4702
855.524	4828
855.658	4752
855.792	4759
855.926	4767
856.06	4782
856.194	4843
856.327	4710
856.461	4683
856.595	4660
856.729	4717
856.862	4763
856.996	4736
857.13	4748
857.263	4805
857.397	4824
857.53	4706
857.664	4710
857.797	4790
857.931	4850
858.064	4725
858.197	4752
858.331	4668
858.464	4683
858.597	4611
858.731	4687
858.864	4668
858.997	4626
859.13	4729
859.263	4755
859.396	4714
859.529	4615
859.662	4588
859.795	4565
859.928	4691
860.061	4809
860.194	4786
860.327	4622
860.46	4599
860.592	4736
860.725	4759
860.858	4736
860.99	4618
861.123	4554
861.256	4565
861.388	4603
861.521	5452
861.653	4531
861.786	4470
861.918	4512
862.05	4592
862.183	4523
862.315	4626
862.447	4649
862.58	4561
862.712	4440
862.844	4402
862.976	4455
863.108	4462
863.24	4843
863.372	4348
863.504	4500
863.636	4466
863.768	4485
863.9	4481
864.032	4348
864.164	4383
864.296	4459
864.428	4577
864.559	4618
864.691	4580
864.823	4538
864.954	4512
865.086	4554
865.217	4516
865.349	4436
865.48	4443
865.612	4527
865.743	4664
865.875	4500
866.006	4481
866.137	4558
866.269	4470
866.4	4424
866.531	4428
866.662	4443
866.793	4516
866.924	4459
867.055	4538
867.186	4493
867.317	4428
867.448	4360
867.579	4432
867.71	4455
867.841	4424
867.972	4474
868.103	4474
868.233	4527
868.364	4558
868.495	4523
868.625	4721
868.756	4824
868.886	4561
869.017	4653
869.147	4797
869.278	4740
869.408	4683
869.539	4679
869.669	4717
869.799	4706
869.929	4752
870.06	4759
870.19	5022
870.32	4984
870.45	4991
870.58	4987
870.71	5155
870.84	5109
870.97	4953
871.1	4927
871.23	5151
871.36	5124
871.489	5018
871.619	5060
871.749	5136
871.879	5166
872.008	5181
872.138	5067
872.267	5056
872.397	4862
872.526	4801
872.656	4744
872.785	4862
872.915	4987
873.044	5056
873.173	4991
873.303	4999
873.432	4995
873.561	5022
873.69	4908
873.819	4908
873.948	4915
874.077	4835
874.206	4774
874.335	4824
874.464	4930
874.593	5105
874.722	4965
874.851	5117
874.979	5094
875.108	5098
875.237	4976
875.365	4946
875.494	4942
875.623	4980
875.751	4862
875.88	4930
876.008	4991
876.136	5006
876.265	5193
876.393	5372
876.521	5341
876.65	5311
876.778	5162
876.906	5090
877.034	5056
877.162	5067
877.29	5056
877.418	5067
877.546	5052
877.674	5060
877.802	5041
877.93	5090
878.058	4938
878.185	4873
878.313	4987
878.441	4972
878.568	4873
878.696	4927
878.824	5003
878.951	5041
879.079	5189
879.206	5296
879.333	5102
879.461	5018
879.588	5014
879.715	5151
879.842	5254
879.97	5052
880.097	4839
880.224	4790
880.351	4862
880.478	4866
880.605	4839
880.732	4782
880.859	5067
880.986	4919
881.112	4938
881.239	4812
881.366	4706
881.493	4588
881.619	4603
881.746	4649
881.872	4668
881.999	4675
882.125	4725
882.252	4790
882.378	4782
882.505	5010
882.631	4843
882.757	4725
882.883	4805
883.01	4717
883.136	4702
883.262	4611
883.388	4637
883.514	4885
883.64	4930
883.766	4835
883.892	4702
884.018	4744
884.143	4942
884.269	5060
884.395	4752
884.52	4645
884.646	4626
884.772	4630
884.897	4561
885.023	4691
885.148	4809
885.274	4904
885.399	4835
885.524	4702
885.65	4694
885.775	4797
885.9	4748
886.025	4862
886.15	4839
886.275	4763
886.4	4725
886.525	4744
886.65	4698
886.775	4717
886.9	4915
887.025	5064
887.149	4847
887.274	4653
887.399	4634
887.523	4630
887.648	4599
887.773	4584
887.897	4733
888.021	4816
888.146	4714
888.27	4870
888.395	4904
888.519	4763
888.643	4816
888.767	4835
888.891	4687
889.015	4679
889.139	4634
889.263	4641
889.387	4778
889.511	4881
889.635	4824
889.759	4645
889.883	4694
890.006	4767
890.13	4870
890.254	4618
890.377	4721
890.501	4554
890.624	4542
890.748	4645
890.871	4535
890.995	4459
891.118	4424
891.241	4542
891.364	4573
891.488	4634
891.611	4516
891.734	4577
891.857	4634
891.98	4637
892.103	4664
892.226	4630
892.349	4599
892.471	4481
892.594	4569
892.717	4573
892.839	4592
892.962	4622
893.085	4717
893.207	4588
893.33	4466
893.452	4489
893.575	4668
893.697	4649
893.819	4774
893.941	4824
894.064	4805
894.186	4611
894.308	4584
894.43	4759
894.552	4843
894.674	4744
894.796	4580
894.918	4630
895.04	4584
895.161	4778
895.283	4687
895.405	4618
895.526	4672
895.648	4687
895.769	4736
895.891	4694
896.012	4717
896.134	4740
896.255	4729
896.376	4649
896.498	4634
896.619	4691
896.74	4626
896.861	4691
896.982	4927
897.103	5113
897.224	4858
897.345	4740
897.466	4687
897.587	4717
897.708	4835
897.828	4782
897.949	4694
898.07	4542
898.19	4584
898.311	4812
898.431	4626
898.552	4759
898.672	4839
898.792	4877
898.913	4774
899.033	4656
899.153	4531
899.273	4493
899.393	4462
899.513	4516
899.633	4500
899.753	4550
899.873	4489
899.993	4615
900.113	4512
900.232	4603
900.352	4550
900.472	4512
900.591	4428
900.711	4531
900.83	4432
900.95	4634
901.069	4691
901.189	4546
901.308	4413
901.427	4352
901.546	4428
901.665	4470
901.784	4531
901.904	4375
902.023	4344
902.141	4249
902.26	4227
902.379	4325
902.498	4280
902.617	4284
902.735	4394
902.854	4436
902.973	4421
903.091	4238
903.21	4272
903.328	4295
903.446	4280
903.565	4314
903.683	4367
903.801	4280
903.919	4424
904.038	4474
904.156	4341
904.274	4523
904.392	4443
904.51	4474
904.627	4519
904.745	4611
904.863	4683
904.981	4443
905.098	4333
905.216	4398
905.334	4447
905.451	4508
905.569	4512
905.686	4637
905.803	4607
905.921	4527
906.038	4607
906.155	4519
906.272	4455
906.389	4512
906.506	4421
906.623	4398
906.74	4348
906.857	4398
906.974	4398
907.091	4653
907.208	4755
907.324	4596
907.441	4546
907.557	4379
907.674	4360
907.79	4409
907.907	4432
908.023	4546
908.139	4519
908.256	4474
908.372	4577
908.488	4512
908.604	4417
908.72	4424
908.836	4432
908.952	4436
909.068	4485
909.184	4565
909.3	4558
909.415	4626
909.531	4622
909.647	4413
909.762	4383
909.878	4375
909.993	4478
910.108	4481
910.224	4443
910.339	4516
910.454	4451
910.57	4424
910.685	4352
910.8	4729
910.915	4660
911.03	4569
911.145	4398
911.259	4409
911.374	4447
911.489	4367
911.604	4348
911.718	4227
911.833	4211
911.947	4154
912.062	4090
912.176	4257
912.291	4265
912.405	4314
912.519	4573
912.633	4523
912.748	4451
912.862	4394
912.976	4287
913.09	4135
913.204	4268
913.318	4341
913.431	4436
913.545	4379
913.659	4500
913.772	4409
913.886	4303
914	4291
914.113	4413
914.226	4516
914.34	4386
914.453	4337
914.566	4478
914.68	4375
914.793	4367
914.906	4196
915.019	4128
915.132	4162
915.245	4204
915.358	4257
915.47	4280
915.583	4284
915.696	4341
915.809	4417
915.921	4489
916.034	4291
916.146	4329
916.259	4257
916.371	4409
916.483	4447
916.595	4303
916.708	4360
916.82	4333
916.932	4379
917.044	4375
917.156	4341
917.268	4318
917.38	4348
917.491	4333
917.603	4375
917.715	4447
917.826	4497
917.938	4367
918.049	4268
918.161	4436
918.272	4580
918.384	4599
918.495	4485
918.606	4341
918.717	4303
918.828	4383
918.939	4459
919.05	4333
919.161	4428
919.272	4150
919.383	4253
919.494	4493
919.604	4630
919.715	4474
919.826	4451
919.936	4428
920.047	4546
920.157	4535
920.267	4759
920.378	4603
920.488	4554
920.598	4771
920.708	4942
920.818	4809
920.928	4793
921.038	4976
921.148	4999
921.258	4630
921.368	4630
921.477	4538
921.587	4497
921.697	4405
921.806	4542
921.916	4470
922.025	4299
922.134	4318
922.244	4265
922.353	4386
922.462	4238
922.571	4215
922.68	4017
922.789	3998
922.898	4086
923.007	4029
923.116	4162
923.224	4097
923.333	4143
923.442	4017
923.55	4021
923.659	4071
923.767	4169
923.876	4044
923.984	4139
924.092	4055
924.201	4135
924.309	4143
924.417	4188
924.525	4071
924.633	4169
924.741	5079
924.849	3987
924.956	4131
925.064	3991
925.172	3953
925.279	4032
925.387	4101
925.494	4101
925.602	4265
925.709	4211
925.816	4078
925.924	4162
926.031	4280
926.138	4188
926.245	4238
926.352	4082
926.459	4249
926.566	4318
926.673	4169
926.779	4120
926.886	4109
926.993	4029
927.099	4017
927.206	4029
927.312	3964
927.419	4071
927.525	4101
927.631	4162
927.737	4002
927.843	4006
927.95	3896
928.056	3987
928.162	3998
928.267	4093
928.373	4771
928.479	4139
928.585	3888
928.69	4055
928.796	4097
928.901	4010
929.007	3918
929.112	4032
929.218	3994
929.323	3964
929.428	3972
929.533	4120
929.638	3956
929.743	4006
929.848	4124
929.953	4063
930.058	3949
930.163	3804
930.267	3896
930.372	4036
930.477	3827
930.581	4131
930.685	3975
930.79	3846
930.894	3915
930.998	3915
931.103	4112
931.207	3740
931.311	3762
931.415	3652
931.519	3603
931.623	3618
