Data from test_V78500241_795.txt Node
Date: Fri Mar 25 16:54:31 CST 2022
User: usil
Spectrometer: V785-0024
Trigger mode: 0
Integration Time (sec): 4.000000E-1
Scans to average: 1
Nonlinearity correction enabled: false
Boxcar width: 0
Storing dark spectrum: false
XAxis mode: Wavelengths
Number of Pixels in Spectrum: 1024
>>>>>Begin Spectral Data<<<<<
801.071	8123
801.214	8031
801.356	7917
801.499	7902
801.641	7784
801.783	7917
801.926	7978
802.068	8035
802.211	8020
802.353	8016
802.496	7890
802.638	7955
802.78	7917
802.923	7951
803.065	7841
803.208	7917
803.35	7989
803.492	8195
803.635	8202
803.777	8111
803.919	8142
804.061	8339
804.204	8123
804.346	8081
804.488	7989
804.63	8183
804.773	8073
804.915	8157
805.057	8320
805.199	8183
805.341	8237
805.483	8332
805.626	8237
805.768	8168
805.91	8195
806.052	8240
806.194	8100
806.336	8347
806.478	8130
806.62	8073
806.762	8035
806.904	8275
807.046	8507
807.188	8370
807.33	8313
807.472	8385
807.614	8233
807.756	8111
807.898	8043
808.04	7864
808.182	7868
808.324	7936
808.465	7883
808.607	8115
808.749	8123
808.891	8240
809.033	8309
809.174	8240
809.316	8126
809.458	8088
809.6	8100
809.741	8103
809.883	8035
810.025	8092
810.166	8123
810.308	8031
810.45	8035
810.591	7875
810.733	7818
810.875	7655
811.016	7537
811.158	7559
811.299	7567
811.441	7822
811.582	7746
811.724	7529
811.865	7578
812.007	7651
812.148	7578
812.29	7601
812.431	7708
812.573	7894
812.714	7944
812.855	8111
812.997	8145
813.138	8339
813.279	8206
813.421	8096
813.562	8024
813.703	7909
813.845	7868
813.986	7548
814.127	7301
814.268	7244
814.41	7232
814.551	7114
814.692	7137
814.833	7038
814.974	7091
815.115	7110
815.256	6996
815.397	7034
815.539	6924
815.68	6814
815.821	6806
815.962	6776
816.103	6856
816.244	6658
816.385	6662
816.526	6639
816.666	6502
816.807	6296
816.948	6498
817.089	6460
817.23	6498
817.371	6380
817.512	6429
817.653	6410
817.793	6350
817.934	6422
818.075	6498
818.216	6418
818.356	6357
818.497	6205
818.638	6083
818.778	6197
818.919	6152
819.06	6186
819.2	6342
819.341	6372
819.481	6429
819.622	6544
819.762	6734
819.903	6726
820.043	6582
820.184	6544
820.324	6662
820.465	6711
820.605	6662
820.746	6646
820.886	6498
821.026	6642
821.167	6711
821.307	6814
821.447	6779
821.588	6677
821.728	6593
821.868	6445
822.008	6357
822.149	6441
822.289	6331
822.429	6125
822.569	6072
822.709	6167
822.849	5973
822.99	5977
823.13	5908
823.27	5984
823.41	5748
823.55	5805
823.69	5840
823.83	5775
823.97	5638
824.11	5532
824.25	5497
824.389	5623
824.529	5596
824.669	5452
824.809	5676
824.949	5726
825.089	5630
825.228	5543
825.368	5395
825.508	5379
825.648	5406
825.787	5414
825.927	5315
826.067	5353
826.206	5311
826.346	5376
826.485	5440
826.625	5387
826.765	5547
826.904	5566
827.044	5299
827.183	5231
827.323	5159
827.462	5201
827.601	5189
827.741	5143
827.88	5250
828.02	5151
828.159	5201
828.298	5288
828.437	5406
828.577	5288
828.716	5490
828.855	5402
828.994	5201
829.134	5155
829.273	5220
829.412	5185
829.551	5181
829.69	5113
829.829	5242
829.968	5349
830.107	5288
830.246	5307
830.385	5151
830.524	5178
830.663	5113
830.802	5006
830.941	4953
831.08	4877
831.219	5060
831.357	5022
831.496	5201
831.635	4930
831.774	4847
831.913	4942
832.051	4733
832.19	4755
832.329	4889
832.467	4683
832.606	4664
832.744	4774
832.883	4748
833.022	4740
833.16	4774
833.299	4824
833.437	4805
833.576	4828
833.714	4904
833.852	4847
833.991	4892
834.129	4957
834.267	4999
834.406	4949
834.544	4961
834.682	4987
834.821	5018
834.959	5178
835.097	4984
835.235	5147
835.373	5094
835.511	5102
835.65	5086
835.788	5067
835.926	4946
836.064	4908
836.202	4908
836.34	5181
836.478	5201
836.615	5185
836.753	5178
836.891	5296
837.029	5303
837.167	5147
837.305	5155
837.443	5181
837.58	5056
837.718	5284
837.856	5178
837.993	5147
838.131	5265
838.269	5208
838.406	5201
838.544	5212
838.681	5071
838.819	5052
838.956	4927
839.094	4934
839.231	5025
839.369	5140
839.506	5459
839.643	5292
839.781	5037
839.918	5052
840.055	5075
840.193	5132
840.33	5132
840.467	5121
840.604	5212
840.742	5406
840.879	5071
841.016	5041
841.153	5166
841.29	5398
841.427	5357
841.564	5364
841.701	5372
841.838	5318
841.975	5277
842.112	5280
842.249	5124
842.385	5090
842.522	5360
842.659	5201
842.796	5162
842.933	5212
843.069	5159
843.206	5170
843.343	5246
843.479	5303
843.616	5223
843.752	5041
843.889	5037
844.025	5246
844.162	5041
844.298	5235
844.435	5102
844.571	5083
844.708	5242
844.844	5318
844.98	5345
845.117	5277
845.253	5166
845.389	5094
845.525	5193
845.661	5109
845.798	5098
845.934	5075
846.07	5052
846.206	5170
846.342	5372
846.478	5185
846.614	4991
846.75	4976
846.886	4908
847.022	5178
847.158	5045
847.294	5045
847.429	5109
847.565	5018
847.701	5280
847.837	4881
847.972	4809
848.108	4972
848.244	4934
848.379	4805
848.515	4752
848.65	4752
848.786	4793
848.921	4786
849.057	4866
849.192	4976
849.328	4835
849.463	4809
849.598	4797
849.734	4778
849.869	4679
850.004	4668
850.14	4675
850.275	4592
850.41	4493
850.545	4577
850.68	4596
850.815	4630
850.95	4637
851.085	4881
851.22	4736
851.355	4626
851.49	4599
851.625	4679
851.76	4687
851.895	4599
852.03	4550
852.165	4618
852.299	4755
852.434	4793
852.569	4759
852.703	4755
852.838	4866
852.973	4968
853.107	4984
853.242	4748
853.376	4710
853.511	4577
853.645	4615
853.78	4805
853.914	4710
854.048	4691
854.183	4645
854.317	4691
854.451	4858
854.585	4653
854.72	4641
854.854	4790
854.988	4599
855.122	4668
855.256	4527
855.39	4668
855.524	4812
855.658	4725
855.792	4729
855.926	4744
856.06	4725
856.194	4801
856.327	4687
856.461	4649
856.595	4634
856.729	4656
856.862	4771
856.996	4691
857.13	4672
857.263	4778
857.397	4828
857.53	4641
857.664	4748
857.797	4767
857.931	4767
858.064	4698
858.197	4736
858.331	4656
858.464	4603
858.597	4519
858.731	4634
858.864	4645
858.997	4588
859.13	4653
859.263	4664
859.396	4691
859.529	4618
859.662	4550
859.795	4531
859.928	4653
860.061	4763
860.194	4771
860.327	4573
860.46	4565
860.592	4733
860.725	4744
860.858	4801
860.99	4584
861.123	4561
861.256	4512
861.388	4599
861.521	5269
861.653	4478
861.786	4409
861.918	4504
862.05	4474
862.183	4504
862.315	4645
862.447	4683
862.58	4554
862.712	4466
862.844	4314
862.976	4451
863.108	4512
863.24	4889
863.372	4348
863.504	4455
863.636	4390
863.768	4493
863.9	4470
864.032	4379
864.164	4440
864.296	4428
864.428	4508
864.559	4565
864.691	4542
864.823	4565
864.954	4535
865.086	4573
865.217	4474
865.349	4436
865.48	4447
865.612	4516
865.743	4626
865.875	4443
866.006	4421
866.137	4485
866.269	4470
866.4	4405
866.531	4398
866.662	4405
866.793	4405
866.924	4413
867.055	4470
867.186	4409
867.317	4405
867.448	4371
867.579	4390
867.71	4390
867.841	4367
867.972	4459
868.103	4474
868.233	4436
868.364	4443
868.495	4478
868.625	4675
868.756	4729
868.886	4561
869.017	4630
869.147	4763
869.278	4759
869.408	4683
869.539	4622
869.669	4725
869.799	4683
869.929	4748
870.06	4744
870.19	4953
870.32	4896
870.45	4953
870.58	5018
870.71	5075
870.84	5067
870.97	4919
871.1	4949
871.23	5143
871.36	5109
871.489	4991
871.619	5029
871.749	5117
871.879	5143
872.008	5174
872.138	5071
872.267	4991
872.397	4820
872.526	4847
872.656	4721
872.785	4877
872.915	4892
873.044	5048
873.173	4900
873.303	4949
873.432	4991
873.561	4953
873.69	4862
873.819	4843
873.948	4862
874.077	4786
874.206	4774
874.335	4850
874.464	4889
874.593	5071
874.722	4957
874.851	5052
874.979	5003
875.108	5041
875.237	4915
875.365	4904
875.494	4854
875.623	4995
875.751	4877
875.88	4820
876.008	4972
876.136	5071
876.265	5250
876.393	5345
876.521	5292
876.65	5151
876.778	5121
876.906	5052
877.034	5018
877.162	5056
877.29	4961
877.418	5094
877.546	5037
877.674	5041
877.802	5048
877.93	5014
878.058	4972
878.185	4835
878.313	4946
878.441	4938
878.568	4854
878.696	4892
878.824	4968
878.951	5003
879.079	5090
879.206	5239
879.333	5094
879.461	4984
879.588	4980
879.715	5140
879.842	5193
879.97	5003
880.097	4786
880.224	4736
880.351	4790
880.478	4782
880.605	4778
880.732	4850
880.859	5071
880.986	4896
881.112	4911
881.239	4812
881.366	4668
881.493	4630
881.619	4626
881.746	4649
881.872	4641
881.999	4664
882.125	4691
882.252	4881
882.378	4797
882.505	4957
882.631	4828
882.757	4691
882.883	4694
883.01	4752
883.136	4660
883.262	4622
883.388	4634
883.514	4771
883.64	4885
883.766	4797
883.892	4691
884.018	4687
884.143	4889
884.269	5022
884.395	4668
884.52	4672
884.646	4675
884.772	4569
884.897	4554
885.023	4675
885.148	4752
885.274	4881
885.399	4809
885.524	4691
885.65	4649
885.775	4755
885.9	4717
886.025	4816
886.15	4801
886.275	4717
886.4	4675
886.525	4736
886.65	4725
886.775	4687
886.9	4915
887.025	4980
887.149	4774
887.274	4660
887.399	4599
887.523	4653
887.648	4565
887.773	4626
887.897	4763
888.021	4820
888.146	4679
888.27	4786
888.395	4862
888.519	4752
888.643	4782
888.767	4816
888.891	4672
889.015	4592
889.139	4660
889.263	4596
889.387	4733
889.511	4862
889.635	4767
889.759	4592
889.883	4611
890.006	4702
890.13	4809
890.254	4679
890.377	4698
890.501	4523
890.624	4523
890.748	4637
890.871	4504
890.995	4462
891.118	4405
891.241	4538
891.364	4531
891.488	4653
891.611	4481
891.734	4565
891.857	4599
891.98	4580
892.103	4653
892.226	4588
892.349	4523
892.471	4428
892.594	4493
892.717	4592
892.839	4584
892.962	4653
893.085	4634
893.207	4596
893.33	4432
893.452	4561
893.575	4706
893.697	4558
893.819	4786
893.941	4847
894.064	4752
894.186	4554
894.308	4569
894.43	4721
894.552	4797
894.674	4717
894.796	4565
894.918	4577
895.04	4565
895.161	4702
895.283	4687
895.405	4573
895.526	4592
895.648	4653
895.769	4714
895.891	4740
896.012	4729
896.134	4767
896.255	4706
896.376	4618
896.498	4615
896.619	4694
896.74	4637
896.861	4641
896.982	4965
897.103	5090
897.224	4824
897.345	4748
897.466	4702
897.587	4710
897.708	4892
897.828	4752
897.949	4702
898.07	4519
898.19	4637
898.311	4816
898.431	4660
898.552	4702
898.672	4793
898.792	4812
898.913	4755
899.033	4584
899.153	4500
899.273	4447
899.393	4519
899.513	4527
899.633	4535
899.753	4558
899.873	4485
899.993	4550
900.113	4554
900.232	4596
900.352	4542
900.472	4462
900.591	4367
900.711	4550
900.83	4398
900.95	4607
901.069	4672
901.189	4542
901.308	4405
901.427	4299
901.546	4390
901.665	4455
901.784	4493
901.904	4363
902.023	4306
902.141	4192
902.26	4185
902.379	4310
902.498	4272
902.617	4230
902.735	4398
902.854	4356
902.973	4299
903.091	4230
903.21	4249
903.328	4322
903.446	4284
903.565	4230
903.683	4348
903.801	4272
903.919	4402
904.038	4409
904.156	4322
904.274	4443
904.392	4386
904.51	4455
904.627	4478
904.745	4573
904.863	4607
904.981	4375
905.098	4306
905.216	4360
905.334	4386
905.451	4394
905.569	4440
905.686	4561
905.803	4561
905.921	4394
906.038	4478
906.155	4508
906.272	4360
906.389	4478
906.506	4344
906.623	4394
906.74	4367
906.857	4268
906.974	4394
907.091	4554
907.208	4656
907.324	4615
907.441	4489
907.557	4310
907.674	4337
907.79	4295
907.907	4360
908.023	4489
908.139	4489
908.256	4402
908.372	4440
908.488	4451
908.604	4367
908.72	4325
908.836	4360
908.952	4375
909.068	4417
909.184	4535
909.3	4508
909.415	4592
909.531	4573
909.647	4367
909.762	4371
909.878	4348
909.993	4455
910.108	4386
910.224	4447
910.339	4478
910.454	4386
910.57	4344
910.685	4337
910.8	4592
910.915	4645
911.03	4504
911.145	4303
911.259	4314
911.374	4390
911.489	4276
911.604	4314
911.718	4173
911.833	4238
911.947	4082
912.062	4029
912.176	4192
912.291	4261
912.405	4242
912.519	4459
912.633	4512
912.748	4405
912.862	4329
912.976	4211
913.09	4147
913.204	4162
913.318	4242
913.431	4341
913.545	4337
913.659	4413
913.772	4325
913.886	4280
914	4177
914.113	4325
914.226	4451
914.34	4386
914.453	4223
914.566	4443
914.68	4299
914.793	4322
914.906	4181
915.019	4120
915.132	4071
915.245	4135
915.358	4211
915.47	4223
915.583	4257
915.696	4314
915.809	4405
915.921	4417
916.034	4246
916.146	4287
916.259	4211
916.371	4375
916.483	4352
916.595	4230
916.708	4329
916.82	4356
916.932	4303
917.044	4325
917.156	4318
917.268	4253
917.38	4318
917.491	4291
917.603	4318
917.715	4390
917.826	4440
917.938	4356
918.049	4280
918.161	4360
918.272	4550
918.384	4500
918.495	4470
918.606	4261
918.717	4227
918.828	4371
918.939	4352
919.05	4295
919.161	4280
919.272	4101
919.383	4185
919.494	4436
919.604	4611
919.715	4436
919.826	4333
919.936	4432
920.047	4485
920.157	4455
920.267	4725
920.378	4512
920.488	4516
920.598	4733
920.708	4862
920.818	4774
920.928	4691
921.038	4915
921.148	4892
921.258	4630
921.368	4527
921.477	4500
921.587	4500
921.697	4428
921.806	4538
921.916	4489
922.025	4272
922.134	4295
922.244	4204
922.353	4299
922.462	4150
922.571	4147
922.68	3968
922.789	3945
922.898	4010
923.007	3998
923.116	4078
923.224	4074
923.333	4090
923.442	3998
923.55	3934
923.659	4025
923.767	4078
923.876	4002
923.984	4162
924.092	3975
924.201	4090
924.309	4074
924.417	4116
924.525	4105
924.633	4074
924.741	4824
924.849	3949
924.956	4116
925.064	3975
925.172	3876
925.279	3960
925.387	4044
925.494	4048
925.602	4173
925.709	4185
925.816	3994
925.924	4120
926.031	4249
926.138	4188
926.245	4177
926.352	4067
926.459	4227
926.566	4303
926.673	4150
926.779	4128
926.886	4040
926.993	3960
927.099	3968
927.206	3926
927.312	3945
927.419	4051
927.525	3983
927.631	4090
927.737	3934
927.843	3960
927.95	3846
928.056	3991
928.162	3968
928.267	4086
928.373	4698
928.479	4109
928.585	3846
928.69	4048
928.796	4067
928.901	3926
929.007	3850
929.112	4013
929.218	3934
929.323	3892
929.428	3903
929.533	4071
929.638	3918
929.743	3964
929.848	4051
929.953	3972
930.058	3956
930.163	3785
930.267	3831
930.372	3987
930.477	3808
930.581	4071
930.685	3937
930.79	3804
930.894	3819
930.998	3861
931.103	4029
931.207	3720
931.311	3675
931.415	3671
931.519	3542
931.623	3519
