Data from test_V78500241_12.txt Node
Date: Fri Mar 25 16:49:05 CST 2022
User: usil
Spectrometer: V785-0024
Trigger mode: 0
Integration Time (sec): 4.000000E-1
Scans to average: 1
Nonlinearity correction enabled: false
Boxcar width: 0
Storing dark spectrum: false
XAxis mode: Wavelengths
Number of Pixels in Spectrum: 1024
>>>>>Begin Spectral Data<<<<<
801.071	8149
801.214	8092
801.356	8039
801.499	8008
801.641	7833
801.783	7913
801.926	7986
802.068	8012
802.211	8031
802.353	8134
802.496	7967
802.638	7951
802.78	7978
802.923	7955
803.065	7982
803.208	7902
803.35	8126
803.492	8111
803.635	8206
803.777	8043
803.919	8092
804.061	8438
804.204	8267
804.346	8096
804.488	8077
804.63	8119
804.773	8020
804.915	8103
805.057	8282
805.199	8199
805.341	8263
805.483	8294
805.626	8286
805.768	8145
805.91	8271
806.052	8267
806.194	8149
806.336	8294
806.478	8119
806.62	8119
806.762	8199
806.904	8343
807.046	8461
807.188	8355
807.33	8362
807.472	8370
807.614	8202
807.756	8138
807.898	8043
808.04	7955
808.182	7982
808.324	7978
808.465	7928
808.607	8153
808.749	8084
808.891	8229
809.033	8218
809.174	8195
809.316	8100
809.458	8172
809.6	7921
809.741	8035
809.883	7993
810.025	8180
810.166	8157
810.308	8115
810.45	8081
810.591	7913
810.733	7864
810.875	7753
811.016	7567
811.158	7601
811.299	7681
811.441	7864
811.582	7753
811.724	7632
811.865	7613
812.007	7712
812.148	7685
812.29	7685
812.431	7772
812.573	7955
812.714	8084
812.855	8176
812.997	8282
813.138	8423
813.279	8290
813.421	8142
813.562	8050
813.703	7967
813.845	7807
813.986	7537
814.127	7392
814.268	7285
814.41	7274
814.551	7244
814.692	7297
814.833	7141
814.974	7103
815.115	7198
815.256	6977
815.397	7008
815.539	7031
815.68	6875
815.821	6863
815.962	6951
816.103	6833
816.244	6821
816.385	6662
816.526	6662
816.666	6582
816.807	6418
816.948	6525
817.089	6559
817.23	6532
817.371	6399
817.512	6433
817.653	6460
817.793	6471
817.934	6506
818.075	6464
818.216	6528
818.356	6544
818.497	6376
818.638	6125
818.778	6266
818.919	6235
819.06	6296
819.2	6353
819.341	6418
819.481	6471
819.622	6639
819.762	6886
819.903	6764
820.043	6608
820.184	6627
820.324	6703
820.465	6745
820.605	6764
820.746	6703
820.886	6604
821.026	6791
821.167	6825
821.307	6806
821.447	6848
821.588	6639
821.728	6662
821.868	6540
822.008	6407
822.149	6426
822.289	6433
822.429	6239
822.569	6140
822.709	6144
822.849	6034
822.99	5980
823.13	6011
823.27	5992
823.41	5821
823.55	5878
823.69	5844
823.83	5866
823.97	5729
824.11	5570
824.25	5627
824.389	5604
824.529	5684
824.669	5581
824.809	5657
824.949	5718
825.089	5733
825.228	5619
825.368	5444
825.508	5353
825.648	5436
825.787	5436
825.927	5429
826.067	5391
826.206	5383
826.346	5433
826.485	5467
826.625	5440
826.765	5608
826.904	5551
827.044	5334
827.183	5280
827.323	5162
827.462	5345
827.601	5261
827.741	5258
827.88	5292
828.02	5121
828.159	5273
828.298	5326
828.437	5417
828.577	5376
828.716	5493
828.855	5383
828.994	5235
829.134	5231
829.273	5242
829.412	5185
829.551	5197
829.69	5201
829.829	5284
829.968	5425
830.107	5292
830.246	5311
830.385	5269
830.524	5212
830.663	5128
830.802	5052
830.941	4908
831.08	4957
831.219	4980
831.357	5022
831.496	5216
831.635	5041
831.774	4889
831.913	4930
832.051	4786
832.19	4824
832.329	4885
832.467	4675
832.606	4702
832.744	4801
832.883	4759
833.022	4877
833.16	4854
833.299	4915
833.437	4847
833.576	4904
833.714	4900
833.852	4976
833.991	4942
834.129	5014
834.267	5014
834.406	4938
834.544	5025
834.682	5048
834.821	5037
834.959	5299
835.097	5033
835.235	5212
835.373	5166
835.511	5166
835.65	5079
835.788	5060
835.926	4953
836.064	4942
836.202	4991
836.34	5284
836.478	5299
836.615	5193
836.753	5299
836.891	5311
837.029	5326
837.167	5227
837.305	5227
837.443	5220
837.58	5132
837.718	5258
837.856	5246
837.993	5201
838.131	5318
838.269	5288
838.406	5273
838.544	5204
838.681	5083
838.819	5090
838.956	4984
839.094	4957
839.231	5037
839.369	5136
839.506	5440
839.643	5341
839.781	5117
839.918	5090
840.055	5162
840.193	5151
840.33	5185
840.467	5151
840.604	5269
840.742	5516
840.879	5155
841.016	5132
841.153	5197
841.29	5383
841.427	5360
841.564	5379
841.701	5410
841.838	5368
841.975	5299
842.112	5357
842.249	5181
842.385	5128
842.522	5372
842.659	5147
842.796	5193
842.933	5269
843.069	5220
843.206	5231
843.343	5383
843.479	5311
843.616	5330
843.752	5090
843.889	5048
844.025	5277
844.162	5094
844.298	5311
844.435	5162
844.571	5124
844.708	5258
844.844	5341
844.98	5402
845.117	5337
845.253	5197
845.389	5083
845.525	5223
845.661	5193
845.798	5147
845.934	5223
846.07	5086
846.206	5265
846.342	5372
846.478	5254
846.614	5075
846.75	4991
846.886	5041
847.022	5189
847.158	5090
847.294	5124
847.429	5155
847.565	5083
847.701	5341
847.837	4957
847.972	4892
848.108	5014
848.244	5018
848.379	4824
848.515	4767
848.65	4767
848.786	4736
848.921	4873
849.057	4919
849.192	4968
849.328	4873
849.463	4934
849.598	4835
849.734	4797
849.869	4786
850.004	4702
850.14	4725
850.275	4637
850.41	4573
850.545	4565
850.68	4675
850.815	4615
850.95	4649
851.085	4904
851.22	4790
851.355	4736
851.49	4679
851.625	4710
851.76	4668
851.895	4577
852.03	4592
852.165	4645
852.299	4755
852.434	4805
852.569	4786
852.703	4885
852.838	4946
852.973	4942
853.107	4949
853.242	4812
853.376	4748
853.511	4569
853.645	4656
853.78	4839
853.914	4721
854.048	4767
854.183	4706
854.317	4729
854.451	4873
854.585	4679
854.72	4668
854.854	4809
854.988	4626
855.122	4694
855.256	4607
855.39	4736
855.524	4835
855.658	4847
855.792	4755
855.926	4771
856.06	4763
856.194	4877
856.327	4733
856.461	4641
856.595	4656
856.729	4687
856.862	4828
856.996	4763
857.13	4786
857.263	4843
857.397	4862
857.53	4687
857.664	4797
857.797	4839
857.931	4877
858.064	4759
858.197	4858
858.331	4679
858.464	4675
858.597	4569
858.731	4717
858.864	4702
858.997	4649
859.13	4691
859.263	4752
859.396	4793
859.529	4656
859.662	4637
859.795	4611
859.928	4702
860.061	4824
860.194	4744
860.327	4668
860.46	4618
860.592	4771
860.725	4752
860.858	4755
860.99	4611
861.123	4569
861.256	4538
861.388	4675
861.521	5417
861.653	4531
861.786	4481
861.918	4516
862.05	4577
862.183	4634
862.315	4706
862.447	4691
862.58	4615
862.712	4470
862.844	4318
862.976	4565
863.108	4451
863.24	4904
863.372	4371
863.504	4478
863.636	4462
863.768	4531
863.9	4500
864.032	4409
864.164	4470
864.296	4519
864.428	4622
864.559	4626
864.691	4573
864.823	4546
864.954	4546
865.086	4577
865.217	4500
865.349	4493
865.48	4531
865.612	4535
865.743	4714
865.875	4546
866.006	4462
866.137	4512
866.269	4523
866.4	4489
866.531	4500
866.662	4405
866.793	4474
866.924	4497
867.055	4508
867.186	4481
867.317	4497
867.448	4398
867.579	4421
867.71	4436
867.841	4398
867.972	4516
868.103	4535
868.233	4485
868.364	4462
868.495	4535
868.625	4717
868.756	4793
868.886	4626
869.017	4679
869.147	4835
869.278	4801
869.408	4763
869.539	4656
869.669	4809
869.799	4748
869.929	4820
870.06	4797
870.19	5025
870.32	4949
870.45	5025
870.58	5083
870.71	5132
870.84	5170
870.97	5033
871.1	4972
871.23	5208
871.36	5162
871.489	5067
871.619	5143
871.749	5132
871.879	5166
872.008	5269
872.138	5128
872.267	5052
872.397	4911
872.526	4915
872.656	4767
872.785	4858
872.915	4953
873.044	5090
873.173	5003
873.303	5060
873.432	5010
873.561	4987
873.69	4873
873.819	4900
873.948	4999
874.077	4843
874.206	4782
874.335	4854
874.464	4980
874.593	5124
874.722	5037
874.851	5162
874.979	5170
875.108	5086
875.237	4984
875.365	4900
875.494	4965
875.623	5067
875.751	4877
875.88	4915
876.008	5010
876.136	5113
876.265	5231
876.393	5391
876.521	5341
876.65	5311
876.778	5216
876.906	5105
877.034	5056
877.162	5143
877.29	5025
877.418	5109
877.546	5113
877.674	5071
877.802	5064
877.93	5067
878.058	4930
878.185	4919
878.313	5029
878.441	5067
878.568	4873
878.696	4889
878.824	5014
878.951	5033
879.079	5178
879.206	5318
879.333	5147
879.461	5014
879.588	5056
879.715	5189
879.842	5311
879.97	5075
880.097	4801
880.224	4793
880.351	4896
880.478	4889
880.605	4824
880.732	4839
880.859	5174
880.986	4946
881.112	4942
881.239	4828
881.366	4782
881.493	4615
881.619	4641
881.746	4721
881.872	4702
881.999	4687
882.125	4748
882.252	4847
882.378	4889
882.505	5037
882.631	4866
882.757	4729
882.883	4790
883.01	4828
883.136	4714
883.262	4607
883.388	4694
883.514	4870
883.64	4904
883.766	4812
883.892	4717
884.018	4767
884.143	4965
884.269	4995
884.395	4706
884.52	4691
884.646	4706
884.772	4573
884.897	4599
885.023	4706
885.148	4835
885.274	4923
885.399	4824
885.524	4729
885.65	4752
885.775	4816
885.9	4778
886.025	4904
886.15	4885
886.275	4790
886.4	4706
886.525	4786
886.65	4725
886.775	4721
886.9	4987
887.025	5060
887.149	4889
887.274	4721
887.399	4672
887.523	4668
887.648	4615
887.773	4672
887.897	4831
888.021	4847
888.146	4702
888.27	4824
888.395	4934
888.519	4866
888.643	4885
888.767	4870
888.891	4714
889.015	4672
889.139	4706
889.263	4615
889.387	4793
889.511	4900
889.635	4824
889.759	4706
889.883	4634
890.006	4763
890.13	4854
890.254	4607
890.377	4759
890.501	4580
890.624	4588
890.748	4679
890.871	4558
890.995	4489
891.118	4451
891.241	4573
891.364	4615
891.488	4717
891.611	4573
891.734	4599
891.857	4645
891.98	4565
892.103	4687
892.226	4679
892.349	4580
892.471	4447
892.594	4565
892.717	4656
892.839	4611
892.962	4637
893.085	4725
893.207	4675
893.33	4497
893.452	4603
893.575	4717
893.697	4645
893.819	4820
893.941	4911
894.064	4805
894.186	4664
894.308	4660
894.43	4778
894.552	4870
894.674	4786
894.796	4592
894.918	4607
895.04	4630
895.161	4786
895.283	4672
895.405	4622
895.526	4733
895.648	4748
895.769	4736
895.891	4736
896.012	4774
896.134	4748
896.255	4752
896.376	4694
896.498	4660
896.619	4736
896.74	4672
896.861	4717
896.982	5006
897.103	5117
897.224	4862
897.345	4782
897.466	4714
897.587	4767
897.708	4915
897.828	4862
897.949	4691
898.07	4580
898.19	4736
898.311	4911
898.431	4729
898.552	4790
898.672	4866
898.792	4862
898.913	4843
899.033	4691
899.153	4542
899.273	4493
899.393	4569
899.513	4542
899.633	4584
899.753	4592
899.873	4577
899.993	4653
900.113	4626
900.232	4611
900.352	4565
900.472	4531
900.591	4417
900.711	4531
900.83	4459
900.95	4687
901.069	4748
901.189	4596
901.308	4466
901.427	4390
901.546	4462
901.665	4535
901.784	4554
901.904	4428
902.023	4394
902.141	4242
902.26	4219
902.379	4363
902.498	4299
902.617	4287
902.735	4447
902.854	4466
902.973	4413
903.091	4242
903.21	4272
903.328	4284
903.446	4329
903.565	4314
903.683	4390
903.801	4341
903.919	4417
904.038	4531
904.156	4371
904.274	4436
904.392	4417
904.51	4478
904.627	4565
904.745	4672
904.863	4656
904.981	4485
905.098	4310
905.216	4367
905.334	4440
905.451	4481
905.569	4485
905.686	4615
905.803	4588
905.921	4478
906.038	4588
906.155	4485
906.272	4386
906.389	4512
906.506	4409
906.623	4371
906.74	4428
906.857	4383
906.974	4367
907.091	4618
907.208	4706
907.324	4637
907.441	4508
907.557	4409
907.674	4409
907.79	4352
907.907	4443
908.023	4535
908.139	4561
908.256	4478
908.372	4512
908.488	4493
908.604	4405
908.72	4356
908.836	4440
908.952	4371
909.068	4474
909.184	4630
909.3	4565
909.415	4603
909.531	4630
909.647	4417
909.762	4360
909.878	4360
909.993	4459
910.108	4440
910.224	4470
910.339	4493
910.454	4462
910.57	4409
910.685	4348
910.8	4687
910.915	4622
911.03	4542
911.145	4390
911.259	4375
911.374	4390
911.489	4356
911.604	4287
911.718	4196
911.833	4223
911.947	4124
912.062	4101
912.176	4291
912.291	4291
912.405	4291
912.519	4497
912.633	4565
912.748	4417
912.862	4310
912.976	4257
913.09	4128
913.204	4211
913.318	4337
913.431	4398
913.545	4386
913.659	4443
913.772	4443
913.886	4272
914	4227
914.113	4470
914.226	4478
914.34	4424
914.453	4276
914.566	4424
914.68	4322
914.793	4383
914.906	4169
915.019	4185
915.132	4124
915.245	4253
915.358	4299
915.47	4246
915.583	4280
915.696	4360
915.809	4489
915.921	4481
916.034	4306
916.146	4284
916.259	4314
916.371	4409
916.483	4421
916.595	4322
916.708	4371
916.82	4348
916.932	4379
917.044	4348
917.156	4432
917.268	4287
917.38	4287
917.491	4371
917.603	4356
917.715	4485
917.826	4451
917.938	4402
918.049	4287
918.161	4493
918.272	4577
918.384	4607
918.495	4531
918.606	4360
918.717	4318
918.828	4413
918.939	4428
919.05	4303
919.161	4371
919.272	4188
919.383	4295
919.494	4497
919.604	4668
919.715	4478
919.826	4344
919.936	4424
920.047	4565
920.157	4516
920.267	4748
920.378	4618
920.488	4584
920.598	4744
920.708	4900
920.818	4797
920.928	4824
921.038	5037
921.148	4900
921.258	4698
921.368	4584
921.477	4592
921.587	4519
921.697	4432
921.806	4584
921.916	4436
922.025	4295
922.134	4322
922.244	4272
922.353	4405
922.462	4230
922.571	4166
922.68	4044
922.789	4025
922.898	4025
923.007	4074
923.116	4196
923.224	4055
923.333	4067
923.442	4040
923.55	4055
923.659	4063
923.767	4166
923.876	4101
923.984	4154
924.092	4017
924.201	4131
924.309	4124
924.417	4173
924.525	4105
924.633	4150
924.741	5056
924.849	3945
924.956	4150
925.064	4013
925.172	3941
925.279	3994
925.387	4093
925.494	4090
925.602	4268
925.709	4257
925.816	4097
925.924	4211
926.031	4257
926.138	4185
926.245	4268
926.352	4154
926.459	4284
926.566	4341
926.673	4192
926.779	4116
926.886	4101
926.993	3983
927.099	4029
927.206	3972
927.312	4006
927.419	4063
927.525	4090
927.631	4177
927.737	4029
927.843	3987
927.95	3892
928.056	4021
928.162	4017
928.267	4071
928.373	4759
928.479	4154
928.585	3934
928.69	4074
928.796	4173
928.901	4036
929.007	3831
929.112	4051
929.218	4013
929.323	3998
929.428	4010
929.533	4139
929.638	3964
929.743	4025
929.848	4074
929.953	4063
930.058	3972
930.163	3812
930.267	3873
930.372	4051
930.477	3846
930.581	4162
930.685	4002
930.79	3896
930.894	3911
930.998	3892
931.103	4063
931.207	3785
931.311	3724
931.415	3736
931.519	3523
931.623	3587
