Data from test_V78500241_1704.txt Node
Date: Fri Mar 25 17:00:51 CST 2022
User: usil
Spectrometer: V785-0024
Trigger mode: 0
Integration Time (sec): 4.000000E-1
Scans to average: 1
Nonlinearity correction enabled: false
Boxcar width: 0
Storing dark spectrum: false
XAxis mode: Wavelengths
Number of Pixels in Spectrum: 1024
>>>>>Begin Spectral Data<<<<<
801.071	7986
801.214	7932
801.356	7852
801.499	7818
801.641	7723
801.783	7811
801.926	7993
802.068	7955
802.211	8016
802.353	8024
802.496	7788
802.638	7871
802.78	7811
802.923	7944
803.065	7841
803.208	7845
803.35	7932
803.492	8031
803.635	8100
803.777	8035
803.919	8142
804.061	8484
804.204	8084
804.346	8039
804.488	7947
804.63	8058
804.773	8016
804.915	8020
805.057	8343
805.199	8142
805.341	8180
805.483	8199
805.626	8229
805.768	8115
805.91	8259
806.052	8229
806.194	8119
806.336	8309
806.478	8092
806.62	7978
806.762	8111
806.904	8282
807.046	8492
807.188	8385
807.33	8271
807.472	8267
807.614	8149
807.756	8157
807.898	7951
808.04	7879
808.182	7955
808.324	7856
808.465	7917
808.607	8035
808.749	8161
808.891	8240
809.033	8218
809.174	8176
809.316	7993
809.458	8077
809.6	8027
809.741	8035
809.883	8062
810.025	8092
810.166	7989
810.308	7986
810.45	7932
810.591	7833
810.733	7731
810.875	7651
811.016	7491
811.158	7453
811.299	7601
811.441	7723
811.582	7693
811.724	7575
811.865	7487
812.007	7601
812.148	7586
812.29	7639
812.431	7769
812.573	7940
812.714	7944
812.855	8164
812.997	8172
813.138	8294
813.279	8103
813.421	8016
813.562	7921
813.703	7849
813.845	7685
813.986	7396
814.127	7194
814.268	7213
814.41	7209
814.551	7137
814.692	7190
814.833	7091
814.974	7042
815.115	7088
815.256	6985
815.397	6935
815.539	6909
815.68	6802
815.821	6783
815.962	6829
816.103	6833
816.244	6616
816.385	6616
816.526	6582
816.666	6521
816.807	6296
816.948	6433
817.089	6486
817.23	6388
817.371	6372
817.512	6391
817.653	6292
817.793	6380
817.934	6414
818.075	6456
818.216	6395
818.356	6353
818.497	6155
818.638	6091
818.778	6136
818.919	6121
819.06	6148
819.2	6331
819.341	6311
819.481	6331
819.622	6532
819.762	6776
819.903	6738
820.043	6597
820.184	6570
820.324	6547
820.465	6681
820.605	6646
820.746	6620
820.886	6456
821.026	6646
821.167	6627
821.307	6798
821.447	6757
821.588	6692
821.728	6597
821.868	6380
822.008	6308
822.149	6399
822.289	6334
822.429	6190
822.569	6068
822.709	6125
822.849	5897
822.99	5874
823.13	5916
823.27	5901
823.41	5760
823.55	5767
823.69	5737
823.83	5756
823.97	5691
824.11	5566
824.25	5490
824.389	5501
824.529	5562
824.669	5509
824.809	5630
824.949	5646
825.089	5627
825.228	5505
825.368	5357
825.508	5326
825.648	5311
825.787	5383
825.927	5368
826.067	5216
826.206	5284
826.346	5387
826.485	5379
826.625	5433
826.765	5539
826.904	5452
827.044	5311
827.183	5227
827.323	5174
827.462	5204
827.601	5170
827.741	5162
827.88	5201
828.02	5151
828.159	5284
828.298	5299
828.437	5326
828.577	5368
828.716	5471
828.855	5337
828.994	5178
829.134	5147
829.273	5204
829.412	5155
829.551	5132
829.69	5193
829.829	5239
829.968	5383
830.107	5246
830.246	5216
830.385	5212
830.524	5178
830.663	5124
830.802	4987
830.941	4870
831.08	4942
831.219	5045
831.357	4965
831.496	5170
831.635	4949
831.774	4854
831.913	4870
832.051	4767
832.19	4748
832.329	4877
832.467	4698
832.606	4637
832.744	4740
832.883	4748
833.022	4748
833.16	4828
833.299	4843
833.437	4850
833.576	4873
833.714	4862
833.852	4889
833.991	4946
834.129	4968
834.267	4980
834.406	4949
834.544	4965
834.682	5014
834.821	4961
834.959	5151
835.097	4995
835.235	5166
835.373	5124
835.511	5090
835.65	5025
835.788	5086
835.926	4927
836.064	4900
836.202	4938
836.34	5197
836.478	5258
836.615	5132
836.753	5223
836.891	5292
837.029	5341
837.167	5220
837.305	5201
837.443	5170
837.58	5121
837.718	5326
837.856	5204
837.993	5170
838.131	5239
838.269	5242
838.406	5269
838.544	5189
838.681	5060
838.819	5045
838.956	4911
839.094	4923
839.231	4987
839.369	5121
839.506	5444
839.643	5280
839.781	5105
839.918	5048
840.055	5052
840.193	5067
840.33	5128
840.467	5128
840.604	5201
840.742	5433
840.879	5140
841.016	5151
841.153	5181
841.29	5410
841.427	5360
841.564	5337
841.701	5372
841.838	5334
841.975	5250
842.112	5299
842.249	5170
842.385	5083
842.522	5307
842.659	5242
842.796	5197
842.933	5193
843.069	5208
843.206	5151
843.343	5280
843.479	5273
843.616	5315
843.752	5048
843.889	5014
844.025	5235
844.162	5079
844.298	5227
844.435	5090
844.571	5075
844.708	5246
844.844	5292
844.98	5341
845.117	5292
845.253	5201
845.389	5124
845.525	5185
845.661	5102
845.798	5052
845.934	5162
846.07	5048
846.206	5204
846.342	5372
846.478	5227
846.614	5064
846.75	5052
846.886	5003
847.022	5132
847.158	5094
847.294	5086
847.429	5140
847.565	5041
847.701	5326
847.837	4892
847.972	4835
848.108	5006
848.244	4972
848.379	4824
848.515	4805
848.65	4725
848.786	4752
848.921	4797
849.057	4892
849.192	4866
849.328	4801
849.463	4870
849.598	4850
849.734	4767
849.869	4714
850.004	4664
850.14	4710
850.275	4611
850.41	4565
850.545	4649
850.68	4641
850.815	4660
850.95	4706
851.085	4873
851.22	4782
851.355	4675
851.49	4664
851.625	4660
851.76	4615
851.895	4580
852.03	4615
852.165	4672
852.299	4733
852.434	4797
852.569	4759
852.703	4759
852.838	4831
852.973	5014
853.107	4965
853.242	4782
853.376	4675
853.511	4626
853.645	4649
853.78	4816
853.914	4755
854.048	4675
854.183	4687
854.317	4694
854.451	4873
854.585	4687
854.72	4702
854.854	4793
854.988	4637
855.122	4664
855.256	4527
855.39	4698
855.524	4816
855.658	4752
855.792	4725
855.926	4748
856.06	4786
856.194	4828
856.327	4755
856.461	4664
856.595	4607
856.729	4645
856.862	4778
856.996	4710
857.13	4744
857.263	4778
857.397	4820
857.53	4725
857.664	4702
857.797	4774
857.931	4847
858.064	4729
858.197	4767
858.331	4656
858.464	4626
858.597	4531
858.731	4656
858.864	4660
858.997	4630
859.13	4664
859.263	4702
859.396	4755
859.529	4634
859.662	4618
859.795	4603
859.928	4664
860.061	4736
860.194	4771
860.327	4656
860.46	4615
860.592	4714
860.725	4710
860.858	4782
860.99	4603
861.123	4550
861.256	4542
861.388	4618
861.521	5254
861.653	4512
861.786	4455
861.918	4489
862.05	4512
862.183	4565
862.315	4607
862.447	4710
862.58	4596
862.712	4432
862.844	4306
862.976	4512
863.108	4500
863.24	4915
863.372	4329
863.504	4443
863.636	4443
863.768	4485
863.9	4462
864.032	4421
864.164	4474
864.296	4558
864.428	4565
864.559	4558
864.691	4558
864.823	4519
864.954	4523
865.086	4535
865.217	4405
865.349	4409
865.48	4478
865.612	4519
865.743	4634
865.875	4504
866.006	4379
866.137	4447
866.269	4447
866.4	4466
866.531	4470
866.662	4447
866.793	4405
866.924	4455
867.055	4516
867.186	4478
867.317	4447
867.448	4405
867.579	4421
867.71	4409
867.841	4363
867.972	4478
868.103	4500
868.233	4451
868.364	4462
868.495	4497
868.625	4691
868.756	4763
868.886	4577
869.017	4679
869.147	4801
869.278	4729
869.408	4694
869.539	4660
869.669	4733
869.799	4664
869.929	4778
870.06	4771
870.19	4938
870.32	4889
870.45	4927
870.58	5018
870.71	5105
870.84	5102
870.97	4999
871.1	4927
871.23	5128
871.36	5113
871.489	5003
871.619	5098
871.749	5102
871.879	5102
872.008	5159
872.138	5006
872.267	5045
872.397	4820
872.526	4816
872.656	4740
872.785	4793
872.915	4972
873.044	5033
873.173	4972
873.303	4911
873.432	5033
873.561	4919
873.69	4866
873.819	4881
873.948	4923
874.077	4801
874.206	4805
874.335	4790
874.464	4972
874.593	5090
874.722	4995
874.851	5140
874.979	5064
875.108	5033
875.237	4946
875.365	4923
875.494	4915
875.623	4995
875.751	4854
875.88	4885
876.008	4984
876.136	5010
876.265	5147
876.393	5322
876.521	5239
876.65	5311
876.778	5113
876.906	5105
877.034	4976
877.162	5075
877.29	5010
877.418	5075
877.546	4995
877.674	5037
877.802	5018
877.93	5067
878.058	4923
878.185	4870
878.313	4972
878.441	4976
878.568	4839
878.696	4904
878.824	5045
878.951	5006
879.079	5143
879.206	5364
879.333	5113
879.461	5014
879.588	5052
879.715	5109
879.842	5223
879.97	5006
880.097	4755
880.224	4797
880.351	4843
880.478	4771
880.605	4763
880.732	4790
880.859	5094
880.986	4927
881.112	4930
881.239	4774
881.366	4698
881.493	4637
881.619	4592
881.746	4672
881.872	4664
881.999	4675
882.125	4725
882.252	4828
882.378	4812
882.505	5010
882.631	4767
882.757	4649
882.883	4694
883.01	4759
883.136	4664
883.262	4584
883.388	4687
883.514	4839
883.64	4858
883.766	4793
883.892	4656
884.018	4805
884.143	4915
884.269	4987
884.395	4698
884.52	4618
884.646	4630
884.772	4573
884.897	4592
885.023	4710
885.148	4771
885.274	4885
885.399	4877
885.524	4774
885.65	4721
885.775	4767
885.9	4691
886.025	4862
886.15	4843
886.275	4736
886.4	4622
886.525	4725
886.65	4660
886.775	4660
886.9	4911
887.025	5075
887.149	4763
887.274	4702
887.399	4596
887.523	4561
887.648	4603
887.773	4596
887.897	4793
888.021	4744
888.146	4675
888.27	4820
888.395	4908
888.519	4771
888.643	4873
888.767	4793
888.891	4733
889.015	4641
889.139	4706
889.263	4653
889.387	4752
889.511	4870
889.635	4839
889.759	4672
889.883	4675
890.006	4698
890.13	4892
890.254	4607
890.377	4683
890.501	4565
890.624	4535
890.748	4668
890.871	4519
890.995	4398
891.118	4436
891.241	4531
891.364	4516
891.488	4672
891.611	4504
891.734	4550
891.857	4615
891.98	4527
892.103	4645
892.226	4630
892.349	4516
892.471	4459
892.594	4538
892.717	4683
892.839	4584
892.962	4641
893.085	4683
893.207	4641
893.33	4436
893.452	4558
893.575	4664
893.697	4546
893.819	4812
893.941	4763
894.064	4801
894.186	4573
894.308	4577
894.43	4771
894.552	4835
894.674	4740
894.796	4569
894.918	4580
895.04	4546
895.161	4733
895.283	4668
895.405	4584
895.526	4656
895.648	4660
895.769	4675
895.891	4740
896.012	4778
896.134	4706
896.255	4675
896.376	4649
896.498	4653
896.619	4736
896.74	4596
896.861	4634
896.982	4904
897.103	5090
897.224	4854
897.345	4733
897.466	4710
897.587	4668
897.708	4911
897.828	4793
897.949	4710
898.07	4588
898.19	4656
898.311	4847
898.431	4691
898.552	4717
898.672	4771
898.792	4816
898.913	4755
899.033	4569
899.153	4512
899.273	4424
899.393	4497
899.513	4512
899.633	4485
899.753	4550
899.873	4535
899.993	4615
900.113	4516
900.232	4588
900.352	4565
900.472	4527
900.591	4424
900.711	4493
900.83	4409
900.95	4615
901.069	4714
901.189	4546
901.308	4348
901.427	4341
901.546	4409
901.665	4481
901.784	4481
901.904	4428
902.023	4314
902.141	4234
902.26	4158
902.379	4306
902.498	4265
902.617	4227
902.735	4398
902.854	4367
902.973	4329
903.091	4223
903.21	4261
903.328	4291
903.446	4238
903.565	4257
903.683	4363
903.801	4265
903.919	4367
904.038	4409
904.156	4287
904.274	4462
904.392	4394
904.51	4459
904.627	4470
904.745	4538
904.863	4630
904.981	4402
905.098	4329
905.216	4405
905.334	4409
905.451	4443
905.569	4440
905.686	4569
905.803	4603
905.921	4428
906.038	4573
906.155	4478
906.272	4436
906.389	4474
906.506	4390
906.623	4390
906.74	4394
906.857	4276
906.974	4348
907.091	4573
907.208	4714
907.324	4599
907.441	4500
907.557	4333
907.674	4348
907.79	4306
907.907	4386
908.023	4485
908.139	4489
908.256	4481
908.372	4470
908.488	4485
908.604	4341
908.72	4337
908.836	4390
908.952	4375
909.068	4386
909.184	4504
909.3	4493
909.415	4588
909.531	4531
909.647	4341
909.762	4363
909.878	4329
909.993	4379
910.108	4417
910.224	4440
910.339	4421
910.454	4398
910.57	4356
910.685	4310
910.8	4626
910.915	4611
911.03	4478
911.145	4329
911.259	4306
911.374	4413
911.489	4318
911.604	4314
911.718	4169
911.833	4200
911.947	4116
912.062	4025
912.176	4196
912.291	4249
912.405	4299
912.519	4447
912.633	4508
912.748	4390
912.862	4348
912.976	4246
913.09	4082
913.204	4169
913.318	4238
913.431	4348
913.545	4409
913.659	4443
913.772	4322
913.886	4257
914	4211
914.113	4371
914.226	4405
914.34	4409
914.453	4246
914.566	4459
914.68	4314
914.793	4322
914.906	4154
915.019	4109
915.132	4082
915.245	4223
915.358	4185
915.47	4234
915.583	4257
915.696	4306
915.809	4409
915.921	4440
916.034	4227
916.146	4223
916.259	4215
916.371	4363
916.483	4356
916.595	4238
916.708	4322
916.82	4375
916.932	4276
917.044	4329
917.156	4344
917.268	4230
917.38	4287
917.491	4291
917.603	4383
917.715	4424
917.826	4432
917.938	4325
918.049	4268
918.161	4417
918.272	4519
918.384	4531
918.495	4440
918.606	4295
918.717	4219
918.828	4295
918.939	4363
919.05	4219
919.161	4352
919.272	4150
919.383	4257
919.494	4424
919.604	4660
919.715	4466
919.826	4306
919.936	4405
920.047	4493
920.157	4542
920.267	4664
920.378	4554
920.488	4447
920.598	4683
920.708	4824
920.818	4755
920.928	4744
921.038	4927
921.148	4911
921.258	4588
921.368	4542
921.477	4561
921.587	4455
921.697	4375
921.806	4538
921.916	4432
922.025	4272
922.134	4272
922.244	4204
922.353	4291
922.462	4185
922.571	4162
922.68	3979
922.789	3941
922.898	4006
923.007	4013
923.116	4063
923.224	4059
923.333	4051
923.442	3956
923.55	3975
923.659	4029
923.767	4105
923.876	4025
923.984	4093
924.092	3979
924.201	4078
924.309	4120
924.417	4131
924.525	4097
924.633	4143
924.741	4854
924.849	3915
924.956	4147
925.064	3956
925.172	3903
925.279	3979
925.387	4044
925.494	4036
925.602	4204
925.709	4181
925.816	4010
925.924	4124
926.031	4246
926.138	4154
926.245	4219
926.352	4040
926.459	4268
926.566	4318
926.673	4169
926.779	4143
926.886	4109
926.993	3987
927.099	3964
927.206	3945
927.312	3941
927.419	4059
927.525	4040
927.631	4109
927.737	3949
927.843	3926
927.95	3854
928.056	3899
928.162	4002
928.267	4040
928.373	4660
928.479	4116
928.585	3899
928.69	3975
928.796	4055
928.901	4002
929.007	3846
929.112	3991
929.218	3945
929.323	3960
929.428	3956
929.533	4090
929.638	3899
929.743	3964
929.848	4055
929.953	4013
930.058	3903
930.163	3785
930.267	3819
930.372	3975
930.477	3812
930.581	4078
930.685	3918
930.79	3831
930.894	3865
930.998	3823
931.103	4048
931.207	3698
931.311	3709
931.415	3698
931.519	3507
931.623	3545
