Data from test_V78500241_1310.txt Node
Date: Fri Mar 25 16:58:06 CST 2022
User: usil
Spectrometer: V785-0024
Trigger mode: 0
Integration Time (sec): 4.000000E-1
Scans to average: 1
Nonlinearity correction enabled: false
Boxcar width: 0
Storing dark spectrum: false
XAxis mode: Wavelengths
Number of Pixels in Spectrum: 1024
>>>>>Begin Spectral Data<<<<<
801.071	8115
801.214	8050
801.356	7921
801.499	7799
801.641	7742
801.783	7814
801.926	7955
802.068	7982
802.211	8020
802.353	8008
802.496	7826
802.638	7902
802.78	7951
802.923	7944
803.065	7902
803.208	7849
803.35	7989
803.492	8069
803.635	8142
803.777	8092
803.919	8168
804.061	8469
804.204	8210
804.346	8084
804.488	7936
804.63	8069
804.773	8065
804.915	8134
805.057	8294
805.199	8191
805.341	8309
805.483	8309
805.626	8267
805.768	8119
805.91	8214
806.052	8214
806.194	8164
806.336	8347
806.478	8126
806.62	8069
806.762	8149
806.904	8320
807.046	8446
807.188	8446
807.33	8336
807.472	8328
807.614	8161
807.756	8145
807.898	8088
808.04	7997
808.182	7902
808.324	7955
808.465	7967
808.607	8142
808.749	8161
808.891	8244
809.033	8328
809.174	8218
809.316	8054
809.458	8096
809.6	8065
809.741	8024
809.883	8020
810.025	8176
810.166	8119
810.308	8092
810.45	8031
810.591	7894
810.733	7731
810.875	7662
811.016	7575
811.158	7521
811.299	7639
811.441	7677
811.582	7715
811.724	7571
811.865	7537
812.007	7609
812.148	7575
812.29	7674
812.431	7715
812.573	7894
812.714	8031
812.855	8168
812.997	8202
813.138	8324
813.279	8240
813.421	8138
813.562	8020
813.703	7860
813.845	7750
813.986	7460
814.127	7305
814.268	7266
814.41	7217
814.551	7164
814.692	7232
814.833	7141
814.974	7072
815.115	7095
815.256	6962
815.397	6909
815.539	6966
815.68	6882
815.821	6768
815.962	6837
816.103	6779
816.244	6753
816.385	6673
816.526	6616
816.666	6483
816.807	6285
816.948	6456
817.089	6494
817.23	6475
817.371	6361
817.512	6410
817.653	6391
817.793	6429
817.934	6414
818.075	6521
818.216	6452
818.356	6433
818.497	6239
818.638	6133
818.778	6171
818.919	6163
819.06	6182
819.2	6365
819.341	6342
819.481	6331
819.622	6593
819.762	6719
819.903	6757
820.043	6677
820.184	6593
820.324	6608
820.465	6707
820.605	6677
820.746	6669
820.886	6498
821.026	6707
821.167	6673
821.307	6821
821.447	6783
821.588	6688
821.728	6650
821.868	6502
822.008	6350
822.149	6319
822.289	6391
822.429	6125
822.569	6117
822.709	6186
822.849	5942
822.99	5908
823.13	5927
823.27	5855
823.41	5817
823.55	5790
823.69	5741
823.83	5756
823.97	5707
824.11	5581
824.25	5516
824.389	5562
824.529	5589
824.669	5551
824.809	5627
824.949	5760
825.089	5627
825.228	5600
825.368	5425
825.508	5395
825.648	5307
825.787	5357
825.927	5417
826.067	5265
826.206	5265
826.346	5368
826.485	5379
826.625	5410
826.765	5558
826.904	5429
827.044	5280
827.183	5170
827.323	5121
827.462	5258
827.601	5235
827.741	5193
827.88	5227
828.02	5064
828.159	5269
828.298	5315
828.437	5364
828.577	5292
828.716	5524
828.855	5330
828.994	5143
829.134	5208
829.273	5254
829.412	5147
829.551	5159
829.69	5193
829.829	5269
829.968	5364
830.107	5242
830.246	5334
830.385	5155
830.524	5170
830.663	5071
830.802	4999
830.941	4900
831.08	4870
831.219	4972
831.357	4953
831.496	5132
831.635	4957
831.774	4820
831.913	4839
832.051	4786
832.19	4736
832.329	4854
832.467	4744
832.606	4660
832.744	4740
832.883	4721
833.022	4725
833.16	4828
833.299	4854
833.437	4889
833.576	4854
833.714	4858
833.852	4850
833.991	4896
834.129	4919
834.267	4957
834.406	4919
834.544	4984
834.682	4938
834.821	4968
834.959	5231
835.097	5018
835.235	5174
835.373	5102
835.511	5166
835.65	5037
835.788	5029
835.926	4934
836.064	4892
836.202	4908
836.34	5121
836.478	5151
836.615	5155
836.753	5235
836.891	5227
837.029	5258
837.167	5201
837.305	5178
837.443	5124
837.58	5083
837.718	5269
837.856	5197
837.993	5162
838.131	5261
838.269	5261
838.406	5239
838.544	5204
838.681	5064
838.819	5018
838.956	4900
839.094	4908
839.231	4976
839.369	5090
839.506	5490
839.643	5216
839.781	5113
839.918	5056
840.055	5136
840.193	5079
840.33	5094
840.467	5109
840.604	5185
840.742	5455
840.879	5121
841.016	5105
841.153	5159
841.29	5357
841.427	5315
841.564	5296
841.701	5383
841.838	5265
841.975	5227
842.112	5284
842.249	5128
842.385	5094
842.522	5341
842.659	5197
842.796	5170
842.933	5193
843.069	5140
843.206	5174
843.343	5307
843.479	5231
843.616	5254
843.752	4965
843.889	4995
844.025	5250
844.162	5014
844.298	5212
844.435	5075
844.571	5056
844.708	5204
844.844	5265
844.98	5296
845.117	5322
845.253	5147
845.389	5052
845.525	5208
845.661	5140
845.798	5056
845.934	5117
846.07	5029
846.206	5162
846.342	5277
846.478	5132
846.614	5041
846.75	4976
846.886	4915
847.022	5102
847.158	5018
847.294	5090
847.429	5128
847.565	5056
847.701	5288
847.837	4870
847.972	4797
848.108	4949
848.244	4923
848.379	4782
848.515	4774
848.65	4683
848.786	4736
848.921	4752
849.057	4816
849.192	4892
849.328	4805
849.463	4858
849.598	4801
849.734	4752
849.869	4717
850.004	4649
850.14	4645
850.275	4626
850.41	4531
850.545	4554
850.68	4675
850.815	4592
850.95	4637
851.085	4862
851.22	4733
851.355	4675
851.49	4649
851.625	4649
851.76	4649
851.895	4565
852.03	4577
852.165	4664
852.299	4774
852.434	4797
852.569	4790
852.703	4793
852.838	4866
852.973	4980
853.107	4949
853.242	4710
853.376	4706
853.511	4577
853.645	4618
853.78	4843
853.914	4649
854.048	4725
854.183	4634
854.317	4702
854.451	4885
854.585	4698
854.72	4668
854.854	4790
854.988	4554
855.122	4675
855.256	4554
855.39	4694
855.524	4850
855.658	4752
855.792	4744
855.926	4797
856.06	4835
856.194	4812
856.327	4717
856.461	4656
856.595	4679
856.729	4675
856.862	4797
856.996	4725
857.13	4801
857.263	4767
857.397	4839
857.53	4683
857.664	4805
857.797	4793
857.931	4782
858.064	4748
858.197	4767
858.331	4694
858.464	4691
858.597	4512
858.731	4664
858.864	4679
858.997	4634
859.13	4656
859.263	4698
859.396	4714
859.529	4641
859.662	4584
859.795	4531
859.928	4622
860.061	4763
860.194	4778
860.327	4618
860.46	4641
860.592	4717
860.725	4710
860.858	4691
860.99	4611
861.123	4580
861.256	4554
861.388	4645
861.521	5204
861.653	4497
861.786	4485
861.918	4531
862.05	4546
862.183	4596
862.315	4634
862.447	4672
862.58	4592
862.712	4402
862.844	4386
862.976	4535
863.108	4493
863.24	4877
863.372	4341
863.504	4470
863.636	4478
863.768	4535
863.9	4478
864.032	4443
864.164	4432
864.296	4485
864.428	4584
864.559	4603
864.691	4523
864.823	4554
864.954	4584
865.086	4577
865.217	4516
865.349	4447
865.48	4459
865.612	4462
865.743	4656
865.875	4489
866.006	4428
866.137	4478
866.269	4538
866.4	4462
866.531	4428
866.662	4424
866.793	4432
866.924	4497
867.055	4546
867.186	4500
867.317	4428
867.448	4421
867.579	4398
867.71	4390
867.841	4436
867.972	4485
868.103	4485
868.233	4508
868.364	4485
868.495	4508
868.625	4702
868.756	4774
868.886	4573
869.017	4656
869.147	4744
869.278	4786
869.408	4637
869.539	4675
869.669	4752
869.799	4645
869.929	4809
870.06	4725
870.19	5056
870.32	4972
870.45	4987
870.58	5003
870.71	5132
870.84	5136
870.97	4999
871.1	4915
871.23	5166
871.36	5189
871.489	5079
871.619	5136
871.749	5185
871.879	5151
872.008	5197
872.138	5052
872.267	4957
872.397	4873
872.526	4896
872.656	4782
872.785	4816
872.915	4949
873.044	5060
873.173	4915
873.303	5003
873.432	4991
873.561	4961
873.69	4862
873.819	4892
873.948	4911
874.077	4839
874.206	4725
874.335	4843
874.464	4930
874.593	5086
874.722	5010
874.851	5117
874.979	5086
875.108	5060
875.237	4923
875.365	4881
875.494	4942
875.623	5037
875.751	4854
875.88	4930
876.008	4995
876.136	5048
876.265	5242
876.393	5395
876.521	5261
876.65	5254
876.778	5181
876.906	5090
877.034	5045
877.162	5121
877.29	4965
877.418	5189
877.546	5045
877.674	5102
877.802	4999
877.93	5079
878.058	4976
878.185	4850
878.313	5003
878.441	5010
878.568	4797
878.696	4919
878.824	4987
878.951	5018
879.079	5121
879.206	5292
879.333	5086
879.461	5018
879.588	5041
879.715	5102
879.842	5269
879.97	4991
880.097	4831
880.224	4771
880.351	4812
880.478	4831
880.605	4790
880.732	4835
880.859	5170
880.986	4927
881.112	4881
881.239	4820
881.366	4672
881.493	4660
881.619	4637
881.746	4637
881.872	4660
881.999	4668
882.125	4694
882.252	4763
882.378	4870
882.505	5003
882.631	4843
882.757	4653
882.883	4748
883.01	4805
883.136	4615
883.262	4577
883.388	4641
883.514	4812
883.64	4858
883.766	4793
883.892	4698
884.018	4763
884.143	4896
884.269	5022
884.395	4687
884.52	4664
884.646	4717
884.772	4558
884.897	4577
885.023	4675
885.148	4835
885.274	4889
885.399	4854
885.524	4717
885.65	4717
885.775	4748
885.9	4675
886.025	4885
886.15	4782
886.275	4790
886.4	4641
886.525	4778
886.65	4698
886.775	4645
886.9	4923
887.025	4995
887.149	4805
887.274	4687
887.399	4588
887.523	4615
887.648	4584
887.773	4634
887.897	4805
888.021	4774
888.146	4630
888.27	4839
888.395	4904
888.519	4809
888.643	4797
888.767	4854
888.891	4691
889.015	4611
889.139	4668
889.263	4630
889.387	4782
889.511	4885
889.635	4843
889.759	4622
889.883	4599
890.006	4717
890.13	4877
890.254	4645
890.377	4714
890.501	4565
890.624	4584
890.748	4630
890.871	4546
890.995	4459
891.118	4367
891.241	4519
891.364	4565
891.488	4645
891.611	4508
891.734	4622
891.857	4641
891.98	4573
892.103	4725
892.226	4599
892.349	4573
892.471	4405
892.594	4538
892.717	4622
892.839	4573
892.962	4573
893.085	4668
893.207	4603
893.33	4485
893.452	4523
893.575	4656
893.697	4607
893.819	4797
893.941	4870
894.064	4786
894.186	4603
894.308	4546
894.43	4774
894.552	4896
894.674	4729
894.796	4554
894.918	4645
895.04	4618
895.161	4687
895.283	4653
895.405	4584
895.526	4645
895.648	4653
895.769	4694
895.891	4675
896.012	4725
896.134	4763
896.255	4683
896.376	4630
896.498	4637
896.619	4691
896.74	4611
896.861	4637
896.982	4957
897.103	5121
897.224	4824
897.345	4793
897.466	4725
897.587	4763
897.708	4889
897.828	4790
897.949	4714
898.07	4584
898.19	4687
898.311	4854
898.431	4706
898.552	4767
898.672	4809
898.792	4828
898.913	4752
899.033	4615
899.153	4538
899.273	4481
899.393	4489
899.513	4527
899.633	4531
899.753	4489
899.873	4542
899.993	4577
900.113	4493
900.232	4641
900.352	4580
900.472	4500
900.591	4413
900.711	4523
900.83	4451
900.95	4607
901.069	4653
901.189	4550
901.308	4318
901.427	4352
901.546	4360
901.665	4497
901.784	4516
901.904	4409
902.023	4375
902.141	4246
902.26	4227
902.379	4306
902.498	4268
902.617	4219
902.735	4379
902.854	4459
902.973	4356
903.091	4196
903.21	4253
903.328	4295
903.446	4284
903.565	4280
903.683	4379
903.801	4314
903.919	4405
904.038	4485
904.156	4333
904.274	4432
904.392	4352
904.51	4462
904.627	4443
904.745	4580
904.863	4611
904.981	4379
905.098	4363
905.216	4329
905.334	4462
905.451	4424
905.569	4413
905.686	4535
905.803	4615
905.921	4394
906.038	4542
906.155	4500
906.272	4402
906.389	4466
906.506	4344
906.623	4375
906.74	4421
906.857	4318
906.974	4375
907.091	4516
907.208	4717
907.324	4626
907.441	4481
907.557	4341
907.674	4341
907.79	4356
907.907	4478
908.023	4523
908.139	4489
908.256	4440
908.372	4417
908.488	4478
908.604	4341
908.72	4356
908.836	4421
908.952	4371
909.068	4428
909.184	4573
909.3	4519
909.415	4607
909.531	4573
909.647	4360
909.762	4379
909.878	4329
909.993	4424
910.108	4402
910.224	4440
910.339	4478
910.454	4421
910.57	4386
910.685	4291
910.8	4683
910.915	4599
911.03	4436
911.145	4314
911.259	4341
911.374	4390
911.489	4306
911.604	4284
911.718	4177
911.833	4200
911.947	4055
912.062	4029
912.176	4188
912.291	4257
912.405	4227
912.519	4500
912.633	4535
912.748	4352
912.862	4276
912.976	4227
913.09	4120
913.204	4177
913.318	4215
913.431	4402
913.545	4333
913.659	4440
913.772	4322
913.886	4280
914	4219
914.113	4379
914.226	4440
914.34	4363
914.453	4230
914.566	4413
914.68	4367
914.793	4295
914.906	4143
915.019	4124
915.132	4078
915.245	4211
915.358	4230
915.47	4196
915.583	4272
915.696	4272
915.809	4402
915.921	4402
916.034	4261
916.146	4253
916.259	4211
916.371	4398
916.483	4386
916.595	4303
916.708	4310
916.82	4322
916.932	4344
917.044	4310
917.156	4371
917.268	4215
917.38	4272
917.491	4268
917.603	4341
917.715	4417
917.826	4504
917.938	4363
918.049	4249
918.161	4421
918.272	4550
918.384	4519
918.495	4474
918.606	4333
918.717	4215
918.828	4344
918.939	4402
919.05	4261
919.161	4303
919.272	4128
919.383	4230
919.494	4459
919.604	4626
919.715	4405
919.826	4356
919.936	4390
920.047	4542
920.157	4481
920.267	4683
920.378	4535
920.488	4493
920.598	4698
920.708	4889
920.818	4714
920.928	4752
921.038	4961
921.148	4911
921.258	4611
921.368	4607
921.477	4493
921.587	4504
921.697	4390
921.806	4497
921.916	4421
922.025	4280
922.134	4295
922.244	4219
922.353	4314
922.462	4162
922.571	4124
922.68	4036
922.789	3994
922.898	4093
923.007	3983
923.116	4154
923.224	4078
923.333	4059
923.442	3956
923.55	4029
923.659	4071
923.767	4082
923.876	4017
923.984	4124
924.092	3979
924.201	4082
924.309	4101
924.417	4135
924.525	4074
924.633	4128
924.741	5064
924.849	3915
924.956	4162
925.064	3983
925.172	3941
925.279	3987
925.387	4044
925.494	4090
925.602	4227
925.709	4173
925.816	4086
925.924	4116
926.031	4204
926.138	4143
926.245	4200
926.352	4078
926.459	4253
926.566	4333
926.673	4185
926.779	4109
926.886	4090
926.993	3979
927.099	3972
927.206	3956
927.312	3960
927.419	4029
927.525	4051
927.631	4040
927.737	3945
927.843	3953
927.95	3850
928.056	3949
928.162	4006
928.267	4105
928.373	4721
928.479	4128
928.585	3896
928.69	3972
928.796	4059
928.901	3991
929.007	3842
929.112	4029
929.218	3941
929.323	3968
929.428	3964
929.533	4158
929.638	3911
929.743	3949
929.848	4071
929.953	4040
930.058	3907
930.163	3808
930.267	3854
930.372	3975
930.477	3827
930.581	4124
930.685	3964
930.79	3789
930.894	3899
930.998	3899
931.103	4051
931.207	3766
931.311	3728
931.415	3690
931.519	3530
931.623	3595
