Data from test_V78500241_1134.txt Node
Date: Fri Mar 25 16:56:53 CST 2022
User: usil
Spectrometer: V785-0024
Trigger mode: 0
Integration Time (sec): 4.000000E-1
Scans to average: 1
Nonlinearity correction enabled: false
Boxcar width: 0
Storing dark spectrum: false
XAxis mode: Wavelengths
Number of Pixels in Spectrum: 1024
>>>>>Begin Spectral Data<<<<<
801.071	8027
801.214	7959
801.356	7860
801.499	7772
801.641	7738
801.783	7795
801.926	7932
802.068	7921
802.211	7947
802.353	7909
802.496	7795
802.638	7772
802.78	7940
802.923	7921
803.065	7898
803.208	7921
803.35	7947
803.492	8046
803.635	8130
803.777	7974
803.919	8172
804.061	8408
804.204	8153
804.346	7993
804.488	8016
804.63	8065
804.773	8008
804.915	8092
805.057	8317
805.199	8119
805.341	8202
805.483	8210
805.626	8233
805.768	8126
805.91	8195
806.052	8248
806.194	8115
806.336	8259
806.478	8096
806.62	8016
806.762	8107
806.904	8313
807.046	8381
807.188	8317
807.33	8286
807.472	8351
807.614	8134
807.756	8107
807.898	7947
808.04	7982
808.182	7909
808.324	7868
808.465	7906
808.607	8088
808.749	8111
808.891	8271
809.033	8309
809.174	8252
809.316	8058
809.458	8054
809.6	7989
809.741	7986
809.883	7997
810.025	8020
810.166	8164
810.308	8058
810.45	7989
810.591	7928
810.733	7674
810.875	7639
811.016	7533
811.158	7559
811.299	7605
811.441	7704
811.582	7662
811.724	7643
811.865	7540
812.007	7590
812.148	7567
812.29	7609
812.431	7803
812.573	7883
812.714	7986
812.855	8111
812.997	8240
813.138	8301
813.279	8244
813.421	8123
813.562	7993
813.703	7887
813.845	7750
813.986	7464
814.127	7251
814.268	7221
814.41	7228
814.551	7194
814.692	7206
814.833	7088
814.974	7084
815.115	7149
815.256	7004
815.397	6894
815.539	6970
815.68	6875
815.821	6837
815.962	6901
816.103	6890
816.244	6772
816.385	6696
816.526	6589
816.666	6547
816.807	6281
816.948	6441
817.089	6456
817.23	6494
817.371	6441
817.512	6433
817.653	6445
817.793	6388
817.934	6483
818.075	6528
818.216	6414
818.356	6410
818.497	6292
818.638	6144
818.778	6167
818.919	6133
819.06	6163
819.2	6289
819.341	6342
819.481	6334
819.622	6555
819.762	6779
819.903	6703
820.043	6601
820.184	6585
820.324	6601
820.465	6703
820.605	6726
820.746	6635
820.886	6509
821.026	6707
821.167	6700
821.307	6848
821.447	6711
821.588	6639
821.728	6574
821.868	6574
822.008	6384
822.149	6315
822.289	6372
822.429	6117
822.569	6110
822.709	6098
822.849	5893
822.99	5958
823.13	5954
823.27	5931
823.41	5752
823.55	5794
823.69	5779
823.83	5756
823.97	5710
824.11	5524
824.25	5524
824.389	5581
824.529	5558
824.669	5516
824.809	5608
824.949	5710
825.089	5608
825.228	5581
825.368	5379
825.508	5353
825.648	5360
825.787	5391
825.927	5387
826.067	5345
826.206	5315
826.346	5417
826.485	5383
826.625	5398
826.765	5577
826.904	5467
827.044	5273
827.183	5185
827.323	5128
827.462	5288
827.601	5174
827.741	5166
827.88	5220
828.02	5185
828.159	5178
828.298	5273
828.437	5395
828.577	5284
828.716	5471
828.855	5357
828.994	5204
829.134	5124
829.273	5201
829.412	5162
829.551	5162
829.69	5201
829.829	5250
829.968	5364
830.107	5307
830.246	5292
830.385	5147
830.524	5117
830.663	5083
830.802	5003
830.941	4927
831.08	4892
831.219	4968
831.357	4968
831.496	5170
831.635	4965
831.774	4896
831.913	4862
832.051	4744
832.19	4744
832.329	4873
832.467	4702
832.606	4656
832.744	4710
832.883	4763
833.022	4790
833.16	4831
833.299	4858
833.437	4843
833.576	4847
833.714	4847
833.852	4904
833.991	4889
834.129	4999
834.267	5029
834.406	4915
834.544	4991
834.682	5006
834.821	4968
834.959	5181
835.097	5033
835.235	5136
835.373	5098
835.511	5048
835.65	5048
835.788	5075
835.926	4885
836.064	4877
836.202	4930
836.34	5105
836.478	5296
836.615	5147
836.753	5235
836.891	5284
837.029	5303
837.167	5162
837.305	5208
837.443	5121
837.58	5067
837.718	5288
837.856	5201
837.993	5155
838.131	5220
838.269	5242
838.406	5208
838.544	5212
838.681	5067
838.819	5006
838.956	4843
839.094	4877
839.231	5037
839.369	5060
839.506	5452
839.643	5265
839.781	5045
839.918	4995
840.055	5098
840.193	5121
840.33	5143
840.467	5170
840.604	5159
840.742	5387
840.879	5094
841.016	5105
841.153	5136
841.29	5364
841.427	5341
841.564	5315
841.701	5337
841.838	5311
841.975	5235
842.112	5280
842.249	5204
842.385	5102
842.522	5307
842.659	5189
842.796	5193
842.933	5189
843.069	5132
843.206	5136
843.343	5303
843.479	5220
843.616	5216
843.752	4984
843.889	5010
844.025	5261
844.162	5060
844.298	5197
844.435	5052
844.571	5094
844.708	5178
844.844	5296
844.98	5376
845.117	5288
845.253	5155
845.389	5094
845.525	5189
845.661	5128
845.798	5025
845.934	5147
846.07	5090
846.206	5155
846.342	5269
846.478	5212
846.614	5033
846.75	4961
846.886	4961
847.022	5147
847.158	4991
847.294	5045
847.429	5094
847.565	5086
847.701	5265
847.837	4831
847.972	4831
848.108	4953
848.244	4968
848.379	4824
848.515	4721
848.65	4683
848.786	4710
848.921	4763
849.057	4873
849.192	4934
849.328	4816
849.463	4881
849.598	4790
849.734	4790
849.869	4687
850.004	4618
850.14	4645
850.275	4645
850.41	4561
850.545	4607
850.68	4580
850.815	4607
850.95	4634
851.085	4812
851.22	4782
851.355	4683
851.49	4622
851.625	4611
851.76	4622
851.895	4615
852.03	4561
852.165	4645
852.299	4759
852.434	4797
852.569	4782
852.703	4793
852.838	4904
852.973	4961
853.107	4946
853.242	4721
853.376	4706
853.511	4554
853.645	4630
853.78	4820
853.914	4672
854.048	4637
854.183	4637
854.317	4733
854.451	4896
854.585	4733
854.72	4630
854.854	4763
854.988	4588
855.122	4637
855.256	4535
855.39	4645
855.524	4854
855.658	4729
855.792	4725
855.926	4763
856.06	4771
856.194	4748
856.327	4668
856.461	4622
856.595	4618
856.729	4653
856.862	4736
856.996	4634
857.13	4721
857.263	4729
857.397	4812
857.53	4645
857.664	4759
857.797	4771
857.931	4828
858.064	4698
858.197	4698
858.331	4641
858.464	4645
858.597	4561
858.731	4622
858.864	4672
858.997	4588
859.13	4698
859.263	4691
859.396	4687
859.529	4584
859.662	4603
859.795	4565
859.928	4588
860.061	4790
860.194	4774
860.327	4626
860.46	4596
860.592	4710
860.725	4706
860.858	4706
860.99	4558
861.123	4558
861.256	4527
861.388	4607
861.521	5345
861.653	4485
861.786	4440
861.918	4440
862.05	4546
862.183	4607
862.315	4622
862.447	4653
862.58	4538
862.712	4417
862.844	4352
862.976	4443
863.108	4459
863.24	4908
863.372	4333
863.504	4402
863.636	4383
863.768	4504
863.9	4443
864.032	4421
864.164	4405
864.296	4512
864.428	4542
864.559	4519
864.691	4542
864.823	4531
864.954	4535
865.086	4523
865.217	4436
865.349	4409
865.48	4462
865.612	4470
865.743	4630
865.875	4519
866.006	4459
866.137	4493
866.269	4443
866.4	4417
866.531	4390
866.662	4383
866.793	4451
866.924	4451
867.055	4470
867.186	4455
867.317	4466
867.448	4383
867.579	4379
867.71	4375
867.841	4325
867.972	4466
868.103	4470
868.233	4432
868.364	4493
868.495	4512
868.625	4641
868.756	4744
868.886	4577
869.017	4611
869.147	4767
869.278	4774
869.408	4618
869.539	4622
869.669	4694
869.799	4675
869.929	4763
870.06	4744
870.19	4946
870.32	4957
870.45	4915
870.58	4968
870.71	5071
870.84	5067
870.97	4904
871.1	4858
871.23	5113
871.36	5064
871.489	5033
871.619	5045
871.749	5102
871.879	5090
872.008	5128
872.138	5022
872.267	4961
872.397	4835
872.526	4809
872.656	4729
872.785	4828
872.915	4976
873.044	5052
873.173	4934
873.303	4919
873.432	4957
873.561	4942
873.69	4904
873.819	4885
873.948	4896
874.077	4812
874.206	4744
874.335	4866
874.464	4942
874.593	5037
874.722	4957
874.851	5094
874.979	5033
875.108	5079
875.237	4862
875.365	4870
875.494	4885
875.623	4980
875.751	4828
875.88	4881
876.008	5037
876.136	5022
876.265	5197
876.393	5364
876.521	5242
876.65	5269
876.778	5140
876.906	5094
877.034	5052
877.162	5045
877.29	4946
877.418	5079
877.546	5025
877.674	5052
877.802	5041
877.93	5014
878.058	4923
878.185	4873
878.313	4938
878.441	4965
878.568	4782
878.696	4862
878.824	5003
878.951	5022
879.079	5159
879.206	5292
879.333	5143
879.461	5018
879.588	4968
879.715	5166
879.842	5246
879.97	5045
880.097	4797
880.224	4752
880.351	4774
880.478	4843
880.605	4805
880.732	4835
880.859	5128
880.986	4866
881.112	4915
881.239	4847
881.366	4736
881.493	4653
881.619	4615
881.746	4717
881.872	4710
881.999	4672
882.125	4691
882.252	4843
882.378	4892
882.505	5003
882.631	4797
882.757	4698
882.883	4752
883.01	4736
883.136	4744
883.262	4641
883.388	4645
883.514	4835
883.64	4900
883.766	4801
883.892	4714
884.018	4763
884.143	4911
884.269	5071
884.395	4706
884.52	4668
884.646	4645
884.772	4649
884.897	4565
885.023	4687
885.148	4839
885.274	4904
885.399	4850
885.524	4740
885.65	4771
885.775	4774
885.9	4778
886.025	4904
886.15	4835
886.275	4740
886.4	4706
886.525	4740
886.65	4694
886.775	4668
886.9	4927
887.025	5071
887.149	4847
887.274	4698
887.399	4649
887.523	4645
887.648	4596
887.773	4603
887.897	4755
888.021	4812
888.146	4702
888.27	4862
888.395	4923
888.519	4759
888.643	4850
888.767	4889
888.891	4698
889.015	4668
889.139	4687
889.263	4599
889.387	4786
889.511	4843
889.635	4812
889.759	4679
889.883	4706
890.006	4771
890.13	4850
890.254	4630
890.377	4714
890.501	4546
890.624	4527
890.748	4694
890.871	4554
890.995	4481
891.118	4398
891.241	4554
891.364	4554
891.488	4717
891.611	4519
891.734	4577
891.857	4596
891.98	4558
892.103	4660
892.226	4637
892.349	4527
892.471	4481
892.594	4580
892.717	4565
892.839	4584
892.962	4679
893.085	4683
893.207	4607
893.33	4542
893.452	4535
893.575	4702
893.697	4630
893.819	4820
893.941	4885
894.064	4763
894.186	4615
894.308	4588
894.43	4736
894.552	4843
894.674	4790
894.796	4561
894.918	4660
895.04	4573
895.161	4736
895.283	4668
895.405	4649
895.526	4694
895.648	4714
895.769	4702
895.891	4729
896.012	4820
896.134	4835
896.255	4706
896.376	4672
896.498	4630
896.619	4725
896.74	4664
896.861	4656
896.982	4991
897.103	5098
897.224	4820
897.345	4767
897.466	4694
897.587	4790
897.708	4862
897.828	4793
897.949	4721
898.07	4599
898.19	4698
898.311	4828
898.431	4717
898.552	4733
898.672	4831
898.792	4805
898.913	4782
899.033	4683
899.153	4531
899.273	4436
899.393	4531
899.513	4538
899.633	4538
899.753	4599
899.873	4519
899.993	4615
900.113	4592
900.232	4603
900.352	4531
900.472	4554
900.591	4417
900.711	4481
900.83	4424
900.95	4653
901.069	4717
901.189	4550
901.308	4371
901.427	4341
901.546	4383
901.665	4470
901.784	4538
901.904	4394
902.023	4363
902.141	4211
902.26	4211
902.379	4314
902.498	4318
902.617	4253
902.735	4402
902.854	4443
902.973	4360
903.091	4242
903.21	4341
903.328	4341
903.446	4306
903.565	4329
903.683	4379
903.801	4314
903.919	4455
904.038	4466
904.156	4299
904.274	4417
904.392	4424
904.51	4440
904.627	4493
904.745	4626
904.863	4683
904.981	4421
905.098	4322
905.216	4405
905.334	4436
905.451	4455
905.569	4466
905.686	4603
905.803	4577
905.921	4470
906.038	4550
906.155	4470
906.272	4417
906.389	4508
906.506	4360
906.623	4394
906.74	4451
906.857	4333
906.974	4405
907.091	4580
907.208	4717
907.324	4626
907.441	4542
907.557	4383
907.674	4405
907.79	4322
907.907	4398
908.023	4504
908.139	4512
908.256	4466
908.372	4508
908.488	4447
908.604	4398
908.72	4356
908.836	4424
908.952	4375
909.068	4432
909.184	4558
909.3	4493
909.415	4577
909.531	4580
909.647	4367
909.762	4424
909.878	4379
909.993	4512
910.108	4424
910.224	4428
910.339	4500
910.454	4421
910.57	4386
910.685	4329
910.8	4694
910.915	4618
911.03	4561
911.145	4348
911.259	4352
911.374	4371
911.489	4291
911.604	4291
911.718	4188
911.833	4188
911.947	4139
912.062	4051
912.176	4249
912.291	4284
912.405	4265
912.519	4500
912.633	4542
912.748	4371
912.862	4352
912.976	4238
913.09	4093
913.204	4215
913.318	4272
913.431	4402
913.545	4424
913.659	4462
913.772	4386
913.886	4265
914	4242
914.113	4421
914.226	4481
914.34	4455
914.453	4242
914.566	4447
914.68	4341
914.793	4341
914.906	4173
915.019	4147
915.132	4112
915.245	4162
915.358	4200
915.47	4234
915.583	4246
915.696	4322
915.809	4383
915.921	4402
916.034	4284
916.146	4234
916.259	4207
916.371	4383
916.483	4371
916.595	4280
916.708	4333
916.82	4337
916.932	4333
917.044	4371
917.156	4375
917.268	4230
917.38	4276
917.491	4265
917.603	4341
917.715	4447
917.826	4459
917.938	4348
918.049	4265
918.161	4398
918.272	4588
918.384	4561
918.495	4436
918.606	4329
918.717	4211
918.828	4417
918.939	4409
919.05	4284
919.161	4394
919.272	4143
919.383	4246
919.494	4451
919.604	4675
919.715	4421
919.826	4383
919.936	4394
920.047	4569
920.157	4485
920.267	4706
920.378	4508
920.488	4554
920.598	4729
920.708	4881
920.818	4771
920.928	4820
921.038	4991
921.148	4927
921.258	4615
921.368	4565
921.477	4500
921.587	4485
921.697	4402
921.806	4588
921.916	4447
922.025	4257
922.134	4306
922.244	4204
922.353	4363
922.462	4181
922.571	4154
922.68	4032
922.789	3968
922.898	4082
923.007	4006
923.116	4078
923.224	4067
923.333	4128
923.442	4063
923.55	4010
923.659	4071
923.767	4067
923.876	4025
923.984	4154
924.092	4006
924.201	4074
924.309	4135
924.417	4158
924.525	4109
924.633	4109
924.741	5109
924.849	3915
924.956	4200
925.064	3911
925.172	3934
925.279	3991
925.387	4105
925.494	4040
925.602	4253
925.709	4200
925.816	4051
925.924	4135
926.031	4261
926.138	4173
926.245	4169
926.352	4074
926.459	4268
926.566	4344
926.673	4135
926.779	4074
926.886	4086
926.993	3983
927.099	3945
927.206	3941
927.312	3934
927.419	4040
927.525	4051
927.631	4097
927.737	3949
927.843	3945
927.95	3880
928.056	3987
928.162	3991
928.267	4036
928.373	4740
928.479	4112
928.585	3842
928.69	4036
928.796	4082
928.901	3956
929.007	3850
929.112	4036
929.218	4002
929.323	3964
929.428	3983
929.533	4120
929.638	3937
929.743	3975
929.848	4048
929.953	4029
930.058	3953
930.163	3781
930.267	3876
930.372	3998
930.477	3846
930.581	4105
930.685	3987
930.79	3850
930.894	3930
930.998	3865
931.103	4048
931.207	3717
931.311	3743
931.415	3656
931.519	3507
931.623	3580
