Data from test_V78500241_1362.txt Node
Date: Fri Mar 25 16:58:28 CST 2022
User: usil
Spectrometer: V785-0024
Trigger mode: 0
Integration Time (sec): 4.000000E-1
Scans to average: 1
Nonlinearity correction enabled: false
Boxcar width: 0
Storing dark spectrum: false
XAxis mode: Wavelengths
Number of Pixels in Spectrum: 1024
>>>>>Begin Spectral Data<<<<<
801.071	8050
801.214	8039
801.356	7951
801.499	7883
801.641	7849
801.783	7814
801.926	7978
802.068	7989
802.211	8005
802.353	7978
802.496	7951
802.638	7883
802.78	7936
802.923	7940
803.065	7940
803.208	7875
803.35	8031
803.492	8092
803.635	8164
803.777	8012
803.919	8202
804.061	8469
804.204	8195
804.346	8111
804.488	8046
804.63	8153
804.773	8073
804.915	8210
805.057	8377
805.199	8195
805.341	8214
805.483	8298
805.626	8267
805.768	8149
805.91	8271
806.052	8320
806.194	8119
806.336	8290
806.478	8035
806.62	8050
806.762	8180
806.904	8339
807.046	8488
807.188	8362
807.33	8324
807.472	8389
807.614	8168
807.756	8187
807.898	8035
808.04	7864
808.182	7944
808.324	7928
808.465	7986
808.607	8111
808.749	8126
808.891	8180
809.033	8267
809.174	8176
809.316	8065
809.458	8073
809.6	7963
809.741	8005
809.883	8016
810.025	8119
810.166	8039
810.308	8043
810.45	8046
810.591	7879
810.733	7704
810.875	7632
811.016	7559
811.158	7590
811.299	7605
811.441	7727
811.582	7708
811.724	7647
811.865	7544
812.007	7567
812.148	7586
812.29	7700
812.431	7788
812.573	7894
812.714	7978
812.855	8142
812.997	8191
813.138	8389
813.279	8275
813.421	8103
813.562	8005
813.703	7883
813.845	7746
813.986	7502
814.127	7255
814.268	7285
814.41	7232
814.551	7179
814.692	7213
814.833	6977
814.974	7126
815.115	7118
815.256	6928
815.397	6954
815.539	6977
815.68	6863
815.821	6810
815.962	6852
816.103	6825
816.244	6783
816.385	6639
816.526	6719
816.666	6475
816.807	6304
816.948	6445
817.089	6464
817.23	6380
817.371	6414
817.512	6452
817.653	6395
817.793	6346
817.934	6437
818.075	6540
818.216	6467
818.356	6391
818.497	6251
818.638	6102
818.778	6186
818.919	6205
819.06	6178
819.2	6327
819.341	6350
819.481	6376
819.622	6517
819.762	6757
819.903	6726
820.043	6642
820.184	6601
820.324	6627
820.465	6684
820.605	6658
820.746	6650
820.886	6551
821.026	6646
821.167	6722
821.307	6821
821.447	6871
821.588	6692
821.728	6604
821.868	6540
822.008	6300
822.149	6342
822.289	6346
822.429	6136
822.569	6034
822.709	6091
822.849	5927
822.99	5901
823.13	5920
823.27	5885
823.41	5817
823.55	5821
823.69	5821
823.83	5783
823.97	5672
824.11	5547
824.25	5543
824.389	5539
824.529	5551
824.669	5501
824.809	5630
824.949	5722
825.089	5581
825.228	5558
825.368	5387
825.508	5353
825.648	5322
825.787	5349
825.927	5360
826.067	5360
826.206	5280
826.346	5402
826.485	5398
826.625	5417
826.765	5562
826.904	5486
827.044	5231
827.183	5201
827.323	5147
827.462	5242
827.601	5201
827.741	5212
827.88	5227
828.02	5155
828.159	5239
828.298	5292
828.437	5398
828.577	5303
828.716	5505
828.855	5334
828.994	5174
829.134	5132
829.273	5212
829.412	5159
829.551	5166
829.69	5181
829.829	5288
829.968	5379
830.107	5296
830.246	5242
830.385	5235
830.524	5147
830.663	5128
830.802	4949
830.941	4911
831.08	4885
831.219	5006
831.357	4987
831.496	5128
831.635	4946
831.774	4843
831.913	4866
832.051	4736
832.19	4797
832.329	4843
832.467	4714
832.606	4656
832.744	4733
832.883	4714
833.022	4721
833.16	4820
833.299	4839
833.437	4812
833.576	4843
833.714	4877
833.852	4877
833.991	4873
834.129	4987
834.267	4957
834.406	4946
834.544	5022
834.682	5025
834.821	4991
834.959	5136
835.097	5014
835.235	5166
835.373	5102
835.511	5090
835.65	5052
835.788	5045
835.926	4915
836.064	4896
836.202	4934
836.34	5197
836.478	5261
836.615	5147
836.753	5261
836.891	5303
837.029	5231
837.167	5178
837.305	5159
837.443	5147
837.58	5113
837.718	5204
837.856	5246
837.993	5166
838.131	5273
838.269	5220
838.406	5216
838.544	5159
838.681	5037
838.819	5006
838.956	4957
839.094	4904
839.231	5014
839.369	5121
839.506	5391
839.643	5322
839.781	5090
839.918	5010
840.055	5128
840.193	5071
840.33	5083
840.467	5098
840.604	5185
840.742	5421
840.879	5083
841.016	5006
841.153	5117
841.29	5414
841.427	5284
841.564	5326
841.701	5379
841.838	5265
841.975	5303
842.112	5292
842.249	5121
842.385	5136
842.522	5296
842.659	5212
842.796	5159
842.933	5231
843.069	5170
843.206	5143
843.343	5265
843.479	5212
843.616	5273
843.752	5029
843.889	5041
844.025	5231
844.162	4999
844.298	5220
844.435	5113
844.571	5048
844.708	5197
844.844	5307
844.98	5341
845.117	5265
845.253	5143
845.389	5037
845.525	5174
845.661	5121
845.798	5022
845.934	5162
846.07	5075
846.206	5204
846.342	5292
846.478	5204
846.614	5045
846.75	5018
846.886	4942
847.022	5128
847.158	5045
847.294	5102
847.429	5121
847.565	5064
847.701	5318
847.837	4854
847.972	4786
848.108	4934
848.244	4972
848.379	4820
848.515	4717
848.65	4698
848.786	4767
848.921	4744
849.057	4850
849.192	4946
849.328	4862
849.463	4812
849.598	4805
849.734	4797
849.869	4653
850.004	4626
850.14	4679
850.275	4626
850.41	4478
850.545	4554
850.68	4615
850.815	4618
850.95	4637
851.085	4858
851.22	4771
851.355	4687
851.49	4641
851.625	4649
851.76	4626
851.895	4565
852.03	4493
852.165	4641
852.299	4714
852.434	4801
852.569	4744
852.703	4797
852.838	4820
852.973	4881
853.107	4892
853.242	4759
853.376	4687
853.511	4580
853.645	4645
853.78	4820
853.914	4675
854.048	4668
854.183	4656
854.317	4645
854.451	4866
854.585	4679
854.72	4592
854.854	4744
854.988	4618
855.122	4675
855.256	4531
855.39	4653
855.524	4744
855.658	4687
855.792	4710
855.926	4740
856.06	4782
856.194	4790
856.327	4691
856.461	4637
856.595	4592
856.729	4618
856.862	4752
856.996	4645
857.13	4759
857.263	4778
857.397	4816
857.53	4630
857.664	4691
857.797	4809
857.931	4782
858.064	4660
858.197	4725
858.331	4653
858.464	4645
858.597	4531
858.731	4626
858.864	4645
858.997	4569
859.13	4611
859.263	4679
859.396	4729
859.529	4565
859.662	4580
859.795	4558
859.928	4622
860.061	4717
860.194	4797
860.327	4649
860.46	4580
860.592	4748
860.725	4733
860.858	4801
860.99	4577
861.123	4569
861.256	4497
861.388	4634
861.521	5296
861.653	4493
861.786	4481
861.918	4455
862.05	4512
862.183	4546
862.315	4626
862.447	4641
862.58	4584
862.712	4394
862.844	4348
862.976	4462
863.108	4428
863.24	4881
863.372	4322
863.504	4440
863.636	4409
863.768	4485
863.9	4428
864.032	4337
864.164	4383
864.296	4516
864.428	4538
864.559	4504
864.691	4519
864.823	4558
864.954	4500
865.086	4531
865.217	4459
865.349	4405
865.48	4466
865.612	4523
865.743	4653
865.875	4443
866.006	4497
866.137	4451
866.269	4443
866.4	4440
866.531	4394
866.662	4371
866.793	4386
866.924	4405
867.055	4516
867.186	4462
867.317	4417
867.448	4390
867.579	4417
867.71	4371
867.841	4375
867.972	4447
868.103	4462
868.233	4424
868.364	4474
868.495	4512
868.625	4660
868.756	4759
868.886	4603
869.017	4641
869.147	4782
869.278	4736
869.408	4634
869.539	4618
869.669	4771
869.799	4645
869.929	4809
870.06	4733
870.19	4915
870.32	4896
870.45	4953
870.58	4984
870.71	5079
870.84	5098
870.97	4930
871.1	4919
871.23	5132
871.36	5128
871.489	4987
871.619	5060
871.749	5090
871.879	5094
872.008	5136
872.138	5041
872.267	4949
872.397	4850
872.526	4828
872.656	4679
872.785	4774
872.915	4972
873.044	5041
873.173	4919
873.303	4927
873.432	4927
873.561	4934
873.69	4915
873.819	4854
873.948	4919
874.077	4809
874.206	4740
874.335	4801
874.464	4923
874.593	5052
874.722	4915
874.851	5071
874.979	5048
875.108	5003
875.237	4923
875.365	4892
875.494	4896
875.623	4965
875.751	4835
875.88	4889
876.008	4961
876.136	4991
876.265	5220
876.393	5357
876.521	5239
876.65	5216
876.778	5174
876.906	5037
877.034	5006
877.162	5067
877.29	4919
877.418	5086
877.546	5041
877.674	5067
877.802	5014
877.93	5022
878.058	4946
878.185	4847
878.313	4965
878.441	4934
878.568	4774
878.696	4820
878.824	4915
878.951	4987
879.079	5109
879.206	5265
879.333	5033
879.461	4972
879.588	5014
879.715	5102
879.842	5178
879.97	4999
880.097	4744
880.224	4691
880.351	4816
880.478	4839
880.605	4820
880.732	4752
880.859	5052
880.986	4892
881.112	4930
881.239	4831
881.366	4664
881.493	4599
881.619	4538
881.746	4618
881.872	4653
881.999	4656
882.125	4672
882.252	4748
882.378	4870
882.505	4911
882.631	4793
882.757	4679
882.883	4717
883.01	4736
883.136	4664
883.262	4615
883.388	4611
883.514	4835
883.64	4885
883.766	4771
883.892	4679
884.018	4740
884.143	4843
884.269	4991
884.395	4717
884.52	4637
884.646	4653
884.772	4550
884.897	4531
885.023	4626
885.148	4771
885.274	4824
885.399	4752
885.524	4702
885.65	4634
885.775	4759
885.9	4675
886.025	4843
886.15	4828
886.275	4725
886.4	4626
886.525	4736
886.65	4691
886.775	4736
886.9	4862
887.025	5022
887.149	4824
887.274	4668
887.399	4554
887.523	4550
887.648	4546
887.773	4596
887.897	4736
888.021	4812
888.146	4687
888.27	4797
888.395	4870
888.519	4812
888.643	4850
888.767	4824
888.891	4691
889.015	4626
889.139	4622
889.263	4607
889.387	4729
889.511	4873
889.635	4805
889.759	4626
889.883	4656
890.006	4767
890.13	4809
890.254	4653
890.377	4645
890.501	4550
890.624	4512
890.748	4664
890.871	4489
890.995	4383
891.118	4356
891.241	4535
891.364	4546
891.488	4637
891.611	4516
891.734	4580
891.857	4599
891.98	4558
892.103	4626
892.226	4527
892.349	4470
892.471	4440
892.594	4531
892.717	4580
892.839	4584
892.962	4592
893.085	4653
893.207	4550
893.33	4455
893.452	4554
893.575	4637
893.697	4615
893.819	4812
893.941	4809
894.064	4752
894.186	4580
894.308	4577
894.43	4733
894.552	4805
894.674	4710
894.796	4535
894.918	4596
895.04	4569
895.161	4687
895.283	4626
895.405	4569
895.526	4679
895.648	4660
895.769	4675
895.891	4698
896.012	4702
896.134	4714
896.255	4672
896.376	4653
896.498	4573
896.619	4622
896.74	4592
896.861	4645
896.982	4915
897.103	5045
897.224	4767
897.345	4774
897.466	4664
897.587	4691
897.708	4854
897.828	4763
897.949	4637
898.07	4554
898.19	4603
898.311	4797
898.431	4649
898.552	4729
898.672	4847
898.792	4748
898.913	4725
899.033	4592
899.153	4527
899.273	4459
899.393	4474
899.513	4527
899.633	4558
899.753	4565
899.873	4512
899.993	4535
900.113	4512
900.232	4611
900.352	4527
900.472	4474
900.591	4371
900.711	4485
900.83	4421
900.95	4580
901.069	4710
901.189	4523
901.308	4371
901.427	4306
901.546	4356
901.665	4497
901.784	4538
901.904	4447
902.023	4303
902.141	4181
902.26	4166
902.379	4261
902.498	4223
902.617	4181
902.735	4390
902.854	4379
902.973	4344
903.091	4181
903.21	4154
903.328	4246
903.446	4261
903.565	4261
903.683	4344
903.801	4314
903.919	4383
904.038	4451
904.156	4325
904.274	4413
904.392	4341
904.51	4462
904.627	4462
904.745	4577
904.863	4615
904.981	4379
905.098	4318
905.216	4360
905.334	4390
905.451	4440
905.569	4417
905.686	4542
905.803	4558
905.921	4417
906.038	4504
906.155	4500
906.272	4375
906.389	4470
906.506	4306
906.623	4360
906.74	4367
906.857	4265
906.974	4363
907.091	4550
907.208	4672
907.324	4641
907.441	4512
907.557	4352
907.674	4394
907.79	4341
907.907	4371
908.023	4485
908.139	4459
908.256	4383
908.372	4504
908.488	4424
908.604	4356
908.72	4303
908.836	4363
908.952	4424
909.068	4451
909.184	4546
909.3	4516
909.415	4535
909.531	4535
909.647	4341
909.762	4341
909.878	4314
909.993	4379
910.108	4443
910.224	4394
910.339	4478
910.454	4409
910.57	4363
910.685	4322
910.8	4660
910.915	4615
911.03	4519
911.145	4333
911.259	4333
911.374	4367
911.489	4276
911.604	4310
911.718	4158
911.833	4211
911.947	4105
912.062	4006
912.176	4154
912.291	4211
912.405	4242
912.519	4436
912.633	4481
912.748	4341
912.862	4325
912.976	4249
913.09	4086
913.204	4162
913.318	4234
913.431	4344
913.545	4337
913.659	4360
913.772	4367
913.886	4246
914	4249
914.113	4325
914.226	4462
914.34	4375
914.453	4234
914.566	4398
914.68	4325
914.793	4344
914.906	4192
915.019	4135
915.132	4071
915.245	4169
915.358	4207
915.47	4230
915.583	4246
915.696	4249
915.809	4367
915.921	4417
916.034	4299
916.146	4268
916.259	4188
916.371	4318
916.483	4367
916.595	4291
916.708	4310
916.82	4291
916.932	4272
917.044	4333
917.156	4360
917.268	4242
917.38	4227
917.491	4280
917.603	4329
917.715	4386
917.826	4459
917.938	4356
918.049	4280
918.161	4367
918.272	4512
918.384	4550
918.495	4424
918.606	4287
918.717	4188
918.828	4333
918.939	4356
919.05	4257
919.161	4314
919.272	4143
919.383	4257
919.494	4421
919.604	4603
919.715	4440
919.826	4318
919.936	4409
920.047	4550
920.157	4474
920.267	4683
920.378	4603
920.488	4512
920.598	4721
920.708	4885
920.818	4759
920.928	4763
921.038	4892
921.148	4908
921.258	4641
921.368	4554
921.477	4474
921.587	4470
921.697	4379
921.806	4478
921.916	4443
922.025	4261
922.134	4207
922.244	4204
922.353	4360
922.462	4188
922.571	4154
922.68	3994
922.789	3983
922.898	4040
923.007	3972
923.116	4101
923.224	4078
923.333	4032
923.442	3987
923.55	3937
923.659	4017
923.767	4078
923.876	3991
923.984	4139
924.092	3998
924.201	4051
924.309	4090
924.417	4124
924.525	4013
924.633	4093
924.741	4968
924.849	3899
924.956	4120
925.064	4002
925.172	3896
925.279	3956
925.387	4082
925.494	4032
925.602	4219
925.709	4154
925.816	3972
925.924	4097
926.031	4234
926.138	4181
926.245	4166
926.352	4074
926.459	4227
926.566	4329
926.673	4116
926.779	4067
926.886	4078
926.993	3972
927.099	3911
927.206	3930
927.312	3918
927.419	4067
927.525	3994
927.631	4082
927.737	3953
927.843	3922
927.95	3842
928.056	3941
928.162	3994
928.267	4051
928.373	4744
928.479	4101
928.585	3850
928.69	4025
928.796	4048
928.901	3953
929.007	3854
929.112	3998
929.218	3968
929.323	3880
929.428	3949
929.533	4105
929.638	3911
929.743	3937
929.848	3994
929.953	3956
930.058	3941
930.163	3766
930.267	3827
930.372	4002
930.477	3819
930.581	4109
930.685	3930
930.79	3755
930.894	3869
930.998	3823
931.103	4021
931.207	3720
931.311	3671
931.415	3652
931.519	3511
931.623	3485
