Data from test_V78500241_1739.txt Node
Date: Fri Mar 25 17:01:05 CST 2022
User: usil
Spectrometer: V785-0024
Trigger mode: 0
Integration Time (sec): 4.000000E-1
Scans to average: 1
Nonlinearity correction enabled: false
Boxcar width: 0
Storing dark spectrum: false
XAxis mode: Wavelengths
Number of Pixels in Spectrum: 1024
>>>>>Begin Spectral Data<<<<<
801.071	8020
801.214	7955
801.356	7887
801.499	7864
801.641	7830
801.783	7841
801.926	7913
802.068	7967
802.211	7947
802.353	7955
802.496	7879
802.638	7875
802.78	7860
802.923	7879
803.065	7849
803.208	7719
803.35	7932
803.492	7997
803.635	8107
803.777	8016
803.919	8130
804.061	8415
804.204	8058
804.346	8005
804.488	7902
804.63	8046
804.773	7989
804.915	8062
805.057	8305
805.199	8187
805.341	8157
805.483	8221
805.626	8164
805.768	8142
805.91	8126
806.052	8164
806.194	8123
806.336	8256
806.478	8126
806.62	8024
806.762	8183
806.904	8290
807.046	8503
807.188	8339
807.33	8256
807.472	8271
807.614	8126
807.756	8081
807.898	8020
808.04	7890
808.182	7913
808.324	7909
808.465	7868
808.607	8054
808.749	8065
808.891	8138
809.033	8263
809.174	8218
809.316	8031
809.458	8069
809.6	8005
809.741	8043
809.883	7974
810.025	8050
810.166	8077
810.308	7986
810.45	8012
810.591	7788
810.733	7719
810.875	7658
811.016	7476
811.158	7502
811.299	7571
811.441	7677
811.582	7651
811.724	7582
811.865	7502
812.007	7662
812.148	7495
812.29	7563
812.431	7811
812.573	7921
812.714	7974
812.855	8088
812.997	8199
813.138	8313
813.279	8237
813.421	8077
813.562	7940
813.703	7849
813.845	7723
813.986	7468
814.127	7221
814.268	7225
814.41	7209
814.551	7141
814.692	7225
814.833	7103
814.974	7171
815.115	7133
815.256	6962
815.397	6939
815.539	6935
815.68	6818
815.821	6806
815.962	6840
816.103	6818
816.244	6684
816.385	6608
816.526	6578
816.666	6563
816.807	6334
816.948	6429
817.089	6456
817.23	6403
817.371	6350
817.512	6395
817.653	6369
817.793	6365
817.934	6380
818.075	6486
818.216	6437
818.356	6422
818.497	6224
818.638	6140
818.778	6114
818.919	6144
819.06	6205
819.2	6311
819.341	6350
819.481	6384
819.622	6521
819.762	6700
819.903	6726
820.043	6578
820.184	6582
820.324	6570
820.465	6662
820.605	6688
820.746	6635
820.886	6486
821.026	6673
821.167	6639
821.307	6779
821.447	6772
821.588	6662
821.728	6506
821.868	6471
822.008	6319
822.149	6361
822.289	6407
822.429	6106
822.569	6087
822.709	6129
822.849	5931
822.99	5950
823.13	5901
823.27	5897
823.41	5767
823.55	5783
823.69	5783
823.83	5775
823.97	5661
824.11	5535
824.25	5509
824.389	5512
824.529	5600
824.669	5505
824.809	5638
824.949	5684
825.089	5619
825.228	5490
825.368	5395
825.508	5273
825.648	5357
825.787	5376
825.927	5345
826.067	5292
826.206	5242
826.346	5360
826.485	5345
826.625	5421
826.765	5543
826.904	5455
827.044	5220
827.183	5239
827.323	5117
827.462	5250
827.601	5170
827.741	5170
827.88	5166
828.02	5018
828.159	5185
828.298	5277
828.437	5307
828.577	5277
828.716	5429
828.855	5265
828.994	5113
829.134	5147
829.273	5201
829.412	5185
829.551	5155
829.69	5140
829.829	5220
829.968	5292
830.107	5261
830.246	5303
830.385	5178
830.524	5147
830.663	5075
830.802	4946
830.941	4877
831.08	4847
831.219	5018
831.357	4968
831.496	5178
831.635	4896
831.774	4828
831.913	4782
832.051	4725
832.19	4714
832.329	4835
832.467	4656
832.606	4656
832.744	4721
832.883	4687
833.022	4744
833.16	4805
833.299	4812
833.437	4809
833.576	4805
833.714	4839
833.852	4828
833.991	4843
834.129	4949
834.267	4904
834.406	4900
834.544	4953
834.682	4961
834.821	4908
834.959	5086
835.097	4915
835.235	5174
835.373	5102
835.511	5094
835.65	5010
835.788	4980
835.926	4919
836.064	4831
836.202	4896
836.34	5166
836.478	5185
836.615	5109
836.753	5178
836.891	5345
837.029	5239
837.167	5201
837.305	5151
837.443	5132
837.58	5067
837.718	5242
837.856	5189
837.993	5185
838.131	5242
838.269	5242
838.406	5098
838.544	5201
838.681	4976
838.819	4953
838.956	4877
839.094	4900
839.231	4984
839.369	5090
839.506	5383
839.643	5299
839.781	5022
839.918	5052
840.055	5090
840.193	5086
840.33	5079
840.467	5105
840.604	5162
840.742	5410
840.879	5083
841.016	5018
841.153	5128
841.29	5322
841.427	5296
841.564	5269
841.701	5318
841.838	5277
841.975	5204
842.112	5235
842.249	5147
842.385	5045
842.522	5387
842.659	5174
842.796	5166
842.933	5155
843.069	5086
843.206	5201
843.343	5258
843.479	5220
843.616	5280
843.752	5010
843.889	5029
844.025	5166
844.162	5006
844.298	5162
844.435	5048
844.571	5098
844.708	5197
844.844	5296
844.98	5360
845.117	5277
845.253	5132
845.389	5075
845.525	5113
845.661	5132
845.798	5052
845.934	5117
846.07	5060
846.206	5204
846.342	5273
846.478	5197
846.614	4984
846.75	4938
846.886	4927
847.022	5166
847.158	5014
847.294	5117
847.429	5056
847.565	5033
847.701	5277
847.837	4831
847.972	4812
848.108	4915
848.244	4908
848.379	4736
848.515	4733
848.65	4702
848.786	4729
848.921	4797
849.057	4854
849.192	4870
849.328	4793
849.463	4847
849.598	4786
849.734	4755
849.869	4733
850.004	4653
850.14	4653
850.275	4554
850.41	4531
850.545	4637
850.68	4577
850.815	4637
850.95	4630
851.085	4839
851.22	4717
851.355	4675
851.49	4668
851.625	4618
851.76	4664
851.895	4550
852.03	4519
852.165	4634
852.299	4710
852.434	4736
852.569	4797
852.703	4778
852.838	4820
852.973	4908
853.107	4889
853.242	4683
853.376	4668
853.511	4535
853.645	4588
853.78	4797
853.914	4675
854.048	4615
854.183	4622
854.317	4725
854.451	4809
854.585	4649
854.72	4622
854.854	4702
854.988	4664
855.122	4630
855.256	4554
855.39	4656
855.524	4767
855.658	4675
855.792	4694
855.926	4755
856.06	4748
856.194	4782
856.327	4649
856.461	4622
856.595	4584
856.729	4599
856.862	4748
856.996	4702
857.13	4733
857.263	4710
857.397	4793
857.53	4611
857.664	4668
857.797	4721
857.931	4759
858.064	4675
858.197	4733
858.331	4660
858.464	4592
858.597	4527
858.731	4588
858.864	4618
858.997	4603
859.13	4622
859.263	4626
859.396	4641
859.529	4569
859.662	4554
859.795	4535
859.928	4622
860.061	4729
860.194	4759
860.327	4634
860.46	4508
860.592	4729
860.725	4702
860.858	4683
860.99	4538
861.123	4512
861.256	4561
861.388	4656
861.521	5341
861.653	4455
861.786	4493
861.918	4470
862.05	4489
862.183	4535
862.315	4592
862.447	4615
862.58	4493
862.712	4386
862.844	4318
862.976	4451
863.108	4440
863.24	4843
863.372	4310
863.504	4424
863.636	4394
863.768	4485
863.9	4428
864.032	4322
864.164	4360
864.296	4455
864.428	4500
864.559	4550
864.691	4500
864.823	4485
864.954	4470
865.086	4504
865.217	4424
865.349	4363
865.48	4432
865.612	4497
865.743	4599
865.875	4478
866.006	4474
866.137	4455
866.269	4451
866.4	4432
866.531	4424
866.662	4405
866.793	4344
866.924	4405
867.055	4455
867.186	4459
867.317	4379
867.448	4341
867.579	4356
867.71	4367
867.841	4398
867.972	4474
868.103	4402
868.233	4428
868.364	4443
868.495	4451
868.625	4664
868.756	4733
868.886	4516
869.017	4596
869.147	4752
869.278	4733
869.408	4687
869.539	4656
869.669	4702
869.799	4675
869.929	4763
870.06	4706
870.19	4949
870.32	4850
870.45	4889
870.58	4942
870.71	5079
870.84	5060
870.97	4934
871.1	4862
871.23	5140
871.36	5117
871.489	5033
871.619	5048
871.749	5056
871.879	5094
872.008	5140
872.138	5045
872.267	4915
872.397	4828
872.526	4801
872.656	4752
872.785	4786
872.915	4972
873.044	5018
873.173	4942
873.303	4930
873.432	4987
873.561	4942
873.69	4858
873.819	4835
873.948	4942
874.077	4835
874.206	4740
874.335	4801
874.464	4896
874.593	5041
874.722	4908
874.851	5067
874.979	5048
875.108	4972
875.237	4908
875.365	4847
875.494	4889
875.623	4984
875.751	4866
875.88	4858
876.008	4961
876.136	5060
876.265	5204
876.393	5315
876.521	5235
876.65	5204
876.778	5147
876.906	5075
877.034	5033
877.162	5117
877.29	5041
877.418	5037
877.546	5006
877.674	5086
877.802	5064
877.93	5014
878.058	4987
878.185	4885
878.313	4942
878.441	4980
878.568	4812
878.696	4858
878.824	4949
878.951	5037
879.079	5159
879.206	5311
879.333	5113
879.461	5010
879.588	5048
879.715	5113
879.842	5261
879.97	5052
880.097	4816
880.224	4752
880.351	4831
880.478	4877
880.605	4816
880.732	4847
880.859	5086
880.986	4900
881.112	4976
881.239	4793
881.366	4710
881.493	4622
881.619	4634
881.746	4679
881.872	4702
881.999	4675
882.125	4714
882.252	4816
882.378	4797
882.505	4980
882.631	4892
882.757	4679
882.883	4752
883.01	4771
883.136	4694
883.262	4607
883.388	4660
883.514	4870
883.64	4946
883.766	4847
883.892	4691
884.018	4714
884.143	4885
884.269	5037
884.395	4694
884.52	4691
884.646	4660
884.772	4653
884.897	4592
885.023	4687
885.148	4790
885.274	4892
885.399	4858
885.524	4790
885.65	4733
885.775	4793
885.9	4702
886.025	4946
886.15	4809
886.275	4771
886.4	4645
886.525	4710
886.65	4733
886.775	4698
886.9	4953
887.025	4999
887.149	4850
887.274	4694
887.399	4630
887.523	4573
887.648	4618
887.773	4634
887.897	4812
888.021	4862
888.146	4698
888.27	4824
888.395	4984
888.519	4809
888.643	4866
888.767	4828
888.891	4710
889.015	4603
889.139	4733
889.263	4656
889.387	4748
889.511	4850
889.635	4835
889.759	4656
889.883	4706
890.006	4790
890.13	4919
890.254	4679
890.377	4740
890.501	4558
890.624	4512
890.748	4710
890.871	4485
890.995	4440
891.118	4394
891.241	4577
891.364	4580
891.488	4611
891.611	4535
891.734	4542
891.857	4656
891.98	4596
892.103	4675
892.226	4592
892.349	4527
892.471	4455
892.594	4542
892.717	4649
892.839	4641
892.962	4656
893.085	4660
893.207	4626
893.33	4508
893.452	4565
893.575	4679
893.697	4626
893.819	4854
893.941	4831
894.064	4797
894.186	4577
894.308	4645
894.43	4717
894.552	4862
894.674	4824
894.796	4565
894.918	4626
895.04	4630
895.161	4710
895.283	4706
895.405	4584
895.526	4691
895.648	4717
895.769	4656
895.891	4782
896.012	4793
896.134	4736
896.255	4691
896.376	4611
896.498	4645
896.619	4725
896.74	4641
896.861	4683
896.982	4927
897.103	5102
897.224	4812
897.345	4812
897.466	4679
897.587	4759
897.708	4896
897.828	4801
897.949	4660
898.07	4546
898.19	4664
898.311	4858
898.431	4664
898.552	4771
898.672	4847
898.792	4812
898.913	4797
899.033	4668
899.153	4554
899.273	4466
899.393	4527
899.513	4527
899.633	4546
899.753	4546
899.873	4527
899.993	4634
900.113	4527
900.232	4611
900.352	4535
900.472	4542
900.591	4481
900.711	4519
900.83	4497
900.95	4687
901.069	4672
901.189	4626
901.308	4417
901.427	4363
901.546	4421
901.665	4493
901.784	4538
901.904	4455
902.023	4375
902.141	4253
902.26	4204
902.379	4284
902.498	4230
902.617	4272
902.735	4424
902.854	4428
902.973	4337
903.091	4268
903.21	4207
903.328	4333
903.446	4314
903.565	4261
903.683	4402
903.801	4310
903.919	4489
904.038	4447
904.156	4341
904.274	4451
904.392	4417
904.51	4493
904.627	4443
904.745	4611
904.863	4641
904.981	4451
905.098	4314
905.216	4375
905.334	4485
905.451	4500
905.569	4474
905.686	4561
905.803	4596
905.921	4466
906.038	4546
906.155	4500
906.272	4413
906.389	4481
906.506	4344
906.623	4367
906.74	4367
906.857	4333
906.974	4432
907.091	4592
907.208	4702
907.324	4634
907.441	4497
907.557	4333
907.674	4363
907.79	4295
907.907	4424
908.023	4535
908.139	4459
908.256	4402
908.372	4531
908.488	4531
908.604	4363
908.72	4341
908.836	4386
908.952	4325
909.068	4428
909.184	4569
909.3	4485
909.415	4607
909.531	4577
909.647	4375
909.762	4379
909.878	4360
909.993	4470
910.108	4424
910.224	4417
910.339	4459
910.454	4436
910.57	4363
910.685	4268
910.8	4618
910.915	4607
911.03	4485
911.145	4379
911.259	4383
911.374	4394
911.489	4325
911.604	4322
911.718	4211
911.833	4227
911.947	4074
912.062	4059
912.176	4207
912.291	4284
912.405	4287
912.519	4497
912.633	4519
912.748	4356
912.862	4318
912.976	4234
913.09	4139
913.204	4211
913.318	4295
913.431	4405
913.545	4417
913.659	4455
913.772	4375
913.886	4272
914	4219
914.113	4402
914.226	4455
914.34	4466
914.453	4284
914.566	4447
914.68	4371
914.793	4303
914.906	4196
915.019	4116
915.132	4063
915.245	4227
915.358	4238
915.47	4238
915.583	4329
915.696	4272
915.809	4474
915.921	4459
916.034	4310
916.146	4268
916.259	4268
916.371	4375
916.483	4356
916.595	4246
916.708	4314
916.82	4367
916.932	4337
917.044	4337
917.156	4322
917.268	4268
917.38	4322
917.491	4276
917.603	4352
917.715	4459
917.826	4447
917.938	4367
918.049	4257
918.161	4375
918.272	4523
918.384	4554
918.495	4493
918.606	4341
918.717	4257
918.828	4303
918.939	4333
919.05	4287
919.161	4360
919.272	4101
919.383	4276
919.494	4493
919.604	4645
919.715	4428
919.826	4363
919.936	4394
920.047	4573
920.157	4538
920.267	4710
920.378	4531
920.488	4531
920.598	4717
920.708	4877
920.818	4793
920.928	4759
921.038	4930
921.148	4972
921.258	4687
921.368	4592
921.477	4504
921.587	4497
921.697	4402
921.806	4573
921.916	4440
922.025	4272
922.134	4295
922.244	4268
922.353	4341
922.462	4200
922.571	4105
922.68	4055
922.789	4021
922.898	4071
923.007	3998
923.116	4162
923.224	4044
923.333	4090
923.442	4048
923.55	4013
923.659	4040
923.767	4124
923.876	4059
923.984	4093
924.092	4048
924.201	4131
924.309	4124
924.417	4158
924.525	4032
924.633	4105
924.741	4873
924.849	3937
924.956	4166
925.064	4013
925.172	3926
925.279	3983
925.387	4063
925.494	4044
925.602	4242
925.709	4215
925.816	4101
925.924	4116
926.031	4211
926.138	4204
926.245	4200
926.352	4131
926.459	4322
926.566	4291
926.673	4162
926.779	4120
926.886	4036
926.993	4006
927.099	3949
927.206	3892
927.312	3987
927.419	4090
927.525	4036
927.631	4105
927.737	4013
927.843	3964
927.95	3869
928.056	3930
928.162	4032
928.267	4074
928.373	4672
928.479	4169
928.585	3884
928.69	4044
928.796	4074
928.901	3922
929.007	3865
929.112	4017
929.218	3972
929.323	3979
929.428	3945
929.533	4139
929.638	3922
929.743	3998
929.848	4082
929.953	4017
930.058	3968
930.163	3766
930.267	3869
930.372	4010
930.477	3831
930.581	4120
930.685	3922
930.79	3850
930.894	3911
930.998	3884
931.103	4109
931.207	3762
931.311	3728
931.415	3728
931.519	3530
931.623	3595
