Data from test_V78500241_2224.txt Node
Date: Fri Mar 25 17:04:27 CST 2022
User: usil
Spectrometer: V785-0024
Trigger mode: 0
Integration Time (sec): 4.000000E-1
Scans to average: 1
Nonlinearity correction enabled: false
Boxcar width: 0
Storing dark spectrum: false
XAxis mode: Wavelengths
Number of Pixels in Spectrum: 1024
>>>>>Begin Spectral Data<<<<<
801.071	7928
801.214	7936
801.356	7890
801.499	7814
801.641	7833
801.783	7833
801.926	7951
802.068	7883
802.211	8039
802.353	7993
802.496	7849
802.638	7898
802.78	7849
802.923	7871
803.065	7902
803.208	7894
803.35	7951
803.492	8065
803.635	8172
803.777	7997
803.919	8153
804.061	8507
804.204	8199
804.346	8024
804.488	7951
804.63	8103
804.773	8058
804.915	8214
805.057	8279
805.199	8138
805.341	8225
805.483	8271
805.626	8214
805.768	8153
805.91	8210
806.052	8233
806.194	8103
806.336	8282
806.478	8153
806.62	8039
806.762	8043
806.904	8286
807.046	8488
807.188	8423
807.33	8279
807.472	8415
807.614	8153
807.756	8142
807.898	8027
808.04	7833
808.182	7936
808.324	7902
808.465	7913
808.607	7986
808.749	8119
808.891	8206
809.033	8301
809.174	8172
809.316	8062
809.458	8050
809.6	8001
809.741	8050
809.883	8069
810.025	8119
810.166	8050
810.308	7978
810.45	7986
810.591	7849
810.733	7731
810.875	7681
811.016	7506
811.158	7434
811.299	7597
811.441	7693
811.582	7658
811.724	7476
811.865	7537
812.007	7594
812.148	7609
812.29	7636
812.431	7715
812.573	7887
812.714	8008
812.855	8084
812.997	8168
813.138	8298
813.279	8126
813.421	8046
813.562	7936
813.703	7837
813.845	7658
813.986	7403
814.127	7209
814.268	7198
814.41	7175
814.551	7190
814.692	7217
814.833	7038
814.974	7091
815.115	7126
815.256	7000
815.397	6935
815.539	6932
815.68	6787
815.821	6787
815.962	6837
816.103	6783
816.244	6741
816.385	6616
816.526	6589
816.666	6441
816.807	6315
816.948	6479
817.089	6467
817.23	6418
817.371	6376
817.512	6323
817.653	6388
817.793	6429
817.934	6471
818.075	6407
818.216	6448
818.356	6407
818.497	6285
818.638	6049
818.778	6121
818.919	6163
819.06	6148
819.2	6323
819.341	6361
819.481	6372
819.622	6502
819.762	6741
819.903	6574
820.043	6563
820.184	6597
820.324	6536
820.465	6665
820.605	6650
820.746	6688
820.886	6467
821.026	6662
821.167	6757
821.307	6802
821.447	6760
821.588	6681
821.728	6589
821.868	6483
822.008	6262
822.149	6323
822.289	6365
822.429	6079
822.569	6110
822.709	6190
822.849	5912
822.99	5954
823.13	5973
823.27	5893
823.41	5832
823.55	5821
823.69	5794
823.83	5726
823.97	5657
824.11	5512
824.25	5459
824.389	5604
824.529	5577
824.669	5543
824.809	5592
824.949	5646
825.089	5646
825.228	5543
825.368	5376
825.508	5296
825.648	5372
825.787	5353
825.927	5417
826.067	5322
826.206	5235
826.346	5345
826.485	5402
826.625	5414
826.765	5562
826.904	5459
827.044	5280
827.183	5220
827.323	5151
827.462	5242
827.601	5151
827.741	5181
827.88	5227
828.02	5083
828.159	5223
828.298	5273
828.437	5364
828.577	5208
828.716	5463
828.855	5322
828.994	5208
829.134	5140
829.273	5197
829.412	5136
829.551	5098
829.69	5178
829.829	5235
829.968	5444
830.107	5284
830.246	5269
830.385	5102
830.524	5067
830.663	5109
830.802	4991
830.941	4854
831.08	4847
831.219	4991
831.357	4957
831.496	5117
831.635	4946
831.774	4850
831.913	4805
832.051	4744
832.19	4691
832.329	4900
832.467	4683
832.606	4618
832.744	4733
832.883	4725
833.022	4664
833.16	4763
833.299	4782
833.437	4797
833.576	4839
833.714	4854
833.852	4877
833.991	4854
834.129	4984
834.267	4961
834.406	4923
834.544	5045
834.682	5025
834.821	4980
834.959	5140
835.097	4995
835.235	5140
835.373	5121
835.511	5094
835.65	5022
835.788	5060
835.926	4831
836.064	4900
836.202	4934
836.34	5136
836.478	5204
836.615	5143
836.753	5185
836.891	5269
837.029	5235
837.167	5227
837.305	5162
837.443	5170
837.58	5094
837.718	5250
837.856	5166
837.993	5170
838.131	5231
838.269	5181
838.406	5239
838.544	5197
838.681	5018
838.819	5029
838.956	4870
839.094	4889
839.231	4995
839.369	5075
839.506	5383
839.643	5239
839.781	5041
839.918	5018
840.055	5105
840.193	5128
840.33	5056
840.467	5121
840.604	5155
840.742	5414
840.879	5136
841.016	5098
841.153	5212
841.29	5341
841.427	5261
841.564	5311
841.701	5372
841.838	5265
841.975	5254
842.112	5254
842.249	5193
842.385	5109
842.522	5296
842.659	5151
842.796	5162
842.933	5185
843.069	5147
843.206	5170
843.343	5292
843.479	5296
843.616	5212
843.752	4999
843.889	4984
844.025	5223
844.162	5006
844.298	5185
844.435	5060
844.571	5064
844.708	5174
844.844	5303
844.98	5318
845.117	5261
845.253	5159
845.389	5041
845.525	5178
845.661	5140
845.798	5045
845.934	5151
846.07	5071
846.206	5212
846.342	5288
846.478	5143
846.614	4991
846.75	4949
846.886	4953
847.022	5124
847.158	5018
847.294	5003
847.429	5113
847.565	5098
847.701	5330
847.837	4873
847.972	4881
848.108	4968
848.244	4881
848.379	4812
848.515	4714
848.65	4706
848.786	4744
848.921	4793
849.057	4866
849.192	4923
849.328	4847
849.463	4904
849.598	4805
849.734	4771
849.869	4736
850.004	4596
850.14	4626
850.275	4580
850.41	4523
850.545	4516
850.68	4596
850.815	4645
850.95	4615
851.085	4881
851.22	4752
851.355	4672
851.49	4596
851.625	4626
851.76	4630
851.895	4573
852.03	4558
852.165	4622
852.299	4702
852.434	4744
852.569	4702
852.703	4736
852.838	4870
852.973	4930
853.107	4934
853.242	4721
853.376	4645
853.511	4554
853.645	4611
853.78	4793
853.914	4733
854.048	4634
854.183	4668
854.317	4683
854.451	4854
854.585	4687
854.72	4618
854.854	4763
854.988	4637
855.122	4615
855.256	4561
855.39	4622
855.524	4759
855.658	4759
855.792	4687
855.926	4691
856.06	4733
856.194	4809
856.327	4664
856.461	4622
856.595	4584
856.729	4626
856.862	4759
856.996	4668
857.13	4683
857.263	4767
857.397	4828
857.53	4622
857.664	4698
857.797	4702
857.931	4786
858.064	4679
858.197	4706
858.331	4622
858.464	4588
858.597	4523
858.731	4645
858.864	4607
858.997	4607
859.13	4634
859.263	4679
859.396	4702
859.529	4611
859.662	4538
859.795	4508
859.928	4599
860.061	4778
860.194	4774
860.327	4618
860.46	4565
860.592	4714
860.725	4740
860.858	4679
860.99	4546
861.123	4523
861.256	4519
861.388	4588
861.521	5296
861.653	4474
861.786	4462
861.918	4462
862.05	4527
862.183	4516
862.315	4592
862.447	4626
862.58	4558
862.712	4363
862.844	4329
862.976	4466
863.108	4413
863.24	4900
863.372	4337
863.504	4379
863.636	4424
863.768	4432
863.9	4405
864.032	4360
864.164	4428
864.296	4470
864.428	4527
864.559	4561
864.691	4565
864.823	4538
864.954	4485
865.086	4569
865.217	4474
865.349	4363
865.48	4447
865.612	4485
865.743	4656
865.875	4424
866.006	4436
866.137	4443
866.269	4421
866.4	4405
866.531	4402
866.662	4375
866.793	4402
866.924	4424
867.055	4470
867.186	4432
867.317	4405
867.448	4383
867.579	4413
867.71	4394
867.841	4379
867.972	4459
868.103	4462
868.233	4443
868.364	4405
868.495	4481
868.625	4687
868.756	4767
868.886	4542
869.017	4668
869.147	4744
869.278	4736
869.408	4675
869.539	4656
869.669	4736
869.799	4641
869.929	4748
870.06	4717
870.19	4934
870.32	4904
870.45	4957
870.58	5060
870.71	5041
870.84	5083
870.97	4946
871.1	4866
871.23	5098
871.36	5143
871.489	5064
871.619	5071
871.749	5060
871.879	5121
872.008	5227
872.138	5056
872.267	4999
872.397	4843
872.526	4835
872.656	4698
872.785	4774
872.915	4911
873.044	5006
873.173	4938
873.303	5014
873.432	4915
873.561	4953
873.69	4850
873.819	4843
873.948	4889
874.077	4790
874.206	4767
874.335	4782
874.464	4854
874.593	5056
874.722	4965
874.851	5094
874.979	5064
875.108	5056
875.237	4949
875.365	4904
875.494	4889
875.623	4999
875.751	4812
875.88	4831
876.008	4968
876.136	5060
876.265	5193
876.393	5357
876.521	5242
876.65	5288
876.778	5208
876.906	5067
877.034	5037
877.162	5052
877.29	4972
877.418	5064
877.546	5052
877.674	5052
877.802	5060
877.93	5052
878.058	4942
878.185	4881
878.313	4976
878.441	4980
878.568	4786
878.696	4854
878.824	4987
878.951	4972
879.079	5109
879.206	5261
879.333	5079
879.461	4995
879.588	4991
879.715	5124
879.842	5143
879.97	5006
880.097	4767
880.224	4736
880.351	4790
880.478	4854
880.605	4790
880.732	4748
880.859	5052
880.986	4885
881.112	4908
881.239	4828
881.366	4615
881.493	4645
881.619	4599
881.746	4668
881.872	4702
881.999	4630
882.125	4698
882.252	4809
882.378	4831
882.505	4957
882.631	4786
882.757	4668
882.883	4702
883.01	4691
883.136	4668
883.262	4615
883.388	4634
883.514	4828
883.64	4877
883.766	4809
883.892	4668
884.018	4714
884.143	4904
884.269	5029
884.395	4725
884.52	4645
884.646	4641
884.772	4573
884.897	4561
885.023	4645
885.148	4793
885.274	4862
885.399	4831
885.524	4706
885.65	4740
885.775	4763
885.9	4668
886.025	4835
886.15	4748
886.275	4736
886.4	4668
886.525	4733
886.65	4698
886.775	4660
886.9	4908
887.025	5102
887.149	4805
887.274	4622
887.399	4622
887.523	4603
887.648	4519
887.773	4588
887.897	4725
888.021	4721
888.146	4694
888.27	4805
888.395	4866
888.519	4801
888.643	4748
888.767	4850
888.891	4679
889.015	4630
889.139	4630
889.263	4584
889.387	4759
889.511	4866
889.635	4790
889.759	4641
889.883	4618
890.006	4725
890.13	4809
890.254	4592
890.377	4687
890.501	4504
890.624	4527
890.748	4603
890.871	4474
890.995	4394
891.118	4375
891.241	4512
891.364	4531
891.488	4672
891.611	4481
891.734	4497
891.857	4573
891.98	4550
892.103	4630
892.226	4558
892.349	4550
892.471	4451
892.594	4561
892.717	4580
892.839	4596
892.962	4615
893.085	4653
893.207	4630
893.33	4455
893.452	4523
893.575	4603
893.697	4603
893.819	4797
893.941	4748
894.064	4763
894.186	4588
894.308	4592
894.43	4725
894.552	4752
894.674	4729
894.796	4554
894.918	4622
895.04	4558
895.161	4748
895.283	4622
895.405	4542
895.526	4637
895.648	4679
895.769	4679
895.891	4710
896.012	4725
896.134	4733
896.255	4706
896.376	4687
896.498	4603
896.619	4717
896.74	4615
896.861	4599
896.982	4949
897.103	5071
897.224	4870
897.345	4710
897.466	4717
897.587	4744
897.708	4843
897.828	4729
897.949	4660
898.07	4558
898.19	4618
898.311	4786
898.431	4698
898.552	4748
898.672	4809
898.792	4820
898.913	4698
899.033	4611
899.153	4470
899.273	4424
899.393	4447
899.513	4485
899.633	4508
899.753	4531
899.873	4512
899.993	4577
900.113	4538
900.232	4542
900.352	4493
900.472	4508
900.591	4379
900.711	4497
900.83	4443
900.95	4546
901.069	4683
901.189	4538
901.308	4394
901.427	4306
901.546	4390
901.665	4451
901.784	4554
901.904	4348
902.023	4295
902.141	4223
902.26	4158
902.379	4325
902.498	4234
902.617	4246
902.735	4352
902.854	4409
902.973	4348
903.091	4211
903.21	4219
903.328	4299
903.446	4284
903.565	4253
903.683	4333
903.801	4268
903.919	4390
904.038	4428
904.156	4303
904.274	4424
904.392	4398
904.51	4402
904.627	4493
904.745	4592
904.863	4637
904.981	4386
905.098	4291
905.216	4344
905.334	4428
905.451	4379
905.569	4459
905.686	4538
905.803	4558
905.921	4428
906.038	4516
906.155	4474
906.272	4379
906.389	4421
906.506	4360
906.623	4462
906.74	4394
906.857	4280
906.974	4333
907.091	4630
907.208	4637
907.324	4569
907.441	4485
907.557	4337
907.674	4325
907.79	4322
907.907	4402
908.023	4440
908.139	4447
908.256	4474
908.372	4432
908.488	4436
908.604	4344
908.72	4310
908.836	4344
908.952	4367
909.068	4394
909.184	4580
909.3	4531
909.415	4542
909.531	4512
909.647	4356
909.762	4344
909.878	4329
909.993	4424
910.108	4390
910.224	4394
910.339	4459
910.454	4394
910.57	4383
910.685	4299
910.8	4714
910.915	4615
911.03	4535
911.145	4383
911.259	4322
911.374	4402
911.489	4284
911.604	4284
911.718	4139
911.833	4230
911.947	4040
912.062	4006
912.176	4219
912.291	4227
912.405	4234
912.519	4436
912.633	4489
912.748	4360
912.862	4333
912.976	4200
913.09	4101
913.204	4173
913.318	4299
913.431	4352
913.545	4322
913.659	4421
913.772	4371
913.886	4253
914	4227
914.113	4329
914.226	4443
914.34	4375
914.453	4234
914.566	4432
914.68	4325
914.793	4284
914.906	4120
915.019	4116
915.132	4074
915.245	4185
915.358	4185
915.47	4200
915.583	4310
915.696	4295
915.809	4436
915.921	4409
916.034	4261
916.146	4253
916.259	4207
916.371	4379
916.483	4360
916.595	4272
916.708	4322
916.82	4348
916.932	4333
917.044	4318
917.156	4322
917.268	4246
917.38	4268
917.491	4291
917.603	4356
917.715	4375
917.826	4394
917.938	4379
918.049	4272
918.161	4409
918.272	4546
918.384	4542
918.495	4462
918.606	4280
918.717	4242
918.828	4325
918.939	4356
919.05	4284
919.161	4333
919.272	4093
919.383	4223
919.494	4443
919.604	4592
919.715	4379
919.826	4325
919.936	4421
920.047	4531
920.157	4485
920.267	4698
920.378	4535
920.488	4500
920.598	4714
920.708	4831
920.818	4733
920.928	4729
921.038	4915
921.148	4904
921.258	4634
921.368	4596
921.477	4531
921.587	4428
921.697	4367
921.806	4497
921.916	4432
922.025	4253
922.134	4223
922.244	4238
922.353	4356
922.462	4177
922.571	4090
922.68	3991
922.789	4017
922.898	4021
923.007	3991
923.116	4120
923.224	4055
923.333	4044
923.442	3972
923.55	3956
923.659	4029
923.767	4063
923.876	4017
923.984	4090
924.092	3945
924.201	4086
924.309	4090
924.417	4120
924.525	4044
924.633	4135
924.741	5037
924.849	3903
924.956	4139
925.064	3949
925.172	3888
925.279	3926
925.387	4017
925.494	4048
925.602	4227
925.709	4147
925.816	4017
925.924	4128
926.031	4207
926.138	4135
926.245	4196
926.352	4124
926.459	4249
926.566	4291
926.673	4185
926.779	4082
926.886	4101
926.993	3975
927.099	3945
927.206	3945
927.312	3964
927.419	4048
927.525	4082
927.631	4101
927.737	3964
927.843	3937
927.95	3827
928.056	3953
928.162	3979
928.267	4086
928.373	4698
928.479	4124
928.585	3850
928.69	4013
928.796	4074
928.901	3979
929.007	3846
929.112	3953
929.218	3960
929.323	3972
929.428	3911
929.533	4059
929.638	3876
929.743	3994
929.848	4059
929.953	4006
930.058	3934
930.163	3781
930.267	3793
930.372	3960
930.477	3800
930.581	4063
930.685	3937
930.79	3816
930.894	3857
930.998	3869
931.103	4025
931.207	3717
931.311	3705
931.415	3694
931.519	3538
931.623	3538
