Data from test_V78500241_1784.txt Node
Date: Fri Mar 25 17:01:24 CST 2022
User: usil
Spectrometer: V785-0024
Trigger mode: 0
Integration Time (sec): 4.000000E-1
Scans to average: 1
Nonlinearity correction enabled: false
Boxcar width: 0
Storing dark spectrum: false
XAxis mode: Wavelengths
Number of Pixels in Spectrum: 1024
>>>>>Begin Spectral Data<<<<<
801.071	7993
801.214	7955
801.356	7833
801.499	7890
801.641	7776
801.783	7784
801.926	7970
802.068	7887
802.211	7947
802.353	7936
802.496	7860
802.638	7894
802.78	7906
802.923	7982
803.065	7906
803.208	7772
803.35	7986
803.492	8134
803.635	8180
803.777	8005
803.919	8153
804.061	8419
804.204	8172
804.346	8050
804.488	7967
804.63	8043
804.773	8050
804.915	8126
805.057	8343
805.199	8225
805.341	8244
805.483	8332
805.626	8195
805.768	8123
805.91	8206
806.052	8214
806.194	8130
806.336	8320
806.478	8126
806.62	8084
806.762	8218
806.904	8282
807.046	8541
807.188	8484
807.33	8328
807.472	8408
807.614	8214
807.756	8172
807.898	8062
808.04	7993
808.182	7947
808.324	7917
808.465	7936
808.607	8103
808.749	8149
808.891	8210
809.033	8358
809.174	8282
809.316	8183
809.458	8126
809.6	8054
809.741	8043
809.883	7997
810.025	8168
810.166	8073
810.308	8073
810.45	8054
810.591	7845
810.733	7731
810.875	7658
811.016	7510
811.158	7544
811.299	7647
811.441	7731
811.582	7704
811.724	7613
811.865	7544
812.007	7601
812.148	7651
812.29	7674
812.431	7780
812.573	7909
812.714	7997
812.855	8126
812.997	8305
813.138	8393
813.279	8183
813.421	8100
813.562	7989
813.703	7909
813.845	7761
813.986	7502
814.127	7259
814.268	7320
814.41	7225
814.551	7217
814.692	7187
814.833	7152
814.974	7118
815.115	7110
815.256	7000
815.397	6989
815.539	6962
815.68	6856
815.821	6776
815.962	6882
816.103	6779
816.244	6730
816.385	6677
816.526	6681
816.666	6608
816.807	6346
816.948	6486
817.089	6506
817.23	6479
817.371	6418
817.512	6426
817.653	6365
817.793	6361
817.934	6479
818.075	6471
818.216	6426
818.356	6410
818.497	6262
818.638	6167
818.778	6133
818.919	6095
819.06	6201
819.2	6319
819.341	6376
819.481	6414
819.622	6513
819.762	6814
819.903	6749
820.043	6639
820.184	6612
820.324	6627
820.465	6783
820.605	6719
820.746	6654
820.886	6528
821.026	6623
821.167	6741
821.307	6783
821.447	6798
821.588	6692
821.728	6589
821.868	6525
822.008	6323
822.149	6410
822.289	6395
822.429	6186
822.569	6129
822.709	6136
822.849	5954
822.99	5832
823.13	6015
823.27	5897
823.41	5775
823.55	5836
823.69	5771
823.83	5813
823.97	5665
824.11	5562
824.25	5558
824.389	5547
824.529	5623
824.669	5539
824.809	5638
824.949	5672
825.089	5634
825.228	5619
825.368	5417
825.508	5391
825.648	5376
825.787	5383
825.927	5410
826.067	5337
826.206	5303
826.346	5368
826.485	5467
826.625	5391
826.765	5543
826.904	5501
827.044	5307
827.183	5208
827.323	5159
827.462	5307
827.601	5162
827.741	5174
827.88	5223
828.02	5147
828.159	5299
828.298	5284
828.437	5296
828.577	5315
828.716	5512
828.855	5395
828.994	5189
829.134	5193
829.273	5216
829.412	5174
829.551	5140
829.69	5235
829.829	5261
829.968	5406
830.107	5280
830.246	5246
830.385	5254
830.524	5242
830.663	5064
830.802	4968
830.941	4942
831.08	4908
831.219	4999
831.357	4984
831.496	5147
831.635	4949
831.774	4854
831.913	4835
832.051	4736
832.19	4767
832.329	4915
832.467	4706
832.606	4694
832.744	4725
832.883	4691
833.022	4710
833.16	4824
833.299	4847
833.437	4801
833.576	4866
833.714	4847
833.852	4923
833.991	4877
834.129	4953
834.267	4965
834.406	4934
834.544	5014
834.682	4965
834.821	5022
834.959	5178
835.097	5041
835.235	5159
835.373	5147
835.511	5174
835.65	5124
835.788	5037
835.926	4919
836.064	4908
836.202	4987
836.34	5235
836.478	5242
836.615	5178
836.753	5269
836.891	5280
837.029	5258
837.167	5212
837.305	5201
837.443	5242
837.58	5128
837.718	5277
837.856	5235
837.993	5231
838.131	5296
838.269	5212
838.406	5220
838.544	5181
838.681	5052
838.819	4987
838.956	4919
839.094	4866
839.231	5006
839.369	5102
839.506	5383
839.643	5315
839.781	5060
839.918	5025
840.055	5086
840.193	5098
840.33	5083
840.467	5094
840.604	5178
840.742	5444
840.879	5102
841.016	5071
841.153	5094
841.29	5406
841.427	5322
841.564	5311
841.701	5402
841.838	5284
841.975	5242
842.112	5250
842.249	5193
842.385	5121
842.522	5284
842.659	5197
842.796	5109
842.933	5258
843.069	5185
843.206	5136
843.343	5299
843.479	5242
843.616	5284
843.752	5048
843.889	5041
844.025	5235
844.162	5056
844.298	5223
844.435	5105
844.571	5086
844.708	5151
844.844	5292
844.98	5398
845.117	5292
845.253	5170
845.389	5018
845.525	5250
845.661	5159
845.798	5045
845.934	5147
846.07	5064
846.206	5174
846.342	5322
846.478	5246
846.614	5037
846.75	4976
846.886	4938
847.022	5174
847.158	5041
847.294	5048
847.429	5117
847.565	5090
847.701	5345
847.837	4904
847.972	4854
848.108	4995
848.244	4965
848.379	4767
848.515	4691
848.65	4767
848.786	4801
848.921	4759
849.057	4904
849.192	4877
849.328	4843
849.463	4881
849.598	4805
849.734	4812
849.869	4687
850.004	4679
850.14	4622
850.275	4656
850.41	4523
850.545	4618
850.68	4550
850.815	4641
850.95	4653
851.085	4873
851.22	4763
851.355	4752
851.49	4618
851.625	4664
851.76	4618
851.895	4546
852.03	4592
852.165	4641
852.299	4744
852.434	4790
852.569	4778
852.703	4771
852.838	4881
852.973	4953
853.107	4961
853.242	4740
853.376	4702
853.511	4596
853.645	4626
853.78	4805
853.914	4706
854.048	4687
854.183	4634
854.317	4752
854.451	4873
854.585	4702
854.72	4641
854.854	4778
854.988	4634
855.122	4641
855.256	4531
855.39	4702
855.524	4782
855.658	4763
855.792	4717
855.926	4752
856.06	4797
856.194	4847
856.327	4702
856.461	4634
856.595	4615
856.729	4618
856.862	4786
856.996	4698
857.13	4763
857.263	4793
857.397	4820
857.53	4672
857.664	4668
857.797	4771
857.931	4774
858.064	4679
858.197	4771
858.331	4637
858.464	4599
858.597	4519
858.731	4596
858.864	4660
858.997	4592
859.13	4721
859.263	4702
859.396	4748
859.529	4580
859.662	4603
859.795	4542
859.928	4645
860.061	4744
860.194	4752
860.327	4592
860.46	4592
860.592	4733
860.725	4759
860.858	4717
860.99	4622
861.123	4493
861.256	4504
861.388	4645
861.521	5322
861.653	4440
861.786	4470
861.918	4500
862.05	4542
862.183	4558
862.315	4656
862.447	4653
862.58	4607
862.712	4398
862.844	4325
862.976	4481
863.108	4462
863.24	4885
863.372	4352
863.504	4421
863.636	4413
863.768	4519
863.9	4432
864.032	4325
864.164	4447
864.296	4519
864.428	4573
864.559	4523
864.691	4531
864.823	4561
864.954	4500
865.086	4493
865.217	4462
865.349	4443
865.48	4443
865.612	4516
865.743	4660
865.875	4474
866.006	4443
866.137	4428
866.269	4481
866.4	4421
866.531	4459
866.662	4436
866.793	4474
866.924	4421
867.055	4500
867.186	4478
867.317	4481
867.448	4329
867.579	4405
867.71	4405
867.841	4405
867.972	4500
868.103	4531
868.233	4459
868.364	4432
868.495	4451
868.625	4615
868.756	4755
868.886	4599
869.017	4656
869.147	4790
869.278	4774
869.408	4664
869.539	4637
869.669	4702
869.799	4656
869.929	4790
870.06	4774
870.19	4965
870.32	4930
870.45	4934
870.58	4984
870.71	5098
870.84	5105
870.97	4957
871.1	4892
871.23	5124
871.36	5185
871.489	5018
871.619	5090
871.749	5056
871.879	5075
872.008	5193
872.138	5071
872.267	4946
872.397	4927
872.526	4835
872.656	4698
872.785	4771
872.915	4961
873.044	5052
873.173	4930
873.303	4934
873.432	4946
873.561	4995
873.69	4896
873.819	4915
873.948	4915
874.077	4839
874.206	4820
874.335	4793
874.464	4892
874.593	5079
874.722	4976
874.851	5124
874.979	5056
875.108	5029
875.237	4881
875.365	4934
875.494	4923
875.623	4938
875.751	4870
875.88	4847
876.008	4980
876.136	5037
876.265	5189
876.393	5330
876.521	5284
876.65	5239
876.778	5174
876.906	5117
877.034	5010
877.162	5079
877.29	4999
877.418	5052
877.546	5014
877.674	5056
877.802	5029
877.93	5071
878.058	4923
878.185	4839
878.313	4995
878.441	4991
878.568	4797
878.696	4892
878.824	4942
878.951	5003
879.079	5128
879.206	5318
879.333	5128
879.461	5037
879.588	5029
879.715	5105
879.842	5174
879.97	5033
880.097	4801
880.224	4786
880.351	4831
880.478	4824
880.605	4831
880.732	4831
880.859	5052
880.986	4873
881.112	4873
881.239	4771
881.366	4668
881.493	4630
881.619	4550
881.746	4584
881.872	4702
881.999	4637
882.125	4759
882.252	4824
882.378	4862
882.505	4938
882.631	4831
882.757	4675
882.883	4691
883.01	4740
883.136	4683
883.262	4618
883.388	4622
883.514	4858
883.64	4889
883.766	4820
883.892	4664
884.018	4744
884.143	4896
884.269	5003
884.395	4649
884.52	4634
884.646	4611
884.772	4584
884.897	4592
885.023	4645
885.148	4805
885.274	4892
885.399	4793
885.524	4733
885.65	4721
885.775	4744
885.9	4691
886.025	4850
886.15	4793
886.275	4778
886.4	4649
886.525	4717
886.65	4698
886.775	4683
886.9	4911
887.025	5056
887.149	4816
887.274	4675
887.399	4588
887.523	4626
887.648	4538
887.773	4584
887.897	4778
888.021	4801
888.146	4668
888.27	4786
888.395	4892
888.519	4839
888.643	4812
888.767	4828
888.891	4691
889.015	4565
889.139	4675
889.263	4634
889.387	4786
889.511	4828
889.635	4801
889.759	4626
889.883	4645
890.006	4736
890.13	4847
890.254	4618
890.377	4672
890.501	4535
890.624	4485
890.748	4588
890.871	4493
890.995	4459
891.118	4379
891.241	4497
891.364	4577
891.488	4683
891.611	4512
891.734	4519
891.857	4569
891.98	4546
892.103	4618
892.226	4588
892.349	4493
892.471	4474
892.594	4546
892.717	4603
892.839	4550
892.962	4577
893.085	4637
893.207	4573
893.33	4481
893.452	4523
893.575	4668
893.697	4584
893.819	4831
893.941	4778
894.064	4755
894.186	4611
894.308	4565
894.43	4710
894.552	4786
894.674	4786
894.796	4599
894.918	4637
895.04	4546
895.161	4714
895.283	4622
895.405	4550
895.526	4637
895.648	4687
895.769	4653
895.891	4702
896.012	4736
896.134	4736
896.255	4649
896.376	4626
896.498	4637
896.619	4664
896.74	4634
896.861	4618
896.982	4919
897.103	5060
897.224	4843
897.345	4717
897.466	4694
897.587	4717
897.708	4812
897.828	4786
897.949	4611
898.07	4573
898.19	4675
898.311	4839
898.431	4637
898.552	4736
898.672	4831
898.792	4831
898.913	4759
899.033	4592
899.153	4478
899.273	4432
899.393	4489
899.513	4497
899.633	4497
899.753	4527
899.873	4508
899.993	4588
900.113	4550
900.232	4538
900.352	4538
900.472	4493
900.591	4390
900.711	4531
900.83	4436
900.95	4592
901.069	4672
901.189	4519
901.308	4318
901.427	4318
901.546	4383
901.665	4481
901.784	4470
901.904	4329
902.023	4291
902.141	4219
902.26	4166
902.379	4295
902.498	4234
902.617	4249
902.735	4386
902.854	4386
902.973	4348
903.091	4215
903.21	4150
903.328	4363
903.446	4268
903.565	4303
903.683	4348
903.801	4249
903.919	4386
904.038	4455
904.156	4371
904.274	4413
904.392	4356
904.51	4474
904.627	4466
904.745	4561
904.863	4641
904.981	4348
905.098	4303
905.216	4409
905.334	4421
905.451	4470
905.569	4371
905.686	4504
905.803	4546
905.921	4405
906.038	4599
906.155	4474
906.272	4398
906.389	4417
906.506	4352
906.623	4356
906.74	4363
906.857	4265
906.974	4356
907.091	4538
907.208	4679
907.324	4607
907.441	4504
907.557	4375
907.674	4356
907.79	4310
907.907	4348
908.023	4481
908.139	4466
908.256	4474
908.372	4481
908.488	4485
908.604	4322
908.72	4314
908.836	4375
908.952	4363
909.068	4386
909.184	4558
909.3	4508
909.415	4584
909.531	4550
909.647	4352
909.762	4363
909.878	4360
909.993	4432
910.108	4405
910.224	4402
910.339	4451
910.454	4421
910.57	4386
910.685	4306
910.8	4615
910.915	4607
911.03	4504
911.145	4295
911.259	4310
911.374	4402
911.489	4306
911.604	4257
911.718	4173
911.833	4173
911.947	4036
912.062	4040
912.176	4246
912.291	4207
912.405	4219
912.519	4462
912.633	4493
912.748	4428
912.862	4318
912.976	4207
913.09	4086
913.204	4177
913.318	4211
913.431	4375
913.545	4367
913.659	4466
913.772	4325
913.886	4249
914	4166
914.113	4363
914.226	4375
914.34	4383
914.453	4219
914.566	4504
914.68	4265
914.793	4303
914.906	4173
915.019	4154
915.132	4078
915.245	4150
915.358	4223
915.47	4219
915.583	4261
915.696	4310
915.809	4447
915.921	4417
916.034	4280
916.146	4265
916.259	4246
916.371	4386
916.483	4363
916.595	4257
916.708	4363
916.82	4284
916.932	4295
917.044	4318
917.156	4322
917.268	4238
917.38	4284
917.491	4211
917.603	4329
917.715	4390
917.826	4451
917.938	4363
918.049	4223
918.161	4394
918.272	4573
918.384	4523
918.495	4394
918.606	4280
918.717	4238
918.828	4348
918.939	4314
919.05	4257
919.161	4341
919.272	4139
919.383	4219
919.494	4424
919.604	4634
919.715	4409
919.826	4333
919.936	4432
920.047	4523
920.157	4489
920.267	4717
920.378	4538
920.488	4485
920.598	4725
920.708	4839
920.818	4748
920.928	4767
921.038	4972
921.148	4858
921.258	4622
921.368	4558
921.477	4516
921.587	4481
921.697	4379
921.806	4531
921.916	4405
922.025	4246
922.134	4291
922.244	4211
922.353	4318
922.462	4200
922.571	4101
922.68	3991
922.789	3994
922.898	4006
923.007	3983
923.116	4086
923.224	4010
923.333	4082
923.442	4017
923.55	3960
923.659	4040
923.767	4059
923.876	3968
923.984	4086
924.092	3998
924.201	4120
924.309	4044
924.417	4093
924.525	4040
924.633	4097
924.741	5071
924.849	3892
924.956	4139
925.064	3922
925.172	3884
925.279	3975
925.387	4025
925.494	4074
925.602	4192
925.709	4143
925.816	4048
925.924	4101
926.031	4234
926.138	4166
926.245	4223
926.352	4078
926.459	4211
926.566	4333
926.673	4143
926.779	4063
926.886	4086
926.993	3953
927.099	3960
927.206	3941
927.312	3937
927.419	4067
927.525	4040
927.631	4090
927.737	3949
927.843	3934
927.95	3831
928.056	3907
928.162	3968
928.267	4048
928.373	4569
928.479	4078
928.585	3816
928.69	3983
928.796	4074
928.901	4002
929.007	3808
929.112	4013
929.218	3937
929.323	3941
929.428	3930
929.533	4097
929.638	3880
929.743	3941
929.848	4063
929.953	4029
930.058	3922
930.163	3743
930.267	3850
930.372	3964
930.477	3762
930.581	4067
930.685	3953
930.79	3812
930.894	3888
930.998	3857
931.103	4017
931.207	3698
931.311	3713
931.415	3656
931.519	3504
931.623	3584
