Data from test_V78500241_2809.txt Node
Date: Fri Mar 25 17:08:32 CST 2022
User: usil
Spectrometer: V785-0024
Trigger mode: 0
Integration Time (sec): 4.000000E-1
Scans to average: 1
Nonlinearity correction enabled: false
Boxcar width: 0
Storing dark spectrum: false
XAxis mode: Wavelengths
Number of Pixels in Spectrum: 1024
>>>>>Begin Spectral Data<<<<<
801.071	7993
801.214	8012
801.356	7864
801.499	7894
801.641	7814
801.783	7814
801.926	7898
802.068	7955
802.211	7974
802.353	7993
802.496	7890
802.638	7871
802.78	7959
802.923	7890
803.065	7925
803.208	7871
803.35	7997
803.492	8134
803.635	8180
803.777	8073
803.919	8096
804.061	8469
804.204	8138
804.346	8058
804.488	7936
804.63	8130
804.773	7997
804.915	8115
805.057	8347
805.199	8153
805.341	8195
805.483	8267
805.626	8233
805.768	8199
805.91	8225
806.052	8157
806.194	8134
806.336	8294
806.478	8039
806.62	8103
806.762	8081
806.904	8271
807.046	8351
807.188	8415
807.33	8328
807.472	8374
807.614	8221
807.756	8153
807.898	7978
808.04	7830
808.182	7856
808.324	7894
808.465	7936
808.607	8092
808.749	8176
808.891	8229
809.033	8393
809.174	8199
809.316	8062
809.458	8035
809.6	7955
809.741	8031
809.883	8012
810.025	8134
810.166	8050
810.308	8065
810.45	8027
810.591	7906
810.733	7799
810.875	7696
811.016	7483
811.158	7487
811.299	7655
811.441	7761
811.582	7746
811.724	7594
811.865	7575
812.007	7582
812.148	7620
812.29	7658
812.431	7704
812.573	7860
812.714	7967
812.855	8210
812.997	8176
813.138	8294
813.279	8218
813.421	8126
813.562	7989
813.703	7871
813.845	7769
813.986	7464
814.127	7247
814.268	7247
814.41	7259
814.551	7247
814.692	7213
814.833	7015
814.974	7103
815.115	7133
815.256	6973
815.397	6867
815.539	6932
815.68	6814
815.821	6837
815.962	6840
816.103	6821
816.244	6764
816.385	6711
816.526	6620
816.666	6555
816.807	6296
816.948	6479
817.089	6475
817.23	6380
817.371	6315
817.512	6346
817.653	6410
817.793	6384
817.934	6426
818.075	6471
818.216	6433
818.356	6369
818.497	6239
818.638	6133
818.778	6194
818.919	6091
819.06	6182
819.2	6334
819.341	6258
819.481	6342
819.622	6540
819.762	6700
819.903	6677
820.043	6570
820.184	6551
820.324	6627
820.465	6719
820.605	6719
820.746	6616
820.886	6479
821.026	6635
821.167	6818
821.307	6764
821.447	6814
821.588	6642
821.728	6627
821.868	6525
822.008	6357
822.149	6403
822.289	6353
822.429	6121
822.569	6060
822.709	6117
822.849	5916
822.99	5935
823.13	5920
823.27	5935
823.41	5783
823.55	5771
823.69	5828
823.83	5783
823.97	5676
824.11	5592
824.25	5490
824.389	5512
824.529	5562
824.669	5478
824.809	5623
824.949	5703
825.089	5608
825.228	5535
825.368	5417
825.508	5303
825.648	5372
825.787	5402
825.927	5402
826.067	5299
826.206	5296
826.346	5398
826.485	5433
826.625	5387
826.765	5551
826.904	5535
827.044	5261
827.183	5208
827.323	5124
827.462	5242
827.601	5155
827.741	5151
827.88	5189
828.02	5109
828.159	5261
828.298	5307
828.437	5391
828.577	5277
828.716	5429
828.855	5273
828.994	5185
829.134	5136
829.273	5201
829.412	5109
829.551	5155
829.69	5143
829.829	5231
829.968	5391
830.107	5258
830.246	5269
830.385	5185
830.524	5128
830.663	5052
830.802	5003
830.941	4824
831.08	4873
831.219	5022
831.357	5014
831.496	5166
831.635	4946
831.774	4850
831.913	4847
832.051	4706
832.19	4733
832.329	4828
832.467	4759
832.606	4607
832.744	4744
832.883	4706
833.022	4797
833.16	4816
833.299	4828
833.437	4858
833.576	4831
833.714	4847
833.852	4854
833.991	4919
834.129	4953
834.267	4938
834.406	4839
834.544	4949
834.682	4968
834.821	4949
834.959	5109
835.097	4976
835.235	5147
835.373	5056
835.511	5090
835.65	4995
835.788	5045
835.926	4915
836.064	4877
836.202	4889
836.34	5193
836.478	5258
836.615	5185
836.753	5170
836.891	5254
837.029	5220
837.167	5239
837.305	5181
837.443	5128
837.58	5083
837.718	5174
837.856	5155
837.993	5162
838.131	5193
838.269	5201
838.406	5193
838.544	5208
838.681	4976
838.819	4965
838.956	4919
839.094	4862
839.231	4991
839.369	5060
839.506	5376
839.643	5258
839.781	5022
839.918	5052
840.055	5041
840.193	5109
840.33	5121
840.467	5151
840.604	5174
840.742	5406
840.879	5060
841.016	5090
841.153	5185
841.29	5379
841.427	5315
841.564	5307
841.701	5379
841.838	5292
841.975	5216
842.112	5265
842.249	5159
842.385	5098
842.522	5326
842.659	5147
842.796	5151
842.933	5204
843.069	5124
843.206	5181
843.343	5311
843.479	5201
843.616	5288
843.752	4957
843.889	4984
844.025	5212
844.162	4976
844.298	5273
844.435	5067
844.571	5037
844.708	5178
844.844	5345
844.98	5311
845.117	5307
845.253	5170
845.389	5071
845.525	5162
845.661	5170
845.798	5041
845.934	5105
846.07	5079
846.206	5178
846.342	5299
846.478	5162
846.614	5022
846.75	4984
846.886	4915
847.022	5174
847.158	5029
847.294	5121
847.429	5086
847.565	5071
847.701	5337
847.837	4877
847.972	4801
848.108	4942
848.244	4965
848.379	4801
848.515	4710
848.65	4786
848.786	4771
848.921	4744
849.057	4831
849.192	4923
849.328	4816
849.463	4892
849.598	4774
849.734	4717
849.869	4664
850.004	4664
850.14	4664
850.275	4599
850.41	4489
850.545	4561
850.68	4622
850.815	4653
850.95	4588
851.085	4866
851.22	4771
851.355	4694
851.49	4611
851.625	4649
851.76	4641
851.895	4577
852.03	4565
852.165	4664
852.299	4736
852.434	4763
852.569	4782
852.703	4778
852.838	4797
852.973	4900
853.107	4938
853.242	4740
853.376	4675
853.511	4611
853.645	4641
853.78	4797
853.914	4668
854.048	4653
854.183	4637
854.317	4672
854.451	4816
854.585	4637
854.72	4672
854.854	4759
854.988	4615
855.122	4653
855.256	4542
855.39	4653
855.524	4778
855.658	4733
855.792	4668
855.926	4702
856.06	4767
856.194	4778
856.327	4641
856.461	4561
856.595	4622
856.729	4603
856.862	4797
856.996	4668
857.13	4717
857.263	4790
857.397	4824
857.53	4664
857.664	4763
857.797	4755
857.931	4790
858.064	4702
858.197	4729
858.331	4645
858.464	4599
858.597	4516
858.731	4626
858.864	4618
858.997	4569
859.13	4653
859.263	4664
859.396	4744
859.529	4542
859.662	4580
859.795	4519
859.928	4622
860.061	4782
860.194	4790
860.327	4599
860.46	4535
860.592	4672
860.725	4710
860.858	4725
860.99	4561
861.123	4474
861.256	4500
861.388	4645
861.521	5315
861.653	4504
861.786	4443
861.918	4428
862.05	4508
862.183	4531
862.315	4634
862.447	4660
862.58	4573
862.712	4409
862.844	4318
862.976	4462
863.108	4421
863.24	4740
863.372	4352
863.504	4421
863.636	4432
863.768	4516
863.9	4413
864.032	4303
864.164	4363
864.296	4500
864.428	4584
864.559	4550
864.691	4558
864.823	4554
864.954	4493
865.086	4497
865.217	4508
865.349	4405
865.48	4440
865.612	4459
865.743	4611
865.875	4474
866.006	4470
866.137	4466
866.269	4451
866.4	4474
866.531	4428
866.662	4413
866.793	4394
866.924	4352
867.055	4466
867.186	4462
867.317	4398
867.448	4390
867.579	4409
867.71	4436
867.841	4379
867.972	4424
868.103	4466
868.233	4474
868.364	4512
868.495	4508
868.625	4641
868.756	4729
868.886	4592
869.017	4573
869.147	4801
869.278	4797
869.408	4668
869.539	4592
869.669	4694
869.799	4664
869.929	4767
870.06	4748
870.19	4930
870.32	4919
870.45	4881
870.58	5014
870.71	5056
870.84	5124
870.97	4942
871.1	4843
871.23	5143
871.36	5159
871.489	4987
871.619	5071
871.749	5060
871.879	5105
872.008	5159
872.138	5052
872.267	4946
872.397	4839
872.526	4771
872.656	4725
872.785	4839
872.915	4957
873.044	4995
873.173	4927
873.303	4965
873.432	4946
873.561	4946
873.69	4915
873.819	4881
873.948	4881
874.077	4797
874.206	4733
874.335	4809
874.464	4968
874.593	5086
874.722	4961
874.851	5094
874.979	5041
875.108	5014
875.237	4938
875.365	4862
875.494	4885
875.623	4946
875.751	4828
875.88	4896
876.008	4980
876.136	4972
876.265	5197
876.393	5387
876.521	5223
876.65	5189
876.778	5170
876.906	5052
877.034	5045
877.162	5048
877.29	5006
877.418	5102
877.546	5071
877.674	5064
877.802	5006
877.93	5052
878.058	4892
878.185	4847
878.313	4999
878.441	4957
878.568	4831
878.696	4828
878.824	4949
878.951	4984
879.079	5128
879.206	5269
879.333	5094
879.461	4987
879.588	4972
879.715	5117
879.842	5216
879.97	5003
880.097	4752
880.224	4717
880.351	4797
880.478	4835
880.605	4797
880.732	4812
880.859	5098
880.986	4862
881.112	4961
881.239	4767
881.366	4649
881.493	4561
881.619	4607
881.746	4634
881.872	4649
881.999	4630
882.125	4698
882.252	4790
882.378	4812
882.505	4957
882.631	4786
882.757	4679
882.883	4752
883.01	4771
883.136	4668
883.262	4596
883.388	4607
883.514	4847
883.64	4843
883.766	4771
883.892	4664
884.018	4717
884.143	4877
884.269	4980
884.395	4683
884.52	4618
884.646	4622
884.772	4588
884.897	4538
885.023	4672
885.148	4824
885.274	4847
885.399	4759
885.524	4744
885.65	4763
885.775	4721
885.9	4675
886.025	4816
886.15	4782
886.275	4733
886.4	4748
886.525	4710
886.65	4653
886.775	4672
886.9	4885
887.025	5014
887.149	4797
887.274	4653
887.399	4653
887.523	4630
887.648	4615
887.773	4615
887.897	4774
888.021	4824
888.146	4687
888.27	4850
888.395	4904
888.519	4820
888.643	4782
888.767	4820
888.891	4645
889.015	4603
889.139	4645
889.263	4584
889.387	4729
889.511	4862
889.635	4729
889.759	4630
889.883	4664
890.006	4706
890.13	4854
890.254	4626
890.377	4683
890.501	4512
890.624	4512
890.748	4569
890.871	4558
890.995	4462
891.118	4398
891.241	4519
891.364	4584
891.488	4687
891.611	4538
891.734	4497
891.857	4554
891.98	4523
892.103	4641
892.226	4615
892.349	4535
892.471	4421
892.594	4558
892.717	4615
892.839	4561
892.962	4519
893.085	4660
893.207	4577
893.33	4470
893.452	4569
893.575	4637
893.697	4603
893.819	4782
893.941	4885
894.064	4759
894.186	4565
894.308	4542
894.43	4744
894.552	4847
894.674	4759
894.796	4546
894.918	4577
895.04	4546
895.161	4702
895.283	4634
895.405	4546
895.526	4592
895.648	4687
895.769	4683
895.891	4706
896.012	4752
896.134	4752
896.255	4634
896.376	4653
896.498	4580
896.619	4634
896.74	4611
896.861	4637
896.982	4900
897.103	5102
897.224	4854
897.345	4733
897.466	4694
897.587	4702
897.708	4866
897.828	4831
897.949	4691
898.07	4580
898.19	4679
898.311	4850
898.431	4683
898.552	4744
898.672	4805
898.792	4797
898.913	4744
899.033	4607
899.153	4481
899.273	4466
899.393	4493
899.513	4542
899.633	4527
899.753	4519
899.873	4523
899.993	4561
900.113	4493
900.232	4561
900.352	4542
900.472	4470
900.591	4383
900.711	4504
900.83	4432
900.95	4599
901.069	4687
901.189	4573
901.308	4371
901.427	4284
901.546	4379
901.665	4508
901.784	4527
901.904	4440
902.023	4272
902.141	4181
902.26	4131
902.379	4306
902.498	4287
902.617	4219
902.735	4363
902.854	4383
902.973	4344
903.091	4188
903.21	4234
903.328	4322
903.446	4261
903.565	4257
903.683	4379
903.801	4284
903.919	4409
904.038	4447
904.156	4325
904.274	4470
904.392	4379
904.51	4417
904.627	4462
904.745	4558
904.863	4599
904.981	4341
905.098	4352
905.216	4367
905.334	4413
905.451	4459
905.569	4413
905.686	4519
905.803	4523
905.921	4443
906.038	4554
906.155	4489
906.272	4371
906.389	4455
906.506	4371
906.623	4379
906.74	4394
906.857	4329
906.974	4363
907.091	4577
907.208	4702
907.324	4558
907.441	4519
907.557	4306
907.674	4363
907.79	4314
907.907	4398
908.023	4516
908.139	4493
908.256	4356
908.372	4474
908.488	4440
908.604	4333
908.72	4341
908.836	4394
908.952	4402
909.068	4405
909.184	4554
909.3	4417
909.415	4588
909.531	4565
909.647	4371
909.762	4424
909.878	4303
909.993	4421
910.108	4405
910.224	4402
910.339	4478
910.454	4413
910.57	4314
910.685	4333
910.8	4596
910.915	4584
911.03	4462
911.145	4329
911.259	4322
911.374	4344
911.489	4272
911.604	4291
911.718	4154
911.833	4211
911.947	4097
912.062	4048
912.176	4158
912.291	4242
912.405	4265
912.519	4459
912.633	4443
912.748	4322
912.862	4325
912.976	4211
913.09	4086
913.204	4173
913.318	4272
913.431	4383
913.545	4356
913.659	4428
913.772	4341
913.886	4253
914	4204
914.113	4383
914.226	4402
914.34	4417
914.453	4246
914.566	4428
914.68	4295
914.793	4310
914.906	4147
915.019	4131
915.132	4097
915.245	4158
915.358	4234
915.47	4314
915.583	4219
915.696	4322
915.809	4405
915.921	4447
916.034	4215
916.146	4261
916.259	4265
916.371	4375
916.483	4360
916.595	4249
916.708	4276
916.82	4310
916.932	4341
917.044	4341
917.156	4337
917.268	4242
917.38	4253
917.491	4318
917.603	4367
917.715	4398
917.826	4478
917.938	4356
918.049	4261
918.161	4344
918.272	4527
918.384	4508
918.495	4436
918.606	4287
918.717	4253
918.828	4329
918.939	4390
919.05	4284
919.161	4352
919.272	4177
919.383	4242
919.494	4451
919.604	4637
919.715	4455
919.826	4341
919.936	4443
920.047	4508
920.157	4451
920.267	4687
920.378	4519
920.488	4497
920.598	4729
920.708	4866
920.818	4774
920.928	4752
921.038	4927
921.148	4938
921.258	4611
921.368	4546
921.477	4504
921.587	4462
921.697	4344
921.806	4519
921.916	4493
922.025	4200
922.134	4337
922.244	4215
922.353	4299
922.462	4173
922.571	4128
922.68	4010
922.789	3949
922.898	4010
923.007	3991
923.116	4097
923.224	4051
923.333	4059
923.442	3998
923.55	3987
923.659	4021
923.767	4074
923.876	4021
923.984	4124
924.092	3934
924.201	4071
924.309	4055
924.417	4105
924.525	4067
924.633	4109
924.741	4854
924.849	3896
924.956	4169
925.064	3956
925.172	3937
925.279	3949
925.387	4055
925.494	4029
925.602	4207
925.709	4185
925.816	4036
925.924	4158
926.031	4181
926.138	4128
926.245	4234
926.352	4078
926.459	4268
926.566	4299
926.673	4196
926.779	4082
926.886	4109
926.993	3972
927.099	3956
927.206	3956
927.312	3956
927.419	4048
927.525	4036
927.631	4128
927.737	3972
927.843	3960
927.95	3857
928.056	3975
928.162	3987
928.267	4067
928.373	4721
928.479	4158
928.585	3873
928.69	4029
928.796	4093
928.901	3987
929.007	3861
929.112	3998
929.218	4006
929.323	3968
929.428	3998
929.533	4162
929.638	3960
929.743	4021
929.848	4097
929.953	4021
930.058	3991
930.163	3800
930.267	3884
930.372	3975
930.477	3827
930.581	4128
930.685	3975
930.79	3876
930.894	3915
930.998	3903
931.103	4051
931.207	3755
931.311	3774
931.415	3694
931.519	3568
931.623	3549
