Data from test_V78500241_2059.txt Node
Date: Fri Mar 25 17:03:19 CST 2022
User: usil
Spectrometer: V785-0024
Trigger mode: 0
Integration Time (sec): 4.000000E-1
Scans to average: 1
Nonlinearity correction enabled: false
Boxcar width: 0
Storing dark spectrum: false
XAxis mode: Wavelengths
Number of Pixels in Spectrum: 1024
>>>>>Begin Spectral Data<<<<<
801.071	7978
801.214	7989
801.356	7879
801.499	7826
801.641	7738
801.783	7795
801.926	7928
802.068	8001
802.211	7974
802.353	8016
802.496	7826
802.638	7841
802.78	7894
802.923	7917
803.065	7856
803.208	7902
803.35	7967
803.492	8039
803.635	8138
803.777	8043
803.919	8123
804.061	8434
804.204	8180
804.346	8069
804.488	7947
804.63	8149
804.773	7970
804.915	8084
805.057	8271
805.199	8130
805.341	8126
805.483	8183
805.626	8237
805.768	8096
805.91	8218
806.052	8229
806.194	8126
806.336	8336
806.478	8001
806.62	8008
806.762	8096
806.904	8267
807.046	8480
807.188	8431
807.33	8271
807.472	8298
807.614	8100
807.756	8134
807.898	7989
808.04	7871
808.182	7890
808.324	7928
808.465	7830
808.607	8005
808.749	8157
808.891	8202
809.033	8294
809.174	8248
809.316	8149
809.458	8077
809.6	7978
809.741	8058
809.883	8020
810.025	8027
810.166	8054
810.308	7967
810.45	8024
810.591	7852
810.733	7727
810.875	7651
811.016	7544
811.158	7400
811.299	7594
811.441	7674
811.582	7715
811.724	7609
811.865	7567
812.007	7571
812.148	7601
812.29	7578
812.431	7742
812.573	7868
812.714	8008
812.855	8103
812.997	8237
813.138	8267
813.279	8153
813.421	8077
813.562	7936
813.703	7814
813.845	7757
813.986	7415
814.127	7240
814.268	7244
814.41	7152
814.551	7149
814.692	7213
814.833	7069
814.974	7038
815.115	7057
815.256	6882
815.397	6951
815.539	6935
815.68	6821
815.821	6757
815.962	6852
816.103	6810
816.244	6696
816.385	6623
816.526	6620
816.666	6490
816.807	6346
816.948	6365
817.089	6456
817.23	6433
817.371	6353
817.512	6327
817.653	6361
817.793	6429
817.934	6350
818.075	6418
818.216	6338
818.356	6410
818.497	6262
818.638	6091
818.778	6106
818.919	6140
819.06	6148
819.2	6342
819.341	6304
819.481	6361
819.622	6555
819.762	6753
819.903	6711
820.043	6589
820.184	6612
820.324	6525
820.465	6692
820.605	6631
820.746	6650
820.886	6502
821.026	6658
821.167	6726
821.307	6821
821.447	6787
821.588	6681
821.728	6566
821.868	6448
822.008	6308
822.149	6376
822.289	6342
822.429	6171
822.569	6083
822.709	6079
822.849	5942
822.99	5931
823.13	5927
823.27	5950
823.41	5817
823.55	5764
823.69	5821
823.83	5836
823.97	5653
824.11	5573
824.25	5474
824.389	5539
824.529	5547
824.669	5535
824.809	5596
824.949	5627
825.089	5623
825.228	5558
825.368	5402
825.508	5383
825.648	5349
825.787	5337
825.927	5387
826.067	5311
826.206	5341
826.346	5402
826.485	5357
826.625	5357
826.765	5543
826.904	5444
827.044	5212
827.183	5197
827.323	5136
827.462	5227
827.601	5170
827.741	5178
827.88	5216
828.02	5105
828.159	5231
828.298	5277
828.437	5360
828.577	5261
828.716	5474
828.855	5334
828.994	5170
829.134	5128
829.273	5174
829.412	5151
829.551	5117
829.69	5166
829.829	5220
829.968	5383
830.107	5288
830.246	5296
830.385	5147
830.524	5147
830.663	5067
830.802	4972
830.941	4908
831.08	4866
831.219	4984
831.357	4934
831.496	5109
831.635	4889
831.774	4828
831.913	4858
832.051	4725
832.19	4778
832.329	4824
832.467	4710
832.606	4611
832.744	4706
832.883	4714
833.022	4748
833.16	4820
833.299	4858
833.437	4889
833.576	4809
833.714	4889
833.852	4843
833.991	4866
834.129	4908
834.267	4961
834.406	4858
834.544	4942
834.682	4987
834.821	4965
834.959	5079
835.097	4995
835.235	5151
835.373	5121
835.511	5090
835.65	5052
835.788	5010
835.926	4870
836.064	4805
836.202	4949
836.34	5193
836.478	5204
836.615	5185
836.753	5170
836.891	5235
837.029	5296
837.167	5212
837.305	5124
837.443	5174
837.58	5102
837.718	5265
837.856	5220
837.993	5151
838.131	5231
838.269	5216
838.406	5216
838.544	5143
838.681	4987
838.819	5018
838.956	4949
839.094	4862
839.231	4987
839.369	5098
839.506	5391
839.643	5280
839.781	5056
839.918	4987
840.055	5102
840.193	5132
840.33	5098
840.467	5140
840.604	5132
840.742	5410
840.879	5098
841.016	5094
841.153	5170
841.29	5368
841.427	5318
841.564	5345
841.701	5353
841.838	5246
841.975	5212
842.112	5216
842.249	5151
842.385	5121
842.522	5337
842.659	5155
842.796	5136
842.933	5212
843.069	5132
843.206	5124
843.343	5288
843.479	5299
843.616	5246
843.752	5067
843.889	4987
844.025	5220
844.162	4999
844.298	5208
844.435	5109
844.571	5052
844.708	5162
844.844	5292
844.98	5303
845.117	5269
845.253	5159
845.389	5067
845.525	5193
845.661	5121
845.798	5037
845.934	5155
846.07	5041
846.206	5178
846.342	5250
846.478	5170
846.614	5010
846.75	4949
846.886	4953
847.022	5113
847.158	4999
847.294	5060
847.429	5056
847.565	5124
847.701	5353
847.837	4858
847.972	4736
848.108	4961
848.244	4934
848.379	4797
848.515	4714
848.65	4763
848.786	4740
848.921	4736
849.057	4870
849.192	4930
849.328	4782
849.463	4835
849.598	4778
849.734	4759
849.869	4656
850.004	4565
850.14	4668
850.275	4649
850.41	4462
850.545	4550
850.68	4603
850.815	4607
850.95	4637
851.085	4824
851.22	4729
851.355	4664
851.49	4573
851.625	4656
851.76	4637
851.895	4580
852.03	4538
852.165	4679
852.299	4717
852.434	4786
852.569	4774
852.703	4763
852.838	4793
852.973	4877
853.107	4881
853.242	4733
853.376	4668
853.511	4546
853.645	4630
853.78	4771
853.914	4668
854.048	4634
854.183	4668
854.317	4683
854.451	4801
854.585	4698
854.72	4641
854.854	4771
854.988	4691
855.122	4611
855.256	4493
855.39	4656
855.524	4755
855.658	4675
855.792	4714
855.926	4752
856.06	4752
856.194	4767
856.327	4645
856.461	4584
856.595	4580
856.729	4615
856.862	4786
856.996	4729
857.13	4691
857.263	4717
857.397	4782
857.53	4668
857.664	4748
857.797	4755
857.931	4782
858.064	4729
858.197	4748
858.331	4664
858.464	4599
858.597	4535
858.731	4649
858.864	4675
858.997	4607
859.13	4645
859.263	4710
859.396	4641
859.529	4573
859.662	4527
859.795	4504
859.928	4630
860.061	4698
860.194	4748
860.327	4611
860.46	4542
860.592	4660
860.725	4668
860.858	4694
860.99	4577
861.123	4519
861.256	4527
861.388	4588
861.521	5254
861.653	4451
861.786	4424
861.918	4474
862.05	4500
862.183	4508
862.315	4588
862.447	4702
862.58	4569
862.712	4375
862.844	4394
862.976	4489
863.108	4493
863.24	4763
863.372	4310
863.504	4432
863.636	4394
863.768	4512
863.9	4443
864.032	4360
864.164	4375
864.296	4474
864.428	4554
864.559	4554
864.691	4558
864.823	4535
864.954	4478
865.086	4497
865.217	4459
865.349	4421
865.48	4474
865.612	4531
865.743	4641
865.875	4409
866.006	4443
866.137	4497
866.269	4440
866.4	4424
866.531	4417
866.662	4360
866.793	4428
866.924	4424
867.055	4447
867.186	4432
867.317	4447
867.448	4379
867.579	4360
867.71	4398
867.841	4348
867.972	4519
868.103	4428
868.233	4451
868.364	4440
868.495	4504
868.625	4653
868.756	4755
868.886	4573
869.017	4580
869.147	4782
869.278	4717
869.408	4668
869.539	4679
869.669	4694
869.799	4683
869.929	4748
870.06	4714
870.19	4949
870.32	4892
870.45	4938
870.58	5014
870.71	5098
870.84	5094
870.97	4927
871.1	4911
871.23	5121
871.36	5124
871.489	5048
871.619	5060
871.749	5083
871.879	5117
872.008	5166
872.138	5056
872.267	4930
872.397	4828
872.526	4843
872.656	4698
872.785	4812
872.915	4961
873.044	5041
873.173	4908
873.303	4949
873.432	4930
873.561	4961
873.69	4889
873.819	4824
873.948	4957
874.077	4782
874.206	4778
874.335	4790
874.464	4946
874.593	5094
874.722	4946
874.851	5113
874.979	5041
875.108	5064
875.237	4881
875.365	4938
875.494	4904
875.623	4991
875.751	4824
875.88	4866
876.008	4938
876.136	5010
876.265	5162
876.393	5322
876.521	5242
876.65	5197
876.778	5128
876.906	5048
877.034	5033
877.162	5090
877.29	4972
877.418	5064
877.546	5048
877.674	5014
877.802	5025
877.93	4991
878.058	4908
878.185	4850
878.313	4976
878.441	4934
878.568	4862
878.696	4828
878.824	4957
878.951	4987
879.079	5136
879.206	5273
879.333	5121
879.461	4946
879.588	4987
879.715	5124
879.842	5242
879.97	4942
880.097	4767
880.224	4733
880.351	4805
880.478	4797
880.605	4866
880.732	4782
880.859	5121
880.986	4911
881.112	4927
881.239	4725
881.366	4626
881.493	4596
881.619	4603
881.746	4637
881.872	4626
881.999	4714
882.125	4656
882.252	4805
882.378	4759
882.505	4930
882.631	4812
882.757	4687
882.883	4717
883.01	4721
883.136	4656
883.262	4577
883.388	4599
883.514	4816
883.64	4881
883.766	4797
883.892	4691
884.018	4763
884.143	4885
884.269	4965
884.395	4698
884.52	4630
884.646	4634
884.772	4580
884.897	4542
885.023	4611
885.148	4767
885.274	4900
885.399	4828
885.524	4691
885.65	4672
885.775	4744
885.9	4736
886.025	4870
886.15	4748
886.275	4755
886.4	4615
886.525	4763
886.65	4748
886.775	4694
886.9	4889
887.025	4987
887.149	4816
887.274	4691
887.399	4599
887.523	4561
887.648	4599
887.773	4588
887.897	4736
888.021	4771
888.146	4687
888.27	4797
888.395	4889
888.519	4774
888.643	4790
888.767	4824
888.891	4687
889.015	4577
889.139	4622
889.263	4573
889.387	4755
889.511	4820
889.635	4790
889.759	4649
889.883	4687
890.006	4714
890.13	4839
890.254	4592
890.377	4641
890.501	4527
890.624	4523
890.748	4660
890.871	4508
890.995	4402
891.118	4386
891.241	4523
891.364	4519
891.488	4607
891.611	4504
891.734	4531
891.857	4592
891.98	4550
892.103	4622
892.226	4584
892.349	4588
892.471	4443
892.594	4584
892.717	4611
892.839	4580
892.962	4599
893.085	4656
893.207	4618
893.33	4466
893.452	4497
893.575	4679
893.697	4565
893.819	4797
893.941	4835
894.064	4763
894.186	4626
894.308	4584
894.43	4698
894.552	4858
894.674	4771
894.796	4535
894.918	4592
895.04	4504
895.161	4702
895.283	4634
895.405	4626
895.526	4645
895.648	4660
895.769	4675
895.891	4714
896.012	4729
896.134	4748
896.255	4687
896.376	4611
896.498	4611
896.619	4630
896.74	4645
896.861	4645
896.982	4900
897.103	5147
897.224	4870
897.345	4717
897.466	4615
897.587	4733
897.708	4854
897.828	4691
897.949	4649
898.07	4527
898.19	4599
898.311	4831
898.431	4660
898.552	4786
898.672	4782
898.792	4816
898.913	4729
899.033	4641
899.153	4535
899.273	4421
899.393	4455
899.513	4523
899.633	4554
899.753	4500
899.873	4531
899.993	4565
900.113	4569
900.232	4569
900.352	4523
900.472	4481
900.591	4360
900.711	4462
900.83	4413
900.95	4554
901.069	4691
901.189	4550
901.308	4341
901.427	4329
901.546	4394
901.665	4459
901.784	4538
901.904	4443
902.023	4325
902.141	4242
902.26	4185
902.379	4333
902.498	4249
902.617	4192
902.735	4363
902.854	4402
902.973	4344
903.091	4185
903.21	4223
903.328	4287
903.446	4287
903.565	4299
903.683	4386
903.801	4295
903.919	4394
904.038	4409
904.156	4280
904.274	4424
904.392	4367
904.51	4413
904.627	4474
904.745	4573
904.863	4611
904.981	4436
905.098	4291
905.216	4356
905.334	4398
905.451	4470
905.569	4402
905.686	4580
905.803	4558
905.921	4383
906.038	4535
906.155	4443
906.272	4417
906.389	4421
906.506	4390
906.623	4360
906.74	4394
906.857	4303
906.974	4394
907.091	4527
907.208	4694
907.324	4580
907.441	4474
907.557	4314
907.674	4318
907.79	4341
907.907	4348
908.023	4451
908.139	4485
908.256	4363
908.372	4474
908.488	4428
908.604	4398
908.72	4280
908.836	4356
908.952	4386
909.068	4440
909.184	4569
909.3	4485
909.415	4573
909.531	4558
909.647	4344
909.762	4386
909.878	4333
909.993	4409
910.108	4386
910.224	4421
910.339	4489
910.454	4443
910.57	4402
910.685	4299
910.8	4649
910.915	4588
911.03	4500
911.145	4314
911.259	4291
911.374	4344
911.489	4306
911.604	4268
911.718	4143
911.833	4207
911.947	4082
912.062	4017
912.176	4204
912.291	4265
912.405	4246
912.519	4436
912.633	4519
912.748	4329
912.862	4295
912.976	4223
913.09	4105
913.204	4173
913.318	4253
913.431	4394
913.545	4394
913.659	4390
913.772	4348
913.886	4249
914	4200
914.113	4367
914.226	4390
914.34	4367
914.453	4215
914.566	4417
914.68	4295
914.793	4322
914.906	4154
915.019	4139
915.132	4059
915.245	4188
915.358	4227
915.47	4261
915.583	4246
915.696	4268
915.809	4424
915.921	4424
916.034	4204
916.146	4272
916.259	4242
916.371	4394
916.483	4360
916.595	4265
916.708	4291
916.82	4367
916.932	4280
917.044	4265
917.156	4352
917.268	4234
917.38	4303
917.491	4295
917.603	4383
917.715	4371
917.826	4462
917.938	4352
918.049	4196
918.161	4386
918.272	4542
918.384	4550
918.495	4455
918.606	4291
918.717	4207
918.828	4344
918.939	4352
919.05	4234
919.161	4367
919.272	4143
919.383	4207
919.494	4440
919.604	4672
919.715	4443
919.826	4390
919.936	4409
920.047	4584
920.157	4497
920.267	4710
920.378	4535
920.488	4485
920.598	4755
920.708	4877
920.818	4725
920.928	4763
921.038	4938
921.148	4949
921.258	4622
921.368	4565
921.477	4497
921.587	4470
921.697	4348
921.806	4538
921.916	4409
922.025	4280
922.134	4287
922.244	4246
922.353	4318
922.462	4150
922.571	4093
922.68	3998
922.789	3994
922.898	4025
923.007	3972
923.116	4105
923.224	4093
923.333	4055
923.442	3960
923.55	3994
923.659	4044
923.767	4109
923.876	3987
923.984	4128
924.092	3979
924.201	4059
924.309	4109
924.417	4154
924.525	3991
924.633	4086
924.741	5060
924.849	3915
924.956	4135
925.064	3983
925.172	3880
925.279	3991
925.387	4025
925.494	4059
925.602	4204
925.709	4143
925.816	4032
925.924	4116
926.031	4211
926.138	4158
926.245	4188
926.352	4116
926.459	4219
926.566	4318
926.673	4192
926.779	4112
926.886	4135
926.993	3979
927.099	3949
927.206	3937
927.312	3934
927.419	4071
927.525	4055
927.631	4093
927.737	3941
927.843	3960
927.95	3819
928.056	3930
928.162	3991
928.267	4055
928.373	4569
928.479	4158
928.585	3861
928.69	4074
928.796	4074
928.901	3975
929.007	3865
929.112	3979
929.218	4025
929.323	3934
929.428	3975
929.533	4078
929.638	3945
929.743	4002
929.848	4063
929.953	4032
930.058	3903
930.163	3827
930.267	3850
930.372	3979
930.477	3785
930.581	4105
930.685	3899
930.79	3857
930.894	3911
930.998	3850
931.103	4021
931.207	3701
931.311	3705
931.415	3682
931.519	3523
931.623	3523
