Data from test_V78500241_55.txt Node
Date: Fri Mar 25 16:49:23 CST 2022
User: usil
Spectrometer: V785-0024
Trigger mode: 0
Integration Time (sec): 4.000000E-1
Scans to average: 1
Nonlinearity correction enabled: false
Boxcar width: 0
Storing dark spectrum: false
XAxis mode: Wavelengths
Number of Pixels in Spectrum: 1024
>>>>>Begin Spectral Data<<<<<
801.071	8035
801.214	8111
801.356	7967
801.499	7951
801.641	7902
801.783	7849
801.926	7986
802.068	8054
802.211	8077
802.353	8077
802.496	7978
802.638	7947
802.78	8077
802.923	7982
803.065	7970
803.208	7875
803.35	8001
803.492	8145
803.635	8240
803.777	7959
803.919	8145
804.061	8503
804.204	8153
804.346	8130
804.488	8005
804.63	8111
804.773	8054
804.915	8130
805.057	8309
805.199	8199
805.341	8244
805.483	8305
805.626	8259
805.768	8130
805.91	8259
806.052	8218
806.194	8183
806.336	8301
806.478	8126
806.62	8161
806.762	8301
806.904	8313
807.046	8571
807.188	8480
807.33	8396
807.472	8389
807.614	8187
807.756	8191
807.898	8058
808.04	7947
808.182	7959
808.324	7974
808.465	7909
808.607	8073
808.749	8138
808.891	8252
809.033	8309
809.174	8134
809.316	8092
809.458	8123
809.6	8054
809.741	7993
809.883	8073
810.025	8107
810.166	8115
810.308	8123
810.45	8065
810.591	7967
810.733	7814
810.875	7742
811.016	7597
811.158	7533
811.299	7666
811.441	7792
811.582	7780
811.724	7658
811.865	7590
812.007	7662
812.148	7685
812.29	7693
812.431	7795
812.573	7898
812.714	8039
812.855	8195
812.997	8271
813.138	8358
813.279	8267
813.421	8130
813.562	8069
813.703	7986
813.845	7746
813.986	7487
814.127	7293
814.268	7289
814.41	7236
814.551	7209
814.692	7263
814.833	7103
814.974	7129
815.115	7149
815.256	7065
815.397	6947
815.539	6962
815.68	6852
815.821	6852
815.962	6875
816.103	6798
816.244	6745
816.385	6730
816.526	6642
816.666	6593
816.807	6410
816.948	6467
817.089	6448
817.23	6544
817.371	6494
817.512	6475
817.653	6464
817.793	6445
817.934	6399
818.075	6479
818.216	6452
818.356	6521
818.497	6273
818.638	6175
818.778	6235
818.919	6235
819.06	6144
819.2	6376
819.341	6391
819.481	6464
819.622	6639
819.762	6802
819.903	6722
820.043	6646
820.184	6650
820.324	6658
820.465	6715
820.605	6738
820.746	6646
820.886	6593
821.026	6688
821.167	6791
821.307	6882
821.447	6833
821.588	6669
821.728	6696
821.868	6502
822.008	6372
822.149	6418
822.289	6376
822.429	6258
822.569	6205
822.709	6171
822.849	5977
822.99	5973
823.13	6011
823.27	5946
823.41	5824
823.55	5836
823.69	5783
823.83	5851
823.97	5760
824.11	5600
824.25	5627
824.389	5570
824.529	5600
824.669	5551
824.809	5691
824.949	5699
825.089	5699
825.228	5608
825.368	5474
825.508	5402
825.648	5357
825.787	5425
825.927	5421
826.067	5349
826.206	5341
826.346	5471
826.485	5417
826.625	5478
826.765	5566
826.904	5509
827.044	5277
827.183	5296
827.323	5170
827.462	5284
827.601	5216
827.741	5201
827.88	5231
828.02	5121
828.159	5288
828.298	5307
828.437	5395
828.577	5353
828.716	5596
828.855	5379
828.994	5227
829.134	5193
829.273	5261
829.412	5227
829.551	5170
829.69	5269
829.829	5269
829.968	5501
830.107	5311
830.246	5364
830.385	5261
830.524	5166
830.663	5174
830.802	4976
830.941	4930
831.08	4915
831.219	5014
831.357	4987
831.496	5189
831.635	4957
831.774	4877
831.913	4896
832.051	4763
832.19	4816
832.329	4908
832.467	4733
832.606	4668
832.744	4755
832.883	4782
833.022	4801
833.16	4835
833.299	4847
833.437	4854
833.576	4904
833.714	4904
833.852	4889
833.991	4953
834.129	4999
834.267	5022
834.406	4968
834.544	4976
834.682	5018
834.821	5041
834.959	5189
835.097	5010
835.235	5204
835.373	5155
835.511	5170
835.65	5071
835.788	5048
835.926	4984
836.064	4904
836.202	4934
836.34	5208
836.478	5288
836.615	5212
836.753	5288
836.891	5372
837.029	5261
837.167	5223
837.305	5170
837.443	5159
837.58	5140
837.718	5250
837.856	5212
837.993	5147
838.131	5284
838.269	5307
838.406	5231
838.544	5220
838.681	5045
838.819	5018
838.956	4927
839.094	4942
839.231	4968
839.369	5132
839.506	5463
839.643	5284
839.781	5102
839.918	5064
840.055	5170
840.193	5105
840.33	5151
840.467	5208
840.604	5208
840.742	5448
840.879	5094
841.016	5140
841.153	5181
841.29	5448
841.427	5334
841.564	5349
841.701	5425
841.838	5326
841.975	5258
842.112	5311
842.249	5208
842.385	5128
842.522	5379
842.659	5246
842.796	5132
842.933	5242
843.069	5181
843.206	5178
843.343	5299
843.479	5280
843.616	5280
843.752	5022
843.889	5006
844.025	5280
844.162	5041
844.298	5254
844.435	5041
844.571	5105
844.708	5181
844.844	5414
844.98	5387
845.117	5337
845.253	5178
845.389	5064
845.525	5235
845.661	5235
845.798	5067
845.934	5121
846.07	5105
846.206	5231
846.342	5254
846.478	5261
846.614	5052
846.75	4999
846.886	4984
847.022	5181
847.158	5090
847.294	5105
847.429	5223
847.565	5098
847.701	5330
847.837	4873
847.972	4885
848.108	4972
848.244	4968
848.379	4809
848.515	4797
848.65	4759
848.786	4748
848.921	4820
849.057	4949
849.192	4934
849.328	4862
849.463	4915
849.598	4809
849.734	4797
849.869	4736
850.004	4694
850.14	4672
850.275	4611
850.41	4550
850.545	4596
850.68	4588
850.815	4687
850.95	4603
851.085	4904
851.22	4801
851.355	4698
851.49	4615
851.625	4656
851.76	4649
851.895	4596
852.03	4626
852.165	4664
852.299	4759
852.434	4831
852.569	4744
852.703	4771
852.838	4896
852.973	4961
853.107	4927
853.242	4774
853.376	4698
853.511	4580
853.645	4664
853.78	4858
853.914	4698
854.048	4706
854.183	4717
854.317	4740
854.451	4904
854.585	4748
854.72	4679
854.854	4790
854.988	4641
855.122	4698
855.256	4603
855.39	4729
855.524	4782
855.658	4740
855.792	4809
855.926	4778
856.06	4809
856.194	4828
856.327	4725
856.461	4660
856.595	4641
856.729	4637
856.862	4801
856.996	4759
857.13	4790
857.263	4774
857.397	4870
857.53	4706
857.664	4782
857.797	4812
857.931	4793
858.064	4710
858.197	4797
858.331	4649
858.464	4649
858.597	4561
858.731	4675
858.864	4691
858.997	4649
859.13	4721
859.263	4710
859.396	4725
859.529	4615
859.662	4599
859.795	4558
859.928	4683
860.061	4843
860.194	4801
860.327	4622
860.46	4599
860.592	4748
860.725	4782
860.858	4759
860.99	4588
861.123	4550
861.256	4592
861.388	4672
861.521	5318
861.653	4489
861.786	4478
861.918	4478
862.05	4565
862.183	4573
862.315	4611
862.447	4668
862.58	4550
862.712	4405
862.844	4352
862.976	4485
863.108	4455
863.24	4862
863.372	4398
863.504	4443
863.636	4405
863.768	4436
863.9	4432
864.032	4379
864.164	4424
864.296	4516
864.428	4588
864.559	4599
864.691	4580
864.823	4561
864.954	4554
865.086	4535
865.217	4512
865.349	4504
865.48	4504
865.612	4504
865.743	4641
865.875	4519
866.006	4485
866.137	4542
866.269	4489
866.4	4455
866.531	4478
866.662	4417
866.793	4428
866.924	4447
867.055	4550
867.186	4478
867.317	4466
867.448	4352
867.579	4421
867.71	4390
867.841	4436
867.972	4519
868.103	4485
868.233	4470
868.364	4451
868.495	4561
868.625	4710
868.756	4812
868.886	4599
869.017	4611
869.147	4854
869.278	4759
869.408	4702
869.539	4649
869.669	4771
869.799	4702
869.929	4816
870.06	4847
870.19	4991
870.32	4957
870.45	5025
870.58	5064
870.71	5159
870.84	5147
870.97	5022
871.1	4965
871.23	5204
871.36	5159
871.489	5064
871.619	5147
871.749	5140
871.879	5208
872.008	5246
872.138	5117
872.267	5010
872.397	4927
872.526	4896
872.656	4782
872.785	4793
872.915	4999
873.044	5056
873.173	4919
873.303	5048
873.432	5029
873.561	4968
873.69	4923
873.819	4877
873.948	4972
874.077	4877
874.206	4782
874.335	4801
874.464	4984
874.593	5079
874.722	4999
874.851	5212
874.979	5071
875.108	5086
875.237	4976
875.365	4938
875.494	4892
875.623	4995
875.751	4866
875.88	4923
876.008	4972
876.136	5094
876.265	5246
876.393	5349
876.521	5254
876.65	5258
876.778	5220
876.906	5117
877.034	5075
877.162	5075
877.29	5029
877.418	5075
877.546	5079
877.674	5136
877.802	5079
877.93	5102
878.058	5022
878.185	4919
878.313	4968
878.441	4965
878.568	4843
878.696	4953
878.824	4938
878.951	5041
879.079	5166
879.206	5357
879.333	5136
879.461	5014
879.588	5033
879.715	5136
879.842	5235
879.97	5033
880.097	4774
880.224	4797
880.351	4847
880.478	4820
880.605	4831
880.732	4858
880.859	5143
880.986	4896
881.112	4976
881.239	4847
881.366	4683
881.493	4641
881.619	4634
881.746	4653
881.872	4653
881.999	4721
882.125	4714
882.252	4831
882.378	4805
882.505	4965
882.631	4839
882.757	4706
882.883	4755
883.01	4801
883.136	4694
883.262	4634
883.388	4664
883.514	4881
883.64	4908
883.766	4843
883.892	4755
884.018	4740
884.143	4938
884.269	5083
884.395	4717
884.52	4664
884.646	4683
884.772	4618
884.897	4611
885.023	4721
885.148	4816
885.274	4896
885.399	4816
885.524	4733
885.65	4702
885.775	4778
885.9	4778
886.025	4900
886.15	4850
886.275	4706
886.4	4668
886.525	4771
886.65	4767
886.775	4736
886.9	4934
887.025	5083
887.149	4889
887.274	4679
887.399	4622
887.523	4630
887.648	4599
887.773	4634
887.897	4767
888.021	4824
888.146	4710
888.27	4835
888.395	4915
888.519	4831
888.643	4839
888.767	4839
888.891	4714
889.015	4580
889.139	4679
889.263	4637
889.387	4755
889.511	4904
889.635	4854
889.759	4679
889.883	4675
890.006	4687
890.13	4870
890.254	4599
890.377	4706
890.501	4538
890.624	4561
890.748	4664
890.871	4538
890.995	4497
891.118	4432
891.241	4561
891.364	4592
891.488	4626
891.611	4538
891.734	4550
891.857	4618
891.98	4565
892.103	4694
892.226	4618
892.349	4546
892.471	4451
892.594	4584
892.717	4626
892.839	4611
892.962	4653
893.085	4653
893.207	4637
893.33	4512
893.452	4584
893.575	4653
893.697	4607
893.819	4828
893.941	4828
894.064	4790
894.186	4538
894.308	4580
894.43	4752
894.552	4858
894.674	4793
894.796	4626
894.918	4599
895.04	4596
895.161	4691
895.283	4698
895.405	4599
895.526	4656
895.648	4721
895.769	4729
895.891	4717
896.012	4748
896.134	4778
896.255	4752
896.376	4660
896.498	4630
896.619	4721
896.74	4649
896.861	4653
896.982	4938
897.103	5170
897.224	4908
897.345	4778
897.466	4725
897.587	4767
897.708	4866
897.828	4831
897.949	4714
898.07	4565
898.19	4683
898.311	4850
898.431	4687
898.552	4778
898.672	4870
898.792	4820
898.913	4740
899.033	4717
899.153	4535
899.273	4508
899.393	4546
899.513	4565
899.633	4569
899.753	4588
899.873	4554
899.993	4645
900.113	4561
900.232	4588
900.352	4535
900.472	4497
900.591	4443
900.711	4508
900.83	4451
900.95	4618
901.069	4733
901.189	4580
901.308	4398
901.427	4371
901.546	4417
901.665	4489
901.784	4493
901.904	4413
902.023	4344
902.141	4207
902.26	4207
902.379	4306
902.498	4272
902.617	4196
902.735	4405
902.854	4455
902.973	4390
903.091	4253
903.21	4276
903.328	4344
903.446	4318
903.565	4291
903.683	4367
903.801	4310
903.919	4432
904.038	4493
904.156	4314
904.274	4432
904.392	4474
904.51	4436
904.627	4546
904.745	4573
904.863	4691
904.981	4447
905.098	4367
905.216	4421
905.334	4459
905.451	4455
905.569	4497
905.686	4596
905.803	4615
905.921	4436
906.038	4565
906.155	4516
906.272	4462
906.389	4485
906.506	4428
906.623	4428
906.74	4421
906.857	4287
906.974	4436
907.091	4592
907.208	4733
907.324	4626
907.441	4497
907.557	4383
907.674	4386
907.79	4344
907.907	4443
908.023	4554
908.139	4500
908.256	4462
908.372	4500
908.488	4500
908.604	4375
908.72	4383
908.836	4421
908.952	4413
909.068	4440
909.184	4569
909.3	4485
909.415	4656
909.531	4596
909.647	4356
909.762	4424
909.878	4367
909.993	4455
910.108	4436
910.224	4432
910.339	4516
910.454	4440
910.57	4421
910.685	4375
910.8	4656
910.915	4687
911.03	4531
911.145	4379
911.259	4405
911.374	4409
911.489	4348
911.604	4329
911.718	4211
911.833	4227
911.947	4086
912.062	4051
912.176	4246
912.291	4299
912.405	4310
912.519	4497
912.633	4531
912.748	4379
912.862	4344
912.976	4287
913.09	4139
913.204	4207
913.318	4280
913.431	4436
913.545	4379
913.659	4474
913.772	4428
913.886	4257
914	4272
914.113	4436
914.226	4508
914.34	4436
914.453	4287
914.566	4485
914.68	4322
914.793	4356
914.906	4204
915.019	4135
915.132	4112
915.245	4211
915.358	4196
915.47	4295
915.583	4284
915.696	4360
915.809	4436
915.921	4466
916.034	4303
916.146	4337
916.259	4325
916.371	4428
916.483	4383
916.595	4306
916.708	4394
916.82	4322
916.932	4348
917.044	4375
917.156	4383
917.268	4284
917.38	4287
917.491	4333
917.603	4360
917.715	4462
917.826	4455
917.938	4405
918.049	4287
918.161	4424
918.272	4573
918.384	4592
918.495	4474
918.606	4375
918.717	4261
918.828	4386
918.939	4360
919.05	4268
919.161	4337
919.272	4177
919.383	4341
919.494	4538
919.604	4649
919.715	4466
919.826	4398
919.936	4421
920.047	4592
920.157	4542
920.267	4694
920.378	4607
920.488	4508
920.598	4782
920.708	4946
920.818	4812
920.928	4809
921.038	4987
921.148	4968
921.258	4664
921.368	4603
921.477	4584
921.587	4497
921.697	4402
921.806	4577
921.916	4409
922.025	4314
922.134	4284
922.244	4291
922.353	4386
922.462	4200
922.571	4131
922.68	4025
922.789	3987
922.898	4082
923.007	3987
923.116	4120
923.224	4109
923.333	4090
923.442	4051
923.55	4002
923.659	4067
923.767	4101
923.876	3991
923.984	4135
924.092	4044
924.201	4086
924.309	4109
924.417	4211
924.525	4097
924.633	4154
924.741	5064
924.849	3945
924.956	4135
925.064	4029
925.172	3930
925.279	3987
925.387	4097
925.494	4105
925.602	4227
925.709	4249
925.816	4105
925.924	4200
926.031	4219
926.138	4249
926.245	4207
926.352	4120
926.459	4272
926.566	4352
926.673	4196
926.779	4097
926.886	4150
926.993	4021
927.099	3983
927.206	3968
927.312	4013
927.419	4135
927.525	4093
927.631	4135
927.737	4029
927.843	3983
927.95	3873
928.056	4002
928.162	4010
928.267	4093
928.373	4706
928.479	4173
928.585	3907
928.69	4048
928.796	4097
928.901	4010
929.007	3861
929.112	4036
929.218	3979
929.323	4010
929.428	4002
929.533	4139
929.638	3930
929.743	4010
929.848	4059
929.953	3991
930.058	3941
930.163	3789
930.267	3876
930.372	4032
930.477	3808
930.581	4124
930.685	3979
930.79	3857
930.894	3941
930.998	3869
931.103	4048
931.207	3759
931.311	3720
931.415	3690
931.519	3576
931.623	3576
