Data from test_V78500241_794.txt Node
Date: Fri Mar 25 16:54:31 CST 2022
User: usil
Spectrometer: V785-0024
Trigger mode: 0
Integration Time (sec): 4.000000E-1
Scans to average: 1
Nonlinearity correction enabled: false
Boxcar width: 0
Storing dark spectrum: false
XAxis mode: Wavelengths
Number of Pixels in Spectrum: 1024
>>>>>Begin Spectral Data<<<<<
801.071	7944
801.214	7959
801.356	7883
801.499	7871
801.641	7830
801.783	7875
801.926	7970
802.068	7913
802.211	7978
802.353	7955
802.496	7856
802.638	7860
802.78	7906
802.923	7894
803.065	7868
803.208	7917
803.35	7993
803.492	8100
803.635	8210
803.777	8027
803.919	8119
804.061	8469
804.204	8084
804.346	8016
804.488	8039
804.63	8123
804.773	8065
804.915	8092
805.057	8259
805.199	8157
805.341	8115
805.483	8282
805.626	8210
805.768	8103
805.91	8164
806.052	8180
806.194	8077
806.336	8305
806.478	8050
806.62	8065
806.762	8062
806.904	8332
807.046	8484
807.188	8309
807.33	8332
807.472	8309
807.614	8073
807.756	8077
807.898	7967
808.04	7906
808.182	7799
808.324	7894
808.465	7944
808.607	8039
808.749	8111
808.891	8183
809.033	8275
809.174	8206
809.316	8084
809.458	8016
809.6	8016
809.741	8046
809.883	7993
810.025	8115
810.166	7997
810.308	8024
810.45	8134
810.591	7826
810.733	7712
810.875	7689
811.016	7499
811.158	7472
811.299	7533
811.441	7689
811.582	7674
811.724	7540
811.865	7491
812.007	7620
812.148	7540
812.29	7636
812.431	7670
812.573	7826
812.714	7852
812.855	8092
812.997	8103
813.138	8237
813.279	8164
813.421	8077
813.562	8043
813.703	7849
813.845	7761
813.986	7441
814.127	7274
814.268	7221
814.41	7198
814.551	7110
814.692	7088
814.833	6932
814.974	7091
815.115	7095
815.256	6935
815.397	6932
815.539	6920
815.68	6722
815.821	6734
815.962	6818
816.103	6768
816.244	6677
816.385	6669
816.526	6646
816.666	6452
816.807	6308
816.948	6441
817.089	6448
817.23	6437
817.371	6388
817.512	6319
817.653	6399
817.793	6350
817.934	6365
818.075	6437
818.216	6388
818.356	6372
818.497	6167
818.638	6064
818.778	6102
818.919	6133
819.06	6133
819.2	6331
819.341	6327
819.481	6369
819.622	6479
819.762	6711
819.903	6707
820.043	6574
820.184	6566
820.324	6627
820.465	6631
820.605	6662
820.746	6555
820.886	6437
821.026	6681
821.167	6681
821.307	6741
821.447	6768
821.588	6688
821.728	6540
821.868	6445
822.008	6365
822.149	6361
822.289	6365
822.429	6148
822.569	6041
822.709	6110
822.849	5946
822.99	5863
823.13	5939
823.27	5916
823.41	5805
823.55	5802
823.69	5767
823.83	5794
823.97	5668
824.11	5501
824.25	5505
824.389	5547
824.529	5600
824.669	5520
824.809	5627
824.949	5714
825.089	5615
825.228	5566
825.368	5402
825.508	5311
825.648	5341
825.787	5360
825.927	5337
826.067	5277
826.206	5288
826.346	5368
826.485	5379
826.625	5429
826.765	5589
826.904	5463
827.044	5242
827.183	5185
827.323	5121
827.462	5208
827.601	5140
827.741	5155
827.88	5208
828.02	5067
828.159	5223
828.298	5189
828.437	5337
828.577	5250
828.716	5493
828.855	5292
828.994	5094
829.134	5155
829.273	5185
829.412	5102
829.551	5132
829.69	5147
829.829	5261
829.968	5379
830.107	5208
830.246	5299
830.385	5178
830.524	5121
830.663	5064
830.802	4968
830.941	4820
831.08	4870
831.219	4984
831.357	4934
831.496	5159
831.635	4930
831.774	4828
831.913	4862
832.051	4694
832.19	4710
832.329	4816
832.467	4721
832.606	4611
832.744	4683
832.883	4698
833.022	4752
833.16	4763
833.299	4763
833.437	4850
833.576	4831
833.714	4854
833.852	4812
833.991	4858
834.129	4953
834.267	4930
834.406	4908
834.544	4957
834.682	4976
834.821	4946
834.959	5174
835.097	5003
835.235	5102
835.373	5033
835.511	5136
835.65	5018
835.788	5033
835.926	4892
836.064	4835
836.202	4915
836.34	5162
836.478	5189
836.615	5079
836.753	5170
836.891	5318
837.029	5242
837.167	5159
837.305	5143
837.443	5132
837.58	5064
837.718	5239
837.856	5197
837.993	5151
838.131	5201
838.269	5181
838.406	5197
838.544	5185
838.681	4999
838.819	5045
838.956	4873
839.094	4873
839.231	4987
839.369	5060
839.506	5417
839.643	5258
839.781	5056
839.918	5029
840.055	5079
840.193	5121
840.33	5102
840.467	5094
840.604	5239
840.742	5383
840.879	5117
841.016	5052
841.153	5181
841.29	5372
841.427	5341
841.564	5273
841.701	5326
841.838	5235
841.975	5223
842.112	5254
842.249	5181
842.385	5147
842.522	5341
842.659	5143
842.796	5128
842.933	5220
843.069	5124
843.206	5109
843.343	5307
843.479	5185
843.616	5258
843.752	4987
843.889	4942
844.025	5193
844.162	5006
844.298	5193
844.435	5086
844.571	5045
844.708	5189
844.844	5299
844.98	5311
845.117	5254
845.253	5071
845.389	5102
845.525	5162
845.661	5136
845.798	5052
845.934	5117
846.07	5052
846.206	5170
846.342	5261
846.478	5178
846.614	5041
846.75	4991
846.886	4934
847.022	5086
847.158	4965
847.294	5029
847.429	5098
847.565	5022
847.701	5330
847.837	4858
847.972	4793
848.108	4923
848.244	4911
848.379	4759
848.515	4736
848.65	4691
848.786	4786
848.921	4759
849.057	4862
849.192	4870
849.328	4809
849.463	4850
849.598	4778
849.734	4710
849.869	4694
850.004	4691
850.14	4653
850.275	4607
850.41	4538
850.545	4535
850.68	4603
850.815	4611
850.95	4615
851.085	4881
851.22	4679
851.355	4660
851.49	4596
851.625	4653
851.76	4637
851.895	4542
852.03	4531
852.165	4649
852.299	4679
852.434	4744
852.569	4740
852.703	4729
852.838	4847
852.973	4923
853.107	4911
853.242	4729
853.376	4698
853.511	4561
853.645	4577
853.78	4782
853.914	4668
854.048	4710
854.183	4645
854.317	4721
854.451	4850
854.585	4679
854.72	4683
854.854	4778
854.988	4577
855.122	4599
855.256	4478
855.39	4641
855.524	4797
855.658	4714
855.792	4694
855.926	4721
856.06	4733
856.194	4771
856.327	4668
856.461	4588
856.595	4626
856.729	4592
856.862	4729
856.996	4641
857.13	4683
857.263	4759
857.397	4782
857.53	4645
857.664	4672
857.797	4763
857.931	4778
858.064	4649
858.197	4748
858.331	4630
858.464	4599
858.597	4489
858.731	4637
858.864	4622
858.997	4596
859.13	4664
859.263	4634
859.396	4706
859.529	4558
859.662	4538
859.795	4519
859.928	4626
860.061	4778
860.194	4801
860.327	4630
860.46	4546
860.592	4675
860.725	4710
860.858	4736
860.99	4565
861.123	4531
861.256	4546
861.388	4596
861.521	5254
861.653	4512
861.786	4436
861.918	4466
862.05	4493
862.183	4573
862.315	4588
862.447	4634
862.58	4493
862.712	4390
862.844	4325
862.976	4478
863.108	4417
863.24	4896
863.372	4303
863.504	4363
863.636	4383
863.768	4481
863.9	4421
864.032	4325
864.164	4421
864.296	4432
864.428	4550
864.559	4558
864.691	4535
864.823	4558
864.954	4478
865.086	4546
865.217	4402
865.349	4432
865.48	4447
865.612	4455
865.743	4611
865.875	4462
866.006	4440
866.137	4383
866.269	4394
866.4	4455
866.531	4405
866.662	4383
866.793	4424
866.924	4375
867.055	4489
867.186	4417
867.317	4417
867.448	4329
867.579	4428
867.71	4371
867.841	4348
867.972	4459
868.103	4455
868.233	4451
868.364	4481
868.495	4436
868.625	4679
868.756	4721
868.886	4577
869.017	4599
869.147	4744
869.278	4771
869.408	4649
869.539	4573
869.669	4683
869.799	4618
869.929	4763
870.06	4755
870.19	4911
870.32	4847
870.45	4896
870.58	5067
870.71	5075
870.84	5090
870.97	4919
871.1	4881
871.23	5121
871.36	5159
871.489	4972
871.619	5048
871.749	5109
871.879	5117
872.008	5223
872.138	5037
872.267	4968
872.397	4831
872.526	4786
872.656	4740
872.785	4812
872.915	4938
873.044	5003
873.173	4919
873.303	4927
873.432	4961
873.561	4946
873.69	4858
873.819	4843
873.948	4900
874.077	4812
874.206	4763
874.335	4786
874.464	4866
874.593	5037
874.722	4987
874.851	5102
874.979	5022
875.108	4991
875.237	4881
875.365	4877
875.494	4911
875.623	4919
875.751	4870
875.88	4858
876.008	4961
876.136	5033
876.265	5178
876.393	5254
876.521	5227
876.65	5204
876.778	5147
876.906	5064
877.034	5025
877.162	4999
877.29	4991
877.418	5006
877.546	5022
877.674	5083
877.802	5052
877.93	4984
878.058	4881
878.185	4896
878.313	4934
878.441	4961
878.568	4797
878.696	4911
878.824	4957
878.951	4980
879.079	5128
879.206	5246
879.333	5159
879.461	4987
879.588	5018
879.715	5113
879.842	5220
879.97	5033
880.097	4786
880.224	4740
880.351	4767
880.478	4828
880.605	4812
880.732	4805
880.859	5117
880.986	4824
881.112	4870
881.239	4763
881.366	4702
881.493	4573
881.619	4660
881.746	4618
881.872	4615
881.999	4664
882.125	4706
882.252	4721
882.378	4816
882.505	4949
882.631	4805
882.757	4649
882.883	4691
883.01	4725
883.136	4672
883.262	4634
883.388	4607
883.514	4790
883.64	4843
883.766	4748
883.892	4641
884.018	4725
884.143	4790
884.269	4965
884.395	4683
884.52	4622
884.646	4687
884.772	4577
884.897	4527
885.023	4630
885.148	4828
885.274	4850
885.399	4805
885.524	4634
885.65	4721
885.775	4748
885.9	4721
886.025	4820
886.15	4797
886.275	4675
886.4	4679
886.525	4675
886.65	4706
886.775	4683
886.9	4892
887.025	5006
887.149	4797
887.274	4653
887.399	4569
887.523	4565
887.648	4580
887.773	4596
887.897	4759
888.021	4786
888.146	4664
888.27	4824
888.395	4877
888.519	4782
888.643	4805
888.767	4771
888.891	4641
889.015	4580
889.139	4649
889.263	4565
889.387	4725
889.511	4835
889.635	4805
889.759	4565
889.883	4634
890.006	4710
890.13	4805
890.254	4622
890.377	4656
890.501	4569
890.624	4519
890.748	4649
890.871	4462
890.995	4440
891.118	4405
891.241	4512
891.364	4500
891.488	4626
891.611	4462
891.734	4565
891.857	4580
891.98	4569
892.103	4588
892.226	4542
892.349	4504
892.471	4405
892.594	4565
892.717	4588
892.839	4558
892.962	4565
893.085	4615
893.207	4599
893.33	4428
893.452	4542
893.575	4626
893.697	4538
893.819	4721
893.941	4771
894.064	4774
894.186	4538
894.308	4580
894.43	4710
894.552	4824
894.674	4763
894.796	4554
894.918	4592
895.04	4535
895.161	4725
895.283	4656
895.405	4580
895.526	4615
895.648	4630
895.769	4641
895.891	4698
896.012	4706
896.134	4679
896.255	4660
896.376	4622
896.498	4603
896.619	4683
896.74	4569
896.861	4664
896.982	4850
897.103	5041
897.224	4843
897.345	4755
897.466	4634
897.587	4755
897.708	4892
897.828	4790
897.949	4672
898.07	4634
898.19	4645
898.311	4809
898.431	4714
898.552	4714
898.672	4801
898.792	4763
898.913	4763
899.033	4645
899.153	4516
899.273	4481
899.393	4504
899.513	4535
899.633	4485
899.753	4577
899.873	4546
899.993	4592
900.113	4519
900.232	4649
900.352	4577
900.472	4466
900.591	4417
900.711	4523
900.83	4413
900.95	4668
901.069	4717
901.189	4596
901.308	4375
901.427	4344
901.546	4421
901.665	4527
901.784	4523
901.904	4455
902.023	4322
902.141	4223
902.26	4223
902.379	4337
902.498	4318
902.617	4234
902.735	4440
902.854	4386
902.973	4417
903.091	4234
903.21	4268
903.328	4280
903.446	4318
903.565	4329
903.683	4428
903.801	4318
903.919	4474
904.038	4466
904.156	4356
904.274	4508
904.392	4432
904.51	4451
904.627	4432
904.745	4645
904.863	4672
904.981	4440
905.098	4344
905.216	4405
905.334	4500
905.451	4459
905.569	4451
905.686	4580
905.803	4607
905.921	4478
906.038	4607
906.155	4481
906.272	4428
906.389	4497
906.506	4375
906.623	4424
906.74	4443
906.857	4344
906.974	4375
907.091	4603
907.208	4706
907.324	4603
907.441	4527
907.557	4386
907.674	4402
907.79	4352
907.907	4436
908.023	4516
908.139	4523
908.256	4485
908.372	4481
908.488	4432
908.604	4375
908.72	4341
908.836	4424
908.952	4432
909.068	4497
909.184	4577
909.3	4523
909.415	4622
909.531	4599
909.647	4402
909.762	4421
909.878	4383
909.993	4436
910.108	4474
910.224	4424
910.339	4519
910.454	4443
910.57	4413
910.685	4325
910.8	4672
910.915	4611
911.03	4519
911.145	4367
911.259	4344
911.374	4459
911.489	4356
911.604	4284
911.718	4204
911.833	4242
911.947	4120
912.062	4090
912.176	4242
912.291	4295
912.405	4295
912.519	4497
912.633	4516
912.748	4394
912.862	4344
912.976	4204
913.09	4112
913.204	4242
913.318	4246
913.431	4417
913.545	4329
913.659	4481
913.772	4409
913.886	4211
914	4227
914.113	4356
914.226	4474
914.34	4421
914.453	4276
914.566	4470
914.68	4329
914.793	4322
914.906	4188
915.019	4150
915.132	4139
915.245	4207
915.358	4169
915.47	4230
915.583	4291
915.696	4291
915.809	4436
915.921	4443
916.034	4230
916.146	4268
916.259	4265
916.371	4455
916.483	4322
916.595	4276
916.708	4386
916.82	4318
916.932	4375
917.044	4348
917.156	4356
917.268	4276
917.38	4333
917.491	4268
917.603	4386
917.715	4474
917.826	4504
917.938	4398
918.049	4291
918.161	4375
918.272	4588
918.384	4599
918.495	4497
918.606	4322
918.717	4268
918.828	4352
918.939	4394
919.05	4230
919.161	4360
919.272	4139
919.383	4242
919.494	4489
919.604	4660
919.715	4485
919.826	4398
919.936	4436
920.047	4554
920.157	4531
920.267	4706
920.378	4580
920.488	4512
920.598	4748
920.708	4858
920.818	4729
920.928	4812
921.038	4980
921.148	4919
921.258	4656
921.368	4596
921.477	4538
921.587	4462
921.697	4417
921.806	4596
921.916	4459
922.025	4314
922.134	4295
922.244	4223
922.353	4348
922.462	4185
922.571	4150
922.68	4063
922.789	3983
922.898	4067
923.007	4025
923.116	4109
923.224	4112
923.333	4105
923.442	4025
923.55	4051
923.659	4074
923.767	4124
923.876	4006
923.984	4173
924.092	4025
924.201	4086
924.309	4143
924.417	4166
924.525	4074
924.633	4120
924.741	4892
924.849	3941
924.956	4169
925.064	4032
925.172	3956
925.279	3979
925.387	4112
925.494	4067
925.602	4238
925.709	4173
925.816	4086
925.924	4166
926.031	4272
926.138	4188
926.245	4234
926.352	4120
926.459	4276
926.566	4310
926.673	4150
926.779	4097
926.886	4135
926.993	3994
927.099	3994
927.206	3979
927.312	3922
927.419	4063
927.525	4112
927.631	4090
927.737	3953
927.843	3998
927.95	3865
928.056	3953
928.162	4044
928.267	4067
928.373	4656
928.479	4147
928.585	3930
928.69	4051
928.796	4112
928.901	3968
929.007	3903
929.112	4048
929.218	3975
929.323	3975
929.428	3975
929.533	4109
929.638	3975
929.743	3960
929.848	4055
929.953	4059
930.058	3937
930.163	3861
930.267	3831
930.372	3968
930.477	3835
930.581	4105
930.685	3994
930.79	3873
930.894	3911
930.998	3896
931.103	4051
931.207	3751
931.311	3740
931.415	3686
931.519	3523
931.623	3580
