Data from test_V78500241_2395.txt Node
Date: Fri Mar 25 17:05:39 CST 2022
User: usil
Spectrometer: V785-0024
Trigger mode: 0
Integration Time (sec): 4.000000E-1
Scans to average: 1
Nonlinearity correction enabled: false
Boxcar width: 0
Storing dark spectrum: false
XAxis mode: Wavelengths
Number of Pixels in Spectrum: 1024
>>>>>Begin Spectral Data<<<<<
801.071	8084
801.214	7982
801.356	7849
801.499	7845
801.641	7795
801.783	7852
801.926	8027
802.068	7849
802.211	7997
802.353	8012
802.496	7890
802.638	7849
802.78	7894
802.923	7974
803.065	7871
803.208	7913
803.35	8012
803.492	8027
803.635	8218
803.777	8008
803.919	8145
804.061	8492
804.204	8244
804.346	8012
804.488	7993
804.63	8111
804.773	8012
804.915	8073
805.057	8301
805.199	8088
805.341	8164
805.483	8305
805.626	8240
805.768	8134
805.91	8256
806.052	8229
806.194	8142
806.336	8347
806.478	8092
806.62	8069
806.762	8149
806.904	8263
807.046	8454
807.188	8339
807.33	8271
807.472	8374
807.614	8180
807.756	8145
807.898	8008
808.04	7871
808.182	7803
808.324	7875
808.465	7860
808.607	8058
808.749	8142
808.891	8225
809.033	8282
809.174	8248
809.316	8096
809.458	8092
809.6	7997
809.741	8043
809.883	8062
810.025	8069
810.166	8077
810.308	7989
810.45	8043
810.591	7807
810.733	7723
810.875	7655
811.016	7544
811.158	7506
811.299	7559
811.441	7769
811.582	7681
811.724	7563
811.865	7510
812.007	7628
812.148	7628
812.29	7636
812.431	7715
812.573	7826
812.714	7951
812.855	8183
812.997	8210
813.138	8358
813.279	8168
813.421	8084
813.562	7963
813.703	7856
813.845	7742
813.986	7472
814.127	7278
814.268	7194
814.41	7202
814.551	7240
814.692	7187
814.833	7061
814.974	7118
815.115	7065
815.256	6970
815.397	6981
815.539	6932
815.68	6840
815.821	6783
815.962	6840
816.103	6795
816.244	6726
816.385	6597
816.526	6593
816.666	6471
816.807	6308
816.948	6467
817.089	6506
817.23	6498
817.371	6407
817.512	6350
817.653	6414
817.793	6376
817.934	6452
818.075	6456
818.216	6429
818.356	6426
818.497	6289
818.638	6117
818.778	6125
818.919	6144
819.06	6148
819.2	6323
819.341	6350
819.481	6350
819.622	6532
819.762	6791
819.903	6760
820.043	6654
820.184	6544
820.324	6658
820.465	6681
820.605	6650
820.746	6623
820.886	6540
821.026	6669
821.167	6741
821.307	6810
821.447	6783
821.588	6753
821.728	6547
821.868	6494
822.008	6350
822.149	6391
822.289	6365
822.429	6133
822.569	6117
822.709	6114
822.849	5927
822.99	5878
823.13	5935
823.27	5882
823.41	5745
823.55	5805
823.69	5764
823.83	5756
823.97	5630
824.11	5566
824.25	5524
824.389	5577
824.529	5608
824.669	5577
824.809	5589
824.949	5676
825.089	5585
825.228	5577
825.368	5406
825.508	5376
825.648	5345
825.787	5387
825.927	5364
826.067	5299
826.206	5246
826.346	5395
826.485	5410
826.625	5410
826.765	5532
826.904	5486
827.044	5277
827.183	5170
827.323	5094
827.462	5239
827.601	5185
827.741	5197
827.88	5227
828.02	5075
828.159	5204
828.298	5353
828.437	5379
828.577	5307
828.716	5452
828.855	5341
828.994	5181
829.134	5121
829.273	5208
829.412	5159
829.551	5109
829.69	5105
829.829	5227
829.968	5433
830.107	5273
830.246	5235
830.385	5181
830.524	5140
830.663	5045
830.802	4987
830.941	4877
831.08	4858
831.219	4896
831.357	4991
831.496	5140
831.635	4930
831.774	4854
831.913	4919
832.051	4740
832.19	4694
832.329	4850
832.467	4698
832.606	4641
832.744	4744
832.883	4721
833.022	4782
833.16	4725
833.299	4774
833.437	4847
833.576	4820
833.714	4866
833.852	4870
833.991	4896
834.129	4987
834.267	4995
834.406	4915
834.544	4968
834.682	4957
834.821	4934
834.959	5143
835.097	4961
835.235	5147
835.373	5022
835.511	5132
835.65	5041
835.788	5022
835.926	4923
836.064	4896
836.202	4934
836.34	5197
836.478	5242
836.615	5140
836.753	5231
836.891	5254
837.029	5280
837.167	5197
837.305	5140
837.443	5174
837.58	5098
837.718	5250
837.856	5197
837.993	5151
838.131	5231
838.269	5204
838.406	5231
838.544	5181
838.681	4980
838.819	4976
838.956	4900
839.094	4942
839.231	5006
839.369	5071
839.506	5433
839.643	5223
839.781	5075
839.918	4984
840.055	5121
840.193	5075
840.33	5117
840.467	5162
840.604	5136
840.742	5455
840.879	5094
841.016	5102
841.153	5136
841.29	5391
841.427	5288
841.564	5322
841.701	5357
841.838	5311
841.975	5201
842.112	5246
842.249	5140
842.385	5132
842.522	5353
842.659	5178
842.796	5197
842.933	5216
843.069	5170
843.206	5170
843.343	5326
843.479	5227
843.616	5258
843.752	5041
843.889	4999
844.025	5227
844.162	5033
844.298	5250
844.435	5094
844.571	5045
844.708	5220
844.844	5315
844.98	5341
845.117	5250
845.253	5166
845.389	5006
845.525	5178
845.661	5136
845.798	5018
845.934	5159
846.07	5052
846.206	5159
846.342	5284
846.478	5197
846.614	5052
846.75	5010
846.886	4927
847.022	5086
847.158	4961
847.294	5064
847.429	5075
847.565	5071
847.701	5334
847.837	4816
847.972	4778
848.108	4934
848.244	4908
848.379	4778
848.515	4702
848.65	4668
848.786	4748
848.921	4759
849.057	4866
849.192	4877
849.328	4748
849.463	4835
849.598	4843
849.734	4790
849.869	4675
850.004	4660
850.14	4675
850.275	4618
850.41	4535
850.545	4523
850.68	4603
850.815	4596
850.95	4641
851.085	4831
851.22	4801
851.355	4702
851.49	4626
851.625	4645
851.76	4645
851.895	4542
852.03	4554
852.165	4615
852.299	4710
852.434	4778
852.569	4736
852.703	4778
852.838	4828
852.973	4930
853.107	4919
853.242	4729
853.376	4618
853.511	4577
853.645	4592
853.78	4828
853.914	4691
854.048	4672
854.183	4660
854.317	4668
854.451	4908
854.585	4622
854.72	4660
854.854	4778
854.988	4565
855.122	4626
855.256	4512
855.39	4664
855.524	4801
855.658	4721
855.792	4691
855.926	4702
856.06	4714
856.194	4816
856.327	4687
856.461	4637
856.595	4596
856.729	4626
856.862	4668
856.996	4668
857.13	4755
857.263	4774
857.397	4820
857.53	4664
857.664	4660
857.797	4729
857.931	4839
858.064	4683
858.197	4698
858.331	4664
858.464	4592
858.597	4493
858.731	4611
858.864	4599
858.997	4577
859.13	4668
859.263	4649
859.396	4675
859.529	4546
859.662	4603
859.795	4535
859.928	4649
860.061	4778
860.194	4752
860.327	4603
860.46	4592
860.592	4694
860.725	4714
860.858	4717
860.99	4550
861.123	4500
861.256	4542
861.388	4637
861.521	5292
861.653	4470
861.786	4428
861.918	4413
862.05	4500
862.183	4580
862.315	4573
862.447	4641
862.58	4554
862.712	4413
862.844	4314
862.976	4447
863.108	4417
863.24	4752
863.372	4367
863.504	4443
863.636	4379
863.768	4489
863.9	4443
864.032	4367
864.164	4451
864.296	4478
864.428	4523
864.559	4546
864.691	4512
864.823	4489
864.954	4497
865.086	4516
865.217	4470
865.349	4417
865.48	4447
865.612	4523
865.743	4618
865.875	4455
866.006	4409
866.137	4455
866.269	4497
866.4	4390
866.531	4413
866.662	4440
866.793	4428
866.924	4383
867.055	4519
867.186	4474
867.317	4451
867.448	4413
867.579	4383
867.71	4394
867.841	4371
867.972	4421
868.103	4424
868.233	4402
868.364	4451
868.495	4443
868.625	4687
868.756	4729
868.886	4573
869.017	4603
869.147	4790
869.278	4729
869.408	4675
869.539	4615
869.669	4752
869.799	4649
869.929	4763
870.06	4717
870.19	4942
870.32	4908
870.45	4949
870.58	5037
870.71	5090
870.84	5086
870.97	4961
871.1	4885
871.23	5155
871.36	5155
871.489	5037
871.619	5041
871.749	5113
871.879	5151
872.008	5181
872.138	5075
872.267	4984
872.397	4892
872.526	4778
872.656	4698
872.785	4809
872.915	4938
873.044	5048
873.173	4930
873.303	5014
873.432	4995
873.561	4942
873.69	4904
873.819	4843
873.948	4911
874.077	4809
874.206	4725
874.335	4771
874.464	4911
874.593	5083
874.722	4953
874.851	5151
874.979	5041
875.108	5071
875.237	4915
875.365	4824
875.494	4862
875.623	4965
875.751	4850
875.88	4927
876.008	4987
876.136	5033
876.265	5166
876.393	5318
876.521	5246
876.65	5246
876.778	5178
876.906	5086
877.034	5041
877.162	5048
877.29	4965
877.418	5056
877.546	5079
877.674	5056
877.802	5033
877.93	5033
878.058	4919
878.185	4870
878.313	4919
878.441	4919
878.568	4805
878.696	4835
878.824	4889
878.951	5029
879.079	5140
879.206	5239
879.333	5079
879.461	4995
879.588	5006
879.715	5151
879.842	5235
879.97	4991
880.097	4797
880.224	4694
880.351	4831
880.478	4839
880.605	4824
880.732	4748
880.859	5041
880.986	4854
881.112	4923
881.239	4755
881.366	4656
881.493	4615
881.619	4588
881.746	4630
881.872	4664
881.999	4679
882.125	4672
882.252	4752
882.378	4843
882.505	4961
882.631	4771
882.757	4683
882.883	4736
883.01	4725
883.136	4683
883.262	4584
883.388	4603
883.514	4835
883.64	4835
883.766	4805
883.892	4653
884.018	4694
884.143	4904
884.269	5022
884.395	4656
884.52	4611
884.646	4622
884.772	4584
884.897	4561
885.023	4672
885.148	4824
885.274	4858
885.399	4847
885.524	4702
885.65	4698
885.775	4748
885.9	4729
886.025	4831
886.15	4771
886.275	4721
886.4	4626
886.525	4702
886.65	4675
886.775	4702
886.9	4866
887.025	5018
887.149	4774
887.274	4664
887.399	4615
887.523	4641
887.648	4599
887.773	4596
887.897	4748
888.021	4740
888.146	4611
888.27	4847
888.395	4961
888.519	4786
888.643	4763
888.767	4824
888.891	4664
889.015	4592
889.139	4656
889.263	4596
889.387	4748
889.511	4812
889.635	4793
889.759	4637
889.883	4607
890.006	4736
890.13	4816
890.254	4675
890.377	4668
890.501	4523
890.624	4485
890.748	4660
890.871	4470
890.995	4421
891.118	4394
891.241	4508
891.364	4565
891.488	4664
891.611	4459
891.734	4504
891.857	4603
891.98	4580
892.103	4687
892.226	4588
892.349	4512
892.471	4421
892.594	4554
892.717	4565
892.839	4573
892.962	4596
893.085	4679
893.207	4596
893.33	4451
893.452	4535
893.575	4653
893.697	4577
893.819	4797
893.941	4854
894.064	4801
894.186	4584
894.308	4580
894.43	4710
894.552	4790
894.674	4759
894.796	4603
894.918	4599
895.04	4580
895.161	4687
895.283	4653
895.405	4569
895.526	4607
895.648	4714
895.769	4679
895.891	4702
896.012	4714
896.134	4702
896.255	4694
896.376	4569
896.498	4607
896.619	4672
896.74	4656
896.861	4607
896.982	4915
897.103	5041
897.224	4805
897.345	4721
897.466	4656
897.587	4694
897.708	4839
897.828	4782
897.949	4672
898.07	4538
898.19	4618
898.311	4816
898.431	4653
898.552	4683
898.672	4824
898.792	4774
898.913	4698
899.033	4618
899.153	4485
899.273	4432
899.393	4481
899.513	4466
899.633	4470
899.753	4550
899.873	4519
899.993	4538
900.113	4535
900.232	4550
900.352	4550
900.472	4470
900.591	4386
900.711	4489
900.83	4447
900.95	4637
901.069	4660
901.189	4519
901.308	4371
901.427	4314
901.546	4356
901.665	4489
901.784	4519
901.904	4383
902.023	4341
902.141	4200
902.26	4147
902.379	4299
902.498	4249
902.617	4257
902.735	4394
902.854	4352
902.973	4333
903.091	4185
903.21	4227
903.328	4265
903.446	4276
903.565	4276
903.683	4360
903.801	4295
903.919	4360
904.038	4405
904.156	4314
904.274	4417
904.392	4386
904.51	4390
904.627	4485
904.745	4538
904.863	4630
904.981	4405
905.098	4276
905.216	4371
905.334	4405
905.451	4409
905.569	4428
905.686	4596
905.803	4531
905.921	4421
906.038	4546
906.155	4455
906.272	4398
906.389	4474
906.506	4348
906.623	4375
906.74	4432
906.857	4314
906.974	4383
907.091	4531
907.208	4603
907.324	4561
907.441	4538
907.557	4352
907.674	4306
907.79	4329
907.907	4371
908.023	4512
908.139	4470
908.256	4405
908.372	4485
908.488	4405
908.604	4341
908.72	4287
908.836	4367
908.952	4405
909.068	4405
909.184	4542
909.3	4428
909.415	4592
909.531	4527
909.647	4356
909.762	4352
909.878	4318
909.993	4398
910.108	4398
910.224	4383
910.339	4462
910.454	4405
910.57	4360
910.685	4272
910.8	4577
910.915	4569
911.03	4538
911.145	4325
911.259	4295
911.374	4341
911.489	4265
911.604	4268
911.718	4162
911.833	4223
911.947	4101
912.062	3972
912.176	4223
912.291	4219
912.405	4230
912.519	4500
912.633	4455
912.748	4363
912.862	4341
912.976	4158
913.09	4082
913.204	4158
913.318	4219
913.431	4360
913.545	4367
913.659	4424
913.772	4352
913.886	4284
914	4185
914.113	4432
914.226	4443
914.34	4379
914.453	4215
914.566	4417
914.68	4246
914.793	4268
914.906	4150
915.019	4105
915.132	4105
915.245	4139
915.358	4143
915.47	4215
915.583	4276
915.696	4295
915.809	4424
915.921	4390
916.034	4295
916.146	4249
916.259	4265
916.371	4409
916.483	4348
916.595	4249
916.708	4360
916.82	4303
916.932	4337
917.044	4371
917.156	4360
917.268	4230
917.38	4306
917.491	4261
917.603	4379
917.715	4424
917.826	4440
917.938	4360
918.049	4238
918.161	4432
918.272	4546
918.384	4542
918.495	4462
918.606	4348
918.717	4234
918.828	4394
918.939	4379
919.05	4291
919.161	4352
919.272	4143
919.383	4215
919.494	4466
919.604	4653
919.715	4497
919.826	4383
919.936	4428
920.047	4535
920.157	4470
920.267	4721
920.378	4554
920.488	4561
920.598	4786
920.708	4908
920.818	4797
920.928	4786
921.038	4968
921.148	4949
921.258	4649
921.368	4630
921.477	4538
921.587	4481
921.697	4421
921.806	4588
921.916	4489
922.025	4291
922.134	4303
922.244	4265
922.353	4360
922.462	4177
922.571	4211
922.68	4071
922.789	4044
922.898	4090
923.007	4044
923.116	4093
923.224	4109
923.333	4124
923.442	4036
923.55	4006
923.659	4078
923.767	4219
923.876	4078
923.984	4154
924.092	4055
924.201	4128
924.309	4128
924.417	4192
924.525	4105
924.633	4101
924.741	5083
924.849	3964
924.956	4173
925.064	4002
925.172	3941
925.279	3994
925.387	4074
925.494	4093
925.602	4227
925.709	4188
925.816	4063
925.924	4173
926.031	4280
926.138	4196
926.245	4246
926.352	4120
926.459	4261
926.566	4352
926.673	4196
926.779	4120
926.886	4128
926.993	4010
927.099	3983
927.206	3956
927.312	3987
927.419	4063
927.525	4067
927.631	4150
927.737	4017
927.843	3953
927.95	3865
928.056	3968
928.162	4029
928.267	4090
928.373	4710
928.479	4158
928.585	3915
928.69	4036
928.796	4120
928.901	3994
929.007	3857
929.112	4051
929.218	4051
929.323	4017
929.428	3994
929.533	4173
929.638	3934
929.743	4006
929.848	4086
929.953	4036
930.058	3956
930.163	3812
930.267	3857
930.372	4017
930.477	3857
930.581	4120
930.685	3979
930.79	3827
930.894	3911
930.998	3899
931.103	4112
931.207	3755
931.311	3759
931.415	3709
931.519	3572
931.623	3557
