Data from test_V78500241_1761.txt Node
Date: Fri Mar 25 17:01:14 CST 2022
User: usil
Spectrometer: V785-0024
Trigger mode: 0
Integration Time (sec): 4.000000E-1
Scans to average: 1
Nonlinearity correction enabled: false
Boxcar width: 0
Storing dark spectrum: false
XAxis mode: Wavelengths
Number of Pixels in Spectrum: 1024
>>>>>Begin Spectral Data<<<<<
801.071	8062
801.214	8005
801.356	7906
801.499	7860
801.641	7826
801.783	7868
801.926	7959
802.068	7982
802.211	8077
802.353	8043
802.496	7860
802.638	7856
802.78	7906
802.923	7986
803.065	7890
803.208	7879
803.35	8016
803.492	8111
803.635	8172
803.777	8027
803.919	8225
804.061	8438
804.204	8187
804.346	8115
804.488	7940
804.63	8157
804.773	8077
804.915	8145
805.057	8290
805.199	8199
805.341	8233
805.483	8313
805.626	8256
805.768	8153
805.91	8271
806.052	8339
806.194	8199
806.336	8305
806.478	8119
806.62	8111
806.762	8164
806.904	8317
807.046	8602
807.188	8442
807.33	8328
807.472	8347
807.614	8267
807.756	8210
807.898	8005
808.04	7936
808.182	7932
808.324	7936
808.465	7928
808.607	8123
808.749	8145
808.891	8229
809.033	8385
809.174	8237
809.316	8142
809.458	8092
809.6	8016
809.741	8046
809.883	8073
810.025	8214
810.166	8020
810.308	8046
810.45	7997
810.591	7913
810.733	7769
810.875	7674
811.016	7563
811.158	7483
811.299	7632
811.441	7689
811.582	7715
811.724	7567
811.865	7510
812.007	7651
812.148	7636
812.29	7616
812.431	7803
812.573	7890
812.714	8043
812.855	8111
812.997	8202
813.138	8408
813.279	8221
813.421	8062
813.562	7944
813.703	7875
813.845	7818
813.986	7491
814.127	7251
814.268	7289
814.41	7232
814.551	7225
814.692	7285
814.833	7118
814.974	7164
815.115	7145
815.256	7072
815.397	6962
815.539	7019
815.68	6875
815.821	6829
815.962	6924
816.103	6859
816.244	6738
816.385	6658
816.526	6642
816.666	6486
816.807	6258
816.948	6456
817.089	6483
817.23	6460
817.371	6395
817.512	6380
817.653	6437
817.793	6403
817.934	6376
818.075	6540
818.216	6418
818.356	6422
818.497	6262
818.638	6102
818.778	6117
818.919	6186
819.06	6136
819.2	6334
819.341	6319
819.481	6403
819.622	6627
819.762	6776
819.903	6642
820.043	6608
820.184	6547
820.324	6639
820.465	6730
820.605	6681
820.746	6662
820.886	6589
821.026	6681
821.167	6749
821.307	6814
821.447	6791
821.588	6688
821.728	6604
821.868	6490
822.008	6350
822.149	6433
822.289	6350
822.429	6163
822.569	6155
822.709	6129
822.849	5965
822.99	5942
823.13	5973
823.27	5904
823.41	5771
823.55	5786
823.69	5790
823.83	5821
823.97	5688
824.11	5532
824.25	5551
824.389	5573
824.529	5623
824.669	5524
824.809	5657
824.949	5657
825.089	5649
825.228	5589
825.368	5425
825.508	5360
825.648	5349
825.787	5406
825.927	5436
826.067	5311
826.206	5280
826.346	5433
826.485	5414
826.625	5467
826.765	5562
826.904	5478
827.044	5250
827.183	5208
827.323	5174
827.462	5242
827.601	5223
827.741	5231
827.88	5216
828.02	5136
828.159	5223
828.298	5364
828.437	5353
828.577	5318
828.716	5493
828.855	5330
828.994	5185
829.134	5124
829.273	5239
829.412	5181
829.551	5151
829.69	5239
829.829	5284
829.968	5395
830.107	5250
830.246	5330
830.385	5170
830.524	5121
830.663	5071
830.802	5029
830.941	4930
831.08	4934
831.219	5029
831.357	4961
831.496	5212
831.635	4953
831.774	4877
831.913	4793
832.051	4744
832.19	4793
832.329	4896
832.467	4744
832.606	4641
832.744	4729
832.883	4740
833.022	4767
833.16	4828
833.299	4812
833.437	4862
833.576	4881
833.714	4873
833.852	4877
833.991	4911
834.129	4972
834.267	4980
834.406	4930
834.544	5014
834.682	4995
834.821	4980
834.959	5216
835.097	5025
835.235	5189
835.373	5136
835.511	5124
835.65	5010
835.788	5014
835.926	4968
836.064	4896
836.202	4949
836.34	5124
836.478	5208
836.615	5178
836.753	5216
836.891	5242
837.029	5231
837.167	5223
837.305	5185
837.443	5155
837.58	5071
837.718	5246
837.856	5193
837.993	5201
838.131	5288
838.269	5223
838.406	5231
838.544	5254
838.681	5041
838.819	5060
838.956	4892
839.094	4961
839.231	5006
839.369	5048
839.506	5395
839.643	5311
839.781	5075
839.918	5037
840.055	5079
840.193	5094
840.33	5117
840.467	5155
840.604	5197
840.742	5433
840.879	5083
841.016	5117
841.153	5124
841.29	5376
841.427	5372
841.564	5326
841.701	5379
841.838	5235
841.975	5231
842.112	5269
842.249	5166
842.385	5155
842.522	5322
842.659	5235
842.796	5147
842.933	5166
843.069	5201
843.206	5189
843.343	5337
843.479	5288
843.616	5292
843.752	5056
843.889	5029
844.025	5239
844.162	5086
844.298	5212
844.435	5117
844.571	5109
844.708	5201
844.844	5330
844.98	5372
845.117	5326
845.253	5189
845.389	5094
845.525	5159
845.661	5147
845.798	5037
845.934	5159
846.07	5052
846.206	5216
846.342	5303
846.478	5212
846.614	5048
846.75	4984
846.886	4999
847.022	5121
847.158	5067
847.294	5128
847.429	5121
847.565	5083
847.701	5326
847.837	4930
847.972	4816
848.108	4930
848.244	4930
848.379	4839
848.515	4767
848.65	4706
848.786	4782
848.921	4767
849.057	4850
849.192	4915
849.328	4881
849.463	4828
849.598	4805
849.734	4763
849.869	4710
850.004	4618
850.14	4687
850.275	4653
850.41	4580
850.545	4542
850.68	4611
850.815	4641
850.95	4660
851.085	4816
851.22	4797
851.355	4660
851.49	4622
851.625	4634
851.76	4664
851.895	4603
852.03	4573
852.165	4618
852.299	4763
852.434	4801
852.569	4771
852.703	4790
852.838	4847
852.973	4953
853.107	4911
853.242	4763
853.376	4687
853.511	4523
853.645	4622
853.78	4835
853.914	4702
854.048	4710
854.183	4626
854.317	4714
854.451	4870
854.585	4702
854.72	4637
854.854	4816
854.988	4611
855.122	4660
855.256	4550
855.39	4656
855.524	4755
855.658	4774
855.792	4714
855.926	4721
856.06	4759
856.194	4839
856.327	4664
856.461	4626
856.595	4626
856.729	4649
856.862	4778
856.996	4748
857.13	4740
857.263	4805
857.397	4793
857.53	4641
857.664	4694
857.797	4736
857.931	4790
858.064	4691
858.197	4733
858.331	4634
858.464	4618
858.597	4504
858.731	4660
858.864	4656
858.997	4641
859.13	4656
859.263	4634
859.396	4694
859.529	4573
859.662	4603
859.795	4573
859.928	4660
860.061	4771
860.194	4774
860.327	4603
860.46	4626
860.592	4710
860.725	4748
860.858	4748
860.99	4626
861.123	4542
861.256	4504
861.388	4634
861.521	5299
861.653	4428
861.786	4478
861.918	4478
862.05	4542
862.183	4580
862.315	4641
862.447	4649
862.58	4580
862.712	4424
862.844	4291
862.976	4504
863.108	4447
863.24	4881
863.372	4306
863.504	4447
863.636	4424
863.768	4512
863.9	4413
864.032	4367
864.164	4417
864.296	4474
864.428	4535
864.559	4546
864.691	4531
864.823	4538
864.954	4519
865.086	4531
865.217	4493
865.349	4451
865.48	4440
865.612	4527
865.743	4626
865.875	4474
866.006	4413
866.137	4421
866.269	4493
866.4	4508
866.531	4443
866.662	4409
866.793	4424
866.924	4390
867.055	4443
867.186	4455
867.317	4497
867.448	4409
867.579	4356
867.71	4417
867.841	4405
867.972	4455
868.103	4440
868.233	4459
868.364	4440
868.495	4478
868.625	4645
868.756	4755
868.886	4546
869.017	4588
869.147	4733
869.278	4763
869.408	4672
869.539	4660
869.669	4725
869.799	4653
869.929	4736
870.06	4809
870.19	4995
870.32	4915
870.45	4919
870.58	4980
870.71	5071
870.84	5117
870.97	4923
871.1	4896
871.23	5151
871.36	5102
871.489	5022
871.619	5105
871.749	5124
871.879	5124
872.008	5159
872.138	5029
872.267	4942
872.397	4812
872.526	4820
872.656	4714
872.785	4797
872.915	4946
873.044	5018
873.173	4949
873.303	4934
873.432	4949
873.561	5018
873.69	4873
873.819	4847
873.948	4934
874.077	4816
874.206	4790
874.335	4767
874.464	4953
874.593	5117
874.722	5010
874.851	5117
874.979	5041
875.108	5014
875.237	4930
875.365	4870
875.494	4877
875.623	4991
875.751	4797
875.88	4873
876.008	4949
876.136	5022
876.265	5242
876.393	5345
876.521	5208
876.65	5216
876.778	5170
876.906	5071
877.034	5029
877.162	5045
877.29	4949
877.418	5052
877.546	5045
877.674	5033
877.802	5010
877.93	4999
878.058	4949
878.185	4889
878.313	4934
878.441	4953
878.568	4843
878.696	4847
878.824	4984
878.951	5025
879.079	5136
879.206	5239
879.333	5117
879.461	4949
879.588	4976
879.715	5136
879.842	5250
879.97	5033
880.097	4767
880.224	4771
880.351	4824
880.478	4812
880.605	4805
880.732	4752
880.859	5109
880.986	4896
881.112	4927
881.239	4759
881.366	4653
881.493	4622
881.619	4645
881.746	4618
881.872	4641
881.999	4634
882.125	4706
882.252	4763
882.378	4828
882.505	4968
882.631	4835
882.757	4675
882.883	4710
883.01	4698
883.136	4733
883.262	4599
883.388	4634
883.514	4820
883.64	4889
883.766	4790
883.892	4687
884.018	4725
884.143	4877
884.269	5045
884.395	4653
884.52	4592
884.646	4664
884.772	4599
884.897	4558
885.023	4679
885.148	4790
885.274	4854
885.399	4793
885.524	4729
885.65	4656
885.775	4763
885.9	4698
886.025	4854
886.15	4759
886.275	4691
886.4	4664
886.525	4733
886.65	4694
886.775	4664
886.9	4892
887.025	5041
887.149	4767
887.274	4656
887.399	4561
887.523	4615
887.648	4588
887.773	4599
887.897	4752
888.021	4782
888.146	4618
888.27	4824
888.395	4873
888.519	4801
888.643	4805
888.767	4786
888.891	4675
889.015	4660
889.139	4683
889.263	4546
889.387	4782
889.511	4881
889.635	4771
889.759	4618
889.883	4592
890.006	4740
890.13	4782
890.254	4622
890.377	4672
890.501	4599
890.624	4554
890.748	4645
890.871	4516
890.995	4443
891.118	4440
891.241	4554
891.364	4531
891.488	4626
891.611	4512
891.734	4584
891.857	4630
891.98	4584
892.103	4626
892.226	4599
892.349	4504
892.471	4409
892.594	4569
892.717	4637
892.839	4558
892.962	4554
893.085	4691
893.207	4607
893.33	4451
893.452	4516
893.575	4683
893.697	4588
893.819	4828
893.941	4862
894.064	4740
894.186	4599
894.308	4550
894.43	4694
894.552	4824
894.674	4759
894.796	4497
894.918	4611
895.04	4573
895.161	4717
895.283	4675
895.405	4573
895.526	4649
895.648	4683
895.769	4683
895.891	4702
896.012	4733
896.134	4755
896.255	4645
896.376	4637
896.498	4637
896.619	4683
896.74	4649
896.861	4615
896.982	4957
897.103	5105
897.224	4828
897.345	4717
897.466	4630
897.587	4694
897.708	4839
897.828	4782
897.949	4672
898.07	4519
898.19	4656
898.311	4809
898.431	4668
898.552	4736
898.672	4786
898.792	4793
898.913	4714
899.033	4607
899.153	4497
899.273	4455
899.393	4508
899.513	4550
899.633	4508
899.753	4535
899.873	4527
899.993	4561
900.113	4542
900.232	4615
900.352	4481
900.472	4497
900.591	4386
900.711	4485
900.83	4428
900.95	4554
901.069	4691
901.189	4535
901.308	4417
901.427	4322
901.546	4367
901.665	4455
901.784	4538
901.904	4367
902.023	4333
902.141	4200
902.26	4147
902.379	4268
902.498	4223
902.617	4215
902.735	4394
902.854	4386
902.973	4318
903.091	4196
903.21	4154
903.328	4265
903.446	4299
903.565	4257
903.683	4341
903.801	4284
903.919	4413
904.038	4428
904.156	4325
904.274	4413
904.392	4421
904.51	4432
904.627	4489
904.745	4546
904.863	4607
904.981	4356
905.098	4329
905.216	4337
905.334	4436
905.451	4417
905.569	4447
905.686	4516
905.803	4580
905.921	4379
906.038	4516
906.155	4466
906.272	4363
906.389	4443
906.506	4299
906.623	4325
906.74	4371
906.857	4303
906.974	4383
907.091	4592
907.208	4672
907.324	4588
907.441	4432
907.557	4367
907.674	4356
907.79	4303
907.907	4413
908.023	4542
908.139	4443
908.256	4409
908.372	4500
908.488	4462
908.604	4371
908.72	4341
908.836	4390
908.952	4352
909.068	4413
909.184	4588
909.3	4436
909.415	4550
909.531	4542
909.647	4314
909.762	4367
909.878	4306
909.993	4443
910.108	4428
910.224	4386
910.339	4485
910.454	4363
910.57	4344
910.685	4314
910.8	4618
910.915	4584
911.03	4550
911.145	4314
911.259	4325
911.374	4329
911.489	4280
911.604	4299
911.718	4166
911.833	4211
911.947	4078
912.062	4078
912.176	4196
912.291	4234
912.405	4249
912.519	4504
912.633	4478
912.748	4367
912.862	4314
912.976	4234
913.09	4112
913.204	4181
913.318	4234
913.431	4363
913.545	4341
913.659	4436
913.772	4348
913.886	4219
914	4166
914.113	4375
914.226	4432
914.34	4417
914.453	4242
914.566	4436
914.68	4268
914.793	4306
914.906	4120
915.019	4101
915.132	4090
915.245	4158
915.358	4204
915.47	4227
915.583	4261
915.696	4276
915.809	4394
915.921	4409
916.034	4265
916.146	4276
916.259	4223
916.371	4394
916.483	4333
916.595	4249
916.708	4287
916.82	4291
916.932	4348
917.044	4360
917.156	4325
917.268	4196
917.38	4291
917.491	4284
917.603	4318
917.715	4455
917.826	4428
917.938	4363
918.049	4230
918.161	4417
918.272	4512
918.384	4527
918.495	4440
918.606	4322
918.717	4234
918.828	4318
918.939	4348
919.05	4238
919.161	4306
919.272	4131
919.383	4261
919.494	4470
919.604	4630
919.715	4432
919.826	4337
919.936	4428
920.047	4508
920.157	4481
920.267	4645
920.378	4546
920.488	4512
920.598	4698
920.708	4885
920.818	4721
920.928	4752
921.038	4953
921.148	4927
921.258	4637
921.368	4546
921.477	4508
921.587	4413
921.697	4356
921.806	4519
921.916	4474
922.025	4261
922.134	4284
922.244	4246
922.353	4356
922.462	4162
922.571	4116
922.68	3994
922.789	3960
922.898	4078
923.007	3983
923.116	4067
923.224	4109
923.333	4105
923.442	3991
923.55	3941
923.659	3994
923.767	4124
923.876	4013
923.984	4105
924.092	3941
924.201	4063
924.309	4074
924.417	4086
924.525	4017
924.633	4090
924.741	5105
924.849	3903
924.956	4147
925.064	3953
925.172	3941
925.279	3949
925.387	4010
925.494	4074
925.602	4185
925.709	4207
925.816	4029
925.924	4116
926.031	4219
926.138	4124
926.245	4166
926.352	4093
926.459	4303
926.566	4253
926.673	4173
926.779	4055
926.886	4093
926.993	3953
927.099	3953
927.206	3888
927.312	3926
927.419	4082
927.525	4032
927.631	4078
927.737	3949
927.843	3960
927.95	3804
928.056	3960
928.162	3979
928.267	4093
928.373	4668
928.479	4124
928.585	3930
928.69	4010
928.796	4051
928.901	3964
929.007	3861
929.112	4048
929.218	3975
929.323	3937
929.428	3930
929.533	4120
929.638	3915
929.743	3949
929.848	4036
929.953	3975
930.058	3934
930.163	3770
930.267	3778
930.372	3964
930.477	3808
930.581	4109
930.685	3968
930.79	3812
930.894	3922
930.998	3873
931.103	4021
931.207	3713
931.311	3713
931.415	3637
931.519	3534
931.623	3587
