Data from test_V78500241_2471.txt Node
Date: Fri Mar 25 17:06:11 CST 2022
User: usil
Spectrometer: V785-0024
Trigger mode: 0
Integration Time (sec): 4.000000E-1
Scans to average: 1
Nonlinearity correction enabled: false
Boxcar width: 0
Storing dark spectrum: false
XAxis mode: Wavelengths
Number of Pixels in Spectrum: 1024
>>>>>Begin Spectral Data<<<<<
801.071	8008
801.214	8016
801.356	7871
801.499	7769
801.641	7784
801.783	7784
801.926	8001
802.068	7921
802.211	7932
802.353	7955
802.496	7868
802.638	7852
802.78	7814
802.923	7852
803.065	7837
803.208	7807
803.35	7940
803.492	8069
803.635	8180
803.777	8039
803.919	8088
804.061	8385
804.204	8221
804.346	8043
804.488	7974
804.63	8035
804.773	8039
804.915	8077
805.057	8229
805.199	8096
805.341	8183
805.483	8225
805.626	8180
805.768	8199
805.91	8183
806.052	8172
806.194	8138
806.336	8271
806.478	8088
806.62	8050
806.762	8142
806.904	8279
807.046	8465
807.188	8343
807.33	8286
807.472	8248
807.614	8103
807.756	8134
807.898	7963
808.04	7894
808.182	7849
808.324	7818
808.465	7898
808.607	8092
808.749	8069
808.891	8229
809.033	8339
809.174	8191
809.316	8081
809.458	8046
809.6	7989
809.741	8027
809.883	7925
810.025	8100
810.166	8107
810.308	8012
810.45	7967
810.591	7879
810.733	7696
810.875	7647
811.016	7476
811.158	7506
811.299	7647
811.441	7704
811.582	7696
811.724	7556
811.865	7491
812.007	7628
812.148	7628
812.29	7651
812.431	7731
812.573	7814
812.714	7913
812.855	8081
812.997	8229
813.138	8290
813.279	8126
813.421	8065
813.562	7989
813.703	7894
813.845	7746
813.986	7441
814.127	7251
814.268	7221
814.41	7232
814.551	7164
814.692	7198
814.833	7099
814.974	7084
815.115	7126
815.256	6962
815.397	6954
815.539	6935
815.68	6806
815.821	6821
815.962	6894
816.103	6798
816.244	6696
816.385	6616
816.526	6593
816.666	6486
816.807	6289
816.948	6441
817.089	6475
817.23	6407
817.371	6319
817.512	6342
817.653	6350
817.793	6380
817.934	6502
818.075	6433
818.216	6391
818.356	6399
818.497	6304
818.638	6148
818.778	6182
818.919	6125
819.06	6136
819.2	6304
819.341	6391
819.481	6357
819.622	6563
819.762	6764
819.903	6738
820.043	6593
820.184	6578
820.324	6574
820.465	6703
820.605	6681
820.746	6673
820.886	6506
821.026	6650
821.167	6692
821.307	6768
821.447	6795
821.588	6703
821.728	6608
821.868	6555
822.008	6350
822.149	6407
822.289	6361
822.429	6209
822.569	6087
822.709	6140
822.849	5935
822.99	5946
823.13	5984
823.27	5935
823.41	5840
823.55	5786
823.69	5752
823.83	5748
823.97	5596
824.11	5554
824.25	5478
824.389	5493
824.529	5619
824.669	5547
824.809	5604
824.949	5638
825.089	5611
825.228	5512
825.368	5368
825.508	5395
825.648	5349
825.787	5376
825.927	5345
826.067	5273
826.206	5277
826.346	5360
826.485	5425
826.625	5330
826.765	5524
826.904	5493
827.044	5181
827.183	5223
827.323	5189
827.462	5250
827.601	5235
827.741	5220
827.88	5216
828.02	5185
828.159	5269
828.298	5345
828.437	5459
828.577	5360
828.716	5524
828.855	5349
828.994	5216
829.134	5178
829.273	5178
829.412	5155
829.551	5178
829.69	5258
829.829	5261
829.968	5425
830.107	5299
830.246	5322
830.385	5197
830.524	5162
830.663	5136
830.802	5018
830.941	4965
831.08	4927
831.219	5006
831.357	4984
831.496	5197
831.635	5003
831.774	4885
831.913	4919
832.051	4763
832.19	4744
832.329	4896
832.467	4763
832.606	4729
832.744	4759
832.883	4793
833.022	4748
833.16	4801
833.299	4870
833.437	4885
833.576	4866
833.714	4889
833.852	4938
833.991	4942
834.129	4965
834.267	5010
834.406	4984
834.544	4991
834.682	5041
834.821	5052
834.959	5235
835.097	5086
835.235	5204
835.373	5105
835.511	5170
835.65	5090
835.788	5090
835.926	4900
836.064	4957
836.202	4976
836.34	5223
836.478	5284
836.615	5193
836.753	5258
836.891	5303
837.029	5280
837.167	5204
837.305	5159
837.443	5208
837.58	5090
837.718	5288
837.856	5261
837.993	5216
838.131	5307
838.269	5235
838.406	5254
838.544	5212
838.681	5060
838.819	5037
838.956	4934
839.094	4911
839.231	5079
839.369	5090
839.506	5474
839.643	5250
839.781	5094
839.918	5033
840.055	5124
840.193	5121
840.33	5166
840.467	5189
840.604	5242
840.742	5505
840.879	5113
841.016	5143
841.153	5246
841.29	5398
841.427	5353
841.564	5364
841.701	5406
841.838	5299
841.975	5280
842.112	5292
842.249	5159
842.385	5075
842.522	5372
842.659	5227
842.796	5170
842.933	5223
843.069	5147
843.206	5189
843.343	5322
843.479	5261
843.616	5326
843.752	5083
843.889	5045
844.025	5269
844.162	5048
844.298	5261
844.435	5098
844.571	5060
844.708	5212
844.844	5376
844.98	5406
845.117	5353
845.253	5162
845.389	5140
845.525	5136
845.661	5227
845.798	5086
845.934	5132
846.07	5033
846.206	5242
846.342	5288
846.478	5212
846.614	5041
846.75	4976
846.886	4999
847.022	5166
847.158	5102
847.294	5132
847.429	5117
847.565	5090
847.701	5322
847.837	4911
847.972	4858
848.108	4999
848.244	4984
848.379	4835
848.515	4744
848.65	4790
848.786	4847
848.921	4812
849.057	4892
849.192	4915
849.328	4881
849.463	4896
849.598	4812
849.734	4812
849.869	4752
850.004	4694
850.14	4702
850.275	4675
850.41	4561
850.545	4622
850.68	4626
850.815	4656
850.95	4668
851.085	4858
851.22	4790
851.355	4721
851.49	4653
851.625	4664
851.76	4714
851.895	4592
852.03	4596
852.165	4698
852.299	4729
852.434	4843
852.569	4771
852.703	4809
852.838	4866
852.973	4961
853.107	4953
853.242	4771
853.376	4694
853.511	4527
853.645	4710
853.78	4828
853.914	4710
854.048	4710
854.183	4637
854.317	4759
854.451	4892
854.585	4740
854.72	4675
854.854	4733
854.988	4630
855.122	4649
855.256	4607
855.39	4698
855.524	4809
855.658	4717
855.792	4725
855.926	4767
856.06	4793
856.194	4812
856.327	4733
856.461	4634
856.595	4660
856.729	4630
856.862	4812
856.996	4736
857.13	4793
857.263	4793
857.397	4797
857.53	4683
857.664	4698
857.797	4778
857.931	4774
858.064	4740
858.197	4786
858.331	4706
858.464	4622
858.597	4569
858.731	4649
858.864	4679
858.997	4634
859.13	4706
859.263	4679
859.396	4729
859.529	4611
859.662	4615
859.795	4592
859.928	4660
860.061	4748
860.194	4763
860.327	4656
860.46	4599
860.592	4793
860.725	4702
860.858	4736
860.99	4584
861.123	4538
861.256	4531
861.388	4660
861.521	5197
861.653	4519
861.786	4500
861.918	4497
862.05	4569
862.183	4542
862.315	4683
862.447	4672
862.58	4622
862.712	4386
862.844	4379
862.976	4478
863.108	4436
863.24	4908
863.372	4409
863.504	4455
863.636	4428
863.768	4489
863.9	4447
864.032	4371
864.164	4459
864.296	4493
864.428	4599
864.559	4573
864.691	4519
864.823	4554
864.954	4546
865.086	4512
865.217	4500
865.349	4443
865.48	4519
865.612	4527
865.743	4615
865.875	4440
866.006	4459
866.137	4462
866.269	4489
866.4	4447
866.531	4478
866.662	4405
866.793	4421
866.924	4478
867.055	4485
867.186	4493
867.317	4417
867.448	4367
867.579	4405
867.71	4428
867.841	4405
867.972	4508
868.103	4489
868.233	4466
868.364	4508
868.495	4523
868.625	4706
868.756	4748
868.886	4607
869.017	4656
869.147	4824
869.278	4816
869.408	4721
869.539	4656
869.669	4797
869.799	4714
869.929	4774
870.06	4763
870.19	4972
870.32	4957
870.45	4915
870.58	5064
870.71	5086
870.84	5090
870.97	4957
871.1	4923
871.23	5231
871.36	5136
871.489	5056
871.619	5094
871.749	5124
871.879	5201
872.008	5155
872.138	5105
872.267	5018
872.397	4850
872.526	4843
872.656	4759
872.785	4839
872.915	4987
873.044	5052
873.173	4991
873.303	4987
873.432	4949
873.561	4965
873.69	4908
873.819	4919
873.948	4995
874.077	4824
874.206	4793
874.335	4801
874.464	4953
874.593	5113
874.722	4995
874.851	5113
874.979	5052
875.108	5033
875.237	4976
875.365	4904
875.494	4965
875.623	5010
875.751	4862
875.88	4858
876.008	5029
876.136	5109
876.265	5250
876.393	5353
876.521	5296
876.65	5242
876.778	5185
876.906	5098
877.034	5029
877.162	5052
877.29	5033
877.418	5060
877.546	5090
877.674	5010
877.802	5079
877.93	5064
878.058	4965
878.185	4923
878.313	5033
878.441	4957
878.568	4866
878.696	4854
878.824	5010
878.951	5071
879.079	5162
879.206	5322
879.333	5105
879.461	5025
879.588	4965
879.715	5132
879.842	5235
879.97	5041
880.097	4820
880.224	4774
880.351	4858
880.478	4820
880.605	4862
880.732	4843
880.859	5102
880.986	4885
881.112	4908
881.239	4824
881.366	4664
881.493	4641
881.619	4580
881.746	4660
881.872	4653
881.999	4637
882.125	4672
882.252	4778
882.378	4831
882.505	5041
882.631	4816
882.757	4710
882.883	4763
883.01	4771
883.136	4668
883.262	4641
883.388	4596
883.514	4801
883.64	4854
883.766	4816
883.892	4717
884.018	4736
884.143	4908
884.269	4995
884.395	4683
884.52	4687
884.646	4664
884.772	4634
884.897	4580
885.023	4645
885.148	4831
885.274	4908
885.399	4816
885.524	4755
885.65	4752
885.775	4706
885.9	4694
886.025	4858
886.15	4790
886.275	4782
886.4	4687
886.525	4740
886.65	4691
886.775	4733
886.9	4908
887.025	5075
887.149	4809
887.274	4656
887.399	4588
887.523	4637
887.648	4584
887.773	4577
887.897	4805
888.021	4790
888.146	4634
888.27	4835
888.395	4965
888.519	4812
888.643	4854
888.767	4877
888.891	4683
889.015	4622
889.139	4683
889.263	4645
889.387	4721
889.511	4885
889.635	4809
889.759	4672
889.883	4668
890.006	4744
890.13	4824
890.254	4611
890.377	4706
890.501	4573
890.624	4523
890.748	4675
890.871	4527
890.995	4443
891.118	4386
891.241	4584
891.364	4599
891.488	4672
891.611	4565
891.734	4554
891.857	4645
891.98	4565
892.103	4683
892.226	4618
892.349	4535
892.471	4443
892.594	4546
892.717	4592
892.839	4580
892.962	4611
893.085	4687
893.207	4603
893.33	4462
893.452	4508
893.575	4698
893.697	4519
893.819	4797
893.941	4831
894.064	4748
894.186	4516
894.308	4599
894.43	4740
894.552	4763
894.674	4748
894.796	4554
894.918	4603
895.04	4599
895.161	4721
895.283	4656
895.405	4588
895.526	4649
895.648	4691
895.769	4717
895.891	4752
896.012	4763
896.134	4744
896.255	4645
896.376	4637
896.498	4615
896.619	4736
896.74	4618
896.861	4683
896.982	4938
897.103	5128
897.224	4831
897.345	4774
897.466	4702
897.587	4725
897.708	4862
897.828	4790
897.949	4664
898.07	4592
898.19	4630
898.311	4847
898.431	4698
898.552	4717
898.672	4809
898.792	4812
898.913	4714
899.033	4668
899.153	4516
899.273	4440
899.393	4516
899.513	4519
899.633	4519
899.753	4523
899.873	4512
899.993	4577
900.113	4550
900.232	4542
900.352	4554
900.472	4538
900.591	4402
900.711	4500
900.83	4451
900.95	4664
901.069	4664
901.189	4542
901.308	4405
901.427	4314
901.546	4409
901.665	4466
901.784	4554
901.904	4398
902.023	4322
902.141	4192
902.26	4181
902.379	4360
902.498	4268
902.617	4249
902.735	4383
902.854	4405
902.973	4333
903.091	4227
903.21	4211
903.328	4299
903.446	4238
903.565	4253
903.683	4413
903.801	4322
903.919	4413
904.038	4432
904.156	4295
904.274	4447
904.392	4459
904.51	4466
904.627	4459
904.745	4592
904.863	4622
904.981	4375
905.098	4299
905.216	4375
905.334	4489
905.451	4413
905.569	4421
905.686	4561
905.803	4592
905.921	4447
906.038	4580
906.155	4466
906.272	4413
906.389	4508
906.506	4367
906.623	4428
906.74	4432
906.857	4325
906.974	4424
907.091	4546
907.208	4679
907.324	4618
907.441	4519
907.557	4318
907.674	4337
907.79	4333
907.907	4341
908.023	4493
908.139	4527
908.256	4417
908.372	4421
908.488	4470
908.604	4352
908.72	4310
908.836	4375
908.952	4360
909.068	4455
909.184	4596
909.3	4500
909.415	4573
909.531	4542
909.647	4337
909.762	4360
909.878	4341
909.993	4485
910.108	4363
910.224	4440
910.339	4485
910.454	4390
910.57	4356
910.685	4276
910.8	4653
910.915	4599
911.03	4497
911.145	4360
911.259	4348
911.374	4386
911.489	4318
911.604	4268
911.718	4181
911.833	4246
911.947	4044
912.062	4040
912.176	4215
912.291	4257
912.405	4242
912.519	4447
912.633	4519
912.748	4424
912.862	4344
912.976	4211
913.09	4093
913.204	4181
913.318	4265
913.431	4386
913.545	4390
913.659	4421
913.772	4325
913.886	4238
914	4234
914.113	4341
914.226	4440
914.34	4371
914.453	4268
914.566	4386
914.68	4333
914.793	4356
914.906	4204
915.019	4116
915.132	4093
915.245	4135
915.358	4249
915.47	4291
915.583	4303
915.696	4318
915.809	4394
915.921	4402
916.034	4249
916.146	4265
916.259	4230
916.371	4322
916.483	4329
916.595	4249
916.708	4295
916.82	4322
916.932	4333
917.044	4363
917.156	4337
917.268	4219
917.38	4268
917.491	4318
917.603	4329
917.715	4394
917.826	4451
917.938	4371
918.049	4223
918.161	4455
918.272	4512
918.384	4561
918.495	4451
918.606	4272
918.717	4253
918.828	4310
918.939	4344
919.05	4230
919.161	4284
919.272	4093
919.383	4223
919.494	4489
919.604	4626
919.715	4451
919.826	4383
919.936	4379
920.047	4546
920.157	4512
920.267	4717
920.378	4531
920.488	4512
920.598	4710
920.708	4896
920.818	4725
920.928	4778
921.038	4968
921.148	4938
921.258	4618
921.368	4531
921.477	4550
921.587	4443
921.697	4341
921.806	4554
921.916	4432
922.025	4249
922.134	4276
922.244	4249
922.353	4314
922.462	4200
922.571	4173
922.68	4013
922.789	3983
922.898	4025
923.007	3987
923.116	4078
923.224	4074
923.333	4051
923.442	3949
923.55	3964
923.659	4063
923.767	4097
923.876	4021
923.984	4112
924.092	3998
924.201	4067
924.309	4105
924.417	4139
924.525	4074
924.633	4109
924.741	5094
924.849	3876
924.956	4162
925.064	3975
925.172	3911
925.279	3937
925.387	4071
925.494	4051
925.602	4185
925.709	4166
925.816	4040
925.924	4124
926.031	4242
926.138	4154
926.245	4238
926.352	4071
926.459	4284
926.566	4322
926.673	4154
926.779	4093
926.886	4051
926.993	3964
927.099	3953
927.206	3953
927.312	3903
927.419	4059
927.525	4021
927.631	4139
927.737	3953
927.843	3987
927.95	3892
928.056	3945
928.162	4032
928.267	4029
928.373	4687
928.479	4112
928.585	3884
928.69	4059
928.796	4074
928.901	3960
929.007	3831
929.112	4082
929.218	3983
929.323	3960
929.428	3903
929.533	4109
929.638	3934
929.743	3991
929.848	4029
929.953	4010
930.058	3930
930.163	3762
930.267	3793
930.372	3926
930.477	3819
930.581	4067
930.685	3968
930.79	3812
930.894	3956
930.998	3922
931.103	4044
931.207	3724
931.311	3675
931.415	3690
931.519	3526
931.623	3564
