Data from test_V78500241_419.txt Node
Date: Fri Mar 25 16:51:54 CST 2022
User: usil
Spectrometer: V785-0024
Trigger mode: 0
Integration Time (sec): 4.000000E-1
Scans to average: 1
Nonlinearity correction enabled: false
Boxcar width: 0
Storing dark spectrum: false
XAxis mode: Wavelengths
Number of Pixels in Spectrum: 1024
>>>>>Begin Spectral Data<<<<<
801.071	8077
801.214	8062
801.356	7890
801.499	7856
801.641	7822
801.783	7845
801.926	8012
802.068	7970
802.211	8031
802.353	7993
802.496	7887
802.638	7879
802.78	7967
802.923	8001
803.065	7860
803.208	7879
803.35	7959
803.492	8035
803.635	8142
803.777	7993
803.919	8073
804.061	8473
804.204	8119
804.346	8012
804.488	7978
804.63	8126
804.773	7982
804.915	8134
805.057	8324
805.199	8259
805.341	8168
805.483	8332
805.626	8123
805.768	7974
805.91	8084
806.052	8256
806.194	8138
806.336	8294
806.478	8161
806.62	8119
806.762	8191
806.904	8279
807.046	8480
807.188	8374
807.33	8324
807.472	8320
807.614	8248
807.756	8138
807.898	8039
808.04	7921
808.182	7967
808.324	7902
808.465	7921
808.607	8119
808.749	8096
808.891	8221
809.033	8282
809.174	8244
809.316	8111
809.458	8065
809.6	8031
809.741	8069
809.883	8027
810.025	8100
810.166	8218
810.308	8046
810.45	8043
810.591	7917
810.733	7795
810.875	7685
811.016	7453
811.158	7518
811.299	7624
811.441	7685
811.582	7761
811.724	7609
811.865	7624
812.007	7594
812.148	7521
812.29	7651
812.431	7784
812.573	7917
812.714	7997
812.855	8100
812.997	8275
813.138	8336
813.279	8263
813.421	8103
813.562	8062
813.703	7978
813.845	7845
813.986	7430
814.127	7373
814.268	7251
814.41	7198
814.551	7198
814.692	7198
814.833	7137
814.974	7126
815.115	7164
815.256	6985
815.397	6890
815.539	6981
815.68	6844
815.821	6825
815.962	6829
816.103	6901
816.244	6776
816.385	6646
816.526	6639
816.666	6532
816.807	6300
816.948	6479
817.089	6490
817.23	6391
817.371	6418
817.512	6369
817.653	6483
817.793	6376
817.934	6418
818.075	6448
818.216	6532
818.356	6399
818.497	6251
818.638	6068
818.778	6068
818.919	6129
819.06	6125
819.2	6296
819.341	6243
819.481	6388
819.622	6483
819.762	6757
819.903	6703
820.043	6597
820.184	6593
820.324	6597
820.465	6673
820.605	6722
820.746	6589
820.886	6506
821.026	6669
821.167	6795
821.307	6833
821.447	6791
821.588	6722
821.728	6673
821.868	6502
822.008	6391
822.149	6414
822.289	6410
822.429	6220
822.569	6102
822.709	6106
822.849	5942
822.99	5996
823.13	5988
823.27	5878
823.41	5817
823.55	5836
823.69	5840
823.83	5813
823.97	5707
824.11	5623
824.25	5604
824.389	5558
824.529	5634
824.669	5581
824.809	5668
824.949	5665
825.089	5627
825.228	5642
825.368	5440
825.508	5395
825.648	5349
825.787	5398
825.927	5391
826.067	5292
826.206	5360
826.346	5429
826.485	5429
826.625	5429
826.765	5554
826.904	5509
827.044	5326
827.183	5231
827.323	5166
827.462	5315
827.601	5261
827.741	5265
827.88	5239
828.02	5147
828.159	5330
828.298	5330
828.437	5417
828.577	5307
828.716	5573
828.855	5349
828.994	5254
829.134	5239
829.273	5239
829.412	5220
829.551	5174
829.69	5189
829.829	5326
829.968	5429
830.107	5246
830.246	5349
830.385	5265
830.524	5204
830.663	5181
830.802	5056
830.941	4987
831.08	4953
831.219	5037
831.357	4999
831.496	5201
831.635	5025
831.774	4862
831.913	4885
832.051	4759
832.19	4774
832.329	4900
832.467	4740
832.606	4748
832.744	4782
832.883	4744
833.022	4793
833.16	4843
833.299	4873
833.437	4930
833.576	4858
833.714	4892
833.852	4923
833.991	4919
834.129	4991
834.267	4987
834.406	4915
834.544	5060
834.682	5052
834.821	4999
834.959	5204
835.097	5045
835.235	5178
835.373	5105
835.511	5159
835.65	5136
835.788	5075
835.926	4930
836.064	4896
836.202	4953
836.34	5235
836.478	5235
836.615	5166
836.753	5303
836.891	5364
837.029	5292
837.167	5231
837.305	5204
837.443	5220
837.58	5170
837.718	5307
837.856	5231
837.993	5166
838.131	5227
838.269	5242
838.406	5223
838.544	5216
838.681	5079
838.819	5048
838.956	4919
839.094	4919
839.231	5041
839.369	5075
839.506	5452
839.643	5341
839.781	5079
839.918	5067
840.055	5102
840.193	5086
840.33	5155
840.467	5178
840.604	5273
840.742	5520
840.879	5162
841.016	5155
841.153	5208
841.29	5448
841.427	5376
841.564	5402
841.701	5398
841.838	5254
841.975	5273
842.112	5318
842.249	5174
842.385	5083
842.522	5387
842.659	5185
842.796	5189
842.933	5239
843.069	5159
843.206	5181
843.343	5292
843.479	5258
843.616	5326
843.752	5067
843.889	5037
844.025	5277
844.162	5060
844.298	5235
844.435	5094
844.571	5105
844.708	5250
844.844	5357
844.98	5395
845.117	5349
845.253	5140
845.389	5079
845.525	5162
845.661	5208
845.798	5075
845.934	5189
846.07	5056
846.206	5288
846.342	5311
846.478	5181
846.614	5090
846.75	4984
846.886	4961
847.022	5197
847.158	5056
847.294	5151
847.429	5143
847.565	5094
847.701	5360
847.837	4889
847.972	4835
848.108	4995
848.244	4961
848.379	4843
848.515	4812
848.65	4733
848.786	4809
848.921	4786
849.057	4946
849.192	4957
849.328	4812
849.463	4862
849.598	4744
849.734	4763
849.869	4771
850.004	4630
850.14	4706
850.275	4611
850.41	4538
850.545	4615
850.68	4634
850.815	4607
850.95	4649
851.085	4889
851.22	4793
851.355	4706
851.49	4645
851.625	4672
851.76	4675
851.895	4569
852.03	4596
852.165	4691
852.299	4736
852.434	4877
852.569	4820
852.703	4809
852.838	4870
852.973	5003
853.107	4946
853.242	4782
853.376	4736
853.511	4615
853.645	4660
853.78	4828
853.914	4714
854.048	4729
854.183	4687
854.317	4672
854.451	4877
854.585	4687
854.72	4649
854.854	4801
854.988	4637
855.122	4694
855.256	4538
855.39	4702
855.524	4790
855.658	4809
855.792	4736
855.926	4771
856.06	4790
856.194	4870
856.327	4710
856.461	4687
856.595	4679
856.729	4649
856.862	4771
856.996	4675
857.13	4740
857.263	4767
857.397	4870
857.53	4706
857.664	4755
857.797	4843
857.931	4828
858.064	4755
858.197	4778
858.331	4668
858.464	4630
858.597	4542
858.731	4675
858.864	4656
858.997	4611
859.13	4668
859.263	4733
859.396	4744
859.529	4611
859.662	4630
859.795	4580
859.928	4679
860.061	4763
860.194	4824
860.327	4645
860.46	4645
860.592	4744
860.725	4725
860.858	4733
860.99	4622
861.123	4580
861.256	4592
861.388	4656
861.521	5459
861.653	4558
861.786	4504
861.918	4424
862.05	4569
862.183	4558
862.315	4599
862.447	4694
862.58	4573
862.712	4386
862.844	4371
862.976	4516
863.108	4546
863.24	4767
863.372	4360
863.504	4447
863.636	4440
863.768	4531
863.9	4432
864.032	4386
864.164	4451
864.296	4512
864.428	4569
864.559	4615
864.691	4535
864.823	4584
864.954	4550
865.086	4542
865.217	4538
865.349	4424
865.48	4470
865.612	4596
865.743	4698
865.875	4493
866.006	4497
866.137	4474
866.269	4478
866.4	4470
866.531	4417
866.662	4417
866.793	4440
866.924	4485
867.055	4516
867.186	4459
867.317	4440
867.448	4398
867.579	4424
867.71	4386
867.841	4394
867.972	4466
868.103	4466
868.233	4516
868.364	4512
868.495	4558
868.625	4717
868.756	4763
868.886	4607
869.017	4675
869.147	4736
869.278	4831
869.408	4748
869.539	4653
869.669	4744
869.799	4710
869.929	4793
870.06	4744
870.19	4942
870.32	4927
870.45	4923
870.58	5041
870.71	5094
870.84	5143
870.97	4976
871.1	5014
871.23	5166
871.36	5166
871.489	5022
871.619	5086
871.749	5174
871.879	5162
872.008	5185
872.138	5109
872.267	4999
872.397	4885
872.526	4862
872.656	4778
872.785	4809
872.915	4987
873.044	5056
873.173	4953
873.303	4965
873.432	4984
873.561	4999
873.69	4915
873.819	4900
873.948	4953
874.077	4828
874.206	4748
874.335	4843
874.464	4911
874.593	5094
874.722	5018
874.851	5140
874.979	5083
875.108	5045
875.237	4946
875.365	4949
875.494	4862
875.623	4991
875.751	4828
875.88	4896
876.008	5006
876.136	5067
876.265	5261
876.393	5379
876.521	5303
876.65	5239
876.778	5197
876.906	5132
877.034	5071
877.162	5060
877.29	5041
877.418	5098
877.546	5102
877.674	5014
877.802	5022
877.93	5048
878.058	5014
878.185	4881
878.313	5025
878.441	4942
878.568	4816
878.696	4877
878.824	5045
878.951	5014
879.079	5140
879.206	5303
879.333	5124
879.461	4984
879.588	5033
879.715	5105
879.842	5242
879.97	4972
880.097	4812
880.224	4774
880.351	4839
880.478	4930
880.605	4828
880.732	4843
880.859	5121
880.986	4908
881.112	4900
881.239	4839
881.366	4679
881.493	4683
881.619	4596
881.746	4668
881.872	4668
881.999	4694
882.125	4710
882.252	4801
882.378	4831
882.505	4927
882.631	4782
882.757	4675
882.883	4786
883.01	4714
883.136	4675
883.262	4599
883.388	4622
883.514	4889
883.64	4850
883.766	4812
883.892	4740
884.018	4733
884.143	4911
884.269	5018
884.395	4744
884.52	4668
884.646	4675
884.772	4611
884.897	4615
885.023	4634
885.148	4820
885.274	4873
885.399	4786
885.524	4752
885.65	4698
885.775	4755
885.9	4767
886.025	4873
886.15	4820
886.275	4717
886.4	4702
886.525	4744
886.65	4740
886.775	4698
886.9	4930
887.025	5075
887.149	4831
887.274	4660
887.399	4611
887.523	4622
887.648	4603
887.773	4637
887.897	4839
888.021	4843
888.146	4683
888.27	4862
888.395	4942
888.519	4778
888.643	4759
888.767	4858
888.891	4714
889.015	4637
889.139	4664
889.263	4618
889.387	4759
889.511	4892
889.635	4843
889.759	4607
889.883	4622
890.006	4740
890.13	4831
890.254	4603
890.377	4691
890.501	4550
890.624	4618
890.748	4649
890.871	4535
890.995	4443
891.118	4363
891.241	4527
891.364	4588
891.488	4645
891.611	4577
891.734	4577
891.857	4664
891.98	4596
892.103	4641
892.226	4615
892.349	4535
892.471	4493
892.594	4577
892.717	4611
892.839	4630
892.962	4622
893.085	4660
893.207	4637
893.33	4443
893.452	4535
893.575	4637
893.697	4599
893.819	4812
893.941	4805
894.064	4843
894.186	4611
894.308	4588
894.43	4725
894.552	4858
894.674	4759
894.796	4546
894.918	4626
895.04	4561
895.161	4733
895.283	4683
895.405	4637
895.526	4694
895.648	4733
895.769	4691
895.891	4755
896.012	4736
896.134	4752
896.255	4698
896.376	4721
896.498	4641
896.619	4725
896.74	4618
896.861	4649
896.982	4946
897.103	5090
897.224	4831
897.345	4736
897.466	4687
897.587	4759
897.708	4850
897.828	4782
897.949	4630
898.07	4550
898.19	4649
898.311	4839
898.431	4729
898.552	4744
898.672	4835
898.792	4771
898.913	4733
899.033	4618
899.153	4550
899.273	4413
899.393	4508
899.513	4550
899.633	4516
899.753	4542
899.873	4527
899.993	4596
900.113	4523
900.232	4626
900.352	4535
900.472	4470
900.591	4424
900.711	4504
900.83	4497
900.95	4653
901.069	4729
901.189	4565
901.308	4363
901.427	4329
901.546	4394
901.665	4500
901.784	4493
901.904	4390
902.023	4303
902.141	4192
902.26	4169
902.379	4348
902.498	4261
902.617	4238
902.735	4424
902.854	4436
902.973	4386
903.091	4215
903.21	4253
903.328	4287
903.446	4276
903.565	4265
903.683	4344
903.801	4314
903.919	4421
904.038	4443
904.156	4329
904.274	4424
904.392	4459
904.51	4474
904.627	4504
904.745	4596
904.863	4645
904.981	4424
905.098	4341
905.216	4375
905.334	4424
905.451	4440
905.569	4508
905.686	4573
905.803	4580
905.921	4409
906.038	4554
906.155	4436
906.272	4371
906.389	4466
906.506	4337
906.623	4375
906.74	4394
906.857	4287
906.974	4409
907.091	4527
907.208	4630
907.324	4565
907.441	4474
907.557	4348
907.674	4325
907.79	4333
907.907	4402
908.023	4424
908.139	4497
908.256	4424
908.372	4436
908.488	4474
908.604	4367
908.72	4329
908.836	4363
908.952	4394
909.068	4443
909.184	4599
909.3	4481
909.415	4561
909.531	4519
909.647	4375
909.762	4379
909.878	4348
909.993	4436
910.108	4405
910.224	4440
910.339	4481
910.454	4363
910.57	4379
910.685	4337
910.8	4675
910.915	4596
911.03	4523
911.145	4314
911.259	4303
911.374	4360
911.489	4322
911.604	4284
911.718	4158
911.833	4196
911.947	4093
912.062	4017
912.176	4200
912.291	4272
912.405	4265
912.519	4451
912.633	4519
912.748	4356
912.862	4318
912.976	4238
913.09	4112
913.204	4150
913.318	4272
913.431	4417
913.545	4409
913.659	4470
913.772	4390
913.886	4249
914	4219
914.113	4386
914.226	4424
914.34	4394
914.453	4280
914.566	4474
914.68	4291
914.793	4348
914.906	4204
915.019	4158
915.132	4105
915.245	4196
915.358	4268
915.47	4284
915.583	4257
915.696	4261
915.809	4379
915.921	4447
916.034	4242
916.146	4253
916.259	4200
916.371	4417
916.483	4341
916.595	4276
916.708	4356
916.82	4341
916.932	4306
917.044	4322
917.156	4333
917.268	4276
917.38	4268
917.491	4287
917.603	4306
917.715	4428
917.826	4432
917.938	4356
918.049	4207
918.161	4383
918.272	4527
918.384	4531
918.495	4424
918.606	4310
918.717	4272
918.828	4386
918.939	4329
919.05	4265
919.161	4322
919.272	4139
919.383	4246
919.494	4428
919.604	4698
919.715	4409
919.826	4356
919.936	4424
920.047	4478
920.157	4462
920.267	4679
920.378	4599
920.488	4508
920.598	4729
920.708	4862
920.818	4725
920.928	4740
921.038	4957
921.148	4938
921.258	4656
921.368	4641
921.477	4493
921.587	4466
921.697	4375
921.806	4527
921.916	4428
922.025	4280
922.134	4268
922.244	4219
922.353	4306
922.462	4185
922.571	4131
922.68	4010
922.789	4025
922.898	4071
923.007	4013
923.116	4128
923.224	4109
923.333	4120
923.442	3991
923.55	4006
923.659	4093
923.767	4124
923.876	4055
923.984	4158
924.092	4002
924.201	4048
924.309	4101
924.417	4135
924.525	4044
924.633	4097
924.741	5064
924.849	3896
924.956	4112
925.064	3964
925.172	3922
925.279	3918
925.387	4048
925.494	4059
925.602	4219
925.709	4200
925.816	4074
925.924	4135
926.031	4238
926.138	4143
926.245	4227
926.352	4074
926.459	4223
926.566	4287
926.673	4188
926.779	4063
926.886	4048
926.993	4017
927.099	3960
927.206	3964
927.312	3926
927.419	4093
927.525	4048
927.631	4124
927.737	3991
927.843	3960
927.95	3861
928.056	3945
928.162	3956
928.267	4086
928.373	4698
928.479	4105
928.585	3896
928.69	4021
928.796	4078
928.901	4017
929.007	3850
929.112	4006
929.218	4040
929.323	3911
929.428	3960
929.533	4082
929.638	3926
929.743	3941
929.848	4032
929.953	3987
930.058	3945
930.163	3797
930.267	3850
930.372	4025
930.477	3842
930.581	4051
930.685	3960
930.79	3838
930.894	3880
930.998	3838
931.103	4040
931.207	3698
931.311	3720
931.415	3660
931.519	3523
931.623	3545
