Data from test_V78500241_2468.txt Node
Date: Fri Mar 25 17:06:09 CST 2022
User: usil
Spectrometer: V785-0024
Trigger mode: 0
Integration Time (sec): 4.000000E-1
Scans to average: 1
Nonlinearity correction enabled: false
Boxcar width: 0
Storing dark spectrum: false
XAxis mode: Wavelengths
Number of Pixels in Spectrum: 1024
>>>>>Begin Spectral Data<<<<<
801.071	8039
801.214	7925
801.356	7841
801.499	7788
801.641	7712
801.783	7837
801.926	7963
802.068	7906
802.211	7936
802.353	7989
802.496	7845
802.638	7822
802.78	7868
802.923	7906
803.065	7879
803.208	7868
803.35	7963
803.492	8054
803.635	8195
803.777	8050
803.919	8065
804.061	8434
804.204	8145
804.346	8058
804.488	7982
804.63	8103
804.773	7997
804.915	8134
805.057	8202
805.199	8145
805.341	8221
805.483	8256
805.626	8218
805.768	8126
805.91	8237
806.052	8218
806.194	8077
806.336	8256
806.478	8062
806.62	8035
806.762	8142
806.904	8267
807.046	8450
807.188	8374
807.33	8309
807.472	8290
807.614	8176
807.756	8157
807.898	7955
808.04	7909
808.182	7879
808.324	7894
808.465	7894
808.607	8103
808.749	8100
808.891	8248
809.033	8237
809.174	8221
809.316	8043
809.458	8081
809.6	8043
809.741	8012
809.883	8012
810.025	8084
810.166	8100
810.308	7986
810.45	7993
810.591	7830
810.733	7719
810.875	7658
811.016	7499
811.158	7449
811.299	7502
811.441	7769
811.582	7704
811.724	7563
811.865	7472
812.007	7628
812.148	7586
812.29	7609
812.431	7769
812.573	7871
812.714	7993
812.855	8130
812.997	8157
813.138	8225
813.279	8176
813.421	8069
813.562	7982
813.703	7852
813.845	7731
813.986	7396
814.127	7289
814.268	7228
814.41	7164
814.551	7183
814.692	7308
814.833	7088
814.974	7072
815.115	7129
815.256	6905
815.397	6935
815.539	6928
815.68	6802
815.821	6772
815.962	6916
816.103	6859
816.244	6711
816.385	6555
816.526	6639
816.666	6509
816.807	6331
816.948	6502
817.089	6475
817.23	6452
817.371	6414
817.512	6346
817.653	6460
817.793	6372
817.934	6391
818.075	6429
818.216	6433
818.356	6429
818.497	6308
818.638	6121
818.778	6182
818.919	6171
819.06	6205
819.2	6357
819.341	6323
819.481	6323
819.622	6525
819.762	6707
819.903	6711
820.043	6627
820.184	6623
820.324	6601
820.465	6764
820.605	6688
820.746	6677
820.886	6593
821.026	6734
821.167	6715
821.307	6795
821.447	6779
821.588	6642
821.728	6547
821.868	6532
822.008	6304
822.149	6414
822.289	6331
822.429	6152
822.569	6079
822.709	6159
822.849	5958
822.99	5931
823.13	5954
823.27	5942
823.41	5817
823.55	5802
823.69	5752
823.83	5733
823.97	5653
824.11	5505
824.25	5493
824.389	5535
824.529	5558
824.669	5516
824.809	5653
824.949	5726
825.089	5592
825.228	5566
825.368	5383
825.508	5341
825.648	5349
825.787	5364
825.927	5357
826.067	5258
826.206	5337
826.346	5368
826.485	5360
826.625	5433
826.765	5535
826.904	5535
827.044	5246
827.183	5181
827.323	5136
827.462	5231
827.601	5174
827.741	5250
827.88	5231
828.02	5109
828.159	5246
828.298	5318
828.437	5345
828.577	5261
828.716	5410
828.855	5250
828.994	5143
829.134	5178
829.273	5178
829.412	5109
829.551	5109
829.69	5159
829.829	5250
829.968	5364
830.107	5280
830.246	5254
830.385	5193
830.524	5197
830.663	5029
830.802	5025
830.941	4873
831.08	4828
831.219	4953
831.357	4961
831.496	5181
831.635	4908
831.774	4854
831.913	4847
832.051	4771
832.19	4759
832.329	4847
832.467	4725
832.606	4615
832.744	4725
832.883	4694
833.022	4702
833.16	4744
833.299	4824
833.437	4805
833.576	4793
833.714	4816
833.852	4847
833.991	4892
834.129	4961
834.267	4953
834.406	4900
834.544	4946
834.682	4984
834.821	4953
834.959	5174
835.097	5018
835.235	5155
835.373	5067
835.511	5140
835.65	5014
835.788	5025
835.926	4892
836.064	4870
836.202	4900
836.34	5166
836.478	5216
836.615	5117
836.753	5223
836.891	5277
837.029	5242
837.167	5208
837.305	5162
837.443	5109
837.58	5071
837.718	5227
837.856	5166
837.993	5136
838.131	5277
838.269	5174
838.406	5170
838.544	5147
838.681	5041
838.819	5060
838.956	4873
839.094	4896
839.231	4980
839.369	5094
839.506	5379
839.643	5288
839.781	5102
839.918	4968
840.055	5083
840.193	5075
840.33	5079
840.467	5109
840.604	5204
840.742	5520
840.879	5102
841.016	5064
841.153	5185
841.29	5391
841.427	5368
841.564	5322
841.701	5315
841.838	5326
841.975	5227
842.112	5269
842.249	5124
842.385	5113
842.522	5330
842.659	5174
842.796	5174
842.933	5204
843.069	5136
843.206	5178
843.343	5284
843.479	5201
843.616	5277
843.752	5003
843.889	4984
844.025	5227
844.162	4999
844.298	5212
844.435	5071
844.571	5018
844.708	5181
844.844	5318
844.98	5292
845.117	5246
845.253	5067
845.389	5067
845.525	5162
845.661	5140
845.798	5037
845.934	5086
846.07	5041
846.206	5227
846.342	5258
846.478	5178
846.614	4968
846.75	4980
846.886	4976
847.022	5117
847.158	5025
847.294	5033
847.429	5102
847.565	5071
847.701	5379
847.837	4862
847.972	4782
848.108	4957
848.244	4930
848.379	4793
848.515	4710
848.65	4744
848.786	4736
848.921	4801
849.057	4858
849.192	4828
849.328	4790
849.463	4812
849.598	4793
849.734	4736
849.869	4733
850.004	4603
850.14	4607
850.275	4634
850.41	4550
850.545	4558
850.68	4573
850.815	4664
850.95	4626
851.085	4809
851.22	4706
851.355	4664
851.49	4618
851.625	4645
851.76	4645
851.895	4592
852.03	4531
852.165	4637
852.299	4740
852.434	4774
852.569	4702
852.703	4744
852.838	4828
852.973	4904
853.107	4923
853.242	4733
853.376	4717
853.511	4569
853.645	4607
853.78	4850
853.914	4683
854.048	4641
854.183	4660
854.317	4706
854.451	4850
854.585	4668
854.72	4592
854.854	4774
854.988	4592
855.122	4656
855.256	4588
855.39	4641
855.524	4790
855.658	4637
855.792	4744
855.926	4759
856.06	4793
856.194	4816
856.327	4653
856.461	4603
856.595	4664
856.729	4603
856.862	4759
856.996	4622
857.13	4763
857.263	4759
857.397	4748
857.53	4596
857.664	4733
857.797	4694
857.931	4778
858.064	4691
858.197	4698
858.331	4668
858.464	4607
858.597	4474
858.731	4596
858.864	4702
858.997	4615
859.13	4664
859.263	4660
859.396	4675
859.529	4584
859.662	4580
859.795	4554
859.928	4615
860.061	4782
860.194	4740
860.327	4615
860.46	4531
860.592	4656
860.725	4733
860.858	4759
860.99	4519
861.123	4519
861.256	4470
861.388	4550
861.521	5151
861.653	4519
861.786	4459
861.918	4428
862.05	4470
862.183	4546
862.315	4573
862.447	4611
862.58	4535
862.712	4383
862.844	4291
862.976	4478
863.108	4485
863.24	4896
863.372	4371
863.504	4402
863.636	4390
863.768	4455
863.9	4459
864.032	4379
864.164	4447
864.296	4500
864.428	4527
864.559	4561
864.691	4584
864.823	4538
864.954	4531
865.086	4485
865.217	4470
865.349	4390
865.48	4459
865.612	4542
865.743	4592
865.875	4478
866.006	4424
866.137	4440
866.269	4443
866.4	4432
866.531	4405
866.662	4421
866.793	4402
866.924	4417
867.055	4493
867.186	4440
867.317	4383
867.448	4375
867.579	4405
867.71	4398
867.841	4394
867.972	4462
868.103	4478
868.233	4432
868.364	4500
868.495	4459
868.625	4653
868.756	4729
868.886	4542
869.017	4596
869.147	4820
869.278	4740
869.408	4622
869.539	4618
869.669	4733
869.799	4656
869.929	4736
870.06	4714
870.19	4904
870.32	4934
870.45	4938
870.58	5006
870.71	5109
870.84	5117
870.97	4987
871.1	4847
871.23	5102
871.36	5132
871.489	5025
871.619	5010
871.749	5090
871.879	5113
872.008	5189
872.138	5128
872.267	4991
872.397	4847
872.526	4824
872.656	4706
872.785	4771
872.915	4999
873.044	5045
873.173	4972
873.303	4976
873.432	4976
873.561	4896
873.69	4881
873.819	4820
873.948	4942
874.077	4831
874.206	4778
874.335	4805
874.464	4946
874.593	5060
874.722	5010
874.851	5052
874.979	5064
875.108	5045
875.237	4873
875.365	4843
875.494	4862
875.623	4984
875.751	4858
875.88	4866
876.008	4976
876.136	5083
876.265	5151
876.393	5303
876.521	5265
876.65	5208
876.778	5159
876.906	5094
877.034	5022
877.162	5064
877.29	4965
877.418	5086
877.546	5045
877.674	5075
877.802	5029
877.93	4980
878.058	4938
878.185	4892
878.313	4968
878.441	4980
878.568	4812
878.696	4889
878.824	4961
878.951	5022
879.079	5105
879.206	5280
879.333	5140
879.461	5018
879.588	5029
879.715	5124
879.842	5208
879.97	5090
880.097	4755
880.224	4733
880.351	4767
880.478	4809
880.605	4755
880.732	4744
880.859	5117
880.986	4927
881.112	4919
881.239	4763
881.366	4687
881.493	4649
881.619	4573
881.746	4653
881.872	4702
881.999	4660
882.125	4683
882.252	4778
882.378	4854
882.505	4885
882.631	4839
882.757	4656
882.883	4736
883.01	4736
883.136	4672
883.262	4622
883.388	4565
883.514	4801
883.64	4862
883.766	4824
883.892	4630
884.018	4710
884.143	4919
884.269	5010
884.395	4672
884.52	4618
884.646	4615
884.772	4599
884.897	4569
885.023	4641
885.148	4774
885.274	4908
885.399	4831
885.524	4668
885.65	4679
885.775	4763
885.9	4736
886.025	4835
886.15	4812
886.275	4729
886.4	4653
886.525	4717
886.65	4691
886.775	4706
886.9	4881
887.025	4999
887.149	4786
887.274	4649
887.399	4573
887.523	4592
887.648	4622
887.773	4596
887.897	4744
888.021	4740
888.146	4717
888.27	4816
888.395	4881
888.519	4774
888.643	4881
888.767	4835
888.891	4679
889.015	4588
889.139	4645
889.263	4622
889.387	4774
889.511	4866
889.635	4744
889.759	4653
889.883	4634
890.006	4740
890.13	4835
890.254	4573
890.377	4649
890.501	4538
890.624	4459
890.748	4592
890.871	4470
890.995	4432
891.118	4409
891.241	4470
891.364	4527
891.488	4615
891.611	4493
891.734	4527
891.857	4607
891.98	4542
892.103	4649
892.226	4596
892.349	4523
892.471	4394
892.594	4489
892.717	4611
892.839	4569
892.962	4637
893.085	4630
893.207	4588
893.33	4481
893.452	4481
893.575	4660
893.697	4519
893.819	4790
893.941	4820
894.064	4790
894.186	4554
894.308	4569
894.43	4740
894.552	4824
894.674	4733
894.796	4565
894.918	4599
895.04	4584
895.161	4664
895.283	4683
895.405	4580
895.526	4634
895.648	4675
895.769	4645
895.891	4725
896.012	4763
896.134	4733
896.255	4672
896.376	4622
896.498	4618
896.619	4649
896.74	4607
896.861	4675
896.982	4957
897.103	5045
897.224	4828
897.345	4752
897.466	4668
897.587	4729
897.708	4862
897.828	4778
897.949	4672
898.07	4561
898.19	4622
898.311	4824
898.431	4675
898.552	4767
898.672	4797
898.792	4824
898.913	4786
899.033	4550
899.153	4508
899.273	4436
899.393	4516
899.513	4508
899.633	4504
899.753	4573
899.873	4527
899.993	4565
900.113	4508
900.232	4554
900.352	4584
900.472	4466
900.591	4360
900.711	4493
900.83	4417
900.95	4607
901.069	4645
901.189	4531
901.308	4383
901.427	4299
901.546	4390
901.665	4470
901.784	4516
901.904	4333
902.023	4333
902.141	4227
902.26	4154
902.379	4284
902.498	4211
902.617	4181
902.735	4421
902.854	4360
902.973	4348
903.091	4207
903.21	4242
903.328	4322
903.446	4280
903.565	4249
903.683	4337
903.801	4257
903.919	4413
904.038	4417
904.156	4261
904.274	4421
904.392	4386
904.51	4356
904.627	4443
904.745	4523
904.863	4584
904.981	4341
905.098	4280
905.216	4306
905.334	4436
905.451	4432
905.569	4440
905.686	4550
905.803	4573
905.921	4383
906.038	4523
906.155	4470
906.272	4360
906.389	4493
906.506	4394
906.623	4352
906.74	4394
906.857	4284
906.974	4379
907.091	4565
907.208	4687
907.324	4577
907.441	4470
907.557	4325
907.674	4344
907.79	4318
907.907	4402
908.023	4489
908.139	4436
908.256	4451
908.372	4424
908.488	4474
908.604	4337
908.72	4341
908.836	4363
908.952	4394
909.068	4405
909.184	4584
909.3	4455
909.415	4558
909.531	4519
909.647	4360
909.762	4363
909.878	4333
909.993	4398
910.108	4447
910.224	4394
910.339	4504
910.454	4371
910.57	4337
910.685	4310
910.8	4672
910.915	4618
911.03	4527
911.145	4348
911.259	4314
911.374	4398
911.489	4314
911.604	4306
911.718	4143
911.833	4223
911.947	4105
912.062	4048
912.176	4204
912.291	4284
912.405	4314
912.519	4493
912.633	4546
912.748	4432
912.862	4386
912.976	4249
913.09	4112
913.204	4204
913.318	4303
913.431	4379
913.545	4417
913.659	4470
913.772	4383
913.886	4272
914	4287
914.113	4375
914.226	4500
914.34	4386
914.453	4325
914.566	4478
914.68	4371
914.793	4375
914.906	4192
915.019	4207
915.132	4074
915.245	4238
915.358	4268
915.47	4272
915.583	4363
915.696	4322
915.809	4455
915.921	4535
916.034	4291
916.146	4310
916.259	4261
916.371	4405
916.483	4402
916.595	4276
916.708	4352
916.82	4390
916.932	4352
917.044	4363
917.156	4375
917.268	4284
917.38	4322
917.491	4318
917.603	4375
917.715	4409
917.826	4436
917.938	4356
918.049	4306
918.161	4447
918.272	4580
918.384	4573
918.495	4508
918.606	4325
918.717	4295
918.828	4360
918.939	4394
919.05	4306
919.161	4363
919.272	4200
919.383	4280
919.494	4500
919.604	4618
919.715	4500
919.826	4451
919.936	4405
920.047	4569
920.157	4512
920.267	4771
920.378	4550
920.488	4550
920.598	4725
920.708	4957
920.818	4824
920.928	4801
921.038	4991
921.148	4999
921.258	4664
921.368	4554
921.477	4523
921.587	4500
921.697	4428
921.806	4577
921.916	4474
922.025	4265
922.134	4284
922.244	4238
922.353	4390
922.462	4215
922.571	4150
922.68	4090
922.789	4029
922.898	4017
923.007	4010
923.116	4185
923.224	4078
923.333	4090
923.442	4025
923.55	4006
923.659	4059
923.767	4120
923.876	4025
923.984	4154
924.092	4021
924.201	4105
924.309	4112
924.417	4158
924.525	4093
924.633	4158
924.741	5045
924.849	3945
924.956	4181
925.064	3983
925.172	3930
925.279	4006
925.387	4086
925.494	4071
925.602	4242
925.709	4200
925.816	4044
925.924	4185
926.031	4261
926.138	4200
926.245	4234
926.352	4120
926.459	4249
926.566	4337
926.673	4200
926.779	4074
926.886	4101
926.993	4017
927.099	3953
927.206	3964
927.312	3991
927.419	4067
927.525	4097
927.631	4097
927.737	4010
927.843	3934
927.95	3846
928.056	4010
928.162	4021
928.267	4082
928.373	4702
928.479	4177
928.585	3888
928.69	4021
928.796	4063
928.901	3960
929.007	3911
929.112	3998
929.218	3998
929.323	3979
929.428	3983
929.533	4150
929.638	3953
929.743	3968
929.848	4067
929.953	4025
930.058	3972
930.163	3831
930.267	3846
930.372	4055
930.477	3842
930.581	4109
930.685	3994
930.79	3861
930.894	3960
930.998	3873
931.103	4086
931.207	3766
931.311	3724
931.415	3667
931.519	3595
931.623	3595
