Data from test_V78500241_208.txt Node
Date: Fri Mar 25 16:50:26 CST 2022
User: usil
Spectrometer: V785-0024
Trigger mode: 0
Integration Time (sec): 4.000000E-1
Scans to average: 1
Nonlinearity correction enabled: false
Boxcar width: 0
Storing dark spectrum: false
XAxis mode: Wavelengths
Number of Pixels in Spectrum: 1024
>>>>>Begin Spectral Data<<<<<
801.071	8050
801.214	7951
801.356	7875
801.499	7837
801.641	7841
801.783	7909
801.926	8005
802.068	8008
802.211	8012
802.353	8050
802.496	7940
802.638	7913
802.78	7955
802.923	7944
803.065	7906
803.208	7913
803.35	8012
803.492	8020
803.635	8187
803.777	7986
803.919	8153
804.061	8492
804.204	8164
804.346	8088
804.488	7989
804.63	8084
804.773	8035
804.915	8069
805.057	8237
805.199	8123
805.341	8252
805.483	8259
805.626	8180
805.768	8054
805.91	8187
806.052	8164
806.194	8123
806.336	8279
806.478	8176
806.62	8043
806.762	8153
806.904	8229
807.046	8442
807.188	8317
807.33	8256
807.472	8313
807.614	8119
807.756	8172
807.898	8058
808.04	7833
808.182	7890
808.324	7986
808.465	7917
808.607	8119
808.749	8157
808.891	8233
809.033	8282
809.174	8259
809.316	8073
809.458	8111
809.6	8043
809.741	8012
809.883	8126
810.025	8073
810.166	8065
810.308	8069
810.45	8031
810.591	7894
810.733	7776
810.875	7677
811.016	7521
811.158	7483
811.299	7613
811.441	7765
811.582	7681
811.724	7537
811.865	7552
812.007	7655
812.148	7662
812.29	7685
812.431	7784
812.573	7894
812.714	8016
812.855	8252
812.997	8248
813.138	8305
813.279	8191
813.421	8145
813.562	8027
813.703	7940
813.845	7826
813.986	7445
814.127	7339
814.268	7198
814.41	7274
814.551	7179
814.692	7213
814.833	7053
814.974	7145
815.115	7107
815.256	6970
815.397	6962
815.539	7027
815.68	6783
815.821	6844
815.962	6875
816.103	6829
816.244	6715
816.385	6692
816.526	6692
816.666	6464
816.807	6300
816.948	6433
817.089	6506
817.23	6437
817.371	6342
817.512	6376
817.653	6445
817.793	6380
817.934	6448
818.075	6486
818.216	6445
818.356	6304
818.497	6247
818.638	6129
818.778	6213
818.919	6121
819.06	6155
819.2	6289
819.341	6308
819.481	6361
819.622	6494
819.762	6738
819.903	6623
820.043	6608
820.184	6578
820.324	6585
820.465	6700
820.605	6620
820.746	6654
820.886	6528
821.026	6658
821.167	6745
821.307	6764
821.447	6787
821.588	6650
821.728	6578
821.868	6483
822.008	6281
822.149	6384
822.289	6319
822.429	6228
822.569	6064
822.709	6076
822.849	5923
822.99	5866
823.13	5901
823.27	5882
823.41	5809
823.55	5828
823.69	5783
823.83	5851
823.97	5630
824.11	5554
824.25	5547
824.389	5554
824.529	5562
824.669	5539
824.809	5672
824.949	5680
825.089	5608
825.228	5528
825.368	5414
825.508	5376
825.648	5357
825.787	5436
825.927	5387
826.067	5296
826.206	5334
826.346	5440
826.485	5463
826.625	5398
826.765	5547
826.904	5539
827.044	5239
827.183	5201
827.323	5162
827.462	5269
827.601	5208
827.741	5166
827.88	5299
828.02	5128
828.159	5242
828.298	5341
828.437	5368
828.577	5318
828.716	5486
828.855	5258
828.994	5147
829.134	5181
829.273	5197
829.412	5155
829.551	5174
829.69	5181
829.829	5242
829.968	5357
830.107	5280
830.246	5337
830.385	5231
830.524	5170
830.663	5056
830.802	4972
830.941	4889
831.08	4889
831.219	4968
831.357	4930
831.496	5147
831.635	4927
831.774	4835
831.913	4858
832.051	4790
832.19	4752
832.329	4850
832.467	4717
832.606	4637
832.744	4740
832.883	4717
833.022	4786
833.16	4816
833.299	4790
833.437	4847
833.576	4839
833.714	4889
833.852	4877
833.991	4862
834.129	4957
834.267	4984
834.406	4915
834.544	4987
834.682	5033
834.821	4984
834.959	5143
835.097	4999
835.235	5174
835.373	5075
835.511	5098
835.65	5037
835.788	4976
835.926	4896
836.064	4896
836.202	4934
836.34	5090
836.478	5220
836.615	5136
836.753	5208
836.891	5326
837.029	5227
837.167	5174
837.305	5151
837.443	5162
837.58	5037
837.718	5277
837.856	5197
837.993	5124
838.131	5261
838.269	5258
838.406	5208
838.544	5197
838.681	5022
838.819	5010
838.956	4866
839.094	4873
839.231	4953
839.369	5071
839.506	5414
839.643	5284
839.781	5010
839.918	5041
840.055	5094
840.193	5098
840.33	5140
840.467	5121
840.604	5201
840.742	5459
840.879	5147
841.016	5102
841.153	5174
841.29	5330
841.427	5341
841.564	5315
841.701	5414
841.838	5296
841.975	5204
842.112	5250
842.249	5155
842.385	5090
842.522	5326
842.659	5227
842.796	5128
842.933	5166
843.069	5155
843.206	5166
843.343	5296
843.479	5303
843.616	5292
843.752	5056
843.889	5029
844.025	5208
844.162	5029
844.298	5212
844.435	5109
844.571	5041
844.708	5162
844.844	5315
844.98	5334
845.117	5239
845.253	5094
845.389	5018
845.525	5189
845.661	5208
845.798	5060
845.934	5151
846.07	5105
846.206	5147
846.342	5277
846.478	5223
846.614	5029
846.75	5037
846.886	4873
847.022	5159
847.158	5071
847.294	5056
847.429	5094
847.565	5102
847.701	5349
847.837	4911
847.972	4793
848.108	4930
848.244	4961
848.379	4805
848.515	4767
848.65	4755
848.786	4736
848.921	4801
849.057	4862
849.192	4919
849.328	4820
849.463	4824
849.598	4797
849.734	4790
849.869	4698
850.004	4664
850.14	4664
850.275	4634
850.41	4527
850.545	4577
850.68	4615
850.815	4645
850.95	4645
851.085	4866
851.22	4683
851.355	4691
851.49	4660
851.625	4637
851.76	4645
851.895	4542
852.03	4573
852.165	4653
852.299	4736
852.434	4793
852.569	4755
852.703	4755
852.838	4850
852.973	4953
853.107	4896
853.242	4740
853.376	4649
853.511	4538
853.645	4592
853.78	4793
853.914	4664
854.048	4714
854.183	4698
854.317	4691
854.451	4900
854.585	4660
854.72	4660
854.854	4725
854.988	4588
855.122	4561
855.256	4542
855.39	4702
855.524	4778
855.658	4736
855.792	4714
855.926	4721
856.06	4786
856.194	4847
856.327	4725
856.461	4618
856.595	4641
856.729	4679
856.862	4752
856.996	4710
857.13	4774
857.263	4801
857.397	4843
857.53	4626
857.664	4721
857.797	4778
857.931	4782
858.064	4694
858.197	4790
858.331	4637
858.464	4611
858.597	4538
858.731	4626
858.864	4641
858.997	4592
859.13	4664
859.263	4679
859.396	4717
859.529	4527
859.662	4599
859.795	4592
859.928	4679
860.061	4805
860.194	4729
860.327	4622
860.46	4573
860.592	4759
860.725	4698
860.858	4767
860.99	4592
861.123	4546
861.256	4516
861.388	4596
861.521	5239
861.653	4478
861.786	4413
861.918	4470
862.05	4531
862.183	4554
862.315	4603
862.447	4626
862.58	4481
862.712	4371
862.844	4341
862.976	4462
863.108	4481
863.24	4911
863.372	4344
863.504	4428
863.636	4405
863.768	4516
863.9	4436
864.032	4436
864.164	4402
864.296	4481
864.428	4531
864.559	4523
864.691	4542
864.823	4535
864.954	4481
865.086	4516
865.217	4470
865.349	4405
865.48	4470
865.612	4512
865.743	4641
865.875	4523
866.006	4459
866.137	4459
866.269	4428
866.4	4455
866.531	4413
866.662	4398
866.793	4462
866.924	4421
867.055	4512
867.186	4443
867.317	4409
867.448	4421
867.579	4413
867.71	4421
867.841	4402
867.972	4466
868.103	4485
868.233	4470
868.364	4424
868.495	4481
868.625	4664
868.756	4733
868.886	4554
869.017	4573
869.147	4782
869.278	4740
869.408	4694
869.539	4691
869.669	4790
869.799	4691
869.929	4771
870.06	4744
870.19	4911
870.32	4942
870.45	4980
870.58	5018
870.71	5098
870.84	5060
870.97	4953
871.1	4904
871.23	5189
871.36	5086
871.489	5014
871.619	5067
871.749	5075
871.879	5113
872.008	5162
872.138	5064
872.267	4984
872.397	4805
872.526	4847
872.656	4755
872.785	4850
872.915	4949
873.044	5056
873.173	4965
873.303	4976
873.432	4984
873.561	5003
873.69	4858
873.819	4847
873.948	4946
874.077	4831
874.206	4748
874.335	4847
874.464	5006
874.593	5067
874.722	4942
874.851	5010
874.979	5083
875.108	5006
875.237	4919
875.365	4858
875.494	4904
875.623	4968
875.751	4820
875.88	4877
876.008	4957
876.136	4999
876.265	5231
876.393	5357
876.521	5269
876.65	5258
876.778	5166
876.906	5086
877.034	5010
877.162	5086
877.29	4984
877.418	5037
877.546	5094
877.674	5048
877.802	5018
877.93	5006
878.058	4972
878.185	4839
878.313	4980
878.441	4984
878.568	4850
878.696	4900
878.824	4987
878.951	5045
879.079	5124
879.206	5235
879.333	5121
879.461	4999
879.588	5010
879.715	5090
879.842	5223
879.97	5003
880.097	4752
880.224	4771
880.351	4847
880.478	4858
880.605	4797
880.732	4786
880.859	5067
880.986	4946
881.112	4934
881.239	4801
881.366	4664
881.493	4615
881.619	4550
881.746	4691
881.872	4706
881.999	4660
882.125	4733
882.252	4774
882.378	4824
882.505	4938
882.631	4850
882.757	4714
882.883	4778
883.01	4717
883.136	4679
883.262	4634
883.388	4599
883.514	4812
883.64	4870
883.766	4774
883.892	4679
884.018	4725
884.143	4889
884.269	4968
884.395	4683
884.52	4649
884.646	4656
884.772	4592
884.897	4558
885.023	4679
885.148	4790
885.274	4870
885.399	4854
885.524	4710
885.65	4683
885.775	4771
885.9	4736
886.025	4831
886.15	4839
886.275	4710
886.4	4645
886.525	4725
886.65	4736
886.775	4626
886.9	4915
887.025	5060
887.149	4835
887.274	4679
887.399	4535
887.523	4554
887.648	4607
887.773	4622
887.897	4847
888.021	4790
888.146	4656
888.27	4744
888.395	4919
888.519	4786
888.643	4801
888.767	4805
888.891	4645
889.015	4649
889.139	4656
889.263	4569
889.387	4763
889.511	4877
889.635	4759
889.759	4615
889.883	4694
890.006	4698
890.13	4828
890.254	4618
890.377	4687
890.501	4558
890.624	4493
890.748	4634
890.871	4527
890.995	4455
891.118	4386
891.241	4546
891.364	4542
891.488	4656
891.611	4527
891.734	4599
891.857	4626
891.98	4531
892.103	4649
892.226	4580
892.349	4531
892.471	4462
892.594	4535
892.717	4649
892.839	4538
892.962	4584
893.085	4679
893.207	4615
893.33	4436
893.452	4542
893.575	4645
893.697	4618
893.819	4782
893.941	4797
894.064	4786
894.186	4558
894.308	4535
894.43	4668
894.552	4797
894.674	4733
894.796	4607
894.918	4634
895.04	4516
895.161	4694
895.283	4672
895.405	4622
895.526	4630
895.648	4714
895.769	4698
895.891	4725
896.012	4793
896.134	4778
896.255	4649
896.376	4664
896.498	4603
896.619	4729
896.74	4626
896.861	4645
896.982	4938
897.103	5064
897.224	4793
897.345	4812
897.466	4683
897.587	4763
897.708	4847
897.828	4790
897.949	4675
898.07	4542
898.19	4637
898.311	4858
898.431	4721
898.552	4710
898.672	4839
898.792	4824
898.913	4771
899.033	4645
899.153	4504
899.273	4470
899.393	4478
899.513	4535
899.633	4561
899.753	4538
899.873	4508
899.993	4584
900.113	4538
900.232	4577
900.352	4573
900.472	4485
900.591	4440
900.711	4481
900.83	4402
900.95	4630
901.069	4664
901.189	4584
901.308	4352
901.427	4280
901.546	4371
901.665	4489
901.784	4573
901.904	4329
902.023	4386
902.141	4211
902.26	4200
902.379	4306
902.498	4265
902.617	4249
902.735	4383
902.854	4360
902.973	4390
903.091	4162
903.21	4276
903.328	4303
903.446	4291
903.565	4207
903.683	4371
903.801	4310
903.919	4394
904.038	4462
904.156	4329
904.274	4405
904.392	4417
904.51	4405
904.627	4489
904.745	4565
904.863	4622
904.981	4386
905.098	4329
905.216	4375
905.334	4470
905.451	4424
905.569	4451
905.686	4558
905.803	4580
905.921	4405
906.038	4531
906.155	4440
906.272	4459
906.389	4421
906.506	4318
906.623	4352
906.74	4390
906.857	4268
906.974	4363
907.091	4592
907.208	4683
907.324	4630
907.441	4519
907.557	4386
907.674	4360
907.79	4329
907.907	4405
908.023	4485
908.139	4459
908.256	4478
908.372	4436
908.488	4440
908.604	4371
908.72	4306
908.836	4390
908.952	4367
909.068	4413
909.184	4607
909.3	4470
909.415	4592
909.531	4573
909.647	4417
909.762	4390
909.878	4337
909.993	4428
910.108	4436
910.224	4424
910.339	4504
910.454	4421
910.57	4356
910.685	4287
910.8	4637
910.915	4607
911.03	4470
911.145	4303
911.259	4318
911.374	4325
911.489	4257
911.604	4287
911.718	4181
911.833	4181
911.947	4071
912.062	4029
912.176	4234
912.291	4249
912.405	4230
912.519	4451
912.633	4500
912.748	4333
912.862	4287
912.976	4223
913.09	4101
913.204	4177
913.318	4223
913.431	4424
913.545	4383
913.659	4466
913.772	4356
913.886	4181
914	4215
914.113	4386
914.226	4432
914.34	4409
914.453	4268
914.566	4447
914.68	4272
914.793	4352
914.906	4188
915.019	4169
915.132	4063
915.245	4207
915.358	4246
915.47	4265
915.583	4265
915.696	4356
915.809	4462
915.921	4405
916.034	4291
916.146	4253
916.259	4261
916.371	4417
916.483	4379
916.595	4322
916.708	4322
916.82	4363
916.932	4344
917.044	4379
917.156	4337
917.268	4276
917.38	4314
917.491	4306
917.603	4371
917.715	4440
917.826	4523
917.938	4383
918.049	4265
918.161	4447
918.272	4561
918.384	4592
918.495	4481
918.606	4299
918.717	4325
918.828	4348
918.939	4409
919.05	4299
919.161	4398
919.272	4177
919.383	4253
919.494	4497
919.604	4691
919.715	4466
919.826	4398
919.936	4451
920.047	4561
920.157	4542
920.267	4729
920.378	4573
920.488	4565
920.598	4733
920.708	4892
920.818	4793
920.928	4820
921.038	4999
921.148	4923
921.258	4675
921.368	4607
921.477	4554
921.587	4516
921.697	4398
921.806	4641
921.916	4462
922.025	4306
922.134	4333
922.244	4249
922.353	4371
922.462	4230
922.571	4143
922.68	4067
922.789	4036
922.898	4124
923.007	4063
923.116	4139
923.224	4116
923.333	4093
923.442	4055
923.55	4013
923.659	4048
923.767	4116
923.876	4036
923.984	4147
924.092	4048
924.201	4078
924.309	4154
924.417	4181
924.525	4116
924.633	4162
924.741	5105
924.849	3991
924.956	4204
925.064	4006
925.172	3949
925.279	4010
925.387	4082
925.494	4078
925.602	4257
925.709	4219
925.816	4032
925.924	4196
926.031	4299
926.138	4219
926.245	4249
926.352	4150
926.459	4348
926.566	4348
926.673	4166
926.779	4109
926.886	4143
926.993	4044
927.099	4051
927.206	3994
927.312	4013
927.419	4105
927.525	4082
927.631	4150
927.737	3975
927.843	3983
927.95	3876
928.056	3922
928.162	4029
928.267	4116
928.373	4740
928.479	4150
928.585	3896
928.69	4067
928.796	4086
928.901	4055
929.007	3884
929.112	4048
929.218	3983
929.323	3911
929.428	4025
929.533	4150
929.638	3934
929.743	3987
929.848	4048
929.953	4051
930.058	3937
930.163	3854
930.267	3915
930.372	4006
930.477	3823
930.581	4128
930.685	4021
930.79	3857
930.894	3918
930.998	3892
931.103	4071
931.207	3705
931.311	3732
931.415	3724
931.519	3591
931.623	3564
