Data from test_V78500241_1861.txt Node
Date: Fri Mar 25 17:01:56 CST 2022
User: usil
Spectrometer: V785-0024
Trigger mode: 0
Integration Time (sec): 4.000000E-1
Scans to average: 1
Nonlinearity correction enabled: false
Boxcar width: 0
Storing dark spectrum: false
XAxis mode: Wavelengths
Number of Pixels in Spectrum: 1024
>>>>>Begin Spectral Data<<<<<
801.071	8046
801.214	8046
801.356	7906
801.499	7913
801.641	7769
801.783	7837
801.926	7932
802.068	7989
802.211	7928
802.353	8050
802.496	7837
802.638	7837
802.78	7883
802.923	7890
803.065	7883
803.208	7852
803.35	7982
803.492	8096
803.635	8199
803.777	8001
803.919	8149
804.061	8499
804.204	8176
804.346	8069
804.488	7974
804.63	8123
804.773	8065
804.915	8214
805.057	8328
805.199	8161
805.341	8157
805.483	8202
805.626	8210
805.768	8115
805.91	8218
806.052	8206
806.194	8081
806.336	8317
806.478	8142
806.62	8031
806.762	8123
806.904	8256
807.046	8537
807.188	8377
807.33	8279
807.472	8393
807.614	8195
807.756	8145
807.898	8024
808.04	7898
808.182	7959
808.324	7860
808.465	7928
808.607	8001
808.749	8134
808.891	8320
809.033	8271
809.174	8263
809.316	8096
809.458	8062
809.6	7982
809.741	8111
809.883	8111
810.025	8088
810.166	8134
810.308	8031
810.45	7955
810.591	7845
810.733	7734
810.875	7689
811.016	7480
811.158	7464
811.299	7609
811.441	7772
811.582	7636
811.724	7571
811.865	7540
812.007	7586
812.148	7616
812.29	7616
812.431	7868
812.573	7936
812.714	7974
812.855	8149
812.997	8164
813.138	8324
813.279	8214
813.421	8123
813.562	7978
813.703	7833
813.845	7765
813.986	7430
814.127	7213
814.268	7190
814.41	7164
814.551	7107
814.692	7255
814.833	7057
814.974	7034
815.115	7149
815.256	6962
815.397	6897
815.539	6981
815.68	6840
815.821	6734
815.962	6897
816.103	6798
816.244	6677
816.385	6631
816.526	6608
816.666	6475
816.807	6323
816.948	6460
817.089	6483
817.23	6399
817.371	6380
817.512	6429
817.653	6422
817.793	6384
817.934	6399
818.075	6410
818.216	6486
818.356	6376
818.497	6197
818.638	6167
818.778	6163
818.919	6133
819.06	6186
819.2	6361
819.341	6315
819.481	6407
819.622	6559
819.762	6741
819.903	6635
820.043	6601
820.184	6521
820.324	6589
820.465	6688
820.605	6703
820.746	6715
820.886	6547
821.026	6658
821.167	6696
821.307	6795
821.447	6726
821.588	6620
821.728	6536
821.868	6490
822.008	6353
822.149	6334
822.289	6372
822.429	6167
822.569	6083
822.709	6095
822.849	5908
822.99	5878
823.13	5927
823.27	5935
823.41	5821
823.55	5805
823.69	5790
823.83	5794
823.97	5703
824.11	5558
824.25	5497
824.389	5570
824.529	5627
824.669	5463
824.809	5642
824.949	5661
825.089	5577
825.228	5619
825.368	5357
825.508	5379
825.648	5337
825.787	5376
825.927	5353
826.067	5296
826.206	5299
826.346	5318
826.485	5433
826.625	5482
826.765	5554
826.904	5425
827.044	5258
827.183	5223
827.323	5147
827.462	5216
827.601	5193
827.741	5181
827.88	5223
828.02	5132
828.159	5235
828.298	5345
828.437	5379
828.577	5288
828.716	5410
828.855	5337
828.994	5147
829.134	5147
829.273	5136
829.412	5208
829.551	5235
829.69	5185
829.829	5258
829.968	5357
830.107	5261
830.246	5273
830.385	5166
830.524	5113
830.663	5071
830.802	5006
830.941	4858
831.08	4873
831.219	4961
831.357	4999
831.496	5174
831.635	4930
831.774	4820
831.913	4843
832.051	4755
832.19	4752
832.329	4858
832.467	4668
832.606	4599
832.744	4694
832.883	4729
833.022	4740
833.16	4786
833.299	4824
833.437	4809
833.576	4850
833.714	4873
833.852	4866
833.991	4896
834.129	4987
834.267	4980
834.406	4957
834.544	4968
834.682	4976
834.821	4949
834.959	5143
835.097	4999
835.235	5117
835.373	5132
835.511	5124
835.65	5098
835.788	5037
835.926	4946
836.064	4915
836.202	4942
836.34	5128
836.478	5174
836.615	5128
836.753	5220
836.891	5284
837.029	5231
837.167	5231
837.305	5189
837.443	5109
837.58	5060
837.718	5265
837.856	5136
837.993	5159
838.131	5185
838.269	5261
838.406	5178
838.544	5231
838.681	5071
838.819	4995
838.956	4850
839.094	4873
839.231	4991
839.369	5098
839.506	5402
839.643	5216
839.781	5045
839.918	4991
840.055	5075
840.193	5071
840.33	5086
840.467	5159
840.604	5178
840.742	5406
840.879	5075
841.016	5098
841.153	5143
841.29	5387
841.427	5334
841.564	5334
841.701	5383
841.838	5296
841.975	5242
842.112	5250
842.249	5166
842.385	5136
842.522	5330
842.659	5189
842.796	5140
842.933	5181
843.069	5201
843.206	5143
843.343	5341
843.479	5261
843.616	5277
843.752	5018
843.889	5018
844.025	5220
844.162	5041
844.298	5239
844.435	5094
844.571	5006
844.708	5227
844.844	5318
844.98	5334
845.117	5334
845.253	5109
845.389	5064
845.525	5189
845.661	5155
845.798	4995
845.934	5113
846.07	5052
846.206	5208
846.342	5265
846.478	5162
846.614	5018
846.75	4984
846.886	4919
847.022	5102
847.158	5090
847.294	5083
847.429	5109
847.565	4972
847.701	5303
847.837	4809
847.972	4812
848.108	4991
848.244	4995
848.379	4767
848.515	4721
848.65	4664
848.786	4755
848.921	4774
849.057	4843
849.192	4870
849.328	4820
849.463	4850
849.598	4805
849.734	4736
849.869	4698
850.004	4626
850.14	4660
850.275	4599
850.41	4546
850.545	4577
850.68	4607
850.815	4603
850.95	4656
851.085	4801
851.22	4733
851.355	4691
851.49	4622
851.625	4607
851.76	4653
851.895	4550
852.03	4554
852.165	4668
852.299	4729
852.434	4774
852.569	4759
852.703	4793
852.838	4892
852.973	4885
853.107	4900
853.242	4679
853.376	4694
853.511	4580
853.645	4599
853.78	4763
853.914	4637
854.048	4656
854.183	4664
854.317	4675
854.451	4816
854.585	4687
854.72	4630
854.854	4774
854.988	4561
855.122	4615
855.256	4554
855.39	4672
855.524	4767
855.658	4717
855.792	4710
855.926	4755
856.06	4782
856.194	4793
856.327	4618
856.461	4599
856.595	4596
856.729	4599
856.862	4755
856.996	4729
857.13	4759
857.263	4736
857.397	4801
857.53	4618
857.664	4717
857.797	4771
857.931	4790
858.064	4675
858.197	4721
858.331	4660
858.464	4618
858.597	4538
858.731	4645
858.864	4672
858.997	4558
859.13	4634
859.263	4710
859.396	4675
859.529	4573
859.662	4565
859.795	4516
859.928	4577
860.061	4748
860.194	4729
860.327	4626
860.46	4561
860.592	4733
860.725	4729
860.858	4706
860.99	4561
861.123	4516
861.256	4500
861.388	4634
861.521	5242
861.653	4531
861.786	4485
861.918	4447
862.05	4538
862.183	4558
862.315	4546
862.447	4618
862.58	4527
862.712	4424
862.844	4325
862.976	4436
863.108	4478
863.24	4885
863.372	4325
863.504	4398
863.636	4413
863.768	4493
863.9	4432
864.032	4367
864.164	4413
864.296	4443
864.428	4516
864.559	4546
864.691	4497
864.823	4512
864.954	4485
865.086	4485
865.217	4421
865.349	4398
865.48	4466
865.612	4546
865.743	4603
865.875	4512
866.006	4417
866.137	4470
866.269	4413
866.4	4455
866.531	4451
866.662	4417
866.793	4375
866.924	4436
867.055	4508
867.186	4447
867.317	4417
867.448	4390
867.579	4383
867.71	4375
867.841	4337
867.972	4466
868.103	4443
868.233	4459
868.364	4489
868.495	4516
868.625	4630
868.756	4763
868.886	4519
869.017	4656
869.147	4771
869.278	4801
869.408	4630
869.539	4611
869.669	4748
869.799	4634
869.929	4801
870.06	4721
870.19	4957
870.32	4885
870.45	4923
870.58	5048
870.71	5117
870.84	5132
870.97	4911
871.1	4904
871.23	5105
871.36	5128
871.489	5029
871.619	5064
871.749	5086
871.879	5166
872.008	5204
872.138	5014
872.267	4984
872.397	4809
872.526	4824
872.656	4714
872.785	4809
872.915	4968
873.044	5033
873.173	4900
873.303	5018
873.432	4991
873.561	4934
873.69	4908
873.819	4850
873.948	4877
874.077	4831
874.206	4771
874.335	4771
874.464	4904
874.593	5048
874.722	4965
874.851	5075
874.979	5098
875.108	5025
875.237	4908
875.365	4862
875.494	4900
875.623	4923
875.751	4831
875.88	4854
876.008	4972
876.136	5086
876.265	5220
876.393	5345
876.521	5220
876.65	5178
876.778	5140
876.906	5064
877.034	4976
877.162	5067
877.29	4965
877.418	5060
877.546	4991
877.674	5018
877.802	5018
877.93	5003
878.058	4957
878.185	4900
878.313	4972
878.441	4885
878.568	4782
878.696	4877
878.824	4965
878.951	4999
879.079	5086
879.206	5311
879.333	5071
879.461	4987
879.588	5006
879.715	5079
879.842	5204
879.97	4930
880.097	4778
880.224	4763
880.351	4744
880.478	4809
880.605	4793
880.732	4797
880.859	5083
880.986	4866
881.112	4930
881.239	4767
881.366	4698
881.493	4565
881.619	4577
881.746	4603
881.872	4668
881.999	4626
882.125	4660
882.252	4740
882.378	4835
882.505	4976
882.631	4774
882.757	4637
882.883	4706
883.01	4717
883.136	4668
883.262	4561
883.388	4596
883.514	4801
883.64	4854
883.766	4759
883.892	4630
884.018	4763
884.143	4824
884.269	4946
884.395	4710
884.52	4580
884.646	4660
884.772	4649
884.897	4565
885.023	4656
885.148	4797
885.274	4839
885.399	4782
885.524	4710
885.65	4706
885.775	4774
885.9	4717
886.025	4847
886.15	4771
886.275	4717
886.4	4641
886.525	4706
886.65	4698
886.775	4710
886.9	4919
887.025	5014
887.149	4786
887.274	4615
887.399	4546
887.523	4573
887.648	4603
887.773	4573
887.897	4755
888.021	4748
888.146	4668
888.27	4809
888.395	4911
888.519	4816
888.643	4847
888.767	4835
888.891	4679
889.015	4577
889.139	4596
889.263	4584
889.387	4774
889.511	4828
889.635	4778
889.759	4645
889.883	4626
890.006	4714
890.13	4805
890.254	4577
890.377	4618
890.501	4542
890.624	4497
890.748	4603
890.871	4558
890.995	4417
891.118	4352
891.241	4527
891.364	4542
891.488	4592
891.611	4512
891.734	4565
891.857	4596
891.98	4561
892.103	4615
892.226	4626
892.349	4500
892.471	4379
892.594	4538
892.717	4580
892.839	4584
892.962	4561
893.085	4672
893.207	4596
893.33	4443
893.452	4462
893.575	4630
893.697	4599
893.819	4782
893.941	4816
894.064	4778
894.186	4611
894.308	4554
894.43	4755
894.552	4812
894.674	4809
894.796	4577
894.918	4588
895.04	4580
895.161	4729
895.283	4675
895.405	4573
895.526	4622
895.648	4706
895.769	4668
895.891	4698
896.012	4767
896.134	4725
896.255	4664
896.376	4634
896.498	4634
896.619	4679
896.74	4607
896.861	4592
896.982	4942
897.103	5067
897.224	4805
897.345	4740
897.466	4683
897.587	4721
897.708	4839
897.828	4771
897.949	4698
898.07	4592
898.19	4706
898.311	4828
898.431	4675
898.552	4717
898.672	4801
898.792	4801
898.913	4725
899.033	4584
899.153	4569
899.273	4424
899.393	4485
899.513	4504
899.633	4497
899.753	4519
899.873	4531
899.993	4599
900.113	4538
900.232	4558
900.352	4546
900.472	4447
900.591	4451
900.711	4493
900.83	4432
900.95	4573
901.069	4653
901.189	4512
901.308	4295
901.427	4322
901.546	4386
901.665	4462
901.784	4550
901.904	4379
902.023	4268
902.141	4207
902.26	4128
902.379	4322
902.498	4196
902.617	4238
902.735	4356
902.854	4360
902.973	4352
903.091	4219
903.21	4238
903.328	4325
903.446	4268
903.565	4291
903.683	4348
903.801	4310
903.919	4356
904.038	4417
904.156	4287
904.274	4447
904.392	4398
904.51	4421
904.627	4440
904.745	4516
904.863	4626
904.981	4379
905.098	4318
905.216	4333
905.334	4413
905.451	4405
905.569	4440
905.686	4497
905.803	4584
905.921	4409
906.038	4516
906.155	4462
906.272	4367
906.389	4436
906.506	4352
906.623	4329
906.74	4383
906.857	4322
906.974	4390
907.091	4519
907.208	4649
907.324	4546
907.441	4523
907.557	4405
907.674	4348
907.79	4333
907.907	4371
908.023	4466
908.139	4466
908.256	4398
908.372	4428
908.488	4432
908.604	4375
908.72	4280
908.836	4390
908.952	4379
909.068	4413
909.184	4599
909.3	4489
909.415	4592
909.531	4592
909.647	4348
909.762	4398
909.878	4333
909.993	4356
910.108	4402
910.224	4390
910.339	4462
910.454	4352
910.57	4314
910.685	4306
910.8	4626
910.915	4550
911.03	4443
911.145	4341
911.259	4348
911.374	4371
911.489	4325
911.604	4234
911.718	4185
911.833	4166
911.947	4032
912.062	4036
912.176	4257
912.291	4295
912.405	4204
912.519	4504
912.633	4531
912.748	4402
912.862	4344
912.976	4162
913.09	4112
913.204	4207
913.318	4192
913.431	4363
913.545	4356
913.659	4497
913.772	4352
913.886	4177
914	4207
914.113	4329
914.226	4504
914.34	4398
914.453	4230
914.566	4398
914.68	4291
914.793	4314
914.906	4173
915.019	4128
915.132	4067
915.245	4166
915.358	4207
915.47	4181
915.583	4246
915.696	4291
915.809	4375
915.921	4440
916.034	4280
916.146	4234
916.259	4234
916.371	4375
916.483	4371
916.595	4276
916.708	4318
916.82	4356
916.932	4360
917.044	4287
917.156	4310
917.268	4268
917.38	4268
917.491	4287
917.603	4394
917.715	4402
917.826	4470
917.938	4325
918.049	4227
918.161	4409
918.272	4596
918.384	4500
918.495	4443
918.606	4280
918.717	4299
918.828	4341
918.939	4386
919.05	4295
919.161	4360
919.272	4109
919.383	4234
919.494	4459
919.604	4611
919.715	4455
919.826	4341
919.936	4371
920.047	4519
920.157	4447
920.267	4733
920.378	4504
920.488	4493
920.598	4725
920.708	4885
920.818	4717
920.928	4736
921.038	4908
921.148	4957
921.258	4588
921.368	4493
921.477	4485
921.587	4428
921.697	4375
921.806	4523
921.916	4436
922.025	4265
922.134	4272
922.244	4204
922.353	4356
922.462	4177
922.571	4135
922.68	3972
922.789	3983
922.898	4044
923.007	3987
923.116	4071
923.224	4097
923.333	4074
923.442	3960
923.55	3979
923.659	3994
923.767	4082
923.876	3983
923.984	4124
924.092	3979
924.201	4044
924.309	4082
924.417	4090
924.525	4078
924.633	4120
924.741	5029
924.849	3899
924.956	4185
925.064	3972
925.172	3899
925.279	3918
925.387	4059
925.494	4078
925.602	4162
925.709	4242
925.816	4071
925.924	4131
926.031	4196
926.138	4192
926.245	4223
926.352	4086
926.459	4261
926.566	4291
926.673	4207
926.779	4059
926.886	4071
926.993	3979
927.099	3987
927.206	3937
927.312	3949
927.419	4044
927.525	4040
927.631	4082
927.737	3960
927.843	3972
927.95	3823
928.056	3949
928.162	3979
928.267	3991
928.373	4573
928.479	4162
928.585	3876
928.69	4029
928.796	4124
928.901	3949
929.007	3831
929.112	3979
929.218	3972
929.323	3941
929.428	3899
929.533	4063
929.638	3918
929.743	3975
929.848	4044
929.953	4006
930.058	3884
930.163	3766
930.267	3816
930.372	4017
930.477	3778
930.581	4105
930.685	3953
930.79	3819
930.894	3892
930.998	3861
931.103	4051
931.207	3724
931.311	3690
931.415	3694
931.519	3511
931.623	3561
