Data from test_V78500241_2508.txt Node
Date: Fri Mar 25 17:06:26 CST 2022
User: usil
Spectrometer: V785-0024
Trigger mode: 0
Integration Time (sec): 4.000000E-1
Scans to average: 1
Nonlinearity correction enabled: false
Boxcar width: 0
Storing dark spectrum: false
XAxis mode: Wavelengths
Number of Pixels in Spectrum: 1024
>>>>>Begin Spectral Data<<<<<
801.071	8016
801.214	8027
801.356	7871
801.499	7906
801.641	7830
801.783	7822
801.926	7925
802.068	8008
802.211	7978
802.353	7993
802.496	7875
802.638	7928
802.78	7894
802.923	7936
803.065	7890
803.208	7807
803.35	7936
803.492	8073
803.635	8180
803.777	8016
803.919	8065
804.061	8465
804.204	8149
804.346	8077
804.488	7986
804.63	8138
804.773	7978
804.915	8142
805.057	8301
805.199	8119
805.341	8248
805.483	8248
805.626	8290
805.768	8130
805.91	8202
806.052	8233
806.194	8096
806.336	8313
806.478	8077
806.62	8020
806.762	8126
806.904	8263
807.046	8389
807.188	8408
807.33	8309
807.472	8305
807.614	8145
807.756	8202
807.898	8046
808.04	7875
808.182	7868
808.324	7826
808.465	7830
808.607	8043
808.749	8096
808.891	8218
809.033	8301
809.174	8229
809.316	8126
809.458	8046
809.6	8001
809.741	8008
809.883	8035
810.025	8145
810.166	8069
810.308	8008
810.45	8016
810.591	7887
810.733	7723
810.875	7601
811.016	7590
811.158	7476
811.299	7613
811.441	7814
811.582	7658
811.724	7590
811.865	7525
812.007	7628
812.148	7575
812.29	7655
812.431	7696
812.573	7803
812.714	8012
812.855	8100
812.997	8202
813.138	8320
813.279	8161
813.421	8111
813.562	8043
813.703	7845
813.845	7788
813.986	7438
814.127	7308
814.268	7240
814.41	7168
814.551	7164
814.692	7247
814.833	7072
814.974	7099
815.115	7088
815.256	6973
815.397	6947
815.539	6958
815.68	6806
815.821	6806
815.962	6852
816.103	6825
816.244	6711
816.385	6646
816.526	6646
816.666	6498
816.807	6376
816.948	6365
817.089	6483
817.23	6467
817.371	6323
817.512	6365
817.653	6323
817.793	6353
817.934	6441
818.075	6437
818.216	6456
818.356	6399
818.497	6243
818.638	6129
818.778	6152
818.919	6159
819.06	6167
819.2	6296
819.341	6388
819.481	6369
819.622	6528
819.762	6719
819.903	6722
820.043	6654
820.184	6604
820.324	6597
820.465	6688
820.605	6711
820.746	6738
820.886	6574
821.026	6627
821.167	6677
821.307	6821
821.447	6757
821.588	6692
821.728	6574
821.868	6464
822.008	6338
822.149	6311
822.289	6338
822.429	6167
822.569	6091
822.709	6148
822.849	5893
822.99	5878
823.13	5984
823.27	5882
823.41	5790
823.55	5805
823.69	5771
823.83	5783
823.97	5657
824.11	5528
824.25	5551
824.389	5539
824.529	5611
824.669	5509
824.809	5581
824.949	5668
825.089	5570
825.228	5577
825.368	5402
825.508	5337
825.648	5269
825.787	5379
825.927	5387
826.067	5337
826.206	5326
826.346	5421
826.485	5353
826.625	5436
826.765	5600
826.904	5505
827.044	5246
827.183	5212
827.323	5204
827.462	5246
827.601	5197
827.741	5159
827.88	5277
828.02	5136
828.159	5242
828.298	5334
828.437	5402
828.577	5341
828.716	5554
828.855	5341
828.994	5189
829.134	5162
829.273	5178
829.412	5132
829.551	5155
829.69	5170
829.829	5265
829.968	5376
830.107	5246
830.246	5303
830.385	5250
830.524	5246
830.663	5117
830.802	5056
830.941	4900
831.08	4946
831.219	5037
831.357	5052
831.496	5204
831.635	4949
831.774	4896
831.913	4911
832.051	4763
832.19	4793
832.329	4900
832.467	4774
832.606	4668
832.744	4843
832.883	4790
833.022	4793
833.16	4793
833.299	4854
833.437	4915
833.576	4858
833.714	4953
833.852	4911
833.991	4889
834.129	5010
834.267	4957
834.406	4953
834.544	5067
834.682	5033
834.821	4995
834.959	5201
835.097	5003
835.235	5174
835.373	5143
835.511	5140
835.65	5102
835.788	5045
835.926	4946
836.064	4915
836.202	4949
836.34	5140
836.478	5261
836.615	5151
836.753	5265
836.891	5349
837.029	5288
837.167	5189
837.305	5201
837.443	5197
837.58	5140
837.718	5299
837.856	5189
837.993	5174
838.131	5269
838.269	5231
838.406	5273
838.544	5250
838.681	5090
838.819	5060
838.956	4938
839.094	4930
839.231	5014
839.369	5128
839.506	5463
839.643	5337
839.781	5098
839.918	5067
840.055	5136
840.193	5121
840.33	5140
840.467	5181
840.604	5273
840.742	5455
840.879	5159
841.016	5143
841.153	5151
841.29	5368
841.427	5360
841.564	5307
841.701	5391
841.838	5296
841.975	5296
842.112	5337
842.249	5178
842.385	5140
842.522	5402
842.659	5216
842.796	5208
842.933	5235
843.069	5181
843.206	5166
843.343	5395
843.479	5280
843.616	5322
843.752	5094
843.889	5045
844.025	5246
844.162	5075
844.298	5246
844.435	5124
844.571	5075
844.708	5181
844.844	5353
844.98	5398
845.117	5296
845.253	5147
845.389	5193
845.525	5212
845.661	5185
845.798	5094
845.934	5140
846.07	5124
846.206	5216
846.342	5296
846.478	5220
846.614	5041
846.75	4987
846.886	4968
847.022	5159
847.158	5056
847.294	5117
847.429	5166
847.565	5067
847.701	5349
847.837	4904
847.972	4816
848.108	4980
848.244	4999
848.379	4812
848.515	4774
848.65	4793
848.786	4816
848.921	4752
849.057	4904
849.192	4896
849.328	4877
849.463	4877
849.598	4850
849.734	4805
849.869	4744
850.004	4634
850.14	4683
850.275	4717
850.41	4531
850.545	4607
850.68	4637
850.815	4683
850.95	4664
851.085	4896
851.22	4767
851.355	4653
851.49	4653
851.625	4645
851.76	4714
851.895	4599
852.03	4558
852.165	4725
852.299	4763
852.434	4816
852.569	4790
852.703	4782
852.838	4896
852.973	4968
853.107	4934
853.242	4763
853.376	4649
853.511	4584
853.645	4698
853.78	4797
853.914	4752
854.048	4691
854.183	4683
854.317	4725
854.451	4854
854.585	4740
854.72	4607
854.854	4801
854.988	4653
855.122	4668
855.256	4508
855.39	4748
855.524	4790
855.658	4778
855.792	4763
855.926	4748
856.06	4790
856.194	4812
856.327	4748
856.461	4630
856.595	4672
856.729	4622
856.862	4793
856.996	4679
857.13	4725
857.263	4733
857.397	4809
857.53	4675
857.664	4793
857.797	4809
857.931	4805
858.064	4687
858.197	4740
858.331	4721
858.464	4645
858.597	4535
858.731	4706
858.864	4641
858.997	4611
859.13	4694
859.263	4683
859.396	4755
859.529	4561
859.662	4596
859.795	4641
859.928	4630
860.061	4774
860.194	4759
860.327	4618
860.46	4573
860.592	4786
860.725	4717
860.858	4717
860.99	4615
861.123	4489
861.256	4538
861.388	4634
861.521	5216
861.653	4516
861.786	4519
861.918	4512
862.05	4577
862.183	4611
862.315	4630
862.447	4653
862.58	4558
862.712	4436
862.844	4386
862.976	4508
863.108	4470
863.24	4896
863.372	4337
863.504	4489
863.636	4436
863.768	4500
863.9	4462
864.032	4402
864.164	4443
864.296	4485
864.428	4558
864.559	4550
864.691	4558
864.823	4554
864.954	4485
865.086	4542
865.217	4504
865.349	4455
865.48	4504
865.612	4474
865.743	4615
865.875	4489
866.006	4478
866.137	4451
866.269	4459
866.4	4470
866.531	4470
866.662	4405
866.793	4421
866.924	4421
867.055	4542
867.186	4436
867.317	4485
867.448	4432
867.579	4405
867.71	4398
867.841	4386
867.972	4485
868.103	4478
868.233	4443
868.364	4421
868.495	4512
868.625	4664
868.756	4763
868.886	4615
869.017	4637
869.147	4805
869.278	4782
869.408	4672
869.539	4694
869.669	4748
869.799	4683
869.929	4782
870.06	4717
870.19	4999
870.32	4915
870.45	4995
870.58	5048
870.71	5079
870.84	5136
870.97	4961
871.1	4934
871.23	5162
871.36	5204
871.489	5029
871.619	5136
871.749	5117
871.879	5162
872.008	5185
872.138	5090
872.267	5003
872.397	4847
872.526	4843
872.656	4755
872.785	4831
872.915	4934
873.044	5090
873.173	4938
873.303	5022
873.432	5014
873.561	4938
873.69	4889
873.819	4862
873.948	4904
874.077	4850
874.206	4744
874.335	4873
874.464	4961
874.593	5109
874.722	4999
874.851	5128
874.979	5124
875.108	5071
875.237	4957
875.365	4957
875.494	4923
875.623	4976
875.751	4835
875.88	4953
876.008	5014
876.136	5060
876.265	5220
876.393	5353
876.521	5303
876.65	5242
876.778	5170
876.906	5079
877.034	4995
877.162	5094
877.29	5037
877.418	5090
877.546	5048
877.674	5052
877.802	5022
877.93	5037
878.058	4946
878.185	4881
878.313	5010
878.441	4934
878.568	4831
878.696	4873
878.824	4968
878.951	4976
879.079	5216
879.206	5288
879.333	5147
879.461	4999
879.588	5041
879.715	5174
879.842	5261
879.97	5037
880.097	4862
880.224	4759
880.351	4778
880.478	4870
880.605	4824
880.732	4782
880.859	5117
880.986	4858
881.112	4923
881.239	4786
881.366	4656
881.493	4618
881.619	4626
881.746	4611
881.872	4672
881.999	4706
882.125	4683
882.252	4782
882.378	4850
882.505	4991
882.631	4843
882.757	4755
882.883	4774
883.01	4714
883.136	4672
883.262	4645
883.388	4626
883.514	4839
883.64	4885
883.766	4824
883.892	4672
884.018	4767
884.143	4919
884.269	5060
884.395	4752
884.52	4653
884.646	4694
884.772	4596
884.897	4592
885.023	4687
885.148	4793
885.274	4885
885.399	4854
885.524	4717
885.65	4752
885.775	4744
885.9	4714
886.025	4900
886.15	4774
886.275	4714
886.4	4660
886.525	4774
886.65	4687
886.775	4702
886.9	4892
887.025	5075
887.149	4816
887.274	4653
887.399	4637
887.523	4637
887.648	4592
887.773	4535
887.897	4801
888.021	4793
888.146	4691
888.27	4850
888.395	4904
888.519	4866
888.643	4839
888.767	4839
888.891	4683
889.015	4634
889.139	4691
889.263	4630
889.387	4752
889.511	4870
889.635	4740
889.759	4637
889.883	4607
890.006	4767
890.13	4854
890.254	4634
890.377	4687
890.501	4577
890.624	4538
890.748	4641
890.871	4512
890.995	4455
891.118	4402
891.241	4523
891.364	4561
891.488	4656
891.611	4535
891.734	4538
891.857	4634
891.98	4546
892.103	4683
892.226	4588
892.349	4561
892.471	4485
892.594	4618
892.717	4573
892.839	4592
892.962	4599
893.085	4672
893.207	4596
893.33	4497
893.452	4535
893.575	4698
893.697	4618
893.819	4816
893.941	4873
894.064	4755
894.186	4561
894.308	4611
894.43	4725
894.552	4812
894.674	4729
894.796	4565
894.918	4603
895.04	4500
895.161	4675
895.283	4702
895.405	4626
895.526	4660
895.648	4687
895.769	4702
895.891	4698
896.012	4717
896.134	4771
896.255	4679
896.376	4649
896.498	4641
896.619	4649
896.74	4611
896.861	4664
896.982	4919
897.103	5098
897.224	4881
897.345	4721
897.466	4683
897.587	4755
897.708	4900
897.828	4767
897.949	4717
898.07	4561
898.19	4626
898.311	4854
898.431	4672
898.552	4778
898.672	4831
898.792	4805
898.913	4790
899.033	4656
899.153	4504
899.273	4512
899.393	4481
899.513	4535
899.633	4519
899.753	4512
899.873	4554
899.993	4599
900.113	4550
900.232	4603
900.352	4535
900.472	4508
900.591	4436
900.711	4500
900.83	4440
900.95	4542
901.069	4675
901.189	4516
901.308	4379
901.427	4337
901.546	4409
901.665	4447
901.784	4531
901.904	4436
902.023	4322
902.141	4196
902.26	4173
902.379	4310
902.498	4215
902.617	4219
902.735	4356
902.854	4375
902.973	4375
903.091	4238
903.21	4276
903.328	4341
903.446	4287
903.565	4261
903.683	4344
903.801	4265
903.919	4432
904.038	4428
904.156	4325
904.274	4440
904.392	4409
904.51	4451
904.627	4519
904.745	4622
904.863	4637
904.981	4424
905.098	4265
905.216	4386
905.334	4424
905.451	4462
905.569	4447
905.686	4500
905.803	4558
905.921	4436
906.038	4508
906.155	4516
906.272	4436
906.389	4485
906.506	4352
906.623	4394
906.74	4421
906.857	4303
906.974	4356
907.091	4599
907.208	4679
907.324	4569
907.441	4527
907.557	4344
907.674	4337
907.79	4344
907.907	4443
908.023	4493
908.139	4489
908.256	4409
908.372	4481
908.488	4417
908.604	4405
908.72	4322
908.836	4394
908.952	4386
909.068	4478
909.184	4546
909.3	4481
909.415	4577
909.531	4577
909.647	4386
909.762	4375
909.878	4356
909.993	4417
910.108	4379
910.224	4383
910.339	4474
910.454	4417
910.57	4394
910.685	4318
910.8	4668
910.915	4607
911.03	4489
911.145	4333
911.259	4360
911.374	4360
911.489	4314
911.604	4276
911.718	4219
911.833	4253
911.947	4120
912.062	3994
912.176	4223
912.291	4284
912.405	4280
912.519	4447
912.633	4489
912.748	4402
912.862	4310
912.976	4196
913.09	4124
913.204	4196
913.318	4246
913.431	4352
913.545	4383
913.659	4462
913.772	4360
913.886	4257
914	4242
914.113	4402
914.226	4443
914.34	4405
914.453	4223
914.566	4413
914.68	4318
914.793	4341
914.906	4162
915.019	4112
915.132	4063
915.245	4185
915.358	4227
915.47	4242
915.583	4276
915.696	4261
915.809	4402
915.921	4447
916.034	4249
916.146	4295
916.259	4223
916.371	4386
916.483	4379
916.595	4287
916.708	4337
916.82	4325
916.932	4360
917.044	4344
917.156	4341
917.268	4261
917.38	4314
917.491	4284
917.603	4383
917.715	4436
917.826	4409
917.938	4363
918.049	4257
918.161	4451
918.272	4485
918.384	4497
918.495	4447
918.606	4284
918.717	4268
918.828	4310
918.939	4367
919.05	4253
919.161	4303
919.272	4143
919.383	4246
919.494	4455
919.604	4656
919.715	4455
919.826	4356
919.936	4443
920.047	4527
920.157	4485
920.267	4679
920.378	4554
920.488	4497
920.598	4714
920.708	4889
920.818	4763
920.928	4774
921.038	4976
921.148	4885
921.258	4637
921.368	4558
921.477	4478
921.587	4497
921.697	4405
921.806	4577
921.916	4451
922.025	4272
922.134	4223
922.244	4211
922.353	4303
922.462	4219
922.571	4128
922.68	3991
922.789	3994
922.898	4040
923.007	3979
923.116	4124
923.224	4071
923.333	4086
923.442	4017
923.55	4002
923.659	4029
923.767	4120
923.876	4010
923.984	4105
924.092	3991
924.201	4051
924.309	4059
924.417	4147
924.525	4025
924.633	4109
924.741	4896
924.849	3911
924.956	4150
925.064	3972
925.172	3922
925.279	3968
925.387	4051
925.494	4055
925.602	4207
925.709	4192
925.816	4074
925.924	4150
926.031	4215
926.138	4143
926.245	4230
926.352	4093
926.459	4261
926.566	4329
926.673	4147
926.779	4071
926.886	4101
926.993	3994
927.099	3964
927.206	3941
927.312	3968
927.419	4032
927.525	4006
927.631	4093
927.737	3975
927.843	3953
927.95	3831
928.056	3975
928.162	3991
928.267	4051
928.373	4573
928.479	4112
928.585	3880
928.69	4021
928.796	4078
928.901	3968
929.007	3873
929.112	4017
929.218	3979
929.323	3930
929.428	3964
929.533	4101
929.638	3873
929.743	4002
929.848	4017
929.953	3975
930.058	3918
930.163	3774
930.267	3865
930.372	3998
930.477	3778
930.581	4090
930.685	3956
930.79	3846
930.894	3880
930.998	3842
931.103	4025
931.207	3713
931.311	3686
931.415	3713
931.519	3530
931.623	3553
