Data from test_V78500241_2332.txt Node
Date: Fri Mar 25 17:05:13 CST 2022
User: usil
Spectrometer: V785-0024
Trigger mode: 0
Integration Time (sec): 4.000000E-1
Scans to average: 1
Nonlinearity correction enabled: false
Boxcar width: 0
Storing dark spectrum: false
XAxis mode: Wavelengths
Number of Pixels in Spectrum: 1024
>>>>>Begin Spectral Data<<<<<
801.071	7982
801.214	7974
801.356	7822
801.499	7845
801.641	7784
801.783	7788
801.926	8046
802.068	7925
802.211	8005
802.353	8012
802.496	7830
802.638	7868
802.78	7845
802.923	7906
803.065	7875
803.208	7826
803.35	7928
803.492	8031
803.635	8126
803.777	8024
803.919	8035
804.061	8446
804.204	8161
804.346	8058
804.488	7932
804.63	8092
804.773	7944
804.915	8088
805.057	8309
805.199	8149
805.341	8138
805.483	8214
805.626	8191
805.768	8138
805.91	8187
806.052	8164
806.194	8119
806.336	8195
806.478	8111
806.62	8031
806.762	8123
806.904	8263
807.046	8434
807.188	8358
807.33	8320
807.472	8324
807.614	8172
807.756	8157
807.898	8005
808.04	7871
808.182	7818
808.324	7898
808.465	7864
808.607	8031
808.749	8172
808.891	8176
809.033	8290
809.174	8248
809.316	8092
809.458	8027
809.6	8005
809.741	7989
809.883	8005
810.025	8092
810.166	8058
810.308	8081
810.45	8016
810.591	7871
810.733	7753
810.875	7620
811.016	7586
811.158	7525
811.299	7571
811.441	7780
811.582	7662
811.724	7556
811.865	7502
812.007	7575
812.148	7533
812.29	7578
812.431	7693
812.573	7898
812.714	7932
812.855	8142
812.997	8199
813.138	8267
813.279	8142
813.421	8046
813.562	7951
813.703	7906
813.845	7723
813.986	7415
814.127	7263
814.268	7225
814.41	7149
814.551	7175
814.692	7221
814.833	7099
814.974	7133
815.115	7114
815.256	6981
815.397	6928
815.539	6958
815.68	6741
815.821	6787
815.962	6829
816.103	6814
816.244	6654
816.385	6612
816.526	6662
816.666	6464
816.807	6308
816.948	6403
817.089	6460
817.23	6441
817.371	6346
817.512	6350
817.653	6357
817.793	6391
817.934	6407
818.075	6441
818.216	6391
818.356	6429
818.497	6251
818.638	6102
818.778	6186
818.919	6144
819.06	6159
819.2	6331
819.341	6334
819.481	6342
819.622	6525
819.762	6753
819.903	6665
820.043	6555
820.184	6578
820.324	6585
820.465	6681
820.605	6646
820.746	6593
820.886	6555
821.026	6646
821.167	6757
821.307	6798
821.447	6779
821.588	6639
821.728	6593
821.868	6460
822.008	6361
822.149	6323
822.289	6304
822.429	6167
822.569	6144
822.709	6106
822.849	5851
822.99	5847
823.13	5920
823.27	5920
823.41	5771
823.55	5794
823.69	5764
823.83	5775
823.97	5630
824.11	5539
824.25	5512
824.389	5539
824.529	5585
824.669	5532
824.809	5676
824.949	5619
825.089	5634
825.228	5543
825.368	5391
825.508	5341
825.648	5326
825.787	5417
825.927	5364
826.067	5269
826.206	5334
826.346	5376
826.485	5402
826.625	5395
826.765	5524
826.904	5535
827.044	5292
827.183	5204
827.323	5174
827.462	5326
827.601	5204
827.741	5174
827.88	5204
828.02	5105
828.159	5250
828.298	5330
828.437	5372
828.577	5326
828.716	5486
828.855	5387
828.994	5185
829.134	5162
829.273	5239
829.412	5204
829.551	5147
829.69	5212
829.829	5277
829.968	5421
830.107	5364
830.246	5307
830.385	5189
830.524	5208
830.663	5090
830.802	5018
830.941	4930
831.08	4938
831.219	4984
831.357	5029
831.496	5185
831.635	4923
831.774	4892
831.913	4873
832.051	4771
832.19	4786
832.329	4877
832.467	4736
832.606	4672
832.744	4801
832.883	4774
833.022	4812
833.16	4801
833.299	4873
833.437	4839
833.576	4850
833.714	4870
833.852	4908
833.991	4946
834.129	5056
834.267	4949
834.406	4915
834.544	5041
834.682	5022
834.821	4949
834.959	5239
835.097	5003
835.235	5235
835.373	5124
835.511	5151
835.65	5029
835.788	5109
835.926	4949
836.064	4896
836.202	4949
836.34	5220
836.478	5223
836.615	5166
836.753	5258
836.891	5326
837.029	5303
837.167	5254
837.305	5181
837.443	5193
837.58	5102
837.718	5258
837.856	5220
837.993	5227
838.131	5296
838.269	5273
838.406	5220
838.544	5159
838.681	5113
838.819	5075
838.956	4949
839.094	4953
839.231	5041
839.369	5147
839.506	5406
839.643	5337
839.781	5064
839.918	5094
840.055	5159
840.193	5098
840.33	5140
840.467	5170
840.604	5223
840.742	5463
840.879	5086
841.016	5147
841.153	5117
841.29	5395
841.427	5372
841.564	5360
841.701	5372
841.838	5296
841.975	5303
842.112	5299
842.249	5201
842.385	5098
842.522	5326
842.659	5197
842.796	5181
842.933	5216
843.069	5166
843.206	5178
843.343	5345
843.479	5269
843.616	5334
843.752	5067
843.889	5056
844.025	5239
844.162	5079
844.298	5216
844.435	5117
844.571	5140
844.708	5181
844.844	5364
844.98	5360
845.117	5311
845.253	5189
845.389	5178
845.525	5178
845.661	5140
845.798	5083
845.934	5147
846.07	5132
846.206	5280
846.342	5250
846.478	5189
846.614	5060
846.75	4999
846.886	4972
847.022	5117
847.158	5052
847.294	5098
847.429	5151
847.565	5075
847.701	5368
847.837	4900
847.972	4847
848.108	4953
848.244	4930
848.379	4828
848.515	4774
848.65	4736
848.786	4752
848.921	4809
849.057	4908
849.192	4938
849.328	4831
849.463	4911
849.598	4793
849.734	4801
849.869	4763
850.004	4710
850.14	4706
850.275	4611
850.41	4634
850.545	4588
850.68	4645
850.815	4645
850.95	4698
851.085	4862
851.22	4812
851.355	4687
851.49	4622
851.625	4622
851.76	4672
851.895	4561
852.03	4588
852.165	4675
852.299	4740
852.434	4763
852.569	4752
852.703	4850
852.838	4858
852.973	4961
853.107	4976
853.242	4721
853.376	4698
853.511	4584
853.645	4611
853.78	4824
853.914	4759
854.048	4672
854.183	4683
854.317	4672
854.451	4870
854.585	4710
854.72	4622
854.854	4767
854.988	4592
855.122	4649
855.256	4535
855.39	4702
855.524	4831
855.658	4771
855.792	4698
855.926	4797
856.06	4786
856.194	4816
856.327	4687
856.461	4607
856.595	4645
856.729	4694
856.862	4786
856.996	4714
857.13	4752
857.263	4755
857.397	4820
857.53	4656
857.664	4759
857.797	4805
857.931	4786
858.064	4694
858.197	4748
858.331	4687
858.464	4645
858.597	4558
858.731	4660
858.864	4664
858.997	4603
859.13	4717
859.263	4717
859.396	4748
859.529	4675
859.662	4603
859.795	4538
859.928	4641
860.061	4740
860.194	4828
860.327	4607
860.46	4615
860.592	4714
860.725	4752
860.858	4729
860.99	4630
861.123	4531
861.256	4523
861.388	4672
861.521	5406
861.653	4481
861.786	4497
861.918	4550
862.05	4561
862.183	4558
862.315	4618
862.447	4725
862.58	4558
862.712	4409
862.844	4371
862.976	4436
863.108	4478
863.24	4885
863.372	4367
863.504	4455
863.636	4436
863.768	4481
863.9	4470
864.032	4417
864.164	4436
864.296	4485
864.428	4573
864.559	4664
864.691	4584
864.823	4573
864.954	4558
865.086	4561
865.217	4500
865.349	4440
865.48	4470
865.612	4485
865.743	4645
865.875	4470
866.006	4428
866.137	4440
866.269	4504
866.4	4466
866.531	4455
866.662	4440
866.793	4440
866.924	4489
867.055	4519
867.186	4440
867.317	4409
867.448	4379
867.579	4447
867.71	4413
867.841	4398
867.972	4470
868.103	4523
868.233	4481
868.364	4474
868.495	4512
868.625	4687
868.756	4729
868.886	4580
869.017	4664
869.147	4771
869.278	4759
869.408	4729
869.539	4664
869.669	4733
869.799	4694
869.929	4740
870.06	4687
870.19	4942
870.32	4927
870.45	4961
870.58	5060
870.71	5117
870.84	5136
870.97	4938
871.1	4934
871.23	5147
871.36	5151
871.489	5045
871.619	5147
871.749	5136
871.879	5162
872.008	5201
872.138	5041
872.267	5018
872.397	4870
872.526	4820
872.656	4733
872.785	4824
872.915	4961
873.044	5083
873.173	4953
873.303	4972
873.432	4934
873.561	5003
873.69	4862
873.819	4923
873.948	4942
874.077	4847
874.206	4714
874.335	4847
874.464	4904
874.593	5094
874.722	4987
874.851	5132
874.979	5079
875.108	5041
875.237	4927
875.365	4858
875.494	4942
875.623	4949
875.751	4877
875.88	4900
876.008	4949
876.136	5045
876.265	5178
876.393	5337
876.521	5269
876.65	5239
876.778	5151
876.906	5083
877.034	5102
877.162	5067
877.29	5033
877.418	5048
877.546	5029
877.674	5079
877.802	4972
877.93	5064
878.058	4911
878.185	4889
878.313	4968
878.441	4965
878.568	4866
878.696	4919
878.824	4961
878.951	5071
879.079	5151
879.206	5299
879.333	5147
879.461	5018
879.588	5010
879.715	5162
879.842	5227
879.97	5025
880.097	4824
880.224	4805
880.351	4812
880.478	4850
880.605	4801
880.732	4778
880.859	5136
880.986	4908
881.112	4915
881.239	4778
881.366	4694
881.493	4588
881.619	4645
881.746	4668
881.872	4675
881.999	4664
882.125	4733
882.252	4767
882.378	4824
882.505	4953
882.631	4850
882.757	4679
882.883	4733
883.01	4736
883.136	4691
883.262	4622
883.388	4664
883.514	4843
883.64	4908
883.766	4786
883.892	4706
884.018	4755
884.143	4927
884.269	4980
884.395	4687
884.52	4656
884.646	4660
884.772	4630
884.897	4596
885.023	4721
885.148	4812
885.274	4885
885.399	4843
885.524	4752
885.65	4683
885.775	4736
885.9	4714
886.025	4839
886.15	4831
886.275	4714
886.4	4637
886.525	4767
886.65	4694
886.775	4714
886.9	4934
887.025	5060
887.149	4790
887.274	4634
887.399	4641
887.523	4611
887.648	4550
887.773	4615
887.897	4733
888.021	4816
888.146	4675
888.27	4862
888.395	4889
888.519	4820
888.643	4786
888.767	4839
888.891	4710
889.015	4630
889.139	4698
889.263	4653
889.387	4763
889.511	4877
889.635	4828
889.759	4641
889.883	4672
890.006	4729
890.13	4820
890.254	4645
890.377	4664
890.501	4599
890.624	4531
890.748	4653
890.871	4565
890.995	4440
891.118	4443
891.241	4516
891.364	4538
891.488	4656
891.611	4500
891.734	4546
891.857	4599
891.98	4573
892.103	4656
892.226	4630
892.349	4516
892.471	4455
892.594	4565
892.717	4565
892.839	4615
892.962	4672
893.085	4694
893.207	4618
893.33	4485
893.452	4538
893.575	4641
893.697	4569
893.819	4812
893.941	4831
894.064	4752
894.186	4626
894.308	4584
894.43	4755
894.552	4877
894.674	4786
894.796	4588
894.918	4584
895.04	4580
895.161	4763
895.283	4653
895.405	4580
895.526	4664
895.648	4691
895.769	4687
895.891	4721
896.012	4812
896.134	4740
896.255	4668
896.376	4630
896.498	4660
896.619	4694
896.74	4626
896.861	4694
896.982	4927
897.103	5041
897.224	4843
897.345	4748
897.466	4725
897.587	4755
897.708	4870
897.828	4809
897.949	4691
898.07	4565
898.19	4607
898.311	4870
898.431	4668
898.552	4729
898.672	4820
898.792	4824
898.913	4759
899.033	4660
899.153	4485
899.273	4466
899.393	4523
899.513	4493
899.633	4550
899.753	4531
899.873	4504
899.993	4622
900.113	4512
900.232	4637
900.352	4516
900.472	4523
900.591	4424
900.711	4497
900.83	4440
900.95	4615
901.069	4710
901.189	4508
901.308	4356
901.427	4306
901.546	4352
901.665	4451
901.784	4512
901.904	4390
902.023	4367
902.141	4215
902.26	4192
902.379	4291
902.498	4253
902.617	4207
902.735	4371
902.854	4390
902.973	4379
903.091	4230
903.21	4223
903.328	4337
903.446	4280
903.565	4291
903.683	4371
903.801	4291
903.919	4402
904.038	4462
904.156	4295
904.274	4432
904.392	4424
904.51	4447
904.627	4470
904.745	4527
904.863	4653
904.981	4405
905.098	4299
905.216	4367
905.334	4417
905.451	4436
905.569	4440
905.686	4550
905.803	4546
905.921	4443
906.038	4554
906.155	4440
906.272	4363
906.389	4485
906.506	4337
906.623	4371
906.74	4405
906.857	4310
906.974	4394
907.091	4565
907.208	4702
907.324	4607
907.441	4531
907.557	4363
907.674	4386
907.79	4360
907.907	4379
908.023	4451
908.139	4516
908.256	4451
908.372	4462
908.488	4466
908.604	4348
908.72	4329
908.836	4375
908.952	4356
909.068	4432
909.184	4577
909.3	4516
909.415	4577
909.531	4538
909.647	4371
909.762	4386
909.878	4348
909.993	4500
910.108	4424
910.224	4432
910.339	4481
910.454	4398
910.57	4402
910.685	4287
910.8	4649
910.915	4615
911.03	4519
911.145	4291
911.259	4303
911.374	4379
911.489	4284
911.604	4291
911.718	4196
911.833	4204
911.947	4059
912.062	4025
912.176	4215
912.291	4253
912.405	4249
912.519	4474
912.633	4508
912.748	4383
912.862	4303
912.976	4211
913.09	4105
913.204	4227
913.318	4223
913.431	4344
913.545	4375
913.659	4371
913.772	4348
913.886	4219
914	4204
914.113	4352
914.226	4428
914.34	4383
914.453	4280
914.566	4443
914.68	4306
914.793	4299
914.906	4223
915.019	4116
915.132	4090
915.245	4207
915.358	4230
915.47	4280
915.583	4272
915.696	4280
915.809	4421
915.921	4436
916.034	4246
916.146	4295
916.259	4227
916.371	4363
916.483	4344
916.595	4207
916.708	4295
916.82	4371
916.932	4360
917.044	4329
917.156	4318
917.268	4200
917.38	4276
917.491	4287
917.603	4352
917.715	4447
917.826	4436
917.938	4318
918.049	4257
918.161	4379
918.272	4493
918.384	4516
918.495	4447
918.606	4363
918.717	4253
918.828	4352
918.939	4383
919.05	4291
919.161	4303
919.272	4181
919.383	4253
919.494	4402
919.604	4660
919.715	4436
919.826	4402
919.936	4402
920.047	4512
920.157	4516
920.267	4721
920.378	4535
920.488	4497
920.598	4698
920.708	4881
920.818	4786
920.928	4771
921.038	4953
921.148	4892
921.258	4607
921.368	4596
921.477	4500
921.587	4462
921.697	4402
921.806	4542
921.916	4504
922.025	4276
922.134	4272
922.244	4257
922.353	4360
922.462	4211
922.571	4135
922.68	4029
922.789	4006
922.898	4086
923.007	3991
923.116	4124
923.224	4051
923.333	4120
923.442	3998
923.55	3934
923.659	4013
923.767	4112
923.876	4029
923.984	4120
924.092	3972
924.201	4112
924.309	4112
924.417	4143
924.525	4071
924.633	4147
924.741	5045
924.849	3930
924.956	4128
925.064	3975
925.172	3964
925.279	3983
925.387	4048
925.494	4078
925.602	4162
925.709	4242
925.816	4013
925.924	4150
926.031	4211
926.138	4200
926.245	4261
926.352	4116
926.459	4242
926.566	4322
926.673	4169
926.779	4093
926.886	4082
926.993	4055
927.099	3945
927.206	4021
927.312	3896
927.419	4025
927.525	4021
927.631	4097
927.737	3945
927.843	3975
927.95	3861
928.056	3956
928.162	4002
928.267	4040
928.373	4702
928.479	4086
928.585	3888
928.69	3972
928.796	4067
928.901	3956
929.007	3869
929.112	3987
929.218	3991
929.323	3998
929.428	3975
929.533	4120
929.638	3918
929.743	3998
929.848	4013
929.953	3998
930.058	3934
930.163	3781
930.267	3816
930.372	3991
930.477	3823
930.581	3998
930.685	3991
930.79	3827
930.894	3926
930.998	3850
931.103	4002
931.207	3766
931.311	3656
931.415	3660
931.519	3534
931.623	3545
