Data from test_V78500241_917.txt Node
Date: Fri Mar 25 16:55:22 CST 2022
User: usil
Spectrometer: V785-0024
Trigger mode: 0
Integration Time (sec): 4.000000E-1
Scans to average: 1
Nonlinearity correction enabled: false
Boxcar width: 0
Storing dark spectrum: false
XAxis mode: Wavelengths
Number of Pixels in Spectrum: 1024
>>>>>Begin Spectral Data<<<<<
801.071	8012
801.214	7989
801.356	7925
801.499	7845
801.641	7799
801.783	7792
801.926	8046
802.068	7864
802.211	7925
802.353	7974
802.496	7887
802.638	7849
802.78	7906
802.923	7799
803.065	7913
803.208	7860
803.35	8016
803.492	8111
803.635	8161
803.777	8027
803.919	8081
804.061	8396
804.204	8062
804.346	8065
804.488	7951
804.63	8123
804.773	7959
804.915	8062
805.057	8309
805.199	8176
805.341	8240
805.483	8252
805.626	8218
805.768	8062
805.91	8183
806.052	8183
806.194	8088
806.336	8252
806.478	8039
806.62	8058
806.762	8077
806.904	8233
807.046	8465
807.188	8309
807.33	8328
807.472	8389
807.614	8164
807.756	8145
807.898	8001
808.04	7852
808.182	7906
808.324	7864
808.465	7864
808.607	8024
808.749	8115
808.891	8157
809.033	8343
809.174	8221
809.316	8088
809.458	8081
809.6	7955
809.741	8008
809.883	7951
810.025	8077
810.166	8012
810.308	7951
810.45	8027
810.591	7814
810.733	7708
810.875	7662
811.016	7518
811.158	7499
811.299	7647
811.441	7670
811.582	7727
811.724	7559
811.865	7502
812.007	7552
812.148	7567
812.29	7601
812.431	7696
812.573	7818
812.714	7947
812.855	8077
812.997	8187
813.138	8343
813.279	8168
813.421	8069
813.562	7947
813.703	7913
813.845	7792
813.986	7438
814.127	7293
814.268	7274
814.41	7137
814.551	7057
814.692	7206
814.833	7046
814.974	7141
815.115	7053
815.256	6958
815.397	6859
815.539	6970
815.68	6802
815.821	6772
815.962	6867
816.103	6802
816.244	6730
816.385	6650
816.526	6669
816.666	6494
816.807	6292
816.948	6391
817.089	6426
817.23	6460
817.371	6407
817.512	6384
817.653	6292
817.793	6376
817.934	6372
818.075	6464
818.216	6422
818.356	6407
818.497	6247
818.638	6136
818.778	6076
818.919	6117
819.06	6171
819.2	6292
819.341	6304
819.481	6365
819.622	6555
819.762	6726
819.903	6741
820.043	6673
820.184	6536
820.324	6589
820.465	6745
820.605	6692
820.746	6608
820.886	6502
821.026	6654
821.167	6673
821.307	6776
821.447	6711
821.588	6688
821.728	6513
821.868	6486
822.008	6319
822.149	6365
822.289	6342
822.429	6144
822.569	6087
822.709	6098
822.849	5923
822.99	5912
823.13	5897
823.27	5821
823.41	5790
823.55	5798
823.69	5771
823.83	5786
823.97	5646
824.11	5520
824.25	5554
824.389	5566
824.529	5543
824.669	5482
824.809	5577
824.949	5649
825.089	5592
825.228	5570
825.368	5353
825.508	5322
825.648	5353
825.787	5417
825.927	5452
826.067	5303
826.206	5292
826.346	5360
826.485	5448
826.625	5383
826.765	5486
826.904	5493
827.044	5284
827.183	5189
827.323	5105
827.462	5178
827.601	5178
827.741	5181
827.88	5159
828.02	5094
828.159	5193
828.298	5307
828.437	5353
828.577	5246
828.716	5455
828.855	5315
828.994	5132
829.134	5128
829.273	5204
829.412	5181
829.551	5128
829.69	5147
829.829	5193
829.968	5357
830.107	5235
830.246	5311
830.385	5113
830.524	5105
830.663	5098
830.802	5025
830.941	4930
831.08	4862
831.219	4949
831.357	4911
831.496	5159
831.635	4919
831.774	4820
831.913	4793
832.051	4687
832.19	4729
832.329	4778
832.467	4694
832.606	4618
832.744	4752
832.883	4717
833.022	4710
833.16	4774
833.299	4786
833.437	4835
833.576	4828
833.714	4839
833.852	4885
833.991	4892
834.129	4942
834.267	4938
834.406	4896
834.544	4991
834.682	4961
834.821	4987
834.959	5121
835.097	5022
835.235	5079
835.373	5090
835.511	5109
835.65	5071
835.788	5022
835.926	4862
836.064	4870
836.202	4938
836.34	5162
836.478	5197
836.615	5151
836.753	5170
836.891	5280
837.029	5261
837.167	5162
837.305	5185
837.443	5113
837.58	5102
837.718	5242
837.856	5239
837.993	5155
838.131	5136
838.269	5212
838.406	5227
838.544	5159
838.681	5033
838.819	5006
838.956	4911
839.094	4892
839.231	4953
839.369	5079
839.506	5433
839.643	5269
839.781	5048
839.918	5022
840.055	5071
840.193	5086
840.33	5121
840.467	5117
840.604	5159
840.742	5395
840.879	5105
841.016	5143
841.153	5181
841.29	5345
841.427	5330
841.564	5273
841.701	5330
841.838	5261
841.975	5273
842.112	5265
842.249	5136
842.385	5048
842.522	5303
842.659	5159
842.796	5155
842.933	5170
843.069	5121
843.206	5132
843.343	5292
843.479	5197
843.616	5235
843.752	5022
843.889	4946
844.025	5189
844.162	5006
844.298	5151
844.435	5105
844.571	5025
844.708	5181
844.844	5261
844.98	5360
845.117	5258
845.253	5124
845.389	5048
845.525	5155
845.661	5136
845.798	4999
845.934	5098
846.07	5010
846.206	5162
846.342	5258
846.478	5140
846.614	5014
846.75	4953
846.886	4968
847.022	5185
847.158	4999
847.294	5060
847.429	5060
847.565	5045
847.701	5341
847.837	4854
847.972	4786
848.108	4911
848.244	4923
848.379	4763
848.515	4752
848.65	4702
848.786	4706
848.921	4771
849.057	4847
849.192	4911
849.328	4824
849.463	4835
849.598	4763
849.734	4763
849.869	4668
850.004	4649
850.14	4618
850.275	4599
850.41	4558
850.545	4573
850.68	4573
850.815	4542
850.95	4634
851.085	4790
851.22	4721
851.355	4656
851.49	4630
851.625	4603
851.76	4603
851.895	4516
852.03	4508
852.165	4679
852.299	4653
852.434	4763
852.569	4812
852.703	4778
852.838	4805
852.973	4885
853.107	4892
853.242	4725
853.376	4679
853.511	4535
853.645	4580
853.78	4782
853.914	4637
854.048	4626
854.183	4615
854.317	4694
854.451	4816
854.585	4649
854.72	4641
854.854	4740
854.988	4558
855.122	4664
855.256	4508
855.39	4637
855.524	4782
855.658	4714
855.792	4675
855.926	4717
856.06	4744
856.194	4828
856.327	4645
856.461	4618
856.595	4630
856.729	4558
856.862	4744
856.996	4679
857.13	4687
857.263	4767
857.397	4759
857.53	4634
857.664	4729
857.797	4740
857.931	4736
858.064	4645
858.197	4736
858.331	4691
858.464	4577
858.597	4459
858.731	4580
858.864	4660
858.997	4584
859.13	4649
859.263	4672
859.396	4687
859.529	4615
859.662	4550
859.795	4538
859.928	4580
860.061	4740
860.194	4812
860.327	4592
860.46	4542
860.592	4656
860.725	4706
860.858	4729
860.99	4565
861.123	4485
861.256	4489
861.388	4577
861.521	5143
861.653	4436
861.786	4402
861.918	4421
862.05	4527
862.183	4527
862.315	4618
862.447	4675
862.58	4554
862.712	4375
862.844	4322
862.976	4409
863.108	4421
863.24	4763
863.372	4306
863.504	4375
863.636	4402
863.768	4424
863.9	4409
864.032	4386
864.164	4436
864.296	4478
864.428	4554
864.559	4550
864.691	4508
864.823	4470
864.954	4500
865.086	4531
865.217	4421
865.349	4421
865.48	4474
865.612	4440
865.743	4607
865.875	4443
866.006	4440
866.137	4436
866.269	4409
866.4	4417
866.531	4379
866.662	4367
866.793	4402
866.924	4386
867.055	4523
867.186	4447
867.317	4383
867.448	4310
867.579	4398
867.71	4383
867.841	4383
867.972	4424
868.103	4424
868.233	4386
868.364	4462
868.495	4417
868.625	4615
868.756	4736
868.886	4554
869.017	4615
869.147	4774
869.278	4801
869.408	4645
869.539	4618
869.669	4721
869.799	4660
869.929	4733
870.06	4710
870.19	4949
870.32	4877
870.45	4904
870.58	4987
870.71	5098
870.84	5056
870.97	4965
871.1	4850
871.23	5098
871.36	5071
871.489	5010
871.619	5041
871.749	5060
871.879	5147
872.008	5181
872.138	5022
872.267	4999
872.397	4854
872.526	4771
872.656	4675
872.785	4809
872.915	4949
873.044	5033
873.173	4904
873.303	4991
873.432	4923
873.561	4927
873.69	4904
873.819	4835
873.948	4877
874.077	4816
874.206	4702
874.335	4790
874.464	4927
874.593	5064
874.722	4961
874.851	5067
874.979	5006
875.108	5052
875.237	4881
875.365	4839
875.494	4873
875.623	4930
875.751	4843
875.88	4843
876.008	4953
876.136	4980
876.265	5174
876.393	5258
876.521	5223
876.65	5231
876.778	5121
876.906	5025
877.034	5010
877.162	4968
877.29	4987
877.418	5022
877.546	5037
877.674	5010
877.802	5006
877.93	4965
878.058	4930
878.185	4866
878.313	4949
878.441	4930
878.568	4835
878.696	4847
878.824	4927
878.951	4946
879.079	5128
879.206	5280
879.333	5090
879.461	4946
879.588	4980
879.715	5102
879.842	5227
879.97	4999
880.097	4805
880.224	4740
880.351	4744
880.478	4850
880.605	4767
880.732	4771
880.859	5086
880.986	4873
881.112	4927
881.239	4748
881.366	4664
881.493	4615
881.619	4596
881.746	4584
881.872	4649
881.999	4634
882.125	4656
882.252	4774
882.378	4797
882.505	4961
882.631	4797
882.757	4611
882.883	4740
883.01	4763
883.136	4698
883.262	4611
883.388	4626
883.514	4755
883.64	4854
883.766	4805
883.892	4641
884.018	4721
884.143	4881
884.269	4961
884.395	4611
884.52	4615
884.646	4675
884.772	4554
884.897	4569
885.023	4653
885.148	4748
885.274	4839
885.399	4733
885.524	4736
885.65	4717
885.775	4702
885.9	4729
886.025	4824
886.15	4763
886.275	4687
886.4	4645
886.525	4683
886.65	4683
886.775	4679
886.9	4877
887.025	5045
887.149	4786
887.274	4641
887.399	4538
887.523	4615
887.648	4497
887.773	4569
887.897	4748
888.021	4797
888.146	4725
888.27	4809
888.395	4866
888.519	4767
888.643	4843
888.767	4816
888.891	4622
889.015	4558
889.139	4641
889.263	4592
889.387	4786
889.511	4809
889.635	4771
889.759	4618
889.883	4645
890.006	4748
890.13	4790
890.254	4618
890.377	4679
890.501	4569
890.624	4516
890.748	4611
890.871	4527
890.995	4421
891.118	4363
891.241	4519
891.364	4538
891.488	4630
891.611	4512
891.734	4497
891.857	4607
891.98	4478
892.103	4641
892.226	4580
892.349	4519
892.471	4405
892.594	4500
892.717	4596
892.839	4580
892.962	4580
893.085	4675
893.207	4584
893.33	4485
893.452	4493
893.575	4588
893.697	4558
893.819	4786
893.941	4752
894.064	4767
894.186	4554
894.308	4558
894.43	4748
894.552	4801
894.674	4740
894.796	4584
894.918	4622
895.04	4573
895.161	4721
895.283	4687
895.405	4592
895.526	4641
895.648	4691
895.769	4679
895.891	4736
896.012	4748
896.134	4717
896.255	4653
896.376	4599
896.498	4645
896.619	4687
896.74	4569
896.861	4664
896.982	4934
897.103	5083
897.224	4858
897.345	4733
897.466	4691
897.587	4698
897.708	4820
897.828	4721
897.949	4641
898.07	4569
898.19	4637
898.311	4824
898.431	4683
898.552	4729
898.672	4759
898.792	4805
898.913	4710
899.033	4637
899.153	4531
899.273	4413
899.393	4512
899.513	4440
899.633	4550
899.753	4554
899.873	4516
899.993	4523
900.113	4523
900.232	4569
900.352	4493
900.472	4523
900.591	4386
900.711	4512
900.83	4402
900.95	4599
901.069	4717
901.189	4512
901.308	4363
901.427	4287
901.546	4352
901.665	4432
901.784	4523
901.904	4398
902.023	4352
902.141	4185
902.26	4185
902.379	4284
902.498	4246
902.617	4265
902.735	4344
902.854	4363
902.973	4352
903.091	4169
903.21	4227
903.328	4299
903.446	4265
903.565	4257
903.683	4352
903.801	4253
903.919	4413
904.038	4409
904.156	4318
904.274	4413
904.392	4386
904.51	4443
904.627	4440
904.745	4561
904.863	4584
904.981	4375
905.098	4337
905.216	4371
905.334	4379
905.451	4405
905.569	4424
905.686	4558
905.803	4538
905.921	4451
906.038	4538
906.155	4424
906.272	4409
906.389	4451
906.506	4344
906.623	4325
906.74	4367
906.857	4284
906.974	4367
907.091	4531
907.208	4687
907.324	4618
907.441	4497
907.557	4348
907.674	4344
907.79	4333
907.907	4371
908.023	4516
908.139	4493
908.256	4417
908.372	4436
908.488	4459
908.604	4341
908.72	4322
908.836	4341
908.952	4398
909.068	4409
909.184	4573
909.3	4470
909.415	4607
909.531	4550
909.647	4325
909.762	4356
909.878	4337
909.993	4436
910.108	4405
910.224	4402
910.339	4459
910.454	4383
910.57	4341
910.685	4329
910.8	4653
910.915	4599
911.03	4474
911.145	4314
911.259	4306
911.374	4386
911.489	4299
911.604	4287
911.718	4196
911.833	4169
911.947	4097
912.062	4059
912.176	4215
912.291	4276
912.405	4249
912.519	4432
912.633	4500
912.748	4394
912.862	4314
912.976	4185
913.09	4074
913.204	4154
913.318	4234
913.431	4402
913.545	4367
913.659	4440
913.772	4363
913.886	4246
914	4215
914.113	4337
914.226	4478
914.34	4379
914.453	4207
914.566	4443
914.68	4299
914.793	4276
914.906	4139
915.019	4150
915.132	4090
915.245	4128
915.358	4249
915.47	4219
915.583	4268
915.696	4318
915.809	4402
915.921	4402
916.034	4223
916.146	4246
916.259	4238
916.371	4356
916.483	4405
916.595	4246
916.708	4291
916.82	4322
916.932	4352
917.044	4333
917.156	4314
917.268	4227
917.38	4329
917.491	4227
917.603	4329
917.715	4424
917.826	4405
917.938	4360
918.049	4242
918.161	4386
918.272	4508
918.384	4493
918.495	4447
918.606	4329
918.717	4238
918.828	4360
918.939	4348
919.05	4227
919.161	4295
919.272	4124
919.383	4211
919.494	4451
919.604	4603
919.715	4470
919.826	4333
919.936	4417
920.047	4535
920.157	4489
920.267	4660
920.378	4527
920.488	4489
920.598	4717
920.708	4854
920.818	4698
920.928	4767
921.038	4919
921.148	4896
921.258	4615
921.368	4538
921.477	4504
921.587	4440
921.697	4367
921.806	4580
921.916	4417
922.025	4280
922.134	4291
922.244	4234
922.353	4341
922.462	4139
922.571	4051
922.68	3991
922.789	3979
922.898	3991
923.007	4002
923.116	4071
923.224	4059
923.333	4025
923.442	3953
923.55	3941
923.659	4006
923.767	4143
923.876	3983
923.984	4109
924.092	3972
924.201	4067
924.309	4048
924.417	4063
924.525	4017
924.633	4112
924.741	4927
924.849	3915
924.956	4154
925.064	3937
925.172	3880
925.279	3972
925.387	4063
925.494	4021
925.602	4166
925.709	4162
925.816	4002
925.924	4109
926.031	4211
926.138	4162
926.245	4234
926.352	4086
926.459	4246
926.566	4246
926.673	4169
926.779	4071
926.886	4120
926.993	3934
927.099	3968
927.206	3937
927.312	3884
927.419	4010
927.525	3998
927.631	4097
927.737	3991
927.843	3956
927.95	3854
928.056	3968
928.162	3960
928.267	4071
928.373	4550
928.479	4090
928.585	3857
928.69	3987
928.796	4067
928.901	3968
929.007	3804
929.112	4006
929.218	3960
929.323	3972
929.428	3888
929.533	4143
929.638	3903
929.743	3918
929.848	4025
929.953	3983
930.058	3937
930.163	3789
930.267	3823
930.372	3953
930.477	3804
930.581	4105
930.685	3876
930.79	3812
930.894	3861
930.998	3876
931.103	4017
931.207	3690
931.311	3698
931.415	3641
931.519	3496
931.623	3538
