Data from test_V78500241_1307.txt Node
Date: Fri Mar 25 16:58:05 CST 2022
User: usil
Spectrometer: V785-0024
Trigger mode: 0
Integration Time (sec): 4.000000E-1
Scans to average: 1
Nonlinearity correction enabled: false
Boxcar width: 0
Storing dark spectrum: false
XAxis mode: Wavelengths
Number of Pixels in Spectrum: 1024
>>>>>Begin Spectral Data<<<<<
801.071	8020
801.214	8054
801.356	7871
801.499	7890
801.641	7742
801.783	7822
801.926	7932
802.068	7967
802.211	8012
802.353	8008
802.496	7826
802.638	7875
802.78	7982
802.923	7997
803.065	7940
803.208	7875
803.35	7940
803.492	8088
803.635	8123
803.777	8005
803.919	8134
804.061	8480
804.204	8225
804.346	8008
804.488	7967
804.63	8115
804.773	8111
804.915	8130
805.057	8313
805.199	8073
805.341	8240
805.483	8248
805.626	8279
805.768	8088
805.91	8259
806.052	8168
806.194	8088
806.336	8256
806.478	8088
806.62	8100
806.762	8081
806.904	8294
807.046	8499
807.188	8317
807.33	8320
807.472	8290
807.614	8142
807.756	8153
807.898	7970
808.04	7902
808.182	7967
808.324	7860
808.465	7951
808.607	8043
808.749	8111
808.891	8168
809.033	8244
809.174	8168
809.316	8107
809.458	8012
809.6	7997
809.741	8024
809.883	8005
810.025	8058
810.166	8084
810.308	8031
810.45	7986
810.591	7875
810.733	7746
810.875	7666
811.016	7544
811.158	7506
811.299	7597
811.441	7719
811.582	7689
811.724	7639
811.865	7502
812.007	7647
812.148	7556
812.29	7655
812.431	7780
812.573	7879
812.714	7955
812.855	8115
812.997	8145
813.138	8351
813.279	8263
813.421	8096
813.562	8039
813.703	7837
813.845	7830
813.986	7426
814.127	7244
814.268	7213
814.41	7183
814.551	7126
814.692	7133
814.833	7091
814.974	7088
815.115	7091
815.256	6954
815.397	6943
815.539	6973
815.68	6852
815.821	6730
815.962	6840
816.103	6844
816.244	6650
816.385	6639
816.526	6642
816.666	6513
816.807	6304
816.948	6384
817.089	6441
817.23	6456
817.371	6353
817.512	6346
817.653	6372
817.793	6357
817.934	6365
818.075	6456
818.216	6403
818.356	6433
818.497	6243
818.638	6140
818.778	6167
818.919	6060
819.06	6133
819.2	6338
819.341	6376
819.481	6369
819.622	6528
819.762	6703
819.903	6662
820.043	6555
820.184	6563
820.324	6578
820.465	6753
820.605	6703
820.746	6681
820.886	6525
821.026	6631
821.167	6700
821.307	6757
821.447	6791
821.588	6635
821.728	6604
821.868	6483
822.008	6281
822.149	6361
822.289	6327
822.429	6076
822.569	6098
822.709	6114
822.849	5927
822.99	5920
823.13	5920
823.27	5931
823.41	5809
823.55	5745
823.69	5756
823.83	5756
823.97	5623
824.11	5467
824.25	5505
824.389	5524
824.529	5558
824.669	5547
824.809	5627
824.949	5668
825.089	5604
825.228	5547
825.368	5345
825.508	5246
825.648	5322
825.787	5349
825.927	5364
826.067	5296
826.206	5269
826.346	5353
826.485	5368
826.625	5364
826.765	5482
826.904	5512
827.044	5265
827.183	5151
827.323	5071
827.462	5246
827.601	5220
827.741	5201
827.88	5246
828.02	5132
828.159	5162
828.298	5303
828.437	5341
828.577	5277
828.716	5493
828.855	5330
828.994	5143
829.134	5090
829.273	5216
829.412	5098
829.551	5166
829.69	5151
829.829	5174
829.968	5372
830.107	5311
830.246	5269
830.385	5166
830.524	5102
830.663	5041
830.802	4934
830.941	4854
831.08	4828
831.219	4957
831.357	4942
831.496	5166
831.635	4919
831.774	4824
831.913	4847
832.051	4729
832.19	4763
832.329	4831
832.467	4660
832.606	4649
832.744	4736
832.883	4698
833.022	4675
833.16	4782
833.299	4782
833.437	4805
833.576	4786
833.714	4870
833.852	4843
833.991	4847
834.129	4930
834.267	4965
834.406	4892
834.544	4930
834.682	4923
834.821	4938
834.959	5151
835.097	4949
835.235	5155
835.373	5079
835.511	5102
835.65	4995
835.788	5003
835.926	4881
836.064	4850
836.202	4831
836.34	5166
836.478	5246
836.615	5105
836.753	5147
836.891	5242
837.029	5231
837.167	5181
837.305	5140
837.443	5185
837.58	5136
837.718	5231
837.856	5193
837.993	5166
838.131	5223
838.269	5181
838.406	5155
838.544	5147
838.681	5037
838.819	4995
838.956	4911
839.094	4896
839.231	4942
839.369	5064
839.506	5391
839.643	5220
839.781	5048
839.918	5010
840.055	5105
840.193	5083
840.33	5121
840.467	5060
840.604	5159
840.742	5398
840.879	5064
841.016	5109
841.153	5132
841.29	5349
841.427	5337
841.564	5273
841.701	5337
841.838	5303
841.975	5239
842.112	5231
842.249	5147
842.385	5048
842.522	5296
842.659	5124
842.796	5136
842.933	5162
843.069	5132
843.206	5117
843.343	5322
843.479	5242
843.616	5284
843.752	5022
843.889	4999
844.025	5193
844.162	5006
844.298	5193
844.435	5052
844.571	5067
844.708	5197
844.844	5315
844.98	5353
845.117	5292
845.253	5109
845.389	5071
845.525	5136
845.661	5143
845.798	5048
845.934	5109
846.07	5006
846.206	5189
846.342	5250
846.478	5124
846.614	4984
846.75	4942
846.886	4961
847.022	5140
847.158	4984
847.294	5029
847.429	5105
847.565	5071
847.701	5288
847.837	4835
847.972	4801
848.108	4984
848.244	4946
848.379	4759
848.515	4717
848.65	4702
848.786	4702
848.921	4740
849.057	4828
849.192	4858
849.328	4790
849.463	4843
849.598	4812
849.734	4744
849.869	4687
850.004	4599
850.14	4637
850.275	4565
850.41	4546
850.545	4561
850.68	4607
850.815	4618
850.95	4550
851.085	4843
851.22	4729
851.355	4675
851.49	4668
851.625	4611
851.76	4649
851.895	4535
852.03	4546
852.165	4611
852.299	4710
852.434	4782
852.569	4687
852.703	4782
852.838	4835
852.973	4908
853.107	4854
853.242	4706
853.376	4626
853.511	4531
853.645	4565
853.78	4774
853.914	4679
854.048	4645
854.183	4607
854.317	4698
854.451	4873
854.585	4694
854.72	4611
854.854	4767
854.988	4596
855.122	4645
855.256	4466
855.39	4672
855.524	4763
855.658	4653
855.792	4687
855.926	4675
856.06	4797
856.194	4729
856.327	4675
856.461	4607
856.595	4634
856.729	4622
856.862	4771
856.996	4679
857.13	4679
857.263	4744
857.397	4805
857.53	4653
857.664	4717
857.797	4710
857.931	4717
858.064	4687
858.197	4782
858.331	4603
858.464	4607
858.597	4516
858.731	4607
858.864	4630
858.997	4584
859.13	4637
859.263	4637
859.396	4721
859.529	4550
859.662	4546
859.795	4554
859.928	4645
860.061	4736
860.194	4717
860.327	4645
860.46	4554
860.592	4694
860.725	4729
860.858	4717
860.99	4584
861.123	4493
861.256	4481
861.388	4569
861.521	5174
861.653	4489
861.786	4436
861.918	4462
862.05	4512
862.183	4527
862.315	4561
862.447	4649
862.58	4554
862.712	4371
862.844	4314
862.976	4428
863.108	4440
863.24	4866
863.372	4284
863.504	4379
863.636	4383
863.768	4462
863.9	4424
864.032	4367
864.164	4428
864.296	4455
864.428	4519
864.559	4554
864.691	4550
864.823	4500
864.954	4512
865.086	4470
865.217	4466
865.349	4379
865.48	4485
865.612	4512
865.743	4664
865.875	4443
866.006	4379
866.137	4474
866.269	4485
866.4	4470
866.531	4386
866.662	4409
866.793	4375
866.924	4386
867.055	4523
867.186	4428
867.317	4436
867.448	4352
867.579	4383
867.71	4405
867.841	4363
867.972	4440
868.103	4409
868.233	4474
868.364	4432
868.495	4462
868.625	4615
868.756	4759
868.886	4565
869.017	4607
869.147	4763
869.278	4771
869.408	4615
869.539	4611
869.669	4691
869.799	4618
869.929	4771
870.06	4687
870.19	4911
870.32	4892
870.45	4919
870.58	4991
870.71	5075
870.84	5060
870.97	4968
871.1	4858
871.23	5124
871.36	5128
871.489	4995
871.619	5071
871.749	5094
871.879	5121
872.008	5124
872.138	5025
872.267	4961
872.397	4870
872.526	4850
872.656	4736
872.785	4782
872.915	4908
873.044	5060
873.173	4919
873.303	4949
873.432	4957
873.561	4927
873.69	4911
873.819	4816
873.948	4938
874.077	4820
874.206	4771
874.335	4793
874.464	4953
874.593	4961
874.722	4957
874.851	5162
874.979	5075
875.108	4999
875.237	4908
875.365	4870
875.494	4892
875.623	4957
875.751	4828
875.88	4866
876.008	4930
876.136	5025
876.265	5166
876.393	5280
876.521	5269
876.65	5223
876.778	5208
876.906	5022
877.034	5018
877.162	5064
877.29	4942
877.418	5003
877.546	5045
877.674	5010
877.802	4995
877.93	5056
878.058	4934
878.185	4892
878.313	4923
878.441	4934
878.568	4820
878.696	4862
878.824	4930
878.951	5003
879.079	5109
879.206	5280
879.333	5086
879.461	4961
879.588	4980
879.715	5140
879.842	5162
879.97	4991
880.097	4782
880.224	4740
880.351	4831
880.478	4839
880.605	4752
880.732	4763
880.859	5025
880.986	4881
881.112	4911
881.239	4786
881.366	4694
881.493	4603
881.619	4565
881.746	4607
881.872	4675
881.999	4672
882.125	4714
882.252	4782
882.378	4786
882.505	4949
882.631	4797
882.757	4672
882.883	4721
883.01	4771
883.136	4645
883.262	4611
883.388	4569
883.514	4809
883.64	4843
883.766	4786
883.892	4641
884.018	4702
884.143	4854
884.269	4968
884.395	4672
884.52	4626
884.646	4702
884.772	4630
884.897	4577
885.023	4622
885.148	4752
885.274	4873
885.399	4812
885.524	4767
885.65	4748
885.775	4740
885.9	4668
886.025	4877
886.15	4790
886.275	4653
886.4	4630
886.525	4710
886.65	4649
886.775	4721
886.9	4904
887.025	5018
887.149	4812
887.274	4683
887.399	4500
887.523	4584
887.648	4531
887.773	4588
887.897	4721
888.021	4725
888.146	4691
888.27	4809
888.395	4923
888.519	4786
888.643	4782
888.767	4835
888.891	4679
889.015	4599
889.139	4637
889.263	4565
889.387	4714
889.511	4896
889.635	4824
889.759	4649
889.883	4656
890.006	4725
890.13	4828
890.254	4634
890.377	4660
890.501	4554
890.624	4531
890.748	4626
890.871	4523
890.995	4421
891.118	4360
891.241	4531
891.364	4523
891.488	4634
891.611	4470
891.734	4527
891.857	4569
891.98	4588
892.103	4672
892.226	4569
892.349	4481
892.471	4428
892.594	4542
892.717	4622
892.839	4596
892.962	4565
893.085	4672
893.207	4584
893.33	4497
893.452	4512
893.575	4649
893.697	4558
893.819	4786
893.941	4805
894.064	4793
894.186	4527
894.308	4622
894.43	4706
894.552	4767
894.674	4740
894.796	4573
894.918	4596
895.04	4546
895.161	4675
895.283	4675
895.405	4561
895.526	4596
895.648	4664
895.769	4630
895.891	4721
896.012	4714
896.134	4736
896.255	4675
896.376	4645
896.498	4615
896.619	4649
896.74	4603
896.861	4660
896.982	4866
897.103	5067
897.224	4870
897.345	4702
897.466	4615
897.587	4736
897.708	4831
897.828	4740
897.949	4672
898.07	4512
898.19	4656
898.311	4805
898.431	4649
898.552	4721
898.672	4763
898.792	4782
898.913	4744
899.033	4592
899.153	4523
899.273	4375
899.393	4500
899.513	4523
899.633	4527
899.753	4558
899.873	4489
899.993	4622
900.113	4523
900.232	4569
900.352	4512
900.472	4504
900.591	4348
900.711	4474
900.83	4443
900.95	4538
901.069	4714
901.189	4531
901.308	4375
901.427	4306
901.546	4371
901.665	4493
901.784	4512
901.904	4314
902.023	4318
902.141	4185
902.26	4162
902.379	4322
902.498	4253
902.617	4158
902.735	4390
902.854	4344
902.973	4383
903.091	4200
903.21	4242
903.328	4261
903.446	4306
903.565	4253
903.683	4344
903.801	4265
903.919	4363
904.038	4417
904.156	4287
904.274	4409
904.392	4390
904.51	4428
904.627	4478
904.745	4596
904.863	4599
904.981	4360
905.098	4276
905.216	4375
905.334	4443
905.451	4466
905.569	4398
905.686	4538
905.803	4561
905.921	4402
906.038	4565
906.155	4512
906.272	4386
906.389	4443
906.506	4402
906.623	4318
906.74	4413
906.857	4284
906.974	4363
907.091	4523
907.208	4710
907.324	4538
907.441	4478
907.557	4341
907.674	4352
907.79	4284
907.907	4379
908.023	4428
908.139	4409
908.256	4443
908.372	4447
908.488	4405
908.604	4371
908.72	4303
908.836	4348
908.952	4348
909.068	4443
909.184	4516
909.3	4481
909.415	4573
909.531	4569
909.647	4367
909.762	4344
909.878	4356
909.993	4375
910.108	4424
910.224	4386
910.339	4508
910.454	4348
910.57	4325
910.685	4284
910.8	4645
910.915	4561
911.03	4462
911.145	4306
911.259	4303
911.374	4341
911.489	4261
911.604	4310
911.718	4166
911.833	4185
911.947	4082
912.062	4055
912.176	4154
912.291	4249
912.405	4230
912.519	4466
912.633	4466
912.748	4341
912.862	4299
912.976	4188
913.09	4143
913.204	4185
913.318	4276
913.431	4386
913.545	4318
913.659	4443
913.772	4367
913.886	4207
914	4207
914.113	4356
914.226	4451
914.34	4386
914.453	4207
914.566	4409
914.68	4310
914.793	4265
914.906	4139
915.019	4112
915.132	4036
915.245	4143
915.358	4169
915.47	4246
915.583	4280
915.696	4314
915.809	4390
915.921	4421
916.034	4215
916.146	4185
916.259	4253
916.371	4409
916.483	4367
916.595	4268
916.708	4322
916.82	4303
916.932	4295
917.044	4314
917.156	4310
917.268	4234
917.38	4272
917.491	4295
917.603	4325
917.715	4344
917.826	4455
917.938	4291
918.049	4227
918.161	4409
918.272	4523
918.384	4558
918.495	4466
918.606	4280
918.717	4242
918.828	4295
918.939	4352
919.05	4238
919.161	4356
919.272	4147
919.383	4215
919.494	4436
919.604	4626
919.715	4405
919.826	4322
919.936	4417
920.047	4523
920.157	4447
920.267	4710
920.378	4531
920.488	4421
920.598	4694
920.708	4862
920.818	4793
920.928	4763
921.038	4953
921.148	4908
921.258	4637
921.368	4497
921.477	4516
921.587	4481
921.697	4390
921.806	4550
921.916	4462
922.025	4261
922.134	4196
922.244	4223
922.353	4363
922.462	4185
922.571	4162
922.68	3979
922.789	4017
922.898	4048
923.007	3994
923.116	4090
923.224	4025
923.333	4063
923.442	3968
923.55	3949
923.659	4044
923.767	4124
923.876	3998
923.984	4139
924.092	4010
924.201	4071
924.309	4112
924.417	4093
924.525	4036
924.633	4131
924.741	5041
924.849	3915
924.956	4109
925.064	3960
925.172	3903
925.279	3979
925.387	4048
925.494	4067
925.602	4219
925.709	4192
925.816	4025
925.924	4128
926.031	4204
926.138	4173
926.245	4169
926.352	4078
926.459	4272
926.566	4306
926.673	4139
926.779	4093
926.886	4074
926.993	3991
927.099	3949
927.206	3953
927.312	3903
927.419	4048
927.525	4017
927.631	4093
927.737	3956
927.843	3911
927.95	3876
928.056	3949
928.162	3941
928.267	4032
928.373	4630
928.479	4116
928.585	3876
928.69	4021
928.796	4067
928.901	3937
929.007	3846
929.112	3964
929.218	3968
929.323	4002
929.428	3934
929.533	4101
929.638	3876
929.743	3968
929.848	4055
929.953	4002
930.058	3964
930.163	3774
930.267	3827
930.372	3994
930.477	3781
930.581	4101
930.685	3941
930.79	3812
930.894	3816
930.998	3846
931.103	4040
931.207	3690
931.311	3660
931.415	3663
931.519	3504
931.623	3519
