Data from test_V78500241_1286.txt Node
Date: Fri Mar 25 16:57:56 CST 2022
User: usil
Spectrometer: V785-0024
Trigger mode: 0
Integration Time (sec): 4.000000E-1
Scans to average: 1
Nonlinearity correction enabled: false
Boxcar width: 0
Storing dark spectrum: false
XAxis mode: Wavelengths
Number of Pixels in Spectrum: 1024
>>>>>Begin Spectral Data<<<<<
801.071	8069
801.214	8035
801.356	7936
801.499	7852
801.641	7807
801.783	7807
801.926	7959
802.068	7902
802.211	7989
802.353	8027
802.496	7890
802.638	7894
802.78	7875
802.923	7894
803.065	7928
803.208	7879
803.35	7928
803.492	8123
803.635	8195
803.777	7997
803.919	8084
804.061	8427
804.204	8138
804.346	8088
804.488	7887
804.63	8088
804.773	8027
804.915	8221
805.057	8332
805.199	8225
805.341	8256
805.483	8377
805.626	8244
805.768	8123
805.91	8195
806.052	8195
806.194	8130
806.336	8336
806.478	8081
806.62	7978
806.762	8134
806.904	8362
807.046	8530
807.188	8351
807.33	8256
807.472	8324
807.614	8153
807.756	8123
807.898	8020
808.04	7951
808.182	7894
808.324	7868
808.465	7917
808.607	8065
808.749	8092
808.891	8183
809.033	8221
809.174	8233
809.316	8016
809.458	8024
809.6	8001
809.741	8005
809.883	8035
810.025	8123
810.166	8073
810.308	8081
810.45	8020
810.591	7826
810.733	7780
810.875	7712
811.016	7521
811.158	7499
811.299	7601
811.441	7780
811.582	7731
811.724	7632
811.865	7483
812.007	7590
812.148	7647
812.29	7609
812.431	7757
812.573	7833
812.714	7909
812.855	8058
812.997	8252
813.138	8320
813.279	8191
813.421	8046
813.562	8008
813.703	7849
813.845	7723
813.986	7453
814.127	7293
814.268	7202
814.41	7209
814.551	7190
814.692	7179
814.833	7095
814.974	7072
815.115	7099
815.256	6859
815.397	6954
815.539	6993
815.68	6829
815.821	6787
815.962	6878
816.103	6825
816.244	6696
816.385	6662
816.526	6631
816.666	6479
816.807	6327
816.948	6388
817.089	6433
817.23	6365
817.371	6388
817.512	6357
817.653	6395
817.793	6346
817.934	6372
818.075	6467
818.216	6391
818.356	6429
818.497	6228
818.638	6091
818.778	6163
818.919	6159
819.06	6133
819.2	6311
819.341	6365
819.481	6380
819.622	6547
819.762	6665
819.903	6688
820.043	6646
820.184	6574
820.324	6608
820.465	6650
820.605	6719
820.746	6654
820.886	6498
821.026	6646
821.167	6726
821.307	6802
821.447	6730
821.588	6604
821.728	6589
821.868	6555
822.008	6323
822.149	6391
822.289	6418
822.429	6163
822.569	6106
822.709	6136
822.849	5942
822.99	5927
823.13	5923
823.27	5904
823.41	5821
823.55	5802
823.69	5764
823.83	5840
823.97	5699
824.11	5524
824.25	5539
824.389	5596
824.529	5604
824.669	5566
824.809	5642
824.949	5767
825.089	5661
825.228	5577
825.368	5414
825.508	5398
825.648	5357
825.787	5486
825.927	5429
826.067	5315
826.206	5303
826.346	5410
826.485	5467
826.625	5421
826.765	5577
826.904	5528
827.044	5265
827.183	5208
827.323	5197
827.462	5318
827.601	5227
827.741	5265
827.88	5269
828.02	5162
828.159	5227
828.298	5322
828.437	5406
828.577	5284
828.716	5482
828.855	5334
828.994	5212
829.134	5201
829.273	5239
829.412	5246
829.551	5208
829.69	5197
829.829	5258
829.968	5421
830.107	5315
830.246	5296
830.385	5220
830.524	5174
830.663	5128
830.802	4980
830.941	4942
831.08	4930
831.219	4999
831.357	4972
831.496	5170
831.635	4980
831.774	4885
831.913	4900
832.051	4763
832.19	4790
832.329	4915
832.467	4733
832.606	4649
832.744	4767
832.883	4736
833.022	4755
833.16	4816
833.299	4866
833.437	4828
833.576	4877
833.714	4892
833.852	4934
833.991	4870
834.129	4968
834.267	4953
834.406	4946
834.544	5018
834.682	5006
834.821	4984
834.959	5174
835.097	5079
835.235	5223
835.373	5136
835.511	5128
835.65	5098
835.788	5037
835.926	4961
836.064	4850
836.202	4885
836.34	5208
836.478	5227
836.615	5147
836.753	5239
836.891	5261
837.029	5250
837.167	5204
837.305	5223
837.443	5181
837.58	5086
837.718	5288
837.856	5216
837.993	5204
838.131	5246
838.269	5231
838.406	5246
838.544	5201
838.681	5045
838.819	5075
838.956	4873
839.094	4991
839.231	5029
839.369	5121
839.506	5448
839.643	5258
839.781	5113
839.918	5083
840.055	5132
840.193	5109
840.33	5094
840.467	5128
840.604	5280
840.742	5433
840.879	5064
841.016	5117
841.153	5159
841.29	5379
841.427	5402
841.564	5292
841.701	5322
841.838	5261
841.975	5239
842.112	5277
842.249	5170
842.385	5162
842.522	5318
842.659	5193
842.796	5128
842.933	5170
843.069	5204
843.206	5178
843.343	5360
843.479	5231
843.616	5273
843.752	5098
843.889	5037
844.025	5254
844.162	5006
844.298	5265
844.435	5113
844.571	5052
844.708	5216
844.844	5311
844.98	5334
845.117	5311
845.253	5170
845.389	5086
845.525	5181
845.661	5204
845.798	5045
845.934	5170
846.07	5071
846.206	5132
846.342	5296
846.478	5212
846.614	5064
846.75	4972
846.886	4968
847.022	5128
847.158	4995
847.294	5064
847.429	5143
847.565	5060
847.701	5414
847.837	4911
847.972	4850
848.108	4984
848.244	4946
848.379	4797
848.515	4797
848.65	4721
848.786	4729
848.921	4801
849.057	4877
849.192	4870
849.328	4820
849.463	4839
849.598	4809
849.734	4763
849.869	4733
850.004	4645
850.14	4664
850.275	4660
850.41	4554
850.545	4561
850.68	4668
850.815	4691
850.95	4649
851.085	4850
851.22	4721
851.355	4687
851.49	4641
851.625	4672
851.76	4626
851.895	4603
852.03	4535
852.165	4675
852.299	4759
852.434	4767
852.569	4740
852.703	4763
852.838	4850
852.973	4927
853.107	4927
853.242	4771
853.376	4721
853.511	4565
853.645	4580
853.78	4870
853.914	4733
854.048	4641
854.183	4698
854.317	4748
854.451	4866
854.585	4687
854.72	4649
854.854	4812
854.988	4615
855.122	4683
855.256	4535
855.39	4706
855.524	4782
855.658	4755
855.792	4687
855.926	4790
856.06	4774
856.194	4831
856.327	4687
856.461	4592
856.595	4691
856.729	4683
856.862	4767
856.996	4736
857.13	4774
857.263	4759
857.397	4828
857.53	4710
857.664	4752
857.797	4850
857.931	4850
858.064	4752
858.197	4801
858.331	4664
858.464	4622
858.597	4542
858.731	4653
858.864	4626
858.997	4592
859.13	4687
859.263	4694
859.396	4698
859.529	4577
859.662	4573
859.795	4538
859.928	4668
860.061	4774
860.194	4828
860.327	4645
860.46	4596
860.592	4736
860.725	4786
860.858	4752
860.99	4588
861.123	4592
861.256	4554
861.388	4592
861.521	5178
861.653	4485
861.786	4489
861.918	4440
862.05	4546
862.183	4569
862.315	4599
862.447	4656
862.58	4542
862.712	4466
862.844	4356
862.976	4466
863.108	4466
863.24	4877
863.372	4379
863.504	4390
863.636	4451
863.768	4527
863.9	4413
864.032	4375
864.164	4478
864.296	4519
864.428	4554
864.559	4561
864.691	4607
864.823	4550
864.954	4497
865.086	4580
865.217	4504
865.349	4466
865.48	4527
865.612	4504
865.743	4637
865.875	4474
866.006	4481
866.137	4493
866.269	4424
866.4	4432
866.531	4424
866.662	4436
866.793	4375
866.924	4432
867.055	4523
867.186	4436
867.317	4485
867.448	4386
867.579	4337
867.71	4386
867.841	4402
867.972	4466
868.103	4470
868.233	4455
868.364	4443
868.495	4474
868.625	4687
868.756	4774
868.886	4588
869.017	4641
869.147	4763
869.278	4786
869.408	4664
869.539	4675
869.669	4706
869.799	4710
869.929	4782
870.06	4733
870.19	4949
870.32	4908
870.45	4927
870.58	5064
870.71	5060
870.84	5128
870.97	5018
871.1	4946
871.23	5178
871.36	5102
871.489	5060
871.619	5105
871.749	5178
871.879	5124
872.008	5143
872.138	5075
872.267	4984
872.397	4839
872.526	4812
872.656	4774
872.785	4809
872.915	4995
873.044	5079
873.173	4885
873.303	4972
873.432	5006
873.561	4991
873.69	4866
873.819	4892
873.948	4923
874.077	4862
874.206	4786
874.335	4824
874.464	4923
874.593	5086
874.722	4972
874.851	5151
874.979	5102
875.108	5041
875.237	4961
875.365	4843
875.494	4892
875.623	4984
875.751	4854
875.88	4919
876.008	4999
876.136	5064
876.265	5246
876.393	5372
876.521	5326
876.65	5174
876.778	5162
876.906	5029
877.034	5025
877.162	5098
877.29	4991
877.418	5033
877.546	5018
877.674	5056
877.802	5033
877.93	5067
878.058	4927
878.185	4938
878.313	5006
878.441	4987
878.568	4839
878.696	4930
878.824	4957
878.951	5037
879.079	5159
879.206	5296
879.333	5109
879.461	5006
879.588	5041
879.715	5140
879.842	5216
879.97	5006
880.097	4820
880.224	4782
880.351	4801
880.478	4793
880.605	4816
880.732	4812
880.859	5098
880.986	4927
881.112	4904
881.239	4809
881.366	4748
881.493	4668
881.619	4615
881.746	4649
881.872	4702
881.999	4664
882.125	4721
882.252	4839
882.378	4835
882.505	4946
882.631	4805
882.757	4675
882.883	4717
883.01	4778
883.136	4637
883.262	4599
883.388	4630
883.514	4790
883.64	4866
883.766	4755
883.892	4622
884.018	4714
884.143	4885
884.269	5037
884.395	4744
884.52	4668
884.646	4656
884.772	4603
884.897	4596
885.023	4634
885.148	4778
885.274	4873
885.399	4862
885.524	4744
885.65	4733
885.775	4797
885.9	4736
886.025	4873
886.15	4774
886.275	4710
886.4	4687
886.525	4767
886.65	4721
886.775	4702
886.9	4896
887.025	5071
887.149	4847
887.274	4668
887.399	4588
887.523	4565
887.648	4618
887.773	4622
887.897	4725
888.021	4790
888.146	4702
888.27	4847
888.395	4911
888.519	4801
888.643	4790
888.767	4839
888.891	4660
889.015	4618
889.139	4630
889.263	4653
889.387	4790
889.511	4889
889.635	4790
889.759	4714
889.883	4672
890.006	4744
890.13	4828
890.254	4683
890.377	4702
890.501	4550
890.624	4527
890.748	4599
890.871	4527
890.995	4455
891.118	4337
891.241	4531
891.364	4519
891.488	4615
891.611	4500
891.734	4531
891.857	4653
891.98	4565
892.103	4637
892.226	4592
892.349	4489
892.471	4459
892.594	4550
892.717	4622
892.839	4538
892.962	4611
893.085	4634
893.207	4603
893.33	4481
893.452	4523
893.575	4660
893.697	4573
893.819	4858
893.941	4828
894.064	4797
894.186	4596
894.308	4649
894.43	4698
894.552	4885
894.674	4740
894.796	4596
894.918	4622
895.04	4599
895.161	4725
895.283	4660
895.405	4599
895.526	4615
895.648	4694
895.769	4675
895.891	4721
896.012	4721
896.134	4752
896.255	4672
896.376	4634
896.498	4618
896.619	4694
896.74	4573
896.861	4668
896.982	4923
897.103	5098
897.224	4862
897.345	4752
897.466	4630
897.587	4744
897.708	4847
897.828	4790
897.949	4672
898.07	4550
898.19	4664
898.311	4816
898.431	4687
898.552	4721
898.672	4782
898.792	4801
898.913	4740
899.033	4634
899.153	4516
899.273	4409
899.393	4493
899.513	4489
899.633	4519
899.753	4493
899.873	4497
899.993	4592
900.113	4500
900.232	4607
900.352	4512
900.472	4489
900.591	4371
900.711	4508
900.83	4451
900.95	4550
901.069	4736
901.189	4577
901.308	4405
901.427	4303
901.546	4379
901.665	4466
901.784	4542
901.904	4394
902.023	4363
902.141	4211
902.26	4166
902.379	4348
902.498	4257
902.617	4223
902.735	4375
902.854	4447
902.973	4352
903.091	4223
903.21	4207
903.328	4280
903.446	4291
903.565	4211
903.683	4352
903.801	4265
903.919	4443
904.038	4451
904.156	4295
904.274	4409
904.392	4405
904.51	4443
904.627	4451
904.745	4550
904.863	4626
904.981	4383
905.098	4314
905.216	4348
905.334	4436
905.451	4455
905.569	4443
905.686	4497
905.803	4577
905.921	4447
906.038	4561
906.155	4493
906.272	4398
906.389	4451
906.506	4379
906.623	4405
906.74	4383
906.857	4280
906.974	4352
907.091	4577
907.208	4645
907.324	4584
907.441	4500
907.557	4348
907.674	4344
907.79	4344
907.907	4402
908.023	4485
908.139	4497
908.256	4432
908.372	4455
908.488	4432
908.604	4356
908.72	4325
908.836	4344
908.952	4413
909.068	4409
909.184	4565
909.3	4500
909.415	4611
909.531	4626
909.647	4383
909.762	4394
909.878	4341
909.993	4443
910.108	4402
910.224	4390
910.339	4481
910.454	4394
910.57	4386
910.685	4287
910.8	4672
910.915	4611
911.03	4455
911.145	4295
911.259	4371
911.374	4383
911.489	4303
911.604	4306
911.718	4196
911.833	4207
911.947	4090
912.062	4044
912.176	4200
912.291	4227
912.405	4306
912.519	4462
912.633	4550
912.748	4352
912.862	4344
912.976	4207
913.09	4112
913.204	4188
913.318	4215
913.431	4356
913.545	4394
913.659	4455
913.772	4348
913.886	4291
914	4238
914.113	4367
914.226	4409
914.34	4367
914.453	4227
914.566	4455
914.68	4303
914.793	4337
914.906	4219
915.019	4143
915.132	4116
915.245	4169
915.358	4257
915.47	4196
915.583	4253
915.696	4268
915.809	4363
915.921	4417
916.034	4272
916.146	4242
916.259	4246
916.371	4386
916.483	4337
916.595	4265
916.708	4329
916.82	4322
916.932	4303
917.044	4322
917.156	4356
917.268	4192
917.38	4299
917.491	4215
917.603	4310
917.715	4432
917.826	4459
917.938	4367
918.049	4230
918.161	4394
918.272	4516
918.384	4504
918.495	4421
918.606	4276
918.717	4246
918.828	4299
918.939	4402
919.05	4287
919.161	4318
919.272	4162
919.383	4196
919.494	4447
919.604	4675
919.715	4436
919.826	4337
919.936	4341
920.047	4523
920.157	4535
920.267	4645
920.378	4542
920.488	4523
920.598	4748
920.708	4877
920.818	4721
920.928	4790
921.038	4934
921.148	4900
921.258	4626
921.368	4554
921.477	4478
921.587	4474
921.697	4375
921.806	4569
921.916	4436
922.025	4295
922.134	4211
922.244	4207
922.353	4383
922.462	4188
922.571	4124
922.68	4006
922.789	3979
922.898	4048
923.007	3987
923.116	4082
923.224	4112
923.333	4067
923.442	3972
923.55	3975
923.659	3994
923.767	4101
923.876	4029
923.984	4116
924.092	3983
924.201	4074
924.309	4093
924.417	4078
924.525	4063
924.633	4082
924.741	5022
924.849	3903
924.956	4128
925.064	4013
925.172	3926
925.279	3907
925.387	4040
925.494	4059
925.602	4230
925.709	4147
925.816	4082
925.924	4120
926.031	4242
926.138	4154
926.245	4246
926.352	4093
926.459	4211
926.566	4306
926.673	4192
926.779	4082
926.886	4063
926.993	4029
927.099	4002
927.206	3979
927.312	3937
927.419	4010
927.525	4010
927.631	4051
927.737	3941
927.843	3922
927.95	3838
928.056	3953
928.162	3998
928.267	4051
928.373	4706
928.479	4147
928.585	3903
928.69	4044
928.796	4112
928.901	4006
929.007	3865
929.112	4040
929.218	3960
929.323	3934
929.428	3960
929.533	4093
929.638	3873
929.743	4006
929.848	4010
929.953	3975
930.058	3953
930.163	3781
930.267	3808
930.372	3979
930.477	3789
930.581	4055
930.685	3987
930.79	3831
930.894	3903
930.998	3831
931.103	3983
931.207	3709
931.311	3736
931.415	3682
931.519	3534
931.623	3545
