Data from test_V78500241_1092.txt Node
Date: Fri Mar 25 16:56:35 CST 2022
User: usil
Spectrometer: V785-0024
Trigger mode: 0
Integration Time (sec): 4.000000E-1
Scans to average: 1
Nonlinearity correction enabled: false
Boxcar width: 0
Storing dark spectrum: false
XAxis mode: Wavelengths
Number of Pixels in Spectrum: 1024
>>>>>Begin Spectral Data<<<<<
801.071	8058
801.214	8062
801.356	7894
801.499	7830
801.641	7807
801.783	7811
801.926	7955
802.068	7982
802.211	7928
802.353	7894
802.496	7807
802.638	7849
802.78	7894
802.923	7913
803.065	7917
803.208	7856
803.35	7940
803.492	8161
803.635	8145
803.777	7993
803.919	8145
804.061	8427
804.204	8206
804.346	8039
804.488	7993
804.63	8081
804.773	7989
804.915	8024
805.057	8267
805.199	8145
805.341	8263
805.483	8218
805.626	8210
805.768	8088
805.91	8176
806.052	8161
806.194	8062
806.336	8248
806.478	8073
806.62	8073
806.762	8138
806.904	8237
807.046	8488
807.188	8358
807.33	8298
807.472	8324
807.614	8126
807.756	8115
807.898	8031
808.04	7947
808.182	7868
808.324	7879
808.465	7826
808.607	8081
808.749	8088
808.891	8210
809.033	8301
809.174	8142
809.316	8012
809.458	8100
809.6	8054
809.741	8012
809.883	8065
810.025	8100
810.166	8043
810.308	8027
810.45	8008
810.591	7879
810.733	7674
810.875	7620
811.016	7518
811.158	7411
811.299	7613
811.441	7670
811.582	7655
811.724	7571
811.865	7491
812.007	7518
812.148	7590
812.29	7616
812.431	7734
812.573	7902
812.714	7921
812.855	8088
812.997	8081
813.138	8336
813.279	8187
813.421	8134
813.562	8073
813.703	7833
813.845	7704
813.986	7453
814.127	7202
814.268	7240
814.41	7221
814.551	7168
814.692	7168
814.833	7034
814.974	7046
815.115	7057
815.256	6954
815.397	6856
815.539	6932
815.68	6829
815.821	6764
815.962	6882
816.103	6863
816.244	6635
816.385	6658
816.526	6612
816.666	6456
816.807	6266
816.948	6437
817.089	6460
817.23	6456
817.371	6353
817.512	6395
817.653	6407
817.793	6353
817.934	6418
818.075	6506
818.216	6456
818.356	6418
818.497	6213
818.638	6117
818.778	6144
818.919	6182
819.06	6155
819.2	6262
819.341	6308
819.481	6350
819.622	6551
819.762	6692
819.903	6635
820.043	6597
820.184	6574
820.324	6555
820.465	6684
820.605	6696
820.746	6673
820.886	6490
821.026	6662
821.167	6658
821.307	6757
821.447	6776
821.588	6604
821.728	6521
821.868	6490
822.008	6315
822.149	6357
822.289	6327
822.429	6125
822.569	6072
822.709	6038
822.849	5980
822.99	5885
823.13	5920
823.27	5901
823.41	5775
823.55	5805
823.69	5756
823.83	5745
823.97	5668
824.11	5535
824.25	5478
824.389	5528
824.529	5604
824.669	5524
824.809	5611
824.949	5627
825.089	5649
825.228	5512
825.368	5417
825.508	5299
825.648	5341
825.787	5391
825.927	5368
826.067	5273
826.206	5284
826.346	5383
826.485	5425
826.625	5402
826.765	5535
826.904	5455
827.044	5193
827.183	5197
827.323	5151
827.462	5223
827.601	5102
827.741	5166
827.88	5258
828.02	5094
828.159	5178
828.298	5261
828.437	5372
828.577	5284
828.716	5452
828.855	5337
828.994	5151
829.134	5189
829.273	5220
829.412	5109
829.551	5140
829.69	5143
829.829	5277
829.968	5391
830.107	5242
830.246	5269
830.385	5204
830.524	5136
830.663	5041
830.802	4995
830.941	4839
831.08	4843
831.219	4968
831.357	4972
831.496	5162
831.635	4904
831.774	4816
831.913	4835
832.051	4622
832.19	4767
832.329	4805
832.467	4706
832.606	4630
832.744	4668
832.883	4675
833.022	4660
833.16	4774
833.299	4797
833.437	4816
833.576	4805
833.714	4809
833.852	4786
833.991	4919
834.129	4934
834.267	4938
834.406	4866
834.544	4965
834.682	5014
834.821	4953
834.959	5147
835.097	4972
835.235	5113
835.373	5018
835.511	5071
835.65	5022
835.788	5010
835.926	4873
836.064	4831
836.202	4892
836.34	5193
836.478	5220
836.615	5113
836.753	5151
836.891	5273
837.029	5189
837.167	5151
837.305	5132
837.443	5147
837.58	5064
837.718	5277
837.856	5178
837.993	5136
838.131	5246
838.269	5174
838.406	5162
838.544	5178
838.681	5006
838.819	5033
838.956	4896
839.094	4881
839.231	4938
839.369	5041
839.506	5391
839.643	5284
839.781	5086
839.918	5022
840.055	5071
840.193	5102
840.33	5121
840.467	5109
840.604	5185
840.742	5402
840.879	5102
841.016	5086
841.153	5166
841.29	5307
841.427	5326
841.564	5345
841.701	5353
841.838	5254
841.975	5292
842.112	5239
842.249	5147
842.385	5117
842.522	5269
842.659	5147
842.796	5166
842.933	5147
843.069	5105
843.206	5140
843.343	5315
843.479	5258
843.616	5246
843.752	5018
843.889	4991
844.025	5151
844.162	4957
844.298	5178
844.435	5064
844.571	5022
844.708	5181
844.844	5311
844.98	5307
845.117	5273
845.253	5170
845.389	5075
845.525	5086
845.661	5178
845.798	5006
845.934	5117
846.07	4984
846.206	5166
846.342	5235
846.478	5117
846.614	5037
846.75	4961
846.886	4938
847.022	5113
847.158	5010
847.294	4999
847.429	5075
847.565	5037
847.701	5299
847.837	4850
847.972	4767
848.108	4946
848.244	4870
848.379	4767
848.515	4740
848.65	4691
848.786	4771
848.921	4774
849.057	4812
849.192	4915
849.328	4828
849.463	4850
849.598	4786
849.734	4721
849.869	4691
850.004	4626
850.14	4637
850.275	4558
850.41	4512
850.545	4550
850.68	4584
850.815	4611
850.95	4561
851.085	4809
851.22	4778
851.355	4679
851.49	4588
851.625	4599
851.76	4584
851.895	4561
852.03	4519
852.165	4626
852.299	4702
852.434	4752
852.569	4656
852.703	4698
852.838	4797
852.973	4953
853.107	4915
853.242	4744
853.376	4679
853.511	4554
853.645	4649
853.78	4824
853.914	4622
854.048	4634
854.183	4592
854.317	4687
854.451	4843
854.585	4683
854.72	4641
854.854	4721
854.988	4573
855.122	4607
855.256	4519
855.39	4637
855.524	4793
855.658	4710
855.792	4691
855.926	4710
856.06	4755
856.194	4793
856.327	4618
856.461	4592
856.595	4577
856.729	4588
856.862	4759
856.996	4649
857.13	4714
857.263	4797
857.397	4790
857.53	4637
857.664	4744
857.797	4755
857.931	4812
858.064	4683
858.197	4698
858.331	4618
858.464	4592
858.597	4485
858.731	4611
858.864	4634
858.997	4580
859.13	4656
859.263	4618
859.396	4660
859.529	4565
859.662	4535
859.795	4512
859.928	4607
860.061	4786
860.194	4694
860.327	4622
860.46	4580
860.592	4706
860.725	4759
860.858	4752
860.99	4569
861.123	4481
861.256	4512
861.388	4580
861.521	5326
861.653	4451
861.786	4440
861.918	4413
862.05	4493
862.183	4573
862.315	4615
862.447	4634
862.58	4531
862.712	4409
862.844	4303
862.976	4485
863.108	4489
863.24	4736
863.372	4310
863.504	4451
863.636	4413
863.768	4512
863.9	4398
864.032	4367
864.164	4405
864.296	4436
864.428	4519
864.559	4565
864.691	4558
864.823	4508
864.954	4428
865.086	4512
865.217	4402
865.349	4402
865.48	4409
865.612	4485
865.743	4649
865.875	4451
866.006	4371
866.137	4451
866.269	4432
866.4	4447
866.531	4394
866.662	4367
866.793	4375
866.924	4402
867.055	4504
867.186	4379
867.317	4383
867.448	4341
867.579	4398
867.71	4371
867.841	4341
867.972	4451
868.103	4455
868.233	4394
868.364	4405
868.495	4451
868.625	4626
868.756	4687
868.886	4512
869.017	4637
869.147	4736
869.278	4702
869.408	4660
869.539	4603
869.669	4668
869.799	4634
869.929	4755
870.06	4721
870.19	4908
870.32	4885
870.45	4927
870.58	4934
870.71	5014
870.84	5056
870.97	4930
871.1	4885
871.23	5151
871.36	5098
871.489	5003
871.619	5037
871.749	5033
871.879	5098
872.008	5174
872.138	5025
872.267	4942
872.397	4816
872.526	4763
872.656	4721
872.785	4797
872.915	4949
873.044	5014
873.173	4904
873.303	4900
873.432	4953
873.561	4915
873.69	4786
873.819	4843
873.948	4877
874.077	4771
874.206	4702
874.335	4767
874.464	4881
874.593	5029
874.722	4889
874.851	5064
874.979	5022
875.108	5056
875.237	4896
875.365	4809
875.494	4889
875.623	4972
875.751	4809
875.88	4820
876.008	4991
876.136	4995
876.265	5178
876.393	5353
876.521	5288
876.65	5220
876.778	5166
876.906	5010
877.034	5022
877.162	5045
877.29	5018
877.418	5052
877.546	5064
877.674	5048
877.802	5041
877.93	5029
878.058	4923
878.185	4930
878.313	4949
878.441	4984
878.568	4816
878.696	4873
878.824	4968
878.951	4976
879.079	5143
879.206	5307
879.333	5140
879.461	5037
879.588	5029
879.715	5117
879.842	5261
879.97	5090
880.097	4812
880.224	4767
880.351	4870
880.478	4854
880.605	4850
880.732	4828
880.859	5132
880.986	4934
881.112	4908
881.239	4809
881.366	4672
881.493	4649
881.619	4592
881.746	4630
881.872	4691
881.999	4656
882.125	4733
882.252	4778
882.378	4847
882.505	5003
882.631	4854
882.757	4683
882.883	4721
883.01	4774
883.136	4698
883.262	4622
883.388	4668
883.514	4885
883.64	4892
883.766	4809
883.892	4702
884.018	4740
884.143	4934
884.269	5037
884.395	4729
884.52	4691
884.646	4675
884.772	4645
884.897	4519
885.023	4637
885.148	4809
885.274	4870
885.399	4854
885.524	4744
885.65	4702
885.775	4755
885.9	4702
886.025	4873
886.15	4831
886.275	4740
886.4	4675
886.525	4721
886.65	4748
886.775	4694
886.9	4911
887.025	5056
887.149	4820
887.274	4675
887.399	4588
887.523	4618
887.648	4641
887.773	4577
887.897	4778
888.021	4801
888.146	4733
888.27	4816
888.395	4911
888.519	4812
888.643	4790
888.767	4831
888.891	4656
889.015	4637
889.139	4664
889.263	4645
889.387	4767
889.511	4904
889.635	4790
889.759	4656
889.883	4717
890.006	4725
890.13	4885
890.254	4622
890.377	4691
890.501	4558
890.624	4573
890.748	4637
890.871	4535
890.995	4478
891.118	4504
891.241	4550
891.364	4607
891.488	4664
891.611	4523
891.734	4615
891.857	4622
891.98	4558
892.103	4710
892.226	4611
892.349	4504
892.471	4481
892.594	4584
892.717	4588
892.839	4611
892.962	4622
893.085	4653
893.207	4634
893.33	4504
893.452	4558
893.575	4675
893.697	4561
893.819	4805
893.941	4797
894.064	4793
894.186	4592
894.308	4577
894.43	4744
894.552	4839
894.674	4774
894.796	4561
894.918	4634
895.04	4603
895.161	4653
895.283	4630
895.405	4569
895.526	4672
895.648	4679
895.769	4706
895.891	4687
896.012	4725
896.134	4721
896.255	4668
896.376	4672
896.498	4634
896.619	4683
896.74	4622
896.861	4675
896.982	4965
897.103	5079
897.224	4816
897.345	4759
897.466	4736
897.587	4767
897.708	4904
897.828	4782
897.949	4687
898.07	4637
898.19	4645
898.311	4850
898.431	4687
898.552	4767
898.672	4820
898.792	4835
898.913	4752
899.033	4641
899.153	4527
899.273	4409
899.393	4512
899.513	4527
899.633	4558
899.753	4519
899.873	4527
899.993	4634
900.113	4607
900.232	4577
900.352	4569
900.472	4466
900.591	4451
900.711	4550
900.83	4478
900.95	4660
901.069	4687
901.189	4584
901.308	4402
901.427	4337
901.546	4375
901.665	4459
901.784	4538
901.904	4424
902.023	4344
902.141	4234
902.26	4181
902.379	4280
902.498	4211
902.617	4192
902.735	4375
902.854	4398
902.973	4367
903.091	4257
903.21	4261
903.328	4295
903.446	4306
903.565	4299
903.683	4428
903.801	4287
903.919	4436
904.038	4432
904.156	4341
904.274	4485
904.392	4394
904.51	4459
904.627	4519
904.745	4599
904.863	4679
904.981	4417
905.098	4352
905.216	4405
905.334	4489
905.451	4481
905.569	4447
905.686	4611
905.803	4607
905.921	4413
906.038	4611
906.155	4493
906.272	4390
906.389	4436
906.506	4341
906.623	4421
906.74	4421
906.857	4363
906.974	4428
907.091	4596
907.208	4675
907.324	4641
907.441	4512
907.557	4386
907.674	4390
907.79	4379
907.907	4394
908.023	4459
908.139	4466
908.256	4443
908.372	4440
908.488	4489
908.604	4386
908.72	4325
908.836	4379
908.952	4383
909.068	4428
909.184	4580
909.3	4470
909.415	4615
909.531	4573
909.647	4371
909.762	4371
909.878	4390
909.993	4443
910.108	4447
910.224	4432
910.339	4500
910.454	4375
910.57	4383
910.685	4348
910.8	4717
910.915	4618
911.03	4519
911.145	4352
911.259	4325
911.374	4394
911.489	4318
911.604	4284
911.718	4238
911.833	4246
911.947	4109
912.062	4090
912.176	4215
912.291	4265
912.405	4280
912.519	4523
912.633	4474
912.748	4383
912.862	4348
912.976	4223
913.09	4120
913.204	4234
913.318	4284
913.431	4356
913.545	4402
913.659	4478
913.772	4398
913.886	4257
914	4261
914.113	4413
914.226	4459
914.34	4398
914.453	4272
914.566	4440
914.68	4341
914.793	4363
914.906	4158
915.019	4139
915.132	4093
915.245	4185
915.358	4204
915.47	4265
915.583	4261
915.696	4322
915.809	4409
915.921	4409
916.034	4261
916.146	4295
916.259	4215
916.371	4363
916.483	4428
916.595	4280
916.708	4371
916.82	4405
916.932	4333
917.044	4322
917.156	4310
917.268	4200
917.38	4303
917.491	4299
917.603	4318
917.715	4413
917.826	4466
917.938	4356
918.049	4261
918.161	4417
918.272	4561
918.384	4588
918.495	4508
918.606	4348
918.717	4234
918.828	4329
918.939	4363
919.05	4261
919.161	4333
919.272	4150
919.383	4261
919.494	4417
919.604	4656
919.715	4402
919.826	4333
919.936	4394
920.047	4523
920.157	4508
920.267	4683
920.378	4542
920.488	4500
920.598	4752
920.708	4862
920.818	4786
920.928	4771
921.038	4949
921.148	4934
921.258	4637
921.368	4611
921.477	4527
921.587	4455
921.697	4386
921.806	4527
921.916	4421
922.025	4287
922.134	4287
922.244	4249
922.353	4363
922.462	4204
922.571	4128
922.68	4029
922.789	3991
922.898	4044
923.007	3972
923.116	4090
923.224	4093
923.333	4124
923.442	4029
923.55	3991
923.659	4044
923.767	4093
923.876	4074
923.984	4162
924.092	3975
924.201	4105
924.309	4067
924.417	4116
924.525	4112
924.633	4120
924.741	5090
924.849	3949
924.956	4169
925.064	4010
925.172	3888
925.279	3964
925.387	4021
925.494	4036
925.602	4215
925.709	4257
925.816	4032
925.924	4147
926.031	4265
926.138	4188
926.245	4219
926.352	4101
926.459	4185
926.566	4280
926.673	4169
926.779	4051
926.886	4093
926.993	3987
927.099	3953
927.206	3960
927.312	3934
927.419	4131
927.525	4032
927.631	4078
927.737	3975
927.843	3972
927.95	3884
928.056	3915
928.162	3987
928.267	4101
928.373	4698
928.479	4150
928.585	3880
928.69	4059
928.796	4109
928.901	3960
929.007	3861
929.112	4010
929.218	3941
929.323	3979
929.428	3953
929.533	4055
929.638	3907
929.743	3987
929.848	4074
929.953	3994
930.058	3915
930.163	3804
930.267	3797
930.372	4032
930.477	3842
930.581	4120
930.685	3960
930.79	3819
930.894	3915
930.998	3857
931.103	4090
931.207	3770
931.311	3713
931.415	3743
931.519	3538
931.623	3549
