Data from test_V78500241_2495.txt Node
Date: Fri Mar 25 17:06:21 CST 2022
User: usil
Spectrometer: V785-0024
Trigger mode: 0
Integration Time (sec): 4.000000E-1
Scans to average: 1
Nonlinearity correction enabled: false
Boxcar width: 0
Storing dark spectrum: false
XAxis mode: Wavelengths
Number of Pixels in Spectrum: 1024
>>>>>Begin Spectral Data<<<<<
801.071	8050
801.214	7955
801.356	7868
801.499	7898
801.641	7871
801.783	7792
801.926	7959
802.068	7951
802.211	7970
802.353	8001
802.496	7883
802.638	7894
802.78	7894
802.923	7849
803.065	7852
803.208	7822
803.35	8027
803.492	8119
803.635	8157
803.777	8005
803.919	8142
804.061	8412
804.204	8134
804.346	8092
804.488	7940
804.63	8138
804.773	7978
804.915	8081
805.057	8313
805.199	8081
805.341	8240
805.483	8305
805.626	8252
805.768	8111
805.91	8168
806.052	8206
806.194	8092
806.336	8256
806.478	8138
806.62	8046
806.762	8119
806.904	8271
807.046	8393
807.188	8328
807.33	8240
807.472	8271
807.614	8134
807.756	8157
807.898	7989
808.04	7890
808.182	7898
808.324	7849
808.465	7849
808.607	8115
808.749	8145
808.891	8263
809.033	8290
809.174	8214
809.316	8054
809.458	8119
809.6	8054
809.741	8046
809.883	7982
810.025	8069
810.166	8111
810.308	8005
810.45	7978
810.591	7807
810.733	7715
810.875	7597
811.016	7468
811.158	7441
811.299	7548
811.441	7723
811.582	7666
811.724	7605
811.865	7563
812.007	7533
812.148	7559
812.29	7616
812.431	7647
812.573	7818
812.714	7967
812.855	8138
812.997	8134
813.138	8313
813.279	8206
813.421	8081
813.562	7989
813.703	7864
813.845	7784
813.986	7441
814.127	7293
814.268	7221
814.41	7198
814.551	7247
814.692	7244
814.833	7141
814.974	7053
815.115	7133
815.256	7000
815.397	6935
815.539	6901
815.68	6837
815.821	6753
815.962	6833
816.103	6787
816.244	6726
816.385	6566
816.526	6570
816.666	6460
816.807	6270
816.948	6429
817.089	6460
817.23	6407
817.371	6365
817.512	6361
817.653	6376
817.793	6395
817.934	6418
818.075	6418
818.216	6426
818.356	6422
818.497	6338
818.638	6098
818.778	6140
818.919	6155
819.06	6159
819.2	6376
819.341	6369
819.481	6327
819.622	6574
819.762	6730
819.903	6764
820.043	6620
820.184	6589
820.324	6616
820.465	6783
820.605	6692
820.746	6646
820.886	6582
821.026	6662
821.167	6787
821.307	6764
821.447	6791
821.588	6711
821.728	6635
821.868	6509
822.008	6311
822.149	6376
822.289	6384
822.429	6155
822.569	6117
822.709	6133
822.849	5958
822.99	5908
823.13	5977
823.27	5958
823.41	5866
823.55	5847
823.69	5809
823.83	5844
823.97	5657
824.11	5535
824.25	5562
824.389	5543
824.529	5623
824.669	5551
824.809	5726
824.949	5699
825.089	5630
825.228	5585
825.368	5395
825.508	5429
825.648	5402
825.787	5425
825.927	5410
826.067	5296
826.206	5292
826.346	5429
826.485	5421
826.625	5425
826.765	5600
826.904	5512
827.044	5299
827.183	5258
827.323	5151
827.462	5296
827.601	5269
827.741	5296
827.88	5220
828.02	5147
828.159	5311
828.298	5299
828.437	5429
828.577	5334
828.716	5558
828.855	5383
828.994	5208
829.134	5170
829.273	5227
829.412	5193
829.551	5201
829.69	5159
829.829	5254
829.968	5417
830.107	5303
830.246	5357
830.385	5265
830.524	5189
830.663	5136
830.802	5018
830.941	4938
831.08	4949
831.219	4991
831.357	5006
831.496	5178
831.635	4908
831.774	4896
831.913	4881
832.051	4744
832.19	4771
832.329	4896
832.467	4706
832.606	4733
832.744	4801
832.883	4793
833.022	4778
833.16	4850
833.299	4889
833.437	4881
833.576	4896
833.714	4850
833.852	4839
833.991	4911
834.129	5048
834.267	4953
834.406	4968
834.544	4984
834.682	5037
834.821	5045
834.959	5185
835.097	4980
835.235	5174
835.373	5128
835.511	5147
835.65	5113
835.788	5067
835.926	4942
836.064	4927
836.202	4980
836.34	5189
836.478	5280
836.615	5178
836.753	5220
836.891	5372
837.029	5277
837.167	5250
837.305	5193
837.443	5181
837.58	5105
837.718	5288
837.856	5250
837.993	5231
838.131	5246
838.269	5193
838.406	5204
838.544	5227
838.681	5086
838.819	5033
838.956	4911
839.094	4908
839.231	5033
839.369	5143
839.506	5463
839.643	5357
839.781	5079
839.918	5079
840.055	5121
840.193	5102
840.33	5113
840.467	5174
840.604	5220
840.742	5474
840.879	5132
841.016	5113
841.153	5140
841.29	5387
841.427	5406
841.564	5360
841.701	5379
841.838	5273
841.975	5231
842.112	5318
842.249	5185
842.385	5124
842.522	5334
842.659	5185
842.796	5193
842.933	5197
843.069	5216
843.206	5208
843.343	5395
843.479	5280
843.616	5288
843.752	5064
843.889	5037
844.025	5254
844.162	5067
844.298	5227
844.435	5140
844.571	5102
844.708	5201
844.844	5322
844.98	5353
845.117	5303
845.253	5197
845.389	5064
845.525	5265
845.661	5166
845.798	5094
845.934	5147
846.07	5075
846.206	5277
846.342	5292
846.478	5216
846.614	5045
846.75	5052
846.886	4946
847.022	5178
847.158	5045
847.294	5048
847.429	5189
847.565	5090
847.701	5318
847.837	4885
847.972	4809
848.108	4972
848.244	4946
848.379	4793
848.515	4755
848.65	4790
848.786	4752
848.921	4805
849.057	4900
849.192	4881
849.328	4839
849.463	4900
849.598	4812
849.734	4809
849.869	4687
850.004	4691
850.14	4702
850.275	4637
850.41	4561
850.545	4622
850.68	4660
850.815	4687
850.95	4675
851.085	4873
851.22	4816
851.355	4694
851.49	4641
851.625	4664
851.76	4634
851.895	4599
852.03	4596
852.165	4683
852.299	4767
852.434	4847
852.569	4771
852.703	4824
852.838	4835
852.973	4927
853.107	5006
853.242	4759
853.376	4668
853.511	4577
853.645	4656
853.78	4790
853.914	4714
854.048	4714
854.183	4653
854.317	4763
854.451	4866
854.585	4717
854.72	4668
854.854	4752
854.988	4664
855.122	4637
855.256	4546
855.39	4672
855.524	4786
855.658	4786
855.792	4729
855.926	4736
856.06	4755
856.194	4797
856.327	4733
856.461	4687
856.595	4653
856.729	4622
856.862	4816
856.996	4714
857.13	4816
857.263	4740
857.397	4862
857.53	4687
857.664	4733
857.797	4778
857.931	4835
858.064	4653
858.197	4771
858.331	4660
858.464	4672
858.597	4561
858.731	4649
858.864	4645
858.997	4653
859.13	4656
859.263	4694
859.396	4668
859.529	4584
859.662	4584
859.795	4519
859.928	4630
860.061	4748
860.194	4812
860.327	4653
860.46	4588
860.592	4744
860.725	4767
860.858	4744
860.99	4584
861.123	4542
861.256	4561
861.388	4618
861.521	5227
861.653	4504
861.786	4436
861.918	4478
862.05	4561
862.183	4599
862.315	4653
862.447	4649
862.58	4569
862.712	4398
862.844	4348
862.976	4474
863.108	4481
863.24	4938
863.372	4314
863.504	4443
863.636	4447
863.768	4462
863.9	4436
864.032	4424
864.164	4440
864.296	4497
864.428	4580
864.559	4607
864.691	4542
864.823	4512
864.954	4546
865.086	4519
865.217	4481
865.349	4470
865.48	4451
865.612	4542
865.743	4630
865.875	4508
866.006	4398
866.137	4527
866.269	4478
866.4	4455
866.531	4417
866.662	4451
866.793	4421
866.924	4428
867.055	4493
867.186	4519
867.317	4405
867.448	4394
867.579	4432
867.71	4417
867.841	4413
867.972	4478
868.103	4497
868.233	4462
868.364	4462
868.495	4542
868.625	4679
868.756	4809
868.886	4599
869.017	4656
869.147	4782
869.278	4831
869.408	4656
869.539	4702
869.669	4725
869.799	4694
869.929	4752
870.06	4774
870.19	5014
870.32	4946
870.45	4984
870.58	5102
870.71	5128
870.84	5124
870.97	4934
871.1	4934
871.23	5155
871.36	5178
871.489	5052
871.619	5109
871.749	5117
871.879	5136
872.008	5193
872.138	5045
872.267	4972
872.397	4866
872.526	4850
872.656	4763
872.785	4847
872.915	4949
873.044	5064
873.173	4938
873.303	4934
873.432	4930
873.561	4991
873.69	4858
873.819	4923
873.948	4919
874.077	4870
874.206	4820
874.335	4835
874.464	4984
874.593	5094
874.722	4980
874.851	5124
874.979	5143
875.108	5075
875.237	4927
875.365	4892
875.494	4904
875.623	4980
875.751	4858
875.88	4870
876.008	4972
876.136	5045
876.265	5254
876.393	5364
876.521	5277
876.65	5242
876.778	5193
876.906	5113
877.034	5041
877.162	5071
877.29	5018
877.418	5048
877.546	5041
877.674	5048
877.802	5079
877.93	5014
878.058	4946
878.185	4892
878.313	4999
878.441	5029
878.568	4824
878.696	4881
878.824	4961
878.951	5048
879.079	5193
879.206	5337
879.333	5090
879.461	4953
879.588	5022
879.715	5113
879.842	5223
879.97	5048
880.097	4839
880.224	4767
880.351	4809
880.478	4866
880.605	4767
880.732	4805
880.859	5132
880.986	4896
881.112	4938
881.239	4755
881.366	4694
881.493	4649
881.619	4622
881.746	4710
881.872	4725
881.999	4645
882.125	4687
882.252	4786
882.378	4843
882.505	5010
882.631	4828
882.757	4668
882.883	4771
883.01	4759
883.136	4653
883.262	4622
883.388	4634
883.514	4801
883.64	4877
883.766	4820
883.892	4710
884.018	4698
884.143	4839
884.269	5075
884.395	4702
884.52	4649
884.646	4694
884.772	4607
884.897	4588
885.023	4592
885.148	4828
885.274	4915
885.399	4820
885.524	4763
885.65	4744
885.775	4736
885.9	4736
886.025	4858
886.15	4835
886.275	4714
886.4	4626
886.525	4694
886.65	4660
886.775	4740
886.9	4915
887.025	5075
887.149	4805
887.274	4694
887.399	4615
887.523	4615
887.648	4554
887.773	4607
887.897	4801
888.021	4793
888.146	4691
888.27	4850
888.395	4904
888.519	4793
888.643	4801
888.767	4843
888.891	4706
889.015	4653
889.139	4687
889.263	4588
889.387	4725
889.511	4847
889.635	4805
889.759	4687
889.883	4580
890.006	4793
890.13	4824
890.254	4683
890.377	4637
890.501	4542
890.624	4531
890.748	4691
890.871	4508
890.995	4459
891.118	4390
891.241	4497
891.364	4508
891.488	4649
891.611	4531
891.734	4558
891.857	4599
891.98	4584
892.103	4645
892.226	4599
892.349	4569
892.471	4398
892.594	4577
892.717	4630
892.839	4546
892.962	4615
893.085	4664
893.207	4615
893.33	4447
893.452	4489
893.575	4653
893.697	4565
893.819	4774
893.941	4820
894.064	4782
894.186	4561
894.308	4565
894.43	4793
894.552	4805
894.674	4706
894.796	4558
894.918	4615
895.04	4546
895.161	4717
895.283	4698
895.405	4630
895.526	4653
895.648	4702
895.769	4672
895.891	4687
896.012	4733
896.134	4733
896.255	4634
896.376	4634
896.498	4599
896.619	4683
896.74	4607
896.861	4641
896.982	4923
897.103	5037
897.224	4873
897.345	4790
897.466	4660
897.587	4725
897.708	4843
897.828	4801
897.949	4717
898.07	4538
898.19	4637
898.311	4782
898.431	4603
898.552	4778
898.672	4786
898.792	4831
898.913	4694
899.033	4592
899.153	4523
899.273	4459
899.393	4500
899.513	4554
899.633	4519
899.753	4550
899.873	4519
899.993	4584
900.113	4554
900.232	4626
900.352	4538
900.472	4497
900.591	4413
900.711	4497
900.83	4436
900.95	4611
901.069	4714
901.189	4527
901.308	4409
901.427	4314
901.546	4413
901.665	4470
901.784	4512
901.904	4409
902.023	4310
902.141	4181
902.26	4173
902.379	4333
902.498	4223
902.617	4242
902.735	4424
902.854	4428
902.973	4367
903.091	4215
903.21	4246
903.328	4310
903.446	4322
903.565	4276
903.683	4417
903.801	4310
903.919	4386
904.038	4447
904.156	4318
904.274	4413
904.392	4398
904.51	4417
904.627	4512
904.745	4554
904.863	4634
904.981	4432
905.098	4371
905.216	4402
905.334	4409
905.451	4474
905.569	4436
905.686	4538
905.803	4653
905.921	4443
906.038	4554
906.155	4500
906.272	4386
906.389	4451
906.506	4341
906.623	4371
906.74	4417
906.857	4299
906.974	4363
907.091	4565
907.208	4641
907.324	4569
907.441	4470
907.557	4337
907.674	4375
907.79	4249
907.907	4348
908.023	4523
908.139	4451
908.256	4390
908.372	4462
908.488	4466
908.604	4360
908.72	4341
908.836	4386
908.952	4344
909.068	4428
909.184	4580
909.3	4523
909.415	4588
909.531	4550
909.647	4398
909.762	4386
909.878	4318
909.993	4402
910.108	4405
910.224	4413
910.339	4466
910.454	4360
910.57	4356
910.685	4344
910.8	4653
910.915	4554
911.03	4512
911.145	4344
911.259	4344
911.374	4360
911.489	4337
911.604	4246
911.718	4192
911.833	4207
911.947	4109
912.062	4071
912.176	4185
912.291	4219
912.405	4257
912.519	4466
912.633	4504
912.748	4402
912.862	4306
912.976	4227
913.09	4097
913.204	4207
913.318	4219
913.431	4402
913.545	4371
913.659	4413
913.772	4356
913.886	4173
914	4185
914.113	4367
914.226	4451
914.34	4356
914.453	4215
914.566	4405
914.68	4318
914.793	4303
914.906	4181
915.019	4090
915.132	4078
915.245	4188
915.358	4200
915.47	4265
915.583	4272
915.696	4287
915.809	4402
915.921	4447
916.034	4268
916.146	4257
916.259	4246
916.371	4383
916.483	4390
916.595	4253
916.708	4310
916.82	4341
916.932	4341
917.044	4318
917.156	4306
917.268	4261
917.38	4268
917.491	4284
917.603	4367
917.715	4462
917.826	4417
917.938	4371
918.049	4257
918.161	4402
918.272	4523
918.384	4512
918.495	4478
918.606	4291
918.717	4246
918.828	4325
918.939	4344
919.05	4272
919.161	4280
919.272	4200
919.383	4238
919.494	4424
919.604	4641
919.715	4436
919.826	4348
919.936	4409
920.047	4500
920.157	4508
920.267	4691
920.378	4558
920.488	4485
920.598	4740
920.708	4866
920.818	4801
920.928	4740
921.038	4968
921.148	4873
921.258	4645
921.368	4569
921.477	4485
921.587	4462
921.697	4333
921.806	4565
921.916	4440
922.025	4265
922.134	4246
922.244	4207
922.353	4352
922.462	4112
922.571	4112
922.68	4029
922.789	3953
922.898	4017
923.007	4017
923.116	4074
923.224	4048
923.333	4131
923.442	4021
923.55	3987
923.659	4074
923.767	4116
923.876	3968
923.984	4074
924.092	3956
924.201	4082
924.309	4078
924.417	4093
924.525	4036
924.633	4074
924.741	4850
924.849	3926
924.956	4162
925.064	3934
925.172	3918
925.279	3968
925.387	4078
925.494	4067
925.602	4185
925.709	4204
925.816	4063
925.924	4147
926.031	4234
926.138	4166
926.245	4204
926.352	4082
926.459	4333
926.566	4272
926.673	4139
926.779	4059
926.886	4112
926.993	3953
927.099	3892
927.206	3892
927.312	3979
927.419	4051
927.525	4036
927.631	4139
927.737	3960
927.843	3949
927.95	3888
928.056	3945
928.162	4013
928.267	4067
928.373	4615
928.479	4128
928.585	3819
928.69	4013
928.796	4036
928.901	3972
929.007	3876
929.112	4040
929.218	3911
929.323	3915
929.428	3941
929.533	4101
929.638	3907
929.743	3968
929.848	4029
929.953	3979
930.058	3903
930.163	3781
930.267	3823
930.372	3987
930.477	3819
930.581	4086
930.685	3930
930.79	3854
930.894	3880
930.998	3850
931.103	4017
931.207	3717
931.311	3682
931.415	3641
931.519	3534
931.623	3526
