Data from test_V78500241_1721.txt Node
Date: Fri Mar 25 17:00:58 CST 2022
User: usil
Spectrometer: V785-0024
Trigger mode: 0
Integration Time (sec): 4.000000E-1
Scans to average: 1
Nonlinearity correction enabled: false
Boxcar width: 0
Storing dark spectrum: false
XAxis mode: Wavelengths
Number of Pixels in Spectrum: 1024
>>>>>Begin Spectral Data<<<<<
801.071	7997
801.214	8054
801.356	7902
801.499	7864
801.641	7761
801.783	7799
801.926	7909
802.068	7883
802.211	7959
802.353	8001
802.496	7868
802.638	7814
802.78	7902
802.923	7913
803.065	7841
803.208	7818
803.35	7986
803.492	8054
803.635	8115
803.777	7997
803.919	8115
804.061	8427
804.204	8145
804.346	8058
804.488	7963
804.63	8077
804.773	7982
804.915	8115
805.057	8332
805.199	8168
805.341	8176
805.483	8225
805.626	8149
805.768	8119
805.91	8244
806.052	8252
806.194	8164
806.336	8286
806.478	8024
806.62	8027
806.762	8123
806.904	8347
807.046	8434
807.188	8305
807.33	8275
807.472	8267
807.614	8214
807.756	8237
807.898	7978
808.04	7849
808.182	7856
808.324	7887
808.465	7944
808.607	8081
808.749	8123
808.891	8172
809.033	8320
809.174	8187
809.316	8039
809.458	8027
809.6	7989
809.741	7993
809.883	8024
810.025	8126
810.166	8043
810.308	8001
810.45	7913
810.591	7818
810.733	7723
810.875	7647
811.016	7460
811.158	7438
811.299	7643
811.441	7712
811.582	7655
811.724	7586
811.865	7594
812.007	7597
812.148	7571
812.29	7647
812.431	7746
812.573	7932
812.714	7917
812.855	8123
812.997	8183
813.138	8271
813.279	8149
813.421	8096
813.562	7986
813.703	7788
813.845	7712
813.986	7384
814.127	7228
814.268	7183
814.41	7129
814.551	7202
814.692	7236
814.833	7046
814.974	7156
815.115	7122
815.256	6924
815.397	6863
815.539	6939
815.68	6814
815.821	6715
815.962	6844
816.103	6787
816.244	6684
816.385	6589
816.526	6635
816.666	6490
816.807	6346
816.948	6441
817.089	6460
817.23	6456
817.371	6372
817.512	6365
817.653	6429
817.793	6365
817.934	6391
818.075	6418
818.216	6384
818.356	6338
818.497	6270
818.638	6034
818.778	6129
818.919	6079
819.06	6159
819.2	6323
819.341	6285
819.481	6319
819.622	6521
819.762	6700
819.903	6635
820.043	6601
820.184	6498
820.324	6608
820.465	6681
820.605	6692
820.746	6608
820.886	6528
821.026	6631
821.167	6688
821.307	6776
821.447	6749
821.588	6654
821.728	6536
821.868	6410
822.008	6224
822.149	6350
822.289	6311
822.429	6098
822.569	6053
822.709	6114
822.849	5908
822.99	5844
823.13	5874
823.27	5920
823.41	5824
823.55	5726
823.69	5783
823.83	5783
823.97	5710
824.11	5452
824.25	5505
824.389	5547
824.529	5592
824.669	5528
824.809	5657
824.949	5630
825.089	5600
825.228	5509
825.368	5353
825.508	5372
825.648	5341
825.787	5387
825.927	5376
826.067	5269
826.206	5258
826.346	5383
826.485	5402
826.625	5414
826.765	5524
826.904	5478
827.044	5261
827.183	5166
827.323	5109
827.462	5201
827.601	5128
827.741	5147
827.88	5174
828.02	5098
828.159	5220
828.298	5265
828.437	5326
828.577	5265
828.716	5452
828.855	5292
828.994	5090
829.134	5181
829.273	5261
829.412	5166
829.551	5113
829.69	5143
829.829	5239
829.968	5353
830.107	5261
830.246	5250
830.385	5124
830.524	5155
830.663	5075
830.802	4957
830.941	4889
831.08	4877
831.219	4961
831.357	4968
831.496	5189
831.635	4957
831.774	4847
831.913	4797
832.051	4763
832.19	4740
832.329	4889
832.467	4736
832.606	4675
832.744	4771
832.883	4702
833.022	4740
833.16	4831
833.299	4820
833.437	4858
833.576	4858
833.714	4934
833.852	4870
833.991	4904
834.129	4984
834.267	4961
834.406	4938
834.544	4984
834.682	5003
834.821	5041
834.959	5178
835.097	5006
835.235	5212
835.373	5109
835.511	5128
835.65	5067
835.788	5052
835.926	4957
836.064	4953
836.202	4946
836.34	5220
836.478	5265
836.615	5136
836.753	5223
836.891	5322
837.029	5265
837.167	5250
837.305	5216
837.443	5216
837.58	5140
837.718	5254
837.856	5208
837.993	5193
838.131	5265
838.269	5273
838.406	5201
838.544	5261
838.681	5079
838.819	5033
838.956	4908
839.094	4942
839.231	5064
839.369	5094
839.506	5440
839.643	5337
839.781	5067
839.918	4972
840.055	5094
840.193	5140
840.33	5136
840.467	5132
840.604	5220
840.742	5478
840.879	5132
841.016	5151
841.153	5189
841.29	5417
841.427	5353
841.564	5345
841.701	5330
841.838	5345
841.975	5208
842.112	5288
842.249	5235
842.385	5140
842.522	5376
842.659	5227
842.796	5201
842.933	5239
843.069	5136
843.206	5208
843.343	5315
843.479	5258
843.616	5277
843.752	5060
843.889	5041
844.025	5254
844.162	5056
844.298	5265
844.435	5098
844.571	5056
844.708	5277
844.844	5391
844.98	5337
845.117	5364
845.253	5140
845.389	5048
845.525	5162
845.661	5174
845.798	5056
845.934	5098
846.07	5109
846.206	5208
846.342	5261
846.478	5216
846.614	5029
846.75	5056
846.886	5003
847.022	5147
847.158	5022
847.294	5147
847.429	5136
847.565	5045
847.701	5307
847.837	4889
847.972	4816
848.108	4991
848.244	4980
848.379	4774
848.515	4759
848.65	4752
848.786	4725
848.921	4828
849.057	4850
849.192	4987
849.328	4843
849.463	4908
849.598	4828
849.734	4759
849.869	4748
850.004	4656
850.14	4702
850.275	4672
850.41	4584
850.545	4596
850.68	4618
850.815	4687
850.95	4645
851.085	4847
851.22	4771
851.355	4767
851.49	4687
851.625	4649
851.76	4687
851.895	4584
852.03	4546
852.165	4641
852.299	4752
852.434	4793
852.569	4782
852.703	4854
852.838	4881
852.973	4942
853.107	4923
853.242	4767
853.376	4752
853.511	4565
853.645	4683
853.78	4805
853.914	4717
854.048	4679
854.183	4660
854.317	4729
854.451	4885
854.585	4672
854.72	4634
854.854	4759
854.988	4611
855.122	4653
855.256	4546
855.39	4725
855.524	4820
855.658	4733
855.792	4733
855.926	4759
856.06	4698
856.194	4873
856.327	4672
856.461	4618
856.595	4710
856.729	4634
856.862	4801
856.996	4702
857.13	4752
857.263	4797
857.397	4843
857.53	4729
857.664	4771
857.797	4771
857.931	4797
858.064	4740
858.197	4759
858.331	4675
858.464	4668
858.597	4538
858.731	4687
858.864	4637
858.997	4634
859.13	4698
859.263	4664
859.396	4725
859.529	4637
859.662	4580
859.795	4542
859.928	4592
860.061	4771
860.194	4801
860.327	4653
860.46	4558
860.592	4672
860.725	4733
860.858	4782
860.99	4565
861.123	4538
861.256	4519
861.388	4618
861.521	5250
861.653	4558
861.786	4523
861.918	4500
862.05	4554
862.183	4592
862.315	4607
862.447	4683
862.58	4622
862.712	4413
862.844	4356
862.976	4481
863.108	4455
863.24	4953
863.372	4344
863.504	4466
863.636	4417
863.768	4527
863.9	4474
864.032	4375
864.164	4459
864.296	4470
864.428	4558
864.559	4546
864.691	4531
864.823	4508
864.954	4550
865.086	4519
865.217	4470
865.349	4428
865.48	4440
865.612	4500
865.743	4622
865.875	4451
866.006	4462
866.137	4508
866.269	4489
866.4	4462
866.531	4428
866.662	4459
866.793	4417
866.924	4432
867.055	4519
867.186	4428
867.317	4428
867.448	4413
867.579	4386
867.71	4436
867.841	4409
867.972	4474
868.103	4500
868.233	4466
868.364	4436
868.495	4516
868.625	4706
868.756	4778
868.886	4599
869.017	4637
869.147	4843
869.278	4721
869.408	4672
869.539	4687
869.669	4706
869.799	4649
869.929	4812
870.06	4733
870.19	4984
870.32	4904
870.45	4968
870.58	5006
870.71	5121
870.84	5159
870.97	4987
871.1	4862
871.23	5121
871.36	5181
871.489	5071
871.619	5094
871.749	5159
871.879	5147
872.008	5189
872.138	5083
872.267	5022
872.397	4885
872.526	4847
872.656	4755
872.785	4801
872.915	4995
873.044	5079
873.173	4957
873.303	4965
873.432	4976
873.561	4972
873.69	4949
873.819	4915
873.948	4923
874.077	4854
874.206	4782
874.335	4828
874.464	4934
874.593	5132
874.722	4995
874.851	5098
874.979	5094
875.108	5029
875.237	4900
875.365	4885
875.494	4949
875.623	4987
875.751	4862
875.88	4908
876.008	5003
876.136	5037
876.265	5231
876.393	5334
876.521	5220
876.65	5265
876.778	5216
876.906	5105
877.034	4995
877.162	5041
877.29	4976
877.418	5075
877.546	5064
877.674	5045
877.802	5045
877.93	5083
878.058	5006
878.185	4911
878.313	4999
878.441	4957
878.568	4862
878.696	4881
878.824	4984
878.951	5029
879.079	5143
879.206	5349
879.333	5128
879.461	5006
879.588	5010
879.715	5071
879.842	5284
879.97	4999
880.097	4824
880.224	4714
880.351	4786
880.478	4805
880.605	4820
880.732	4786
880.859	5056
880.986	4904
881.112	4915
881.239	4824
881.366	4698
881.493	4641
881.619	4611
881.746	4637
881.872	4672
881.999	4656
882.125	4717
882.252	4771
882.378	4831
882.505	4999
882.631	4831
882.757	4725
882.883	4736
883.01	4710
883.136	4725
883.262	4569
883.388	4649
883.514	4820
883.64	4946
883.766	4801
883.892	4672
884.018	4683
884.143	4938
884.269	4987
884.395	4694
884.52	4630
884.646	4637
884.772	4596
884.897	4637
885.023	4698
885.148	4759
885.274	4896
885.399	4870
885.524	4717
885.65	4729
885.775	4752
885.9	4725
886.025	4850
886.15	4805
886.275	4714
886.4	4660
886.525	4740
886.65	4729
886.775	4691
886.9	4942
887.025	5056
887.149	4790
887.274	4664
887.399	4622
887.523	4637
887.648	4538
887.773	4611
887.897	4786
888.021	4786
888.146	4721
888.27	4847
888.395	4930
888.519	4771
888.643	4797
888.767	4805
888.891	4714
889.015	4584
889.139	4637
889.263	4641
889.387	4790
889.511	4881
889.635	4831
889.759	4672
889.883	4668
890.006	4759
890.13	4870
890.254	4687
890.377	4717
890.501	4550
890.624	4573
890.748	4664
890.871	4527
890.995	4432
891.118	4390
891.241	4508
891.364	4599
891.488	4664
891.611	4466
891.734	4508
891.857	4615
891.98	4516
892.103	4675
892.226	4599
892.349	4519
892.471	4481
892.594	4558
892.717	4596
892.839	4561
892.962	4618
893.085	4653
893.207	4599
893.33	4474
893.452	4535
893.575	4637
893.697	4592
893.819	4812
893.941	4824
894.064	4714
894.186	4603
894.308	4580
894.43	4694
894.552	4843
894.674	4733
894.796	4573
894.918	4618
895.04	4637
895.161	4729
895.283	4691
895.405	4580
895.526	4656
895.648	4748
895.769	4660
895.891	4679
896.012	4748
896.134	4767
896.255	4649
896.376	4634
896.498	4656
896.619	4653
896.74	4694
896.861	4668
896.982	4896
897.103	5025
897.224	4866
897.345	4755
897.466	4706
897.587	4721
897.708	4889
897.828	4797
897.949	4592
898.07	4569
898.19	4679
898.311	4812
898.431	4668
898.552	4702
898.672	4805
898.792	4748
898.913	4714
899.033	4664
899.153	4478
899.273	4440
899.393	4478
899.513	4550
899.633	4516
899.753	4565
899.873	4538
899.993	4569
900.113	4512
900.232	4641
900.352	4512
900.472	4527
900.591	4379
900.711	4470
900.83	4459
900.95	4607
901.069	4725
901.189	4535
901.308	4367
901.427	4363
901.546	4371
901.665	4512
901.784	4500
901.904	4409
902.023	4303
902.141	4192
902.26	4188
902.379	4325
902.498	4215
902.617	4234
902.735	4371
902.854	4428
902.973	4375
903.091	4227
903.21	4272
903.328	4329
903.446	4352
903.565	4207
903.683	4356
903.801	4295
903.919	4375
904.038	4440
904.156	4348
904.274	4424
904.392	4371
904.51	4383
904.627	4424
904.745	4565
904.863	4618
904.981	4405
905.098	4333
905.216	4424
905.334	4447
905.451	4432
905.569	4451
905.686	4577
905.803	4561
905.921	4371
906.038	4554
906.155	4485
906.272	4409
906.389	4470
906.506	4337
906.623	4352
906.74	4413
906.857	4318
906.974	4379
907.091	4603
907.208	4691
907.324	4558
907.441	4470
907.557	4383
907.674	4310
907.79	4291
907.907	4462
908.023	4462
908.139	4478
908.256	4367
908.372	4451
908.488	4447
908.604	4390
908.72	4356
908.836	4390
908.952	4394
909.068	4443
909.184	4596
909.3	4474
909.415	4577
909.531	4558
909.647	4379
909.762	4398
909.878	4337
909.993	4436
910.108	4432
910.224	4402
910.339	4428
910.454	4405
910.57	4383
910.685	4360
910.8	4618
910.915	4626
911.03	4535
911.145	4325
911.259	4394
911.374	4379
911.489	4287
911.604	4291
911.718	4192
911.833	4204
911.947	4090
912.062	4017
912.176	4242
912.291	4246
912.405	4261
912.519	4466
912.633	4519
912.748	4348
912.862	4291
912.976	4219
913.09	4124
913.204	4188
913.318	4253
913.431	4394
913.545	4367
913.659	4428
913.772	4352
913.886	4261
914	4219
914.113	4348
914.226	4398
914.34	4390
914.453	4185
914.566	4428
914.68	4329
914.793	4383
914.906	4181
915.019	4147
915.132	4135
915.245	4185
915.358	4211
915.47	4227
915.583	4268
915.696	4268
915.809	4363
915.921	4390
916.034	4242
916.146	4265
916.259	4185
916.371	4375
916.483	4398
916.595	4284
916.708	4303
916.82	4306
916.932	4310
917.044	4367
917.156	4360
917.268	4261
917.38	4280
917.491	4284
917.603	4329
917.715	4417
917.826	4485
917.938	4329
918.049	4230
918.161	4428
918.272	4531
918.384	4546
918.495	4462
918.606	4314
918.717	4227
918.828	4352
918.939	4394
919.05	4249
919.161	4333
919.272	4169
919.383	4223
919.494	4455
919.604	4618
919.715	4398
919.826	4371
919.936	4360
920.047	4546
920.157	4466
920.267	4710
920.378	4550
920.488	4497
920.598	4714
920.708	4839
920.818	4752
920.928	4725
921.038	4942
921.148	4991
921.258	4622
921.368	4569
921.477	4481
921.587	4493
921.697	4352
921.806	4535
921.916	4417
922.025	4261
922.134	4314
922.244	4234
922.353	4363
922.462	4131
922.571	4120
922.68	4002
922.789	3922
922.898	4002
923.007	3979
923.116	4120
923.224	4055
923.333	4074
923.442	3968
923.55	3972
923.659	4040
923.767	4101
923.876	4010
923.984	4124
924.092	3979
924.201	4067
924.309	4082
924.417	4101
924.525	4063
924.633	4120
924.741	4862
924.849	3918
924.956	4150
925.064	3915
925.172	3892
925.279	3937
925.387	4067
925.494	4063
925.602	4207
925.709	4234
925.816	4071
925.924	4135
926.031	4215
926.138	4223
926.245	4204
926.352	4116
926.459	4265
926.566	4291
926.673	4154
926.779	4090
926.886	4051
926.993	3994
927.099	3968
927.206	3949
927.312	3945
927.419	4055
927.525	4040
927.631	4105
927.737	3991
927.843	3979
927.95	3873
928.056	3911
928.162	3991
928.267	4029
928.373	4645
928.479	4135
928.585	3892
928.69	4006
928.796	4082
928.901	3945
929.007	3884
929.112	4025
929.218	3994
929.323	3949
929.428	3934
929.533	4135
929.638	3945
929.743	3937
929.848	4055
929.953	4021
930.058	3937
930.163	3781
930.267	3831
930.372	3930
930.477	3804
930.581	4059
930.685	3934
930.79	3865
930.894	3899
930.998	3876
931.103	4078
931.207	3740
931.311	3705
931.415	3660
931.519	3530
931.623	3542
