Data from test_V78500241_2757.txt Node
Date: Fri Mar 25 17:08:10 CST 2022
User: usil
Spectrometer: V785-0024
Trigger mode: 0
Integration Time (sec): 4.000000E-1
Scans to average: 1
Nonlinearity correction enabled: false
Boxcar width: 0
Storing dark spectrum: false
XAxis mode: Wavelengths
Number of Pixels in Spectrum: 1024
>>>>>Begin Spectral Data<<<<<
801.071	8084
801.214	7993
801.356	7970
801.499	7883
801.641	7833
801.783	7887
801.926	8031
802.068	7970
802.211	7986
802.353	8062
802.496	7902
802.638	7955
802.78	7974
802.923	7982
803.065	7875
803.208	7898
803.35	8039
803.492	8115
803.635	8195
803.777	8100
803.919	8252
804.061	8427
804.204	8187
804.346	8092
804.488	8062
804.63	8123
804.773	7959
804.915	8119
805.057	8324
805.199	8214
805.341	8199
805.483	8351
805.626	8275
805.768	8176
805.91	8336
806.052	8214
806.194	8130
806.336	8267
806.478	8138
806.62	7970
806.762	8153
806.904	8256
807.046	8469
807.188	8393
807.33	8362
807.472	8358
807.614	8218
807.756	8183
807.898	8016
808.04	7932
808.182	7932
808.324	7936
808.465	8012
808.607	8100
808.749	8195
808.891	8328
809.033	8351
809.174	8199
809.316	8126
809.458	8073
809.6	7993
809.741	8039
809.883	8119
810.025	8111
810.166	8092
810.308	7947
810.45	8001
810.591	7909
810.733	7746
810.875	7708
811.016	7540
811.158	7537
811.299	7670
811.441	7803
811.582	7746
811.724	7582
811.865	7594
812.007	7613
812.148	7628
812.29	7647
812.431	7761
812.573	7944
812.714	8031
812.855	8134
812.997	8271
813.138	8279
813.279	8259
813.421	8161
813.562	8084
813.703	7906
813.845	7765
813.986	7506
814.127	7301
814.268	7263
814.41	7251
814.551	7175
814.692	7228
814.833	7122
814.974	7072
815.115	7107
815.256	6935
815.397	6962
815.539	6981
815.68	6867
815.821	6844
815.962	6920
816.103	6932
816.244	6757
816.385	6635
816.526	6601
816.666	6486
816.807	6388
816.948	6445
817.089	6578
817.23	6525
817.371	6388
817.512	6372
817.653	6388
817.793	6361
817.934	6407
818.075	6502
818.216	6448
818.356	6410
818.497	6300
818.638	6117
818.778	6140
818.919	6171
819.06	6167
819.2	6311
819.341	6445
819.481	6391
819.622	6544
819.762	6726
819.903	6703
820.043	6650
820.184	6585
820.324	6650
820.465	6730
820.605	6665
820.746	6688
820.886	6597
821.026	6665
821.167	6798
821.307	6776
821.447	6779
821.588	6662
821.728	6620
821.868	6509
822.008	6311
822.149	6376
822.289	6365
822.429	6190
822.569	6152
822.709	6121
822.849	5939
822.99	5927
823.13	5889
823.27	5954
823.41	5794
823.55	5817
823.69	5798
823.83	5817
823.97	5661
824.11	5573
824.25	5562
824.389	5566
824.529	5630
824.669	5547
824.809	5611
824.949	5710
825.089	5672
825.228	5551
825.368	5421
825.508	5357
825.648	5387
825.787	5398
825.927	5349
826.067	5341
826.206	5250
826.346	5315
826.485	5433
826.625	5444
826.765	5528
826.904	5421
827.044	5318
827.183	5185
827.323	5166
827.462	5269
827.601	5174
827.741	5193
827.88	5269
828.02	5098
828.159	5239
828.298	5330
828.437	5383
828.577	5288
828.716	5505
828.855	5376
828.994	5147
829.134	5178
829.273	5231
829.412	5143
829.551	5143
829.69	5086
829.829	5250
829.968	5440
830.107	5292
830.246	5353
830.385	5147
830.524	5181
830.663	5105
830.802	5025
830.941	4911
831.08	4877
831.219	5006
831.357	4980
831.496	5189
831.635	4968
831.774	4862
831.913	4866
832.051	4736
832.19	4752
832.329	4843
832.467	4698
832.606	4653
832.744	4786
832.883	4763
833.022	4752
833.16	4812
833.299	4812
833.437	4790
833.576	4820
833.714	4843
833.852	4892
833.991	4927
834.129	4999
834.267	5014
834.406	4930
834.544	4942
834.682	5045
834.821	4984
834.959	5193
835.097	5041
835.235	5159
835.373	5079
835.511	5147
835.65	5064
835.788	5006
835.926	4900
836.064	4915
836.202	4946
836.34	5197
836.478	5239
836.615	5155
836.753	5223
836.891	5277
837.029	5250
837.167	5159
837.305	5193
837.443	5204
837.58	5136
837.718	5250
837.856	5159
837.993	5136
838.131	5273
838.269	5231
838.406	5231
838.544	5220
838.681	5048
838.819	5067
838.956	4900
839.094	4946
839.231	4987
839.369	5113
839.506	5429
839.643	5296
839.781	5083
839.918	5010
840.055	5086
840.193	5140
840.33	5083
840.467	5151
840.604	5231
840.742	5402
840.879	5083
841.016	5094
841.153	5174
841.29	5379
841.427	5322
841.564	5360
841.701	5349
841.838	5273
841.975	5280
842.112	5280
842.249	5056
842.385	5124
842.522	5357
842.659	5197
842.796	5143
842.933	5193
843.069	5151
843.206	5159
843.343	5296
843.479	5360
843.616	5265
843.752	5083
843.889	4953
844.025	5235
844.162	5041
844.298	5216
844.435	5083
844.571	5048
844.708	5216
844.844	5337
844.98	5345
845.117	5364
845.253	5151
845.389	5109
845.525	5181
845.661	5132
845.798	5056
845.934	5136
846.07	5048
846.206	5189
846.342	5288
846.478	5201
846.614	5022
846.75	4991
846.886	4980
847.022	5143
847.158	5010
847.294	5010
847.429	5117
847.565	5086
847.701	5360
847.837	4873
847.972	4801
848.108	4984
848.244	4946
848.379	4793
848.515	4763
848.65	4698
848.786	4793
848.921	4820
849.057	4862
849.192	4892
849.328	4828
849.463	4839
849.598	4786
849.734	4767
849.869	4736
850.004	4592
850.14	4660
850.275	4607
850.41	4546
850.545	4573
850.68	4607
850.815	4645
850.95	4660
851.085	4824
851.22	4755
851.355	4683
851.49	4645
851.625	4637
851.76	4637
851.895	4584
852.03	4550
852.165	4653
852.299	4702
852.434	4801
852.569	4778
852.703	4797
852.838	4850
852.973	4972
853.107	4915
853.242	4752
853.376	4653
853.511	4615
853.645	4580
853.78	4828
853.914	4717
854.048	4675
854.183	4611
854.317	4706
854.451	4847
854.585	4683
854.72	4630
854.854	4736
854.988	4584
855.122	4615
855.256	4535
855.39	4664
855.524	4786
855.658	4721
855.792	4782
855.926	4767
856.06	4786
856.194	4854
856.327	4698
856.461	4580
856.595	4634
856.729	4622
856.862	4733
856.996	4645
857.13	4752
857.263	4771
857.397	4824
857.53	4615
857.664	4717
857.797	4790
857.931	4736
858.064	4710
858.197	4755
858.331	4664
858.464	4607
858.597	4535
858.731	4653
858.864	4656
858.997	4607
859.13	4664
859.263	4706
859.396	4748
859.529	4596
859.662	4558
859.795	4538
859.928	4634
860.061	4736
860.194	4729
860.327	4603
860.46	4588
860.592	4771
860.725	4721
860.858	4683
860.99	4573
861.123	4497
861.256	4527
861.388	4615
861.521	5311
861.653	4489
861.786	4474
861.918	4417
862.05	4485
862.183	4580
862.315	4588
862.447	4679
862.58	4546
862.712	4386
862.844	4341
862.976	4497
863.108	4455
863.24	4774
863.372	4356
863.504	4424
863.636	4424
863.768	4546
863.9	4455
864.032	4432
864.164	4402
864.296	4523
864.428	4584
864.559	4588
864.691	4527
864.823	4542
864.954	4512
865.086	4542
865.217	4474
865.349	4466
865.48	4424
865.612	4565
865.743	4626
865.875	4497
866.006	4413
866.137	4455
866.269	4459
866.4	4455
866.531	4413
866.662	4440
866.793	4383
866.924	4436
867.055	4523
867.186	4413
867.317	4428
867.448	4413
867.579	4421
867.71	4375
867.841	4352
867.972	4470
868.103	4481
868.233	4481
868.364	4424
868.495	4538
868.625	4660
868.756	4763
868.886	4535
869.017	4618
869.147	4759
869.278	4812
869.408	4653
869.539	4622
869.669	4714
869.799	4672
869.929	4778
870.06	4740
870.19	4927
870.32	4972
870.45	4934
870.58	5010
870.71	5124
870.84	5098
870.97	4923
871.1	4949
871.23	5140
871.36	5094
871.489	5045
871.619	5052
871.749	5098
871.879	5147
872.008	5193
872.138	5086
872.267	5010
872.397	4839
872.526	4774
872.656	4702
872.785	4805
872.915	4957
873.044	5010
873.173	4968
873.303	4949
873.432	4965
873.561	4946
873.69	4904
873.819	4820
873.948	4919
874.077	4812
874.206	4744
874.335	4835
874.464	4957
874.593	5052
874.722	4972
874.851	5105
874.979	5086
875.108	5006
875.237	4919
875.365	4919
875.494	4896
875.623	4965
875.751	4896
875.88	4870
876.008	4946
876.136	5041
876.265	5166
876.393	5395
876.521	5242
876.65	5204
876.778	5136
876.906	5102
877.034	5029
877.162	5071
877.29	5037
877.418	5022
877.546	5022
877.674	5018
877.802	5041
877.93	5060
878.058	4957
878.185	4923
878.313	4934
878.441	4896
878.568	4801
878.696	4892
878.824	5006
878.951	5041
879.079	5128
879.206	5250
879.333	5124
879.461	4987
879.588	5003
879.715	5128
879.842	5216
879.97	5003
880.097	4809
880.224	4759
880.351	4820
880.478	4881
880.605	4771
880.732	4797
880.859	5113
880.986	4923
881.112	4900
881.239	4816
881.366	4687
881.493	4599
881.619	4649
881.746	4641
881.872	4615
881.999	4679
882.125	4714
882.252	4733
882.378	4820
882.505	4961
882.631	4831
882.757	4672
882.883	4729
883.01	4729
883.136	4683
883.262	4592
883.388	4637
883.514	4782
883.64	4824
883.766	4767
883.892	4656
884.018	4736
884.143	4877
884.269	5010
884.395	4668
884.52	4630
884.646	4641
884.772	4584
884.897	4603
885.023	4649
885.148	4782
885.274	4892
885.399	4786
885.524	4702
885.65	4717
885.775	4786
885.9	4729
886.025	4828
886.15	4793
886.275	4702
886.4	4702
886.525	4725
886.65	4721
886.775	4691
886.9	4885
887.025	5033
887.149	4839
887.274	4675
887.399	4565
887.523	4626
887.648	4569
887.773	4573
887.897	4774
888.021	4771
888.146	4592
888.27	4812
888.395	4904
888.519	4820
888.643	4839
888.767	4831
888.891	4634
889.015	4580
889.139	4664
889.263	4611
889.387	4755
889.511	4862
889.635	4790
889.759	4622
889.883	4645
890.006	4706
890.13	4892
890.254	4618
890.377	4710
890.501	4550
890.624	4546
890.748	4626
890.871	4504
890.995	4481
891.118	4333
891.241	4535
891.364	4527
891.488	4611
891.611	4493
891.734	4474
891.857	4599
891.98	4516
892.103	4683
892.226	4588
892.349	4500
892.471	4390
892.594	4542
892.717	4569
892.839	4584
892.962	4603
893.085	4607
893.207	4580
893.33	4519
893.452	4489
893.575	4660
893.697	4569
893.819	4790
893.941	4847
894.064	4759
894.186	4565
894.308	4558
894.43	4721
894.552	4824
894.674	4740
894.796	4569
894.918	4637
895.04	4535
895.161	4714
895.283	4664
895.405	4588
895.526	4683
895.648	4687
895.769	4702
895.891	4714
896.012	4721
896.134	4744
896.255	4634
896.376	4607
896.498	4577
896.619	4668
896.74	4615
896.861	4653
896.982	4923
897.103	5052
897.224	4877
897.345	4748
897.466	4710
897.587	4717
897.708	4843
897.828	4755
897.949	4710
898.07	4565
898.19	4596
898.311	4873
898.431	4656
898.552	4733
898.672	4797
898.792	4786
898.913	4698
899.033	4615
899.153	4535
899.273	4466
899.393	4497
899.513	4535
899.633	4508
899.753	4508
899.873	4485
899.993	4565
900.113	4558
900.232	4561
900.352	4535
900.472	4462
900.591	4367
900.711	4466
900.83	4402
900.95	4569
901.069	4637
901.189	4546
901.308	4379
901.427	4348
901.546	4356
901.665	4481
901.784	4512
901.904	4394
902.023	4322
902.141	4192
902.26	4139
902.379	4363
902.498	4219
902.617	4211
902.735	4421
902.854	4417
902.973	4348
903.091	4177
903.21	4246
903.328	4341
903.446	4303
903.565	4299
903.683	4405
903.801	4314
903.919	4428
904.038	4383
904.156	4348
904.274	4394
904.392	4379
904.51	4421
904.627	4451
904.745	4580
904.863	4653
904.981	4379
905.098	4325
905.216	4375
905.334	4428
905.451	4451
905.569	4493
905.686	4577
905.803	4573
905.921	4398
906.038	4504
906.155	4459
906.272	4363
906.389	4459
906.506	4356
906.623	4352
906.74	4405
906.857	4295
906.974	4394
907.091	4588
907.208	4622
907.324	4573
907.441	4508
907.557	4386
907.674	4360
907.79	4352
907.907	4322
908.023	4436
908.139	4470
908.256	4443
908.372	4470
908.488	4443
908.604	4348
908.72	4367
908.836	4398
908.952	4386
909.068	4474
909.184	4607
909.3	4462
909.415	4611
909.531	4523
909.647	4360
909.762	4379
909.878	4303
909.993	4443
910.108	4424
910.224	4440
910.339	4470
910.454	4379
910.57	4344
910.685	4333
910.8	4637
910.915	4599
911.03	4516
911.145	4306
911.259	4375
911.374	4356
911.489	4303
911.604	4284
911.718	4192
911.833	4188
911.947	4063
912.062	4010
912.176	4227
912.291	4211
912.405	4280
912.519	4466
912.633	4485
912.748	4337
912.862	4333
912.976	4215
913.09	4139
913.204	4162
913.318	4234
913.431	4356
913.545	4383
913.659	4409
913.772	4348
913.886	4268
914	4185
914.113	4341
914.226	4432
914.34	4386
914.453	4268
914.566	4470
914.68	4337
914.793	4348
914.906	4162
915.019	4097
915.132	4090
915.245	4192
915.358	4249
915.47	4223
915.583	4272
915.696	4306
915.809	4402
915.921	4402
916.034	4234
916.146	4249
916.259	4204
916.371	4348
916.483	4280
916.595	4287
916.708	4344
916.82	4276
916.932	4322
917.044	4322
917.156	4348
917.268	4234
917.38	4314
917.491	4280
917.603	4352
917.715	4440
917.826	4436
917.938	4322
918.049	4238
918.161	4375
918.272	4584
918.384	4558
918.495	4459
918.606	4325
918.717	4230
918.828	4367
918.939	4333
919.05	4261
919.161	4363
919.272	4112
919.383	4242
919.494	4485
919.604	4664
919.715	4443
919.826	4348
919.936	4394
920.047	4462
920.157	4516
920.267	4656
920.378	4550
920.488	4512
920.598	4687
920.708	4831
920.818	4725
920.928	4793
921.038	4961
921.148	4919
921.258	4603
921.368	4573
921.477	4500
921.587	4466
921.697	4295
921.806	4546
921.916	4421
922.025	4257
922.134	4276
922.244	4227
922.353	4367
922.462	4166
922.571	4162
922.68	4029
922.789	3983
922.898	4010
923.007	4017
923.116	4101
923.224	4044
923.333	4063
923.442	3991
923.55	3960
923.659	4021
923.767	4093
923.876	4032
923.984	4093
924.092	3968
924.201	4074
924.309	4059
924.417	4135
924.525	4036
924.633	4120
924.741	5060
924.849	3873
924.956	4166
925.064	3934
925.172	3880
925.279	3915
925.387	4048
925.494	4067
925.602	4227
925.709	4185
925.816	4055
925.924	4131
926.031	4230
926.138	4150
926.245	4207
926.352	4082
926.459	4234
926.566	4318
926.673	4124
926.779	4074
926.886	4059
926.993	3945
927.099	3983
927.206	3896
927.312	3911
927.419	4025
927.525	4013
927.631	4078
927.737	3960
927.843	3941
927.95	3907
928.056	3934
928.162	3945
928.267	4074
928.373	4687
928.479	4097
928.585	3888
928.69	4017
928.796	4082
928.901	3941
929.007	3819
929.112	3994
929.218	3953
929.323	3968
929.428	3941
929.533	4105
929.638	3907
929.743	3915
929.848	4063
929.953	4059
930.058	3964
930.163	3812
930.267	3857
930.372	3964
930.477	3819
930.581	4086
930.685	3930
930.79	3823
930.894	3888
930.998	3835
931.103	4048
931.207	3698
931.311	3690
931.415	3690
931.519	3553
931.623	3557
