Data from test_V78500241_2849.txt Node
Date: Fri Mar 25 17:08:48 CST 2022
User: usil
Spectrometer: V785-0024
Trigger mode: 0
Integration Time (sec): 4.000000E-1
Scans to average: 1
Nonlinearity correction enabled: false
Boxcar width: 0
Storing dark spectrum: false
XAxis mode: Wavelengths
Number of Pixels in Spectrum: 1024
>>>>>Begin Spectral Data<<<<<
801.071	8005
801.214	8054
801.356	7849
801.499	7856
801.641	7799
801.783	7818
801.926	8020
802.068	7959
802.211	8008
802.353	8020
802.496	7902
802.638	7860
802.78	7959
802.923	7932
803.065	7856
803.208	7849
803.35	7936
803.492	8084
803.635	8153
803.777	8096
803.919	8168
804.061	8454
804.204	8210
804.346	8100
804.488	8024
804.63	8096
804.773	8012
804.915	8103
805.057	8237
805.199	8126
805.341	8218
805.483	8301
805.626	8252
805.768	8164
805.91	8199
806.052	8263
806.194	8107
806.336	8267
806.478	8020
806.62	8096
806.762	8145
806.904	8244
807.046	8442
807.188	8358
807.33	8389
807.472	8450
807.614	8130
807.756	8164
807.898	8008
808.04	7868
808.182	7837
808.324	7917
808.465	7887
808.607	8092
808.749	8138
808.891	8199
809.033	8298
809.174	8259
809.316	8069
809.458	8031
809.6	8008
809.741	8062
809.883	8069
810.025	8088
810.166	8084
810.308	8008
810.45	8134
810.591	7932
810.733	7727
810.875	7636
811.016	7552
811.158	7544
811.299	7628
811.441	7753
811.582	7757
811.724	7571
811.865	7582
812.007	7609
812.148	7647
812.29	7636
812.431	7799
812.573	7883
812.714	7974
812.855	8103
812.997	8202
813.138	8317
813.279	8195
813.421	8126
813.562	8035
813.703	7871
813.845	7761
813.986	7460
814.127	7327
814.268	7259
814.41	7168
814.551	7110
814.692	7164
814.833	7015
814.974	7080
815.115	7084
815.256	7019
815.397	6867
815.539	6951
815.68	6875
815.821	6837
815.962	6798
816.103	6837
816.244	6798
816.385	6623
816.526	6627
816.666	6509
816.807	6281
816.948	6452
817.089	6494
817.23	6433
817.371	6361
817.512	6403
817.653	6403
817.793	6376
817.934	6395
818.075	6460
818.216	6441
818.356	6380
818.497	6228
818.638	6095
818.778	6167
818.919	6102
819.06	6163
819.2	6372
819.341	6239
819.481	6346
819.622	6509
819.762	6730
819.903	6669
820.043	6574
820.184	6555
820.324	6578
820.465	6745
820.605	6665
820.746	6585
820.886	6456
821.026	6578
821.167	6669
821.307	6821
821.447	6757
821.588	6616
821.728	6578
821.868	6460
822.008	6304
822.149	6357
822.289	6369
822.429	6190
822.569	6049
822.709	6144
822.849	5908
822.99	5889
823.13	5950
823.27	5931
823.41	5729
823.55	5798
823.69	5760
823.83	5760
823.97	5718
824.11	5528
824.25	5463
824.389	5543
824.529	5604
824.669	5493
824.809	5611
824.949	5638
825.089	5585
825.228	5551
825.368	5436
825.508	5334
825.648	5414
825.787	5383
825.927	5376
826.067	5239
826.206	5311
826.346	5383
826.485	5398
826.625	5421
826.765	5554
826.904	5486
827.044	5212
827.183	5204
827.323	5128
827.462	5273
827.601	5136
827.741	5166
827.88	5227
828.02	5079
828.159	5189
828.298	5315
828.437	5349
828.577	5288
828.716	5459
828.855	5322
828.994	5181
829.134	5170
829.273	5197
829.412	5094
829.551	5064
829.69	5109
829.829	5208
829.968	5433
830.107	5239
830.246	5258
830.385	5162
830.524	5098
830.663	5067
830.802	5010
830.941	4915
831.08	4847
831.219	4976
831.357	4930
831.496	5132
831.635	4949
831.774	4850
831.913	4858
832.051	4725
832.19	4729
832.329	4812
832.467	4664
832.606	4675
832.744	4717
832.883	4721
833.022	4736
833.16	4714
833.299	4797
833.437	4862
833.576	4805
833.714	4847
833.852	4862
833.991	4908
834.129	4934
834.267	4961
834.406	4927
834.544	4957
834.682	4980
834.821	4991
834.959	5143
835.097	4995
835.235	5147
835.373	5124
835.511	5048
835.65	5071
835.788	5041
835.926	4881
836.064	4797
836.202	4908
836.34	5204
836.478	5208
836.615	5067
836.753	5197
836.891	5288
837.029	5269
837.167	5201
837.305	5174
837.443	5128
837.58	5105
837.718	5185
837.856	5189
837.993	5128
838.131	5227
838.269	5204
838.406	5220
838.544	5143
838.681	5045
838.819	5037
838.956	4900
839.094	4900
839.231	4976
839.369	5056
839.506	5436
839.643	5212
839.781	5056
839.918	5033
840.055	5075
840.193	5086
840.33	5117
840.467	5147
840.604	5197
840.742	5433
840.879	5067
841.016	5102
841.153	5178
841.29	5395
841.427	5307
841.564	5322
841.701	5345
841.838	5269
841.975	5212
842.112	5280
842.249	5155
842.385	5079
842.522	5322
842.659	5166
842.796	5121
842.933	5197
843.069	5113
843.206	5098
843.343	5242
843.479	5258
843.616	5284
843.752	5006
843.889	4999
844.025	5162
844.162	5022
844.298	5151
844.435	5128
844.571	5067
844.708	5231
844.844	5269
844.98	5326
845.117	5288
845.253	5117
845.389	5090
845.525	5181
845.661	5204
845.798	4972
845.934	5181
846.07	5045
846.206	5166
846.342	5239
846.478	5136
846.614	5003
846.75	5018
846.886	4938
847.022	5098
847.158	5041
847.294	5052
847.429	5155
847.565	5052
847.701	5288
847.837	4885
847.972	4812
848.108	4987
848.244	4923
848.379	4767
848.515	4755
848.65	4706
848.786	4717
848.921	4763
849.057	4866
849.192	4843
849.328	4771
849.463	4839
849.598	4812
849.734	4717
849.869	4679
850.004	4615
850.14	4626
850.275	4599
850.41	4527
850.545	4580
850.68	4622
850.815	4656
850.95	4637
851.085	4854
851.22	4752
851.355	4679
851.49	4641
851.625	4607
851.76	4668
851.895	4516
852.03	4508
852.165	4679
852.299	4714
852.434	4805
852.569	4771
852.703	4729
852.838	4854
852.973	4930
853.107	4949
853.242	4767
853.376	4645
853.511	4519
853.645	4611
853.78	4767
853.914	4626
854.048	4679
854.183	4626
854.317	4725
854.451	4847
854.585	4653
854.72	4592
854.854	4767
854.988	4622
855.122	4603
855.256	4512
855.39	4679
855.524	4793
855.658	4748
855.792	4710
855.926	4740
856.06	4771
856.194	4797
856.327	4710
856.461	4607
856.595	4649
856.729	4622
856.862	4759
856.996	4683
857.13	4752
857.263	4782
857.397	4797
857.53	4603
857.664	4710
857.797	4710
857.931	4763
858.064	4755
858.197	4774
858.331	4672
858.464	4611
858.597	4523
858.731	4683
858.864	4611
858.997	4561
859.13	4630
859.263	4706
859.396	4683
859.529	4596
859.662	4516
859.795	4489
859.928	4607
860.061	4782
860.194	4736
860.327	4615
860.46	4554
860.592	4694
860.725	4733
860.858	4721
860.99	4626
861.123	4500
861.256	4527
861.388	4584
861.521	5440
861.653	4462
861.786	4432
861.918	4500
862.05	4527
862.183	4497
862.315	4535
862.447	4691
862.58	4523
862.712	4440
862.844	4344
862.976	4474
863.108	4447
863.24	4793
863.372	4344
863.504	4424
863.636	4394
863.768	4470
863.9	4424
864.032	4375
864.164	4417
864.296	4466
864.428	4516
864.559	4554
864.691	4512
864.823	4535
864.954	4497
865.086	4516
865.217	4455
865.349	4398
865.48	4409
865.612	4455
865.743	4607
865.875	4451
866.006	4402
866.137	4447
866.269	4485
866.4	4424
866.531	4371
866.662	4421
866.793	4436
866.924	4413
867.055	4455
867.186	4443
867.317	4447
867.448	4371
867.579	4337
867.71	4440
867.841	4333
867.972	4489
868.103	4436
868.233	4428
868.364	4504
868.495	4519
868.625	4653
868.756	4767
868.886	4565
869.017	4618
869.147	4774
869.278	4774
869.408	4672
869.539	4679
869.669	4710
869.799	4649
869.929	4763
870.06	4706
870.19	4938
870.32	4885
870.45	4877
870.58	5006
870.71	5109
870.84	5094
870.97	4942
871.1	4900
871.23	5124
871.36	5128
871.489	4965
871.619	5048
871.749	5071
871.879	5136
872.008	5189
872.138	5075
872.267	4999
872.397	4820
872.526	4759
872.656	4744
872.785	4816
872.915	4995
873.044	5083
873.173	4923
873.303	4949
873.432	4976
873.561	4957
873.69	4908
873.819	4858
873.948	4885
874.077	4847
874.206	4744
874.335	4786
874.464	4889
874.593	5014
874.722	4946
874.851	5090
874.979	5067
875.108	5029
875.237	4900
875.365	4923
875.494	4870
875.623	5003
875.751	4847
875.88	4896
876.008	5003
876.136	5029
876.265	5174
876.393	5341
876.521	5280
876.65	5212
876.778	5151
876.906	5105
877.034	5014
877.162	5121
877.29	4995
877.418	5014
877.546	5033
877.674	5086
877.802	5025
877.93	5052
878.058	4938
878.185	4877
878.313	4987
878.441	4900
878.568	4790
878.696	4847
878.824	4938
878.951	5045
879.079	5159
879.206	5318
879.333	5094
879.461	4991
879.588	4991
879.715	5151
879.842	5223
879.97	4995
880.097	4763
880.224	4752
880.351	4816
880.478	4835
880.605	4824
880.732	4793
880.859	5041
880.986	4927
881.112	4915
881.239	4774
881.366	4656
881.493	4687
881.619	4603
881.746	4637
881.872	4698
881.999	4672
882.125	4714
882.252	4778
882.378	4831
882.505	4892
882.631	4801
882.757	4702
882.883	4771
883.01	4694
883.136	4675
883.262	4565
883.388	4656
883.514	4793
883.64	4881
883.766	4774
883.892	4626
884.018	4687
884.143	4873
884.269	5064
884.395	4687
884.52	4626
884.646	4641
884.772	4592
884.897	4565
885.023	4672
885.148	4767
885.274	4854
885.399	4786
885.524	4717
885.65	4721
885.775	4774
885.9	4706
886.025	4847
886.15	4763
886.275	4702
886.4	4679
886.525	4733
886.65	4740
886.775	4691
886.9	4900
887.025	5041
887.149	4790
887.274	4649
887.399	4603
887.523	4596
887.648	4580
887.773	4573
887.897	4744
888.021	4774
888.146	4687
888.27	4824
888.395	4892
888.519	4801
888.643	4778
888.767	4782
888.891	4702
889.015	4584
889.139	4645
889.263	4561
889.387	4759
889.511	4858
889.635	4755
889.759	4634
889.883	4687
890.006	4744
890.13	4820
890.254	4603
890.377	4698
890.501	4508
890.624	4478
890.748	4630
890.871	4538
890.995	4409
891.118	4360
891.241	4565
891.364	4580
891.488	4626
891.611	4451
891.734	4550
891.857	4569
891.98	4573
892.103	4626
892.226	4569
892.349	4542
892.471	4447
892.594	4493
892.717	4584
892.839	4538
892.962	4577
893.085	4596
893.207	4645
893.33	4421
893.452	4508
893.575	4656
893.697	4561
893.819	4782
893.941	4839
894.064	4752
894.186	4584
894.308	4546
894.43	4714
894.552	4877
894.674	4717
894.796	4508
894.918	4622
895.04	4531
895.161	4721
895.283	4649
895.405	4603
895.526	4641
895.648	4683
895.769	4717
895.891	4755
896.012	4729
896.134	4740
896.255	4637
896.376	4641
896.498	4573
896.619	4763
896.74	4653
896.861	4679
896.982	4915
897.103	5033
897.224	4828
897.345	4725
897.466	4637
897.587	4675
897.708	4831
897.828	4767
897.949	4660
898.07	4584
898.19	4622
898.311	4801
898.431	4679
898.552	4706
898.672	4839
898.792	4790
898.913	4744
899.033	4634
899.153	4417
899.273	4440
899.393	4485
899.513	4569
899.633	4512
899.753	4546
899.873	4478
899.993	4535
900.113	4538
900.232	4558
900.352	4561
900.472	4497
900.591	4428
900.711	4443
900.83	4447
900.95	4561
901.069	4706
901.189	4550
901.308	4405
901.427	4318
901.546	4409
901.665	4466
901.784	4508
901.904	4379
902.023	4318
902.141	4200
902.26	4143
902.379	4325
902.498	4215
902.617	4223
902.735	4360
902.854	4440
902.973	4352
903.091	4211
903.21	4207
903.328	4287
903.446	4333
903.565	4234
903.683	4341
903.801	4299
903.919	4360
904.038	4413
904.156	4344
904.274	4428
904.392	4413
904.51	4341
904.627	4493
904.745	4500
904.863	4653
904.981	4405
905.098	4287
905.216	4352
905.334	4405
905.451	4413
905.569	4455
905.686	4546
905.803	4538
905.921	4428
906.038	4523
906.155	4489
906.272	4417
906.389	4443
906.506	4329
906.623	4341
906.74	4348
906.857	4303
906.974	4379
907.091	4512
907.208	4645
907.324	4554
907.441	4481
907.557	4306
907.674	4375
907.79	4306
907.907	4417
908.023	4474
908.139	4455
908.256	4436
908.372	4500
908.488	4432
908.604	4337
908.72	4295
908.836	4421
908.952	4356
909.068	4436
909.184	4538
909.3	4478
909.415	4592
909.531	4558
909.647	4352
909.762	4386
909.878	4394
909.993	4424
910.108	4432
910.224	4424
910.339	4459
910.454	4417
910.57	4344
910.685	4303
910.8	4656
910.915	4565
911.03	4497
911.145	4329
911.259	4306
911.374	4341
911.489	4299
911.604	4261
911.718	4177
911.833	4200
911.947	4067
912.062	4029
912.176	4192
912.291	4246
912.405	4268
912.519	4470
912.633	4462
912.748	4394
912.862	4306
912.976	4227
913.09	4109
913.204	4215
913.318	4287
913.431	4363
913.545	4383
913.659	4413
913.772	4375
913.886	4261
914	4238
914.113	4390
914.226	4447
914.34	4402
914.453	4227
914.566	4459
914.68	4276
914.793	4341
914.906	4143
915.019	4158
915.132	4067
915.245	4177
915.358	4188
915.47	4230
915.583	4272
915.696	4257
915.809	4405
915.921	4424
916.034	4272
916.146	4242
916.259	4192
916.371	4398
916.483	4314
916.595	4268
916.708	4344
916.82	4280
916.932	4299
917.044	4337
917.156	4322
917.268	4223
917.38	4268
917.491	4295
917.603	4337
917.715	4394
917.826	4383
917.938	4348
918.049	4242
918.161	4367
918.272	4550
918.384	4550
918.495	4440
918.606	4314
918.717	4234
918.828	4303
918.939	4360
919.05	4268
919.161	4356
919.272	4173
919.383	4246
919.494	4440
919.604	4599
919.715	4440
919.826	4371
919.936	4421
920.047	4535
920.157	4485
920.267	4694
920.378	4527
920.488	4538
920.598	4706
920.708	4885
920.818	4748
920.928	4759
921.038	4987
921.148	4942
921.258	4611
921.368	4565
921.477	4474
921.587	4493
921.697	4348
921.806	4489
921.916	4405
922.025	4230
922.134	4253
922.244	4234
922.353	4325
922.462	4204
922.571	4124
922.68	4032
922.789	4017
922.898	4006
923.007	3979
923.116	4082
923.224	4025
923.333	4029
923.442	4029
923.55	3975
923.659	3975
923.767	4063
923.876	3987
923.984	4078
924.092	3937
924.201	4086
924.309	4063
924.417	4112
924.525	4055
924.633	4124
924.741	4908
924.849	3926
924.956	4143
925.064	3949
925.172	3918
925.279	3983
925.387	4029
925.494	4063
925.602	4192
925.709	4185
925.816	4013
925.924	4112
926.031	4253
926.138	4181
926.245	4219
926.352	4082
926.459	4249
926.566	4299
926.673	4177
926.779	4109
926.886	4116
926.993	4002
927.099	3979
927.206	3968
927.312	3975
927.419	4097
927.525	4063
927.631	4131
927.737	3960
927.843	3945
927.95	3896
928.056	3991
928.162	4017
928.267	4063
928.373	4558
928.479	4147
928.585	3918
928.69	4093
928.796	4116
928.901	4006
929.007	3892
929.112	4032
929.218	4002
929.323	3972
929.428	3953
929.533	4109
929.638	3972
929.743	4021
929.848	4051
929.953	4097
930.058	3979
930.163	3835
930.267	3873
930.372	3991
930.477	3850
930.581	4139
930.685	4017
930.79	3884
930.894	3926
930.998	3896
931.103	4021
931.207	3804
931.311	3724
931.415	3740
931.519	3557
931.623	3618
