Data from test_V78500241_2576.txt Node
Date: Fri Mar 25 17:06:54 CST 2022
User: usil
Spectrometer: V785-0024
Trigger mode: 0
Integration Time (sec): 4.000000E-1
Scans to average: 1
Nonlinearity correction enabled: false
Boxcar width: 0
Storing dark spectrum: false
XAxis mode: Wavelengths
Number of Pixels in Spectrum: 1024
>>>>>Begin Spectral Data<<<<<
801.071	7970
801.214	7989
801.356	7871
801.499	7921
801.641	7799
801.783	7807
801.926	7986
802.068	7902
802.211	7928
802.353	7986
802.496	7818
802.638	7951
802.78	7883
802.923	7982
803.065	7803
803.208	7807
803.35	7967
803.492	8161
803.635	8240
803.777	8027
803.919	8062
804.061	8400
804.204	8088
804.346	8062
804.488	7951
804.63	8069
804.773	7898
804.915	8050
805.057	8279
805.199	8134
805.341	8202
805.483	8275
805.626	8317
805.768	8119
805.91	8161
806.052	8145
806.194	8096
806.336	8279
806.478	8084
806.62	8073
806.762	8100
806.904	8237
807.046	8457
807.188	8358
807.33	8259
807.472	8320
807.614	8088
807.756	8161
807.898	8020
808.04	7879
808.182	7860
808.324	7864
808.465	7883
808.607	8142
808.749	8142
808.891	8252
809.033	8313
809.174	8263
809.316	8096
809.458	8126
809.6	8012
809.741	7997
809.883	8005
810.025	8195
810.166	8050
810.308	8039
810.45	7967
810.591	7849
810.733	7746
810.875	7674
811.016	7472
811.158	7411
811.299	7613
811.441	7772
811.582	7689
811.724	7548
811.865	7533
812.007	7658
812.148	7601
812.29	7586
812.431	7651
812.573	7868
812.714	7940
812.855	8202
812.997	8267
813.138	8282
813.279	8202
813.421	8065
813.562	7879
813.703	7849
813.845	7742
813.986	7495
814.127	7278
814.268	7217
814.41	7206
814.551	7149
814.692	7228
814.833	7080
814.974	7046
815.115	7129
815.256	6897
815.397	6932
815.539	6985
815.68	6848
815.821	6783
815.962	6837
816.103	6798
816.244	6700
816.385	6620
816.526	6608
816.666	6536
816.807	6277
816.948	6441
817.089	6536
817.23	6407
817.371	6429
817.512	6369
817.653	6342
817.793	6384
817.934	6376
818.075	6464
818.216	6452
818.356	6403
818.497	6292
818.638	6155
818.778	6182
818.919	6133
819.06	6182
819.2	6445
819.341	6346
819.481	6334
819.622	6551
819.762	6753
819.903	6703
820.043	6593
820.184	6616
820.324	6604
820.465	6734
820.605	6707
820.746	6688
820.886	6525
821.026	6627
821.167	6662
821.307	6859
821.447	6772
821.588	6616
821.728	6582
821.868	6536
822.008	6308
822.149	6346
822.289	6376
822.429	6171
822.569	6060
822.709	6133
822.849	5927
822.99	5904
823.13	5923
823.27	5908
823.41	5832
823.55	5779
823.69	5726
823.83	5790
823.97	5634
824.11	5501
824.25	5528
824.389	5543
824.529	5604
824.669	5573
824.809	5668
824.949	5703
825.089	5604
825.228	5596
825.368	5417
825.508	5368
825.648	5357
825.787	5318
825.927	5398
826.067	5265
826.206	5265
826.346	5387
826.485	5402
826.625	5433
826.765	5543
826.904	5455
827.044	5280
827.183	5189
827.323	5109
827.462	5212
827.601	5189
827.741	5140
827.88	5185
828.02	5132
828.159	5185
828.298	5345
828.437	5353
828.577	5277
828.716	5448
828.855	5315
828.994	5136
829.134	5128
829.273	5178
829.412	5147
829.551	5109
829.69	5136
829.829	5261
829.968	5330
830.107	5280
830.246	5246
830.385	5132
830.524	5124
830.663	5094
830.802	4949
830.941	4919
831.08	4873
831.219	4980
831.357	4972
831.496	5162
831.635	4953
831.774	4858
831.913	4850
832.051	4710
832.19	4759
832.329	4816
832.467	4698
832.606	4611
832.744	4744
832.883	4733
833.022	4736
833.16	4866
833.299	4782
833.437	4759
833.576	4877
833.714	4873
833.852	4847
833.991	4839
834.129	4946
834.267	4930
834.406	4873
834.544	4999
834.682	4999
834.821	4949
834.959	5113
835.097	4972
835.235	5147
835.373	5121
835.511	5086
835.65	5071
835.788	5037
835.926	4889
836.064	4881
836.202	4900
836.34	5212
836.478	5227
836.615	5117
836.753	5193
836.891	5280
837.029	5254
837.167	5185
837.305	5181
837.443	5159
837.58	5064
837.718	5216
837.856	5189
837.993	5109
838.131	5201
838.269	5216
838.406	5216
838.544	5162
838.681	5010
838.819	5022
838.956	4892
839.094	4927
839.231	4961
839.369	5067
839.506	5425
839.643	5216
839.781	5113
839.918	5041
840.055	5136
840.193	5079
840.33	5109
840.467	5174
840.604	5151
840.742	5501
840.879	5060
841.016	5079
841.153	5124
841.29	5334
841.427	5288
841.564	5269
841.701	5360
841.838	5280
841.975	5242
842.112	5307
842.249	5132
842.385	5151
842.522	5341
842.659	5189
842.796	5143
842.933	5197
843.069	5128
843.206	5235
843.343	5307
843.479	5216
843.616	5288
843.752	5079
843.889	5025
844.025	5223
844.162	5045
844.298	5235
844.435	5025
844.571	5014
844.708	5189
844.844	5284
844.98	5353
845.117	5265
845.253	5151
845.389	5083
845.525	5162
845.661	5159
845.798	5105
845.934	5159
846.07	5018
846.206	5178
846.342	5254
846.478	5132
846.614	5014
846.75	4949
846.886	4953
847.022	5151
847.158	5083
847.294	5060
847.429	5098
847.565	5052
847.701	5288
847.837	4843
847.972	4809
848.108	4930
848.244	4957
848.379	4782
848.515	4702
848.65	4752
848.786	4755
848.921	4752
849.057	4889
849.192	4900
849.328	4843
849.463	4843
849.598	4782
849.734	4717
849.869	4694
850.004	4645
850.14	4706
850.275	4603
850.41	4527
850.545	4580
850.68	4603
850.815	4649
850.95	4649
851.085	4805
851.22	4740
851.355	4694
851.49	4626
851.625	4615
851.76	4641
851.895	4565
852.03	4489
852.165	4691
852.299	4725
852.434	4790
852.569	4740
852.703	4767
852.838	4866
852.973	4896
853.107	4938
853.242	4714
853.376	4634
853.511	4565
853.645	4558
853.78	4790
853.914	4653
854.048	4615
854.183	4656
854.317	4721
854.451	4816
854.585	4710
854.72	4622
854.854	4733
854.988	4565
855.122	4641
855.256	4523
855.39	4653
855.524	4816
855.658	4694
855.792	4649
855.926	4710
856.06	4752
856.194	4782
856.327	4653
856.461	4596
856.595	4615
856.729	4615
856.862	4778
856.996	4714
857.13	4714
857.263	4714
857.397	4797
857.53	4656
857.664	4698
857.797	4736
857.931	4782
858.064	4702
858.197	4790
858.331	4626
858.464	4599
858.597	4538
858.731	4641
858.864	4649
858.997	4622
859.13	4641
859.263	4698
859.396	4679
859.529	4569
859.662	4504
859.795	4504
859.928	4656
860.061	4790
860.194	4778
860.327	4580
860.46	4546
860.592	4767
860.725	4729
860.858	4668
860.99	4577
861.123	4519
861.256	4561
861.388	4599
861.521	5303
861.653	4443
861.786	4470
861.918	4470
862.05	4516
862.183	4569
862.315	4588
862.447	4660
862.58	4603
862.712	4367
862.844	4310
862.976	4481
863.108	4485
863.24	4793
863.372	4295
863.504	4436
863.636	4386
863.768	4462
863.9	4398
864.032	4371
864.164	4413
864.296	4500
864.428	4561
864.559	4561
864.691	4554
864.823	4527
864.954	4523
865.086	4519
865.217	4459
865.349	4390
865.48	4443
865.612	4481
865.743	4569
865.875	4470
866.006	4402
866.137	4474
866.269	4436
866.4	4390
866.531	4417
866.662	4348
866.793	4398
866.924	4436
867.055	4497
867.186	4443
867.317	4398
867.448	4386
867.579	4409
867.71	4424
867.841	4333
867.972	4424
868.103	4417
868.233	4447
868.364	4485
868.495	4554
868.625	4649
868.756	4767
868.886	4565
869.017	4618
869.147	4793
869.278	4778
869.408	4683
869.539	4679
869.669	4710
869.799	4637
869.929	4790
870.06	4759
870.19	4949
870.32	4942
870.45	4927
870.58	5022
870.71	5090
870.84	5090
870.97	4984
871.1	4870
871.23	5132
871.36	5121
871.489	5029
871.619	5052
871.749	5124
871.879	5124
872.008	5159
872.138	5075
872.267	4987
872.397	4877
872.526	4767
872.656	4706
872.785	4850
872.915	4900
873.044	5014
873.173	4942
873.303	4953
873.432	4980
873.561	4968
873.69	4877
873.819	4923
873.948	4873
874.077	4786
874.206	4759
874.335	4797
874.464	4949
874.593	5056
874.722	4957
874.851	5098
874.979	5071
875.108	5052
875.237	4858
875.365	4885
875.494	4927
875.623	4961
875.751	4797
875.88	4854
876.008	4904
876.136	5029
876.265	5178
876.393	5258
876.521	5254
876.65	5254
876.778	5159
876.906	5086
877.034	5003
877.162	5064
877.29	4984
877.418	5037
877.546	5041
877.674	5041
877.802	5052
877.93	5006
878.058	4889
878.185	4870
878.313	4961
878.441	4938
878.568	4786
878.696	4858
878.824	4968
878.951	5022
879.079	5090
879.206	5258
879.333	5128
879.461	5006
879.588	4984
879.715	5109
879.842	5277
879.97	5071
880.097	4797
880.224	4752
880.351	4801
880.478	4790
880.605	4767
880.732	4786
880.859	5098
880.986	4896
881.112	4881
881.239	4752
881.366	4706
881.493	4618
881.619	4588
881.746	4675
881.872	4668
881.999	4664
882.125	4694
882.252	4752
882.378	4801
882.505	4949
882.631	4812
882.757	4710
882.883	4729
883.01	4717
883.136	4706
883.262	4603
883.388	4588
883.514	4797
883.64	4839
883.766	4831
883.892	4622
884.018	4675
884.143	4889
884.269	5018
884.395	4691
884.52	4618
884.646	4656
884.772	4577
884.897	4573
885.023	4679
885.148	4797
885.274	4881
885.399	4793
885.524	4721
885.65	4656
885.775	4721
885.9	4656
886.025	4847
886.15	4793
886.275	4771
886.4	4603
886.525	4706
886.65	4717
886.775	4706
886.9	4889
887.025	5056
887.149	4801
887.274	4641
887.399	4596
887.523	4611
887.648	4569
887.773	4580
887.897	4740
888.021	4752
888.146	4698
888.27	4793
888.395	4870
888.519	4828
888.643	4797
888.767	4831
888.891	4645
889.015	4607
889.139	4660
889.263	4561
889.387	4744
889.511	4828
889.635	4801
889.759	4634
889.883	4580
890.006	4675
890.13	4839
890.254	4630
890.377	4668
890.501	4558
890.624	4485
890.748	4653
890.871	4497
890.995	4436
891.118	4367
891.241	4550
891.364	4523
891.488	4622
891.611	4500
891.734	4527
891.857	4603
891.98	4618
892.103	4687
892.226	4584
892.349	4554
892.471	4428
892.594	4550
892.717	4596
892.839	4561
892.962	4573
893.085	4641
893.207	4569
893.33	4455
893.452	4500
893.575	4634
893.697	4546
893.819	4733
893.941	4870
894.064	4771
894.186	4546
894.308	4596
894.43	4736
894.552	4809
894.674	4748
894.796	4558
894.918	4577
895.04	4580
895.161	4664
895.283	4698
895.405	4592
895.526	4615
895.648	4679
895.769	4759
895.891	4710
896.012	4767
896.134	4710
896.255	4668
896.376	4584
896.498	4660
896.619	4668
896.74	4592
896.861	4664
896.982	4919
897.103	5052
897.224	4843
897.345	4717
897.466	4645
897.587	4763
897.708	4850
897.828	4828
897.949	4668
898.07	4592
898.19	4596
898.311	4782
898.431	4630
898.552	4725
898.672	4782
898.792	4752
898.913	4721
899.033	4611
899.153	4516
899.273	4417
899.393	4466
899.513	4508
899.633	4516
899.753	4546
899.873	4535
899.993	4580
900.113	4512
900.232	4634
900.352	4565
900.472	4489
900.591	4409
900.711	4485
900.83	4405
900.95	4561
901.069	4679
901.189	4527
901.308	4398
901.427	4337
901.546	4367
901.665	4447
901.784	4485
901.904	4428
902.023	4295
902.141	4169
902.26	4169
902.379	4344
902.498	4238
902.617	4234
902.735	4409
902.854	4394
902.973	4386
903.091	4257
903.21	4227
903.328	4318
903.446	4299
903.565	4230
903.683	4306
903.801	4280
903.919	4402
904.038	4432
904.156	4333
904.274	4474
904.392	4363
904.51	4432
904.627	4440
904.745	4558
904.863	4637
904.981	4409
905.098	4314
905.216	4390
905.334	4432
905.451	4421
905.569	4417
905.686	4599
905.803	4531
905.921	4371
906.038	4558
906.155	4443
906.272	4386
906.389	4485
906.506	4352
906.623	4379
906.74	4390
906.857	4276
906.974	4360
907.091	4565
907.208	4660
907.324	4565
907.441	4478
907.557	4344
907.674	4318
907.79	4299
907.907	4409
908.023	4466
908.139	4481
908.256	4424
908.372	4493
908.488	4436
908.604	4344
908.72	4310
908.836	4375
908.952	4363
909.068	4443
909.184	4569
909.3	4466
909.415	4592
909.531	4546
909.647	4405
909.762	4314
909.878	4333
909.993	4394
910.108	4383
910.224	4432
910.339	4481
910.454	4386
910.57	4337
910.685	4276
910.8	4675
910.915	4603
911.03	4512
911.145	4303
911.259	4337
911.374	4390
911.489	4261
911.604	4295
911.718	4223
911.833	4215
911.947	4055
912.062	4029
912.176	4181
912.291	4204
912.405	4200
912.519	4466
912.633	4561
912.748	4352
912.862	4257
912.976	4188
913.09	4063
913.204	4143
913.318	4261
913.431	4352
913.545	4375
913.659	4413
913.772	4398
913.886	4253
914	4234
914.113	4379
914.226	4440
914.34	4390
914.453	4227
914.566	4417
914.68	4295
914.793	4265
914.906	4200
915.019	4139
915.132	4097
915.245	4147
915.358	4257
915.47	4200
915.583	4242
915.696	4299
915.809	4432
915.921	4413
916.034	4230
916.146	4257
916.259	4192
916.371	4383
916.483	4390
916.595	4227
916.708	4318
916.82	4344
916.932	4341
917.044	4318
917.156	4360
917.268	4169
917.38	4257
917.491	4284
917.603	4352
917.715	4409
917.826	4451
917.938	4360
918.049	4268
918.161	4367
918.272	4535
918.384	4519
918.495	4436
918.606	4310
918.717	4261
918.828	4333
918.939	4363
919.05	4257
919.161	4329
919.272	4143
919.383	4181
919.494	4451
919.604	4660
919.715	4428
919.826	4344
919.936	4424
920.047	4527
920.157	4481
920.267	4714
920.378	4554
920.488	4519
920.598	4733
920.708	4904
920.818	4816
920.928	4748
921.038	4946
921.148	4885
921.258	4615
921.368	4558
921.477	4497
921.587	4497
921.697	4344
921.806	4504
921.916	4398
922.025	4280
922.134	4310
922.244	4169
922.353	4333
922.462	4181
922.571	4116
922.68	4021
922.789	3949
922.898	4017
923.007	3972
923.116	4078
923.224	4055
923.333	4097
923.442	3979
923.55	3964
923.659	4010
923.767	4078
923.876	4025
923.984	4139
924.092	3975
924.201	4090
924.309	4116
924.417	4143
924.525	4082
924.633	4131
924.741	5014
924.849	3926
924.956	4120
925.064	3922
925.172	3903
925.279	3953
925.387	4067
925.494	4036
925.602	4242
925.709	4143
925.816	4109
925.924	4120
926.031	4230
926.138	4150
926.245	4188
926.352	4120
926.459	4223
926.566	4261
926.673	4158
926.779	4063
926.886	4097
926.993	3960
927.099	3994
927.206	3941
927.312	3972
927.419	4021
927.525	4025
927.631	4082
927.737	3991
927.843	3960
927.95	3854
928.056	3949
928.162	3926
928.267	4059
928.373	4561
928.479	4124
928.585	3892
928.69	4036
928.796	4071
928.901	3953
929.007	3869
929.112	3972
929.218	3968
929.323	3953
929.428	3975
929.533	4112
929.638	3926
929.743	3953
929.848	3987
929.953	3979
930.058	3956
930.163	3804
930.267	3838
930.372	3994
930.477	3762
930.581	4071
930.685	3975
930.79	3846
930.894	3846
930.998	3865
931.103	4040
931.207	3694
931.311	3701
931.415	3671
931.519	3466
931.623	3557
