Data from test_V78500241_465.txt Node
Date: Fri Mar 25 16:52:14 CST 2022
User: usil
Spectrometer: V785-0024
Trigger mode: 0
Integration Time (sec): 4.000000E-1
Scans to average: 1
Nonlinearity correction enabled: false
Boxcar width: 0
Storing dark spectrum: false
XAxis mode: Wavelengths
Number of Pixels in Spectrum: 1024
>>>>>Begin Spectral Data<<<<<
801.071	8054
801.214	8008
801.356	7849
801.499	7887
801.641	7833
801.783	7852
801.926	8046
802.068	7967
802.211	8069
802.353	7951
802.496	7906
802.638	7913
802.78	8008
802.923	7852
803.065	7868
803.208	7868
803.35	7982
803.492	8035
803.635	8107
803.777	8024
803.919	8081
804.061	8442
804.204	8142
804.346	8020
804.488	7879
804.63	8096
804.773	8005
804.915	8103
805.057	8374
805.199	8195
805.341	8233
805.483	8317
805.626	8206
805.768	8027
805.91	8183
806.052	8218
806.194	8111
806.336	8332
806.478	8180
806.62	8069
806.762	8145
806.904	8225
807.046	8434
807.188	8324
807.33	8290
807.472	8282
807.614	8134
807.756	8172
807.898	7986
808.04	7887
808.182	7970
808.324	7925
808.465	7947
808.607	8077
808.749	8050
808.891	8221
809.033	8328
809.174	8195
809.316	8039
809.458	8054
809.6	8016
809.741	8088
809.883	8100
810.025	8183
810.166	8130
810.308	8062
810.45	7989
810.591	7864
810.733	7772
810.875	7742
811.016	7578
811.158	7540
811.299	7651
811.441	7750
811.582	7742
811.724	7605
811.865	7578
812.007	7651
812.148	7636
812.29	7601
812.431	7750
812.573	7928
812.714	8107
812.855	8164
812.997	8267
813.138	8400
813.279	8252
813.421	8157
813.562	8024
813.703	7925
813.845	7837
813.986	7559
814.127	7312
814.268	7305
814.41	7263
814.551	7225
814.692	7232
814.833	7088
814.974	7126
815.115	7145
815.256	6993
815.397	6966
815.539	6909
815.68	6875
815.821	6867
815.962	6905
816.103	6859
816.244	6798
816.385	6639
816.526	6597
816.666	6521
816.807	6365
816.948	6517
817.089	6509
817.23	6528
817.371	6376
817.512	6471
817.653	6448
817.793	6376
817.934	6498
818.075	6486
818.216	6502
818.356	6410
818.497	6254
818.638	6144
818.778	6155
818.919	6091
819.06	6182
819.2	6281
819.341	6361
819.481	6433
819.622	6532
819.762	6764
819.903	6722
820.043	6665
820.184	6623
820.324	6616
820.465	6738
820.605	6696
820.746	6669
820.886	6525
821.026	6669
821.167	6745
821.307	6825
821.447	6795
821.588	6688
821.728	6593
821.868	6464
822.008	6369
822.149	6365
822.289	6357
822.429	6213
822.569	6102
822.709	6133
822.849	5965
822.99	5942
823.13	5927
823.27	5904
823.41	5828
823.55	5802
823.69	5771
823.83	5840
823.97	5741
824.11	5630
824.25	5551
824.389	5562
824.529	5600
824.669	5573
824.809	5611
824.949	5676
825.089	5608
825.228	5619
825.368	5398
825.508	5341
825.648	5334
825.787	5383
825.927	5372
826.067	5311
826.206	5372
826.346	5372
826.485	5421
826.625	5467
826.765	5573
826.904	5486
827.044	5299
827.183	5254
827.323	5128
827.462	5254
827.601	5174
827.741	5204
827.88	5269
828.02	5174
828.159	5280
828.298	5376
828.437	5391
828.577	5337
828.716	5490
828.855	5299
828.994	5189
829.134	5178
829.273	5189
829.412	5185
829.551	5132
829.69	5174
829.829	5231
829.968	5395
830.107	5311
830.246	5284
830.385	5166
830.524	5109
830.663	5067
830.802	4991
830.941	4953
831.08	4930
831.219	5025
831.357	5029
831.496	5143
831.635	4892
831.774	4915
831.913	4858
832.051	4691
832.19	4763
832.329	4889
832.467	4691
832.606	4630
832.744	4691
832.883	4782
833.022	4744
833.16	4831
833.299	4877
833.437	4816
833.576	4915
833.714	4885
833.852	4911
833.991	4953
834.129	4972
834.267	4892
834.406	4915
834.544	5022
834.682	5025
834.821	5003
834.959	5193
835.097	4976
835.235	5102
835.373	5086
835.511	5117
835.65	5045
835.788	5048
835.926	4984
836.064	4889
836.202	4965
836.34	5162
836.478	5269
836.615	5113
836.753	5246
836.891	5258
837.029	5292
837.167	5227
837.305	5212
837.443	5113
837.58	5083
837.718	5212
837.856	5147
837.993	5124
838.131	5258
838.269	5246
838.406	5204
838.544	5132
838.681	5113
838.819	5041
838.956	4904
839.094	4889
839.231	4961
839.369	5128
839.506	5459
839.643	5315
839.781	5090
839.918	5014
840.055	5067
840.193	5113
840.33	5090
840.467	5178
840.604	5239
840.742	5452
840.879	5105
841.016	5079
841.153	5162
841.29	5414
841.427	5391
841.564	5315
841.701	5353
841.838	5284
841.975	5242
842.112	5292
842.249	5124
842.385	5048
842.522	5337
842.659	5208
842.796	5094
842.933	5143
843.069	5178
843.206	5166
843.343	5318
843.479	5265
843.616	5269
843.752	5014
843.889	4980
844.025	5189
844.162	5079
844.298	5254
844.435	5094
844.571	5075
844.708	5193
844.844	5303
844.98	5357
845.117	5311
845.253	5140
845.389	5086
845.525	5170
845.661	5204
845.798	5037
845.934	5159
846.07	5067
846.206	5189
846.342	5254
846.478	5208
846.614	5064
846.75	4968
846.886	4972
847.022	5132
847.158	5010
847.294	5094
847.429	5147
847.565	5056
847.701	5330
847.837	4881
847.972	4835
848.108	5022
848.244	4968
848.379	4767
848.515	4748
848.65	4740
848.786	4801
848.921	4729
849.057	4892
849.192	4927
849.328	4778
849.463	4919
849.598	4843
849.734	4714
849.869	4710
850.004	4599
850.14	4675
850.275	4626
850.41	4573
850.545	4584
850.68	4558
850.815	4641
850.95	4596
851.085	4854
851.22	4797
851.355	4702
851.49	4649
851.625	4626
851.76	4618
851.895	4561
852.03	4550
852.165	4698
852.299	4740
852.434	4786
852.569	4782
852.703	4797
852.838	4835
852.973	4923
853.107	4911
853.242	4733
853.376	4698
853.511	4569
853.645	4615
853.78	4778
853.914	4653
854.048	4626
854.183	4675
854.317	4733
854.451	4850
854.585	4672
854.72	4599
854.854	4729
854.988	4603
855.122	4668
855.256	4531
855.39	4698
855.524	4809
855.658	4714
855.792	4706
855.926	4717
856.06	4767
856.194	4820
856.327	4721
856.461	4706
856.595	4645
856.729	4656
856.862	4755
856.996	4694
857.13	4729
857.263	4828
857.397	4862
857.53	4714
857.664	4759
857.797	4778
857.931	4793
858.064	4717
858.197	4755
858.331	4736
858.464	4611
858.597	4569
858.731	4618
858.864	4702
858.997	4634
859.13	4702
859.263	4714
859.396	4740
859.529	4622
859.662	4607
859.795	4588
859.928	4721
860.061	4774
860.194	4843
860.327	4626
860.46	4645
860.592	4744
860.725	4721
860.858	4774
860.99	4656
861.123	4561
861.256	4596
861.388	4683
861.521	5376
861.653	4519
861.786	4481
861.918	4478
862.05	4607
862.183	4634
862.315	4656
862.447	4698
862.58	4561
862.712	4432
862.844	4402
862.976	4535
863.108	4481
863.24	4828
863.372	4398
863.504	4478
863.636	4424
863.768	4535
863.9	4436
864.032	4443
864.164	4459
864.296	4550
864.428	4611
864.559	4611
864.691	4607
864.823	4584
864.954	4573
865.086	4565
865.217	4516
865.349	4455
865.48	4516
865.612	4516
865.743	4630
865.875	4538
866.006	4519
866.137	4519
866.269	4504
866.4	4440
866.531	4436
866.662	4440
866.793	4493
866.924	4455
867.055	4550
867.186	4500
867.317	4493
867.448	4432
867.579	4417
867.71	4421
867.841	4432
867.972	4538
868.103	4474
868.233	4485
868.364	4481
868.495	4538
868.625	4706
868.756	4778
868.886	4645
869.017	4672
869.147	4797
869.278	4820
869.408	4710
869.539	4706
869.669	4801
869.799	4725
869.929	4790
870.06	4774
870.19	4980
870.32	4957
870.45	5006
870.58	5094
870.71	5128
870.84	5128
870.97	4949
871.1	4972
871.23	5208
871.36	5181
871.489	4995
871.619	5094
871.749	5166
871.879	5136
872.008	5250
872.138	5105
872.267	5067
872.397	4854
872.526	4881
872.656	4782
872.785	4862
872.915	5003
873.044	5052
873.173	5003
873.303	4991
873.432	4968
873.561	4930
873.69	4900
873.819	4881
873.948	4949
874.077	4801
874.206	4778
874.335	4831
874.464	4991
874.593	5109
874.722	4991
874.851	5170
874.979	5037
875.108	5075
875.237	4991
875.365	4889
875.494	4915
875.623	5018
875.751	4828
875.88	4923
876.008	5041
876.136	5056
876.265	5246
876.393	5395
876.521	5311
876.65	5326
876.778	5204
876.906	5143
877.034	5098
877.162	5052
877.29	5045
877.418	5143
877.546	5109
877.674	5143
877.802	5029
877.93	5064
878.058	4984
878.185	4942
878.313	5010
878.441	5018
878.568	4850
878.696	4919
878.824	5003
878.951	5029
879.079	5216
879.206	5330
879.333	5166
879.461	5003
879.588	5045
879.715	5151
879.842	5242
879.97	5064
880.097	4820
880.224	4786
880.351	4854
880.478	4839
880.605	4858
880.732	4858
880.859	5094
880.986	4961
881.112	4942
881.239	4767
881.366	4691
881.493	4607
881.619	4599
881.746	4714
881.872	4672
881.999	4637
882.125	4774
882.252	4896
882.378	4839
882.505	5029
882.631	4812
882.757	4694
882.883	4786
883.01	4740
883.136	4702
883.262	4653
883.388	4660
883.514	4850
883.64	4892
883.766	4839
883.892	4698
884.018	4759
884.143	4919
884.269	5045
884.395	4721
884.52	4630
884.646	4649
884.772	4618
884.897	4615
885.023	4672
885.148	4839
885.274	4877
885.399	4816
885.524	4725
885.65	4767
885.775	4847
885.9	4733
886.025	4866
886.15	4778
886.275	4755
886.4	4694
886.525	4790
886.65	4725
886.775	4736
886.9	4873
887.025	5102
887.149	4809
887.274	4721
887.399	4630
887.523	4637
887.648	4626
887.773	4634
887.897	4820
888.021	4854
888.146	4683
888.27	4828
888.395	4927
888.519	4858
888.643	4896
888.767	4847
888.891	4729
889.015	4618
889.139	4656
889.263	4656
889.387	4774
889.511	4930
889.635	4873
889.759	4683
889.883	4702
890.006	4736
890.13	4870
890.254	4622
890.377	4710
890.501	4592
890.624	4561
890.748	4637
890.871	4577
890.995	4443
891.118	4409
891.241	4569
891.364	4561
891.488	4702
891.611	4538
891.734	4580
891.857	4664
891.98	4584
892.103	4668
892.226	4626
892.349	4592
892.471	4459
892.594	4618
892.717	4687
892.839	4592
892.962	4637
893.085	4675
893.207	4588
893.33	4516
893.452	4558
893.575	4725
893.697	4634
893.819	4793
893.941	4820
894.064	4801
894.186	4611
894.308	4618
894.43	4725
894.552	4831
894.674	4820
894.796	4569
894.918	4615
895.04	4592
895.161	4706
895.283	4668
895.405	4554
895.526	4714
895.648	4721
895.769	4717
895.891	4717
896.012	4774
896.134	4748
896.255	4679
896.376	4664
896.498	4599
896.619	4694
896.74	4603
896.861	4702
896.982	4949
897.103	5079
897.224	4801
897.345	4801
897.466	4702
897.587	4725
897.708	4892
897.828	4797
897.949	4687
898.07	4588
898.19	4637
898.311	4866
898.431	4664
898.552	4782
898.672	4778
898.792	4862
898.913	4717
899.033	4664
899.153	4516
899.273	4443
899.393	4531
899.513	4580
899.633	4519
899.753	4546
899.873	4569
899.993	4588
900.113	4527
900.232	4664
900.352	4561
900.472	4500
900.591	4455
900.711	4523
900.83	4512
900.95	4687
901.069	4702
901.189	4611
901.308	4413
901.427	4360
901.546	4363
901.665	4519
901.784	4531
901.904	4390
902.023	4322
902.141	4211
902.26	4181
902.379	4375
902.498	4314
902.617	4295
902.735	4383
902.854	4402
902.973	4360
903.091	4261
903.21	4265
903.328	4318
903.446	4310
903.565	4303
903.683	4325
903.801	4341
903.919	4440
904.038	4500
904.156	4386
904.274	4428
904.392	4459
904.51	4455
904.627	4443
904.745	4637
904.863	4664
904.981	4493
905.098	4329
905.216	4398
905.334	4413
905.451	4462
905.569	4493
905.686	4618
905.803	4607
905.921	4417
906.038	4607
906.155	4474
906.272	4424
906.389	4466
906.506	4386
906.623	4421
906.74	4383
906.857	4337
906.974	4390
907.091	4611
907.208	4679
907.324	4615
907.441	4504
907.557	4310
907.674	4344
907.79	4360
907.907	4409
908.023	4504
908.139	4516
908.256	4497
908.372	4489
908.488	4451
908.604	4402
908.72	4291
908.836	4443
908.952	4341
909.068	4443
909.184	4565
909.3	4493
909.415	4584
909.531	4554
909.647	4379
909.762	4405
909.878	4371
909.993	4455
910.108	4432
910.224	4402
910.339	4516
910.454	4405
910.57	4394
910.685	4348
910.8	4691
910.915	4596
911.03	4489
911.145	4348
911.259	4341
911.374	4386
911.489	4333
911.604	4295
911.718	4192
911.833	4192
911.947	4128
912.062	4071
912.176	4230
912.291	4234
912.405	4265
912.519	4485
912.633	4516
912.748	4421
912.862	4348
912.976	4192
913.09	4112
913.204	4166
913.318	4272
913.431	4383
913.545	4421
913.659	4462
913.772	4421
913.886	4318
914	4242
914.113	4375
914.226	4440
914.34	4386
914.453	4268
914.566	4409
914.68	4352
914.793	4337
914.906	4192
915.019	4128
915.132	4105
915.245	4181
915.358	4253
915.47	4280
915.583	4223
915.696	4318
915.809	4390
915.921	4489
916.034	4261
916.146	4322
916.259	4227
916.371	4329
916.483	4379
916.595	4314
916.708	4360
916.82	4379
916.932	4295
917.044	4352
917.156	4383
917.268	4242
917.38	4291
917.491	4295
917.603	4386
917.715	4356
917.826	4432
917.938	4409
918.049	4291
918.161	4402
918.272	4596
918.384	4592
918.495	4531
918.606	4318
918.717	4253
918.828	4352
918.939	4367
919.05	4265
919.161	4360
919.272	4139
919.383	4295
919.494	4466
919.604	4634
919.715	4455
919.826	4360
919.936	4459
920.047	4577
920.157	4478
920.267	4706
920.378	4561
920.488	4554
920.598	4725
920.708	4927
920.818	4767
920.928	4790
921.038	4965
921.148	4896
921.258	4630
921.368	4577
921.477	4485
921.587	4481
921.697	4413
921.806	4603
921.916	4447
922.025	4280
922.134	4219
922.244	4272
922.353	4386
922.462	4196
922.571	4147
922.68	4006
922.789	3987
922.898	4044
923.007	4029
923.116	4109
923.224	4082
923.333	4090
923.442	3991
923.55	3960
923.659	4078
923.767	4067
923.876	4055
923.984	4139
924.092	3994
924.201	4086
924.309	4109
924.417	4147
924.525	4055
924.633	4090
924.741	5060
924.849	3918
924.956	4112
925.064	3964
925.172	3930
925.279	3975
925.387	4021
925.494	4048
925.602	4196
925.709	4169
925.816	4090
925.924	4162
926.031	4196
926.138	4173
926.245	4246
926.352	4139
926.459	4284
926.566	4306
926.673	4185
926.779	4101
926.886	4082
926.993	4017
927.099	4013
927.206	3945
927.312	3918
927.419	4063
927.525	4044
927.631	4105
927.737	3994
927.843	3956
927.95	3903
928.056	3964
928.162	3964
928.267	4071
928.373	4694
928.479	4093
928.585	3899
928.69	4040
928.796	4086
928.901	3972
929.007	3854
929.112	4055
929.218	3979
929.323	3934
929.428	3953
929.533	4131
929.638	3918
929.743	3934
929.848	4032
929.953	4006
930.058	3918
930.163	3770
930.267	3800
930.372	4021
930.477	3816
930.581	4131
930.685	3945
930.79	3819
930.894	3899
930.998	3876
931.103	4040
931.207	3720
931.311	3682
931.415	3686
931.519	3564
931.623	3561
