Data from test_V78500241_565.txt Node
Date: Fri Mar 25 16:52:55 CST 2022
User: usil
Spectrometer: V785-0024
Trigger mode: 0
Integration Time (sec): 4.000000E-1
Scans to average: 1
Nonlinearity correction enabled: false
Boxcar width: 0
Storing dark spectrum: false
XAxis mode: Wavelengths
Number of Pixels in Spectrum: 1024
>>>>>Begin Spectral Data<<<<<
801.071	7940
801.214	7982
801.356	7871
801.499	7852
801.641	7780
801.783	7807
801.926	7982
802.068	7993
802.211	7921
802.353	7959
802.496	7921
802.638	7925
802.78	7902
802.923	7902
803.065	7833
803.208	7894
803.35	7963
803.492	8100
803.635	8100
803.777	8039
803.919	8142
804.061	8434
804.204	8107
804.346	7982
804.488	7967
804.63	8073
804.773	7986
804.915	8054
805.057	8221
805.199	8111
805.341	8237
805.483	8328
805.626	8142
805.768	8145
805.91	8168
806.052	8240
806.194	8081
806.336	8320
806.478	8149
806.62	8062
806.762	8100
806.904	8248
807.046	8415
807.188	8358
807.33	8248
807.472	8317
807.614	8119
807.756	8183
807.898	7932
808.04	7932
808.182	7852
808.324	7883
808.465	7856
808.607	8138
808.749	8092
808.891	8244
809.033	8286
809.174	8206
809.316	8054
809.458	8031
809.6	7909
809.741	8062
809.883	7936
810.025	8050
810.166	8046
810.308	8005
810.45	7959
810.591	7864
810.733	7719
810.875	7689
811.016	7491
811.158	7590
811.299	7559
811.441	7750
811.582	7674
811.724	7529
811.865	7499
812.007	7636
812.148	7582
812.29	7613
812.431	7727
812.573	7856
812.714	7982
812.855	8069
812.997	8233
813.138	8324
813.279	8161
813.421	8214
813.562	8046
813.703	7913
813.845	7833
813.986	7472
814.127	7331
814.268	7327
814.41	7202
814.551	7129
814.692	7149
814.833	7065
814.974	7099
815.115	7072
815.256	6954
815.397	6886
815.539	6901
815.68	6875
815.821	6791
815.962	6844
816.103	6863
816.244	6726
816.385	6593
816.526	6646
816.666	6502
816.807	6266
816.948	6445
817.089	6490
817.23	6433
817.371	6311
817.512	6369
817.653	6331
817.793	6361
817.934	6448
818.075	6452
818.216	6448
818.356	6376
818.497	6182
818.638	6129
818.778	6136
818.919	6125
819.06	6114
819.2	6262
819.341	6285
819.481	6350
819.622	6483
819.762	6684
819.903	6597
820.043	6547
820.184	6570
820.324	6574
820.465	6585
820.605	6623
820.746	6563
820.886	6448
821.026	6646
821.167	6711
821.307	6753
821.447	6715
821.588	6646
821.728	6525
821.868	6471
822.008	6346
822.149	6357
822.289	6350
822.429	6114
822.569	6053
822.709	6133
822.849	5889
822.99	5923
823.13	5901
823.27	5920
823.41	5760
823.55	5737
823.69	5756
823.83	5775
823.97	5684
824.11	5535
824.25	5505
824.389	5581
824.529	5592
824.669	5539
824.809	5627
824.949	5729
825.089	5623
825.228	5558
825.368	5414
825.508	5368
825.648	5353
825.787	5379
825.927	5391
826.067	5322
826.206	5326
826.346	5376
826.485	5478
826.625	5436
826.765	5551
826.904	5452
827.044	5318
827.183	5212
827.323	5147
827.462	5239
827.601	5174
827.741	5239
827.88	5246
828.02	5181
828.159	5296
828.298	5315
828.437	5360
828.577	5280
828.716	5516
828.855	5353
828.994	5147
829.134	5159
829.273	5197
829.412	5204
829.551	5178
829.69	5159
829.829	5357
829.968	5433
830.107	5307
830.246	5296
830.385	5227
830.524	5178
830.663	5075
830.802	4957
830.941	4957
831.08	4961
831.219	5022
831.357	5037
831.496	5201
831.635	4961
831.774	4927
831.913	4915
832.051	4729
832.19	4755
832.329	4847
832.467	4714
832.606	4637
832.744	4778
832.883	4782
833.022	4744
833.16	4843
833.299	4847
833.437	4805
833.576	4847
833.714	4847
833.852	4949
833.991	4896
834.129	4980
834.267	4972
834.406	4938
834.544	4991
834.682	5014
834.821	5006
834.959	5166
835.097	4987
835.235	5170
835.373	5048
835.511	5143
835.65	5067
835.788	5025
835.926	4911
836.064	4923
836.202	4953
836.34	5246
836.478	5250
836.615	5159
836.753	5246
836.891	5303
837.029	5280
837.167	5204
837.305	5166
837.443	5166
837.58	5117
837.718	5307
837.856	5231
837.993	5193
838.131	5273
838.269	5231
838.406	5208
838.544	5239
838.681	5033
838.819	5067
838.956	4961
839.094	4934
839.231	5010
839.369	5083
839.506	5425
839.643	5292
839.781	5102
839.918	5060
840.055	5113
840.193	5147
840.33	5124
840.467	5155
840.604	5162
840.742	5444
840.879	5124
841.016	5113
841.153	5189
841.29	5436
841.427	5246
841.564	5398
841.701	5360
841.838	5330
841.975	5265
842.112	5265
842.249	5185
842.385	5147
842.522	5372
842.659	5223
842.796	5170
842.933	5265
843.069	5124
843.206	5254
843.343	5372
843.479	5280
843.616	5269
843.752	5052
843.889	5056
844.025	5235
844.162	5067
844.298	5273
844.435	5083
844.571	5075
844.708	5189
844.844	5315
844.98	5372
845.117	5353
845.253	5124
845.389	5162
845.525	5128
845.661	5223
845.798	5079
845.934	5121
846.07	5045
846.206	5201
846.342	5315
846.478	5197
846.614	5025
846.75	5010
846.886	4976
847.022	5185
847.158	5079
847.294	5136
847.429	5166
847.565	5083
847.701	5357
847.837	4839
847.972	4828
848.108	4968
848.244	4961
848.379	4824
848.515	4778
848.65	4767
848.786	4793
848.921	4828
849.057	4927
849.192	4930
849.328	4866
849.463	4885
849.598	4858
849.734	4778
849.869	4755
850.004	4679
850.14	4710
850.275	4615
850.41	4580
850.545	4618
850.68	4603
850.815	4611
850.95	4645
851.085	4911
851.22	4748
851.355	4694
851.49	4641
851.625	4649
851.76	4672
851.895	4618
852.03	4558
852.165	4687
852.299	4786
852.434	4782
852.569	4752
852.703	4790
852.838	4858
852.973	4915
853.107	4934
853.242	4740
853.376	4649
853.511	4592
853.645	4672
853.78	4805
853.914	4725
854.048	4733
854.183	4637
854.317	4710
854.451	4885
854.585	4687
854.72	4637
854.854	4790
854.988	4599
855.122	4675
855.256	4573
855.39	4687
855.524	4782
855.658	4782
855.792	4759
855.926	4752
856.06	4774
856.194	4824
856.327	4748
856.461	4611
856.595	4645
856.729	4622
856.862	4786
856.996	4736
857.13	4744
857.263	4790
857.397	4801
857.53	4698
857.664	4733
857.797	4812
857.931	4835
858.064	4740
858.197	4816
858.331	4694
858.464	4698
858.597	4603
858.731	4660
858.864	4679
858.997	4637
859.13	4725
859.263	4672
859.396	4702
859.529	4630
859.662	4573
859.795	4596
859.928	4626
860.061	4828
860.194	4740
860.327	4641
860.46	4607
860.592	4740
860.725	4778
860.858	4702
860.99	4596
861.123	4531
861.256	4542
861.388	4618
861.521	5440
861.653	4497
861.786	4447
861.918	4508
862.05	4580
862.183	4550
862.315	4592
862.447	4675
862.58	4550
862.712	4421
862.844	4383
862.976	4481
863.108	4481
863.24	4949
863.372	4356
863.504	4493
863.636	4424
863.768	4531
863.9	4466
864.032	4390
864.164	4417
864.296	4489
864.428	4580
864.559	4603
864.691	4577
864.823	4569
864.954	4546
865.086	4497
865.217	4470
865.349	4474
865.48	4466
865.612	4546
865.743	4656
865.875	4508
866.006	4417
866.137	4493
866.269	4497
866.4	4451
866.531	4447
866.662	4417
866.793	4455
866.924	4459
867.055	4489
867.186	4443
867.317	4470
867.448	4379
867.579	4443
867.71	4390
867.841	4424
867.972	4531
868.103	4481
868.233	4481
868.364	4493
868.495	4527
868.625	4721
868.756	4752
868.886	4596
869.017	4656
869.147	4774
869.278	4820
869.408	4710
869.539	4679
869.669	4706
869.799	4675
869.929	4771
870.06	4793
870.19	4991
870.32	4930
870.45	4957
870.58	5056
870.71	5094
870.84	5098
870.97	4938
871.1	4949
871.23	5193
871.36	5208
871.489	5102
871.619	5086
871.749	5121
871.879	5151
872.008	5166
872.138	5048
872.267	5010
872.397	4870
872.526	4831
872.656	4740
872.785	4843
872.915	4957
873.044	5075
873.173	4965
873.303	4999
873.432	5003
873.561	4972
873.69	4892
873.819	4889
873.948	4915
874.077	4828
874.206	4793
874.335	4767
874.464	4934
874.593	5102
874.722	4953
874.851	5098
874.979	5121
875.108	5083
875.237	4915
875.365	4934
875.494	4927
875.623	4995
875.751	4839
875.88	4927
876.008	5022
876.136	5109
876.265	5197
876.393	5337
876.521	5216
876.65	5227
876.778	5147
876.906	5117
877.034	5010
877.162	5102
877.29	5010
877.418	5109
877.546	5071
877.674	5033
877.802	5060
877.93	5075
878.058	4938
878.185	4904
878.313	4980
878.441	5003
878.568	4816
878.696	4843
878.824	4995
878.951	5060
879.079	5140
879.206	5296
879.333	5113
879.461	4991
879.588	5037
879.715	5140
879.842	5235
879.97	5029
880.097	4816
880.224	4748
880.351	4885
880.478	4816
880.605	4858
880.732	4748
880.859	5090
880.986	4915
881.112	4946
881.239	4755
881.366	4672
881.493	4622
881.619	4645
881.746	4637
881.872	4656
881.999	4653
882.125	4733
882.252	4858
882.378	4862
882.505	4984
882.631	4839
882.757	4675
882.883	4733
883.01	4778
883.136	4687
883.262	4607
883.388	4653
883.514	4820
883.64	4824
883.766	4774
883.892	4691
884.018	4763
884.143	4908
884.269	5033
884.395	4687
884.52	4660
884.646	4668
884.772	4573
884.897	4603
885.023	4710
885.148	4816
885.274	4953
885.399	4850
885.524	4748
885.65	4717
885.775	4793
885.9	4748
886.025	4850
886.15	4805
886.275	4736
886.4	4694
886.525	4736
886.65	4656
886.775	4729
886.9	4946
887.025	5071
887.149	4831
887.274	4637
887.399	4599
887.523	4607
887.648	4588
887.773	4596
887.897	4778
888.021	4809
888.146	4679
888.27	4809
888.395	4934
888.519	4835
888.643	4828
888.767	4862
888.891	4691
889.015	4637
889.139	4634
889.263	4588
889.387	4774
889.511	4919
889.635	4820
889.759	4649
889.883	4664
890.006	4793
890.13	4805
890.254	4691
890.377	4725
890.501	4561
890.624	4558
890.748	4653
890.871	4500
890.995	4474
891.118	4417
891.241	4577
891.364	4565
891.488	4653
891.611	4504
891.734	4607
891.857	4634
891.98	4615
892.103	4634
892.226	4584
892.349	4577
892.471	4451
892.594	4550
892.717	4588
892.839	4580
892.962	4592
893.085	4622
893.207	4599
893.33	4436
893.452	4577
893.575	4656
893.697	4637
893.819	4786
893.941	4873
894.064	4797
894.186	4607
894.308	4603
894.43	4759
894.552	4809
894.674	4767
894.796	4561
894.918	4611
895.04	4611
895.161	4698
895.283	4691
895.405	4538
895.526	4660
895.648	4691
895.769	4675
895.891	4725
896.012	4740
896.134	4721
896.255	4733
896.376	4607
896.498	4580
896.619	4679
896.74	4626
896.861	4672
896.982	4946
897.103	5075
897.224	4847
897.345	4797
897.466	4733
897.587	4714
897.708	4896
897.828	4797
897.949	4717
898.07	4554
898.19	4679
898.311	4839
898.431	4683
898.552	4752
898.672	4835
898.792	4839
898.913	4740
899.033	4630
899.153	4478
899.273	4455
899.393	4516
899.513	4588
899.633	4519
899.753	4615
899.873	4497
899.993	4615
900.113	4596
900.232	4603
900.352	4546
900.472	4481
900.591	4383
900.711	4508
900.83	4485
900.95	4626
901.069	4675
901.189	4592
901.308	4402
901.427	4367
901.546	4306
901.665	4512
901.784	4519
901.904	4386
902.023	4329
902.141	4162
902.26	4185
902.379	4299
902.498	4230
902.617	4253
902.735	4383
902.854	4402
902.973	4360
903.091	4215
903.21	4246
903.328	4303
903.446	4268
903.565	4268
903.683	4356
903.801	4306
903.919	4421
904.038	4432
904.156	4363
904.274	4443
904.392	4440
904.51	4440
904.627	4432
904.745	4546
904.863	4626
904.981	4421
905.098	4352
905.216	4352
905.334	4474
905.451	4451
905.569	4417
905.686	4535
905.803	4592
905.921	4424
906.038	4512
906.155	4474
906.272	4375
906.389	4436
906.506	4348
906.623	4394
906.74	4375
906.857	4310
906.974	4394
907.091	4538
907.208	4702
907.324	4542
907.441	4500
907.557	4383
907.674	4322
907.79	4295
907.907	4424
908.023	4481
908.139	4451
908.256	4421
908.372	4508
908.488	4455
908.604	4367
908.72	4337
908.836	4386
908.952	4363
909.068	4455
909.184	4569
909.3	4478
909.415	4580
909.531	4512
909.647	4341
909.762	4394
909.878	4318
909.993	4459
910.108	4394
910.224	4428
910.339	4455
910.454	4413
910.57	4383
910.685	4310
910.8	4706
910.915	4580
911.03	4531
911.145	4306
911.259	4371
911.374	4379
911.489	4310
911.604	4306
911.718	4200
911.833	4242
911.947	4101
912.062	4029
912.176	4181
912.291	4177
912.405	4253
912.519	4478
912.633	4489
912.748	4375
912.862	4344
912.976	4204
913.09	4082
913.204	4200
913.318	4261
913.431	4360
913.545	4409
913.659	4424
913.772	4356
913.886	4249
914	4268
914.113	4333
914.226	4424
914.34	4413
914.453	4204
914.566	4421
914.68	4329
914.793	4299
914.906	4162
915.019	4173
915.132	4109
915.245	4192
915.358	4223
915.47	4230
915.583	4276
915.696	4303
915.809	4413
915.921	4436
916.034	4268
916.146	4249
916.259	4200
916.371	4405
916.483	4371
916.595	4246
916.708	4299
916.82	4341
916.932	4329
917.044	4337
917.156	4337
917.268	4192
917.38	4325
917.491	4257
917.603	4295
917.715	4386
917.826	4481
917.938	4402
918.049	4253
918.161	4402
918.272	4504
918.384	4573
918.495	4470
918.606	4310
918.717	4249
918.828	4287
918.939	4424
919.05	4272
919.161	4325
919.272	4143
919.383	4257
919.494	4462
919.604	4630
919.715	4413
919.826	4344
919.936	4363
920.047	4573
920.157	4462
920.267	4702
920.378	4592
920.488	4489
920.598	4759
920.708	4904
920.818	4717
920.928	4752
921.038	4957
921.148	4889
921.258	4641
921.368	4546
921.477	4523
921.587	4459
921.697	4348
921.806	4542
921.916	4424
922.025	4306
922.134	4261
922.244	4215
922.353	4318
922.462	4223
922.571	4131
922.68	4021
922.789	3998
922.898	4048
923.007	3994
923.116	4120
923.224	4071
923.333	4101
923.442	4002
923.55	3998
923.659	4044
923.767	4124
923.876	4013
923.984	4093
924.092	3983
924.201	4135
924.309	4090
924.417	4109
924.525	4059
924.633	4147
924.741	5052
924.849	3949
924.956	4093
925.064	3956
925.172	3949
925.279	3983
925.387	4105
925.494	4086
925.602	4169
925.709	4177
925.816	3994
925.924	4128
926.031	4196
926.138	4219
926.245	4238
926.352	4135
926.459	4276
926.566	4287
926.673	4207
926.779	4078
926.886	4128
926.993	4029
927.099	3964
927.206	3949
927.312	3949
927.419	3994
927.525	3998
927.631	4082
927.737	3998
927.843	3876
927.95	3880
928.056	3937
928.162	4006
928.267	4078
928.373	4710
928.479	4093
928.585	3911
928.69	4006
928.796	4086
928.901	3968
929.007	3838
929.112	4006
929.218	3998
929.323	3941
929.428	3911
929.533	4097
929.638	3930
929.743	3949
929.848	4040
929.953	4025
930.058	3956
930.163	3793
930.267	3850
930.372	3991
930.477	3816
930.581	4090
930.685	3926
930.79	3827
930.894	3907
930.998	3861
931.103	4055
931.207	3724
931.311	3736
931.415	3686
931.519	3507
931.623	3587
