Data from test_V78500241_1048.txt Node
Date: Fri Mar 25 16:56:17 CST 2022
User: usil
Spectrometer: V785-0024
Trigger mode: 0
Integration Time (sec): 4.000000E-1
Scans to average: 1
Nonlinearity correction enabled: false
Boxcar width: 0
Storing dark spectrum: false
XAxis mode: Wavelengths
Number of Pixels in Spectrum: 1024
>>>>>Begin Spectral Data<<<<<
801.071	8027
801.214	7993
801.356	7868
801.499	7822
801.641	7765
801.783	7818
801.926	8001
802.068	7925
802.211	7959
802.353	8020
802.496	7772
802.638	7879
802.78	7871
802.923	7959
803.065	7833
803.208	7849
803.35	7917
803.492	8081
803.635	8195
803.777	7955
803.919	8138
804.061	8492
804.204	8172
804.346	8065
804.488	7951
804.63	8126
804.773	8054
804.915	8107
805.057	8320
805.199	8176
805.341	8202
805.483	8237
805.626	8107
805.768	8081
805.91	8191
806.052	8218
806.194	8123
806.336	8305
806.478	8107
806.62	7997
806.762	8050
806.904	8195
807.046	8438
807.188	8347
807.33	8279
807.472	8267
807.614	8164
807.756	8035
807.898	8001
808.04	7890
808.182	7868
808.324	7875
808.465	7909
808.607	8020
808.749	8138
808.891	8145
809.033	8412
809.174	8161
809.316	8050
809.458	8050
809.6	7959
809.741	8008
809.883	8020
810.025	8073
810.166	8031
810.308	8077
810.45	7967
810.591	7864
810.733	7727
810.875	7620
811.016	7514
811.158	7460
811.299	7571
811.441	7632
811.582	7643
811.724	7544
811.865	7476
812.007	7575
812.148	7582
812.29	7628
812.431	7723
812.573	7951
812.714	7970
812.855	8035
812.997	8199
813.138	8313
813.279	8145
813.421	8073
813.562	8035
813.703	7811
813.845	7803
813.986	7453
814.127	7175
814.268	7236
814.41	7171
814.551	7091
814.692	7183
814.833	7038
814.974	7072
815.115	7053
815.256	6882
815.397	6909
815.539	6905
815.68	6795
815.821	6772
815.962	6894
816.103	6863
816.244	6650
816.385	6639
816.526	6616
816.666	6494
816.807	6239
816.948	6475
817.089	6540
817.23	6422
817.371	6365
817.512	6391
817.653	6391
817.793	6342
817.934	6460
818.075	6460
818.216	6418
818.356	6407
818.497	6262
818.638	6095
818.778	6133
818.919	6171
819.06	6110
819.2	6296
819.341	6315
819.481	6350
819.622	6547
819.762	6700
819.903	6757
820.043	6604
820.184	6555
820.324	6566
820.465	6738
820.605	6627
820.746	6620
820.886	6513
821.026	6677
821.167	6692
821.307	6806
821.447	6715
821.588	6612
821.728	6528
821.868	6460
822.008	6292
822.149	6357
822.289	6338
822.429	6205
822.569	6060
822.709	6129
822.849	5893
822.99	5935
823.13	5935
823.27	5901
823.41	5745
823.55	5752
823.69	5790
823.83	5775
823.97	5672
824.11	5532
824.25	5486
824.389	5539
824.529	5532
824.669	5509
824.809	5600
824.949	5661
825.089	5634
825.228	5589
825.368	5436
825.508	5326
825.648	5368
825.787	5379
825.927	5326
826.067	5277
826.206	5258
826.346	5387
826.485	5372
826.625	5349
826.765	5551
826.904	5448
827.044	5235
827.183	5121
827.323	5193
827.462	5242
827.601	5162
827.741	5178
827.88	5265
828.02	5132
828.159	5227
828.298	5258
828.437	5322
828.577	5311
828.716	5471
828.855	5299
828.994	5140
829.134	5147
829.273	5181
829.412	5128
829.551	5166
829.69	5128
829.829	5242
829.968	5341
830.107	5239
830.246	5303
830.385	5136
830.524	5147
830.663	5098
830.802	4911
830.941	4885
831.08	4870
831.219	4999
831.357	4976
831.496	5151
831.635	4946
831.774	4824
831.913	4828
832.051	4763
832.19	4786
832.329	4877
832.467	4683
832.606	4637
832.744	4691
832.883	4744
833.022	4729
833.16	4812
833.299	4835
833.437	4828
833.576	4793
833.714	4824
833.852	4843
833.991	4904
834.129	4972
834.267	4957
834.406	4889
834.544	4968
834.682	4961
834.821	4934
834.959	5166
835.097	5006
835.235	5140
835.373	5121
835.511	5083
835.65	5029
835.788	5018
835.926	4896
836.064	4866
836.202	4915
836.34	5105
836.478	5151
836.615	5094
836.753	5208
836.891	5303
837.029	5212
837.167	5189
837.305	5102
837.443	5140
837.58	5037
837.718	5242
837.856	5197
837.993	5147
838.131	5239
838.269	5166
838.406	5174
838.544	5132
838.681	4965
838.819	5045
838.956	4911
839.094	4858
839.231	4965
839.369	5056
839.506	5395
839.643	5250
839.781	5079
839.918	5006
840.055	5086
840.193	5113
840.33	5109
840.467	5147
840.604	5155
840.742	5452
840.879	5086
841.016	5067
841.153	5170
841.29	5330
841.427	5311
841.564	5246
841.701	5337
841.838	5235
841.975	5265
842.112	5235
842.249	5071
842.385	5105
842.522	5334
842.659	5147
842.796	5132
842.933	5155
843.069	5136
843.206	5098
843.343	5261
843.479	5216
843.616	5197
843.752	4965
843.889	5014
844.025	5201
844.162	5022
844.298	5185
844.435	5090
844.571	5083
844.708	5189
844.844	5227
844.98	5288
845.117	5269
845.253	5143
845.389	5075
845.525	5162
845.661	5132
845.798	5037
845.934	5086
846.07	5048
846.206	5162
846.342	5254
846.478	5098
846.614	5029
846.75	4927
846.886	4949
847.022	5159
847.158	5014
847.294	5056
847.429	5033
847.565	4953
847.701	5292
847.837	4881
847.972	4767
848.108	4961
848.244	4942
848.379	4736
848.515	4679
848.65	4736
848.786	4763
848.921	4778
849.057	4748
849.192	4866
849.328	4839
849.463	4809
849.598	4774
849.734	4786
849.869	4691
850.004	4641
850.14	4664
850.275	4618
850.41	4519
850.545	4542
850.68	4618
850.815	4622
850.95	4611
851.085	4843
851.22	4714
851.355	4714
851.49	4626
851.625	4603
851.76	4615
851.895	4538
852.03	4519
852.165	4596
852.299	4725
852.434	4744
852.569	4698
852.703	4755
852.838	4774
852.973	4900
853.107	4866
853.242	4744
853.376	4679
853.511	4504
853.645	4546
853.78	4774
853.914	4672
854.048	4668
854.183	4679
854.317	4698
854.451	4828
854.585	4630
854.72	4607
854.854	4698
854.988	4519
855.122	4603
855.256	4485
855.39	4618
855.524	4752
855.658	4691
855.792	4706
855.926	4733
856.06	4782
856.194	4771
856.327	4645
856.461	4584
856.595	4592
856.729	4603
856.862	4675
856.996	4687
857.13	4694
857.263	4752
857.397	4790
857.53	4656
857.664	4694
857.797	4729
857.931	4748
858.064	4675
858.197	4736
858.331	4618
858.464	4649
858.597	4542
858.731	4649
858.864	4618
858.997	4679
859.13	4641
859.263	4664
859.396	4683
859.529	4641
859.662	4554
859.795	4512
859.928	4599
860.061	4744
860.194	4733
860.327	4618
860.46	4512
860.592	4691
860.725	4714
860.858	4706
860.99	4565
861.123	4523
861.256	4485
861.388	4622
861.521	5258
861.653	4466
861.786	4424
861.918	4405
862.05	4455
862.183	4554
862.315	4641
862.447	4672
862.58	4535
862.712	4409
862.844	4333
862.976	4417
863.108	4481
863.24	4850
863.372	4341
863.504	4383
863.636	4348
863.768	4432
863.9	4443
864.032	4337
864.164	4417
864.296	4459
864.428	4554
864.559	4573
864.691	4558
864.823	4485
864.954	4478
865.086	4485
865.217	4432
865.349	4459
865.48	4462
865.612	4481
865.743	4641
865.875	4470
866.006	4421
866.137	4474
866.269	4443
866.4	4394
866.531	4436
866.662	4363
866.793	4402
866.924	4421
867.055	4481
867.186	4451
867.317	4371
867.448	4329
867.579	4337
867.71	4367
867.841	4352
867.972	4459
868.103	4436
868.233	4440
868.364	4516
868.495	4474
868.625	4714
868.756	4721
868.886	4546
869.017	4565
869.147	4755
869.278	4786
869.408	4607
869.539	4596
869.669	4702
869.799	4630
869.929	4767
870.06	4740
870.19	4965
870.32	4919
870.45	4934
870.58	4953
870.71	5052
870.84	5067
870.97	4938
871.1	4873
871.23	5113
871.36	5113
871.489	5029
871.619	5086
871.749	5067
871.879	5113
872.008	5132
872.138	5086
872.267	4923
872.397	4835
872.526	4812
872.656	4675
872.785	4759
872.915	4953
873.044	5022
873.173	4923
873.303	4987
873.432	4915
873.561	4968
873.69	4847
873.819	4812
873.948	4877
874.077	4831
874.206	4733
874.335	4816
874.464	4923
874.593	5033
874.722	4953
874.851	5105
874.979	5025
875.108	5022
875.237	4923
875.365	4896
875.494	4881
875.623	4953
875.751	4812
875.88	4889
876.008	4938
876.136	4984
876.265	5151
876.393	5318
876.521	5250
876.65	5193
876.778	5117
876.906	5025
877.034	4995
877.162	5109
877.29	4957
877.418	5033
877.546	5025
877.674	4995
877.802	5029
877.93	5010
878.058	4911
878.185	4839
878.313	4908
878.441	4919
878.568	4755
878.696	4911
878.824	4908
878.951	4976
879.079	5071
879.206	5288
879.333	5060
879.461	4991
879.588	5018
879.715	5060
879.842	5208
879.97	4976
880.097	4767
880.224	4793
880.351	4805
880.478	4809
880.605	4801
880.732	4797
880.859	5045
880.986	4885
881.112	4877
881.239	4752
881.366	4694
881.493	4558
881.619	4592
881.746	4641
881.872	4660
881.999	4622
882.125	4691
882.252	4774
882.378	4824
882.505	4946
882.631	4771
882.757	4672
882.883	4698
883.01	4675
883.136	4634
883.262	4569
883.388	4622
883.514	4847
883.64	4862
883.766	4774
883.892	4687
884.018	4714
884.143	4850
884.269	4976
884.395	4694
884.52	4580
884.646	4660
884.772	4592
884.897	4580
885.023	4618
885.148	4733
885.274	4854
885.399	4786
885.524	4733
885.65	4721
885.775	4717
885.9	4683
886.025	4843
886.15	4835
886.275	4736
886.4	4615
886.525	4755
886.65	4702
886.775	4687
886.9	4881
887.025	5006
887.149	4812
887.274	4672
887.399	4527
887.523	4584
887.648	4592
887.773	4546
887.897	4729
888.021	4755
888.146	4653
888.27	4778
888.395	4919
888.519	4797
888.643	4755
888.767	4835
888.891	4710
889.015	4588
889.139	4641
889.263	4611
889.387	4744
889.511	4820
889.635	4828
889.759	4634
889.883	4607
890.006	4691
890.13	4828
890.254	4596
890.377	4694
890.501	4493
890.624	4512
890.748	4618
890.871	4500
890.995	4424
891.118	4386
891.241	4546
891.364	4535
891.488	4622
891.611	4516
891.734	4626
891.857	4584
891.98	4504
892.103	4626
892.226	4580
892.349	4504
892.471	4428
892.594	4538
892.717	4565
892.839	4561
892.962	4580
893.085	4660
893.207	4603
893.33	4462
893.452	4531
893.575	4649
893.697	4592
893.819	4816
893.941	4759
894.064	4797
894.186	4577
894.308	4493
894.43	4744
894.552	4805
894.674	4725
894.796	4516
894.918	4611
895.04	4573
895.161	4649
895.283	4618
895.405	4584
895.526	4622
895.648	4744
895.769	4679
895.891	4744
896.012	4717
896.134	4763
896.255	4618
896.376	4656
896.498	4577
896.619	4630
896.74	4596
896.861	4645
896.982	4930
897.103	5052
897.224	4778
897.345	4733
897.466	4611
897.587	4675
897.708	4835
897.828	4744
897.949	4675
898.07	4588
898.19	4615
898.311	4782
898.431	4626
898.552	4736
898.672	4820
898.792	4786
898.913	4752
899.033	4637
899.153	4508
899.273	4432
899.393	4508
899.513	4504
899.633	4531
899.753	4504
899.873	4550
899.993	4558
900.113	4485
900.232	4516
900.352	4516
900.472	4474
900.591	4398
900.711	4493
900.83	4428
900.95	4622
901.069	4664
901.189	4489
901.308	4310
901.427	4291
901.546	4386
901.665	4409
901.784	4516
901.904	4394
902.023	4287
902.141	4192
902.26	4158
902.379	4261
902.498	4295
902.617	4223
902.735	4344
902.854	4402
902.973	4352
903.091	4173
903.21	4230
903.328	4249
903.446	4272
903.565	4211
903.683	4333
903.801	4265
903.919	4314
904.038	4417
904.156	4325
904.274	4398
904.392	4375
904.51	4413
904.627	4447
904.745	4554
904.863	4645
904.981	4394
905.098	4325
905.216	4344
905.334	4409
905.451	4390
905.569	4428
905.686	4497
905.803	4577
905.921	4440
906.038	4512
906.155	4462
906.272	4402
906.389	4409
906.506	4344
906.623	4314
906.74	4337
906.857	4333
906.974	4405
907.091	4519
907.208	4668
907.324	4599
907.441	4455
907.557	4348
907.674	4333
907.79	4314
907.907	4363
908.023	4481
908.139	4424
908.256	4405
908.372	4443
908.488	4459
908.604	4344
908.72	4303
908.836	4333
908.952	4318
909.068	4390
909.184	4546
909.3	4459
909.415	4573
909.531	4584
909.647	4386
909.762	4371
909.878	4344
909.993	4428
910.108	4390
910.224	4405
910.339	4500
910.454	4417
910.57	4379
910.685	4329
910.8	4645
910.915	4580
911.03	4478
911.145	4280
911.259	4272
911.374	4314
911.489	4257
911.604	4253
911.718	4188
911.833	4211
911.947	4055
912.062	4010
912.176	4211
912.291	4223
912.405	4287
912.519	4485
912.633	4504
912.748	4409
912.862	4306
912.976	4207
913.09	4131
913.204	4139
913.318	4242
913.431	4383
913.545	4322
913.659	4405
913.772	4322
913.886	4276
914	4215
914.113	4352
914.226	4436
914.34	4424
914.453	4227
914.566	4394
914.68	4295
914.793	4325
914.906	4147
915.019	4109
915.132	4116
915.245	4173
915.358	4227
915.47	4204
915.583	4272
915.696	4325
915.809	4394
915.921	4451
916.034	4238
916.146	4230
916.259	4204
916.371	4318
916.483	4333
916.595	4230
916.708	4318
916.82	4318
916.932	4352
917.044	4329
917.156	4284
917.268	4265
917.38	4249
917.491	4211
917.603	4344
917.715	4417
917.826	4462
917.938	4303
918.049	4280
918.161	4432
918.272	4565
918.384	4512
918.495	4398
918.606	4291
918.717	4207
918.828	4367
918.939	4367
919.05	4257
919.161	4287
919.272	4120
919.383	4181
919.494	4424
919.604	4618
919.715	4402
919.826	4344
919.936	4409
920.047	4493
920.157	4485
920.267	4740
920.378	4523
920.488	4519
920.598	4729
920.708	4877
920.818	4717
920.928	4733
921.038	4984
921.148	4896
921.258	4584
921.368	4527
921.477	4508
921.587	4459
921.697	4356
921.806	4519
921.916	4436
922.025	4257
922.134	4280
922.244	4158
922.353	4402
922.462	4139
922.571	4101
922.68	3991
922.789	3987
922.898	4074
923.007	3972
923.116	4093
923.224	4055
923.333	4059
923.442	3987
923.55	3983
923.659	4010
923.767	4090
923.876	3991
923.984	4147
924.092	3960
924.201	4021
924.309	4101
924.417	4112
924.525	4048
924.633	4112
924.741	4995
924.849	3915
924.956	4101
925.064	3983
925.172	3899
925.279	3956
925.387	4055
925.494	4040
925.602	4211
925.709	4185
925.816	4063
925.924	4059
926.031	4188
926.138	4120
926.245	4185
926.352	4063
926.459	4238
926.566	4272
926.673	4173
926.779	4063
926.886	4051
926.993	3979
927.099	3926
927.206	3926
927.312	3911
927.419	4010
927.525	4006
927.631	4044
927.737	3949
927.843	3968
927.95	3873
928.056	3903
928.162	3991
928.267	4029
928.373	4664
928.479	4105
928.585	3880
928.69	4036
928.796	4082
928.901	3972
929.007	3816
929.112	4002
929.218	3949
929.323	3922
929.428	3930
929.533	4048
929.638	3911
929.743	3911
929.848	4021
929.953	3949
930.058	3918
930.163	3800
930.267	3781
930.372	3975
930.477	3816
930.581	4086
930.685	3979
930.79	3797
930.894	3884
930.998	3850
931.103	4021
931.207	3713
931.311	3660
931.415	3656
931.519	3500
931.623	3553
