Data from test_V78500241_980.txt Node
Date: Fri Mar 25 16:55:48 CST 2022
User: usil
Spectrometer: V785-0024
Trigger mode: 0
Integration Time (sec): 4.000000E-1
Scans to average: 1
Nonlinearity correction enabled: false
Boxcar width: 0
Storing dark spectrum: false
XAxis mode: Wavelengths
Number of Pixels in Spectrum: 1024
>>>>>Begin Spectral Data<<<<<
801.071	8043
801.214	8024
801.356	7822
801.499	7837
801.641	7753
801.783	7868
801.926	7967
802.068	7936
802.211	7970
802.353	7944
802.496	7875
802.638	7864
802.78	7906
802.923	7921
803.065	7818
803.208	7833
803.35	8001
803.492	8123
803.635	8130
803.777	7978
803.919	8092
804.061	8450
804.204	8119
804.346	8058
804.488	7875
804.63	8111
804.773	8001
804.915	8069
805.057	8256
805.199	8115
805.341	8103
805.483	8237
805.626	8195
805.768	8092
805.91	8191
806.052	8164
806.194	8024
806.336	8263
806.478	8062
806.62	8077
806.762	8123
806.904	8263
807.046	8446
807.188	8320
807.33	8362
807.472	8347
807.614	8168
807.756	8142
807.898	7902
808.04	7856
808.182	7932
808.324	7856
808.465	7807
808.607	7997
808.749	8103
808.891	8138
809.033	8275
809.174	8206
809.316	8073
809.458	8024
809.6	7936
809.741	8092
809.883	8043
810.025	8043
810.166	8027
810.308	8024
810.45	7978
810.591	7875
810.733	7693
810.875	7601
811.016	7506
811.158	7388
811.299	7559
811.441	7677
811.582	7639
811.724	7552
811.865	7559
812.007	7605
812.148	7575
812.29	7529
812.431	7734
812.573	7837
812.714	7963
812.855	8069
812.997	8202
813.138	8317
813.279	8202
813.421	8103
813.562	7982
813.703	7871
813.845	7738
813.986	7495
814.127	7305
814.268	7164
814.41	7236
814.551	7145
814.692	7080
814.833	7000
814.974	7042
815.115	7038
815.256	6985
815.397	6867
815.539	6928
815.68	6795
815.821	6783
815.962	6829
816.103	6840
816.244	6738
816.385	6681
816.526	6646
816.666	6517
816.807	6243
816.948	6433
817.089	6479
817.23	6460
817.371	6403
817.512	6414
817.653	6350
817.793	6437
817.934	6471
818.075	6483
818.216	6399
818.356	6369
818.497	6247
818.638	6114
818.778	6167
818.919	6152
819.06	6182
819.2	6277
819.341	6296
819.481	6414
819.622	6563
819.762	6715
819.903	6696
820.043	6563
820.184	6582
820.324	6589
820.465	6662
820.605	6692
820.746	6639
820.886	6494
821.026	6658
821.167	6700
821.307	6791
821.447	6730
821.588	6665
821.728	6559
821.868	6471
822.008	6266
822.149	6384
822.289	6338
822.429	6095
822.569	6083
822.709	6079
822.849	5904
822.99	5916
823.13	5939
823.27	5931
823.41	5794
823.55	5729
823.69	5714
823.83	5748
823.97	5661
824.11	5592
824.25	5471
824.389	5539
824.529	5566
824.669	5516
824.809	5573
824.949	5619
825.089	5570
825.228	5592
825.368	5353
825.508	5330
825.648	5307
825.787	5406
825.927	5345
826.067	5258
826.206	5311
826.346	5368
826.485	5372
826.625	5421
826.765	5516
826.904	5452
827.044	5197
827.183	5170
827.323	5174
827.462	5212
827.601	5170
827.741	5204
827.88	5216
828.02	5067
828.159	5170
828.298	5326
828.437	5322
828.577	5235
828.716	5440
828.855	5330
828.994	5189
829.134	5113
829.273	5193
829.412	5090
829.551	5132
829.69	5121
829.829	5246
829.968	5379
830.107	5261
830.246	5235
830.385	5181
830.524	5136
830.663	5048
830.802	4961
830.941	4904
831.08	4831
831.219	4965
831.357	4961
831.496	5162
831.635	4900
831.774	4824
831.913	4858
832.051	4748
832.19	4744
832.329	4782
832.467	4698
832.606	4641
832.744	4679
832.883	4687
833.022	4702
833.16	4812
833.299	4759
833.437	4824
833.576	4835
833.714	4854
833.852	4873
833.991	4896
834.129	4953
834.267	4949
834.406	4892
834.544	4953
834.682	4957
834.821	5006
834.959	5162
835.097	4946
835.235	5136
835.373	5056
835.511	5086
835.65	5018
835.788	4999
835.926	4892
836.064	4854
836.202	4908
836.34	5140
836.478	5246
836.615	5140
836.753	5140
836.891	5273
837.029	5208
837.167	5212
837.305	5151
837.443	5132
837.58	5083
837.718	5235
837.856	5189
837.993	5162
838.131	5223
838.269	5174
838.406	5197
838.544	5216
838.681	5022
838.819	5010
838.956	4881
839.094	4866
839.231	4972
839.369	5064
839.506	5391
839.643	5258
839.781	5045
839.918	5014
840.055	5067
840.193	5045
840.33	5083
840.467	5064
840.604	5166
840.742	5421
840.879	5041
841.016	5113
841.153	5147
841.29	5383
841.427	5337
841.564	5235
841.701	5303
841.838	5246
841.975	5223
842.112	5250
842.249	5121
842.385	5098
842.522	5292
842.659	5143
842.796	5098
842.933	5170
843.069	5075
843.206	5151
843.343	5261
843.479	5231
843.616	5220
843.752	5022
843.889	4965
844.025	5250
844.162	5006
844.298	5216
844.435	5060
844.571	5029
844.708	5185
844.844	5299
844.98	5334
845.117	5235
845.253	5132
845.389	5067
845.525	5189
845.661	5121
845.798	5025
845.934	5094
846.07	5014
846.206	5208
846.342	5277
846.478	5181
846.614	5018
846.75	4923
846.886	4957
847.022	5128
847.158	5018
847.294	5033
847.429	5155
847.565	5014
847.701	5337
847.837	4881
847.972	4771
848.108	4946
848.244	4919
848.379	4717
848.515	4675
848.65	4687
848.786	4717
848.921	4774
849.057	4850
849.192	4938
849.328	4805
849.463	4843
849.598	4748
849.734	4763
849.869	4694
850.004	4584
850.14	4637
850.275	4588
850.41	4504
850.545	4527
850.68	4584
850.815	4653
850.95	4611
851.085	4786
851.22	4725
851.355	4702
851.49	4649
851.625	4569
851.76	4664
851.895	4550
852.03	4542
852.165	4660
852.299	4694
852.434	4790
852.569	4714
852.703	4763
852.838	4790
852.973	4930
853.107	4942
853.242	4725
853.376	4668
853.511	4535
853.645	4603
853.78	4740
853.914	4622
854.048	4702
854.183	4679
854.317	4714
854.451	4866
854.585	4660
854.72	4626
854.854	4755
854.988	4565
855.122	4634
855.256	4519
855.39	4618
855.524	4755
855.658	4748
855.792	4679
855.926	4710
856.06	4702
856.194	4759
856.327	4702
856.461	4618
856.595	4622
856.729	4637
856.862	4729
856.996	4649
857.13	4763
857.263	4774
857.397	4767
857.53	4653
857.664	4668
857.797	4755
857.931	4729
858.064	4702
858.197	4717
858.331	4641
858.464	4565
858.597	4497
858.731	4596
858.864	4691
858.997	4599
859.13	4668
859.263	4649
859.396	4668
859.529	4569
859.662	4573
859.795	4588
859.928	4599
860.061	4763
860.194	4729
860.327	4611
860.46	4542
860.592	4668
860.725	4691
860.858	4725
860.99	4554
861.123	4523
861.256	4523
861.388	4622
861.521	5204
861.653	4497
861.786	4474
861.918	4478
862.05	4535
862.183	4512
862.315	4523
862.447	4615
862.58	4523
862.712	4390
862.844	4344
862.976	4500
863.108	4432
863.24	4877
863.372	4261
863.504	4405
863.636	4432
863.768	4481
863.9	4394
864.032	4341
864.164	4386
864.296	4436
864.428	4519
864.559	4516
864.691	4485
864.823	4550
864.954	4512
865.086	4497
865.217	4424
865.349	4375
865.48	4409
865.612	4455
865.743	4550
865.875	4447
866.006	4405
866.137	4459
866.269	4462
866.4	4451
866.531	4371
866.662	4398
866.793	4402
866.924	4398
867.055	4508
867.186	4455
867.317	4440
867.448	4390
867.579	4390
867.71	4371
867.841	4371
867.972	4459
868.103	4390
868.233	4455
868.364	4432
868.495	4500
868.625	4672
868.756	4725
868.886	4550
869.017	4588
869.147	4736
869.278	4759
869.408	4637
869.539	4592
869.669	4706
869.799	4649
869.929	4717
870.06	4717
870.19	5003
870.32	4908
870.45	4885
870.58	4927
870.71	5075
870.84	5079
870.97	4930
871.1	4843
871.23	5109
871.36	5102
871.489	5052
871.619	5010
871.749	5090
871.879	5102
872.008	5117
872.138	5014
872.267	4923
872.397	4835
872.526	4782
872.656	4691
872.785	4790
872.915	4953
873.044	5048
873.173	4946
873.303	4930
873.432	4934
873.561	4946
873.69	4854
873.819	4820
873.948	4896
874.077	4805
874.206	4771
874.335	4793
874.464	4877
874.593	5003
874.722	4915
874.851	5128
874.979	5067
875.108	5014
875.237	4900
875.365	4866
875.494	4854
875.623	4968
875.751	4809
875.88	4866
876.008	4972
876.136	5052
876.265	5178
876.393	5353
876.521	5258
876.65	5159
876.778	5189
876.906	5060
877.034	4999
877.162	5003
877.29	4938
877.418	5056
877.546	4995
877.674	5033
877.802	5010
877.93	5022
878.058	4946
878.185	4835
878.313	4961
878.441	4911
878.568	4805
878.696	4877
878.824	4976
878.951	4957
879.079	5098
879.206	5303
879.333	5056
879.461	4930
879.588	5006
879.715	5064
879.842	5193
879.97	4965
880.097	4797
880.224	4702
880.351	4839
880.478	4816
880.605	4767
880.732	4850
880.859	5083
880.986	4866
881.112	4900
881.239	4790
881.366	4660
881.493	4649
881.619	4603
881.746	4611
881.872	4618
881.999	4580
882.125	4694
882.252	4812
882.378	4839
882.505	4927
882.631	4839
882.757	4637
882.883	4771
883.01	4725
883.136	4622
883.262	4596
883.388	4561
883.514	4801
883.64	4824
883.766	4778
883.892	4603
884.018	4706
884.143	4873
884.269	4942
884.395	4656
884.52	4656
884.646	4565
884.772	4596
884.897	4558
885.023	4618
885.148	4767
885.274	4866
885.399	4839
885.524	4714
885.65	4660
885.775	4717
885.9	4660
886.025	4866
886.15	4824
886.275	4706
886.4	4645
886.525	4679
886.65	4672
886.775	4672
886.9	4900
887.025	4961
887.149	4809
887.274	4653
887.399	4565
887.523	4599
887.648	4538
887.773	4573
887.897	4710
888.021	4793
888.146	4656
888.27	4790
888.395	4896
888.519	4809
888.643	4774
888.767	4778
888.891	4656
889.015	4592
889.139	4618
889.263	4599
889.387	4752
889.511	4889
889.635	4778
889.759	4653
889.883	4649
890.006	4721
890.13	4805
890.254	4607
890.377	4641
890.501	4554
890.624	4481
890.748	4603
890.871	4500
890.995	4436
891.118	4337
891.241	4478
891.364	4523
891.488	4637
891.611	4459
891.734	4531
891.857	4561
891.98	4546
892.103	4626
892.226	4577
892.349	4527
892.471	4421
892.594	4565
892.717	4565
892.839	4535
892.962	4573
893.085	4615
893.207	4599
893.33	4451
893.452	4500
893.575	4675
893.697	4596
893.819	4767
893.941	4812
894.064	4790
894.186	4618
894.308	4580
894.43	4702
894.552	4816
894.674	4702
894.796	4535
894.918	4523
895.04	4561
895.161	4653
895.283	4645
895.405	4577
895.526	4611
895.648	4710
895.769	4668
895.891	4691
896.012	4725
896.134	4683
896.255	4615
896.376	4615
896.498	4615
896.619	4622
896.74	4611
896.861	4645
896.982	4908
897.103	5086
897.224	4812
897.345	4740
897.466	4637
897.587	4717
897.708	4797
897.828	4771
897.949	4653
898.07	4584
898.19	4664
898.311	4774
898.431	4656
898.552	4729
898.672	4793
898.792	4805
898.913	4710
899.033	4596
899.153	4489
899.273	4409
899.393	4462
899.513	4500
899.633	4462
899.753	4519
899.873	4508
899.993	4550
900.113	4485
900.232	4535
900.352	4538
900.472	4451
900.591	4363
900.711	4485
900.83	4485
900.95	4550
901.069	4672
901.189	4485
901.308	4310
901.427	4318
901.546	4348
901.665	4428
901.784	4497
901.904	4341
902.023	4287
902.141	4192
902.26	4166
902.379	4276
902.498	4223
902.617	4207
902.735	4329
902.854	4371
902.973	4383
903.091	4181
903.21	4219
903.328	4329
903.446	4261
903.565	4219
903.683	4337
903.801	4246
903.919	4375
904.038	4470
904.156	4314
904.274	4428
904.392	4398
904.51	4390
904.627	4447
904.745	4542
904.863	4615
904.981	4417
905.098	4325
905.216	4360
905.334	4440
905.451	4436
905.569	4436
905.686	4565
905.803	4558
905.921	4440
906.038	4538
906.155	4432
906.272	4394
906.389	4428
906.506	4341
906.623	4417
906.74	4375
906.857	4310
906.974	4424
907.091	4558
907.208	4733
907.324	4637
907.441	4519
907.557	4352
907.674	4348
907.79	4333
907.907	4474
908.023	4523
908.139	4500
908.256	4440
908.372	4481
908.488	4519
908.604	4383
908.72	4375
908.836	4409
908.952	4390
909.068	4424
909.184	4573
909.3	4531
909.415	4618
909.531	4577
909.647	4386
909.762	4417
909.878	4337
909.993	4470
910.108	4466
910.224	4447
910.339	4523
910.454	4432
910.57	4402
910.685	4303
910.8	4710
910.915	4596
911.03	4489
911.145	4383
911.259	4409
911.374	4432
911.489	4379
911.604	4299
911.718	4200
911.833	4230
911.947	4109
912.062	4048
912.176	4253
912.291	4280
912.405	4276
912.519	4478
912.633	4519
912.748	4386
912.862	4352
912.976	4230
913.09	4124
913.204	4223
913.318	4310
913.431	4417
913.545	4409
913.659	4504
913.772	4402
913.886	4268
914	4280
914.113	4462
914.226	4508
914.34	4432
914.453	4265
914.566	4432
914.68	4333
914.793	4344
914.906	4150
915.019	4169
915.132	4105
915.245	4215
915.358	4230
915.47	4234
915.583	4303
915.696	4333
915.809	4424
915.921	4478
916.034	4272
916.146	4295
916.259	4299
916.371	4413
916.483	4394
916.595	4306
916.708	4356
916.82	4333
916.932	4383
917.044	4348
917.156	4352
917.268	4234
917.38	4337
917.491	4310
917.603	4356
917.715	4459
917.826	4485
917.938	4394
918.049	4287
918.161	4436
918.272	4603
918.384	4588
918.495	4440
918.606	4310
918.717	4215
918.828	4341
918.939	4417
919.05	4280
919.161	4333
919.272	4120
919.383	4265
919.494	4481
919.604	4702
919.715	4455
919.826	4390
919.936	4421
920.047	4546
920.157	4519
920.267	4755
920.378	4592
920.488	4516
920.598	4729
920.708	4927
920.818	4740
920.928	4744
921.038	4946
921.148	4930
921.258	4645
921.368	4561
921.477	4508
921.587	4489
921.697	4424
921.806	4618
921.916	4451
922.025	4265
922.134	4291
922.244	4261
922.353	4360
922.462	4143
922.571	4150
922.68	4097
922.789	4063
922.898	4059
923.007	3991
923.116	4093
923.224	4097
923.333	4067
923.442	4051
923.55	4059
923.659	4051
923.767	4128
923.876	4036
923.984	4158
924.092	4021
924.201	4112
924.309	4086
924.417	4150
924.525	4051
924.633	4139
924.741	5064
924.849	3934
924.956	4173
925.064	4006
925.172	3960
925.279	3983
925.387	4097
925.494	4101
925.602	4257
925.709	4177
925.816	4097
925.924	4158
926.031	4242
926.138	4188
926.245	4234
926.352	4097
926.459	4249
926.566	4299
926.673	4196
926.779	4101
926.886	4078
926.993	3991
927.099	3979
927.206	3983
927.312	3934
927.419	4078
927.525	4044
927.631	4131
927.737	3960
927.843	3983
927.95	3876
928.056	3979
928.162	4025
928.267	4067
928.373	4725
928.479	4131
928.585	3899
928.69	4086
928.796	4128
928.901	4032
929.007	3888
929.112	4010
929.218	3994
929.323	3949
929.428	3975
929.533	4128
929.638	3922
929.743	3983
929.848	4025
929.953	3987
930.058	3918
930.163	3793
930.267	3873
930.372	3949
930.477	3846
930.581	4101
930.685	3949
930.79	3835
930.894	3960
930.998	3884
931.103	4078
931.207	3751
931.311	3743
931.415	3686
931.519	3496
931.623	3603
