Data from test_V78500241_2489.txt Node
Date: Fri Mar 25 17:06:18 CST 2022
User: usil
Spectrometer: V785-0024
Trigger mode: 0
Integration Time (sec): 4.000000E-1
Scans to average: 1
Nonlinearity correction enabled: false
Boxcar width: 0
Storing dark spectrum: false
XAxis mode: Wavelengths
Number of Pixels in Spectrum: 1024
>>>>>Begin Spectral Data<<<<<
801.071	7974
801.214	8043
801.356	7909
801.499	7822
801.641	7769
801.783	7875
801.926	8012
802.068	7913
802.211	7986
802.353	7959
802.496	7868
802.638	7852
802.78	7970
802.923	7887
803.065	7845
803.208	7890
803.35	7921
803.492	8077
803.635	8176
803.777	8012
803.919	8183
804.061	8454
804.204	8107
804.346	8065
804.488	7951
804.63	8134
804.773	8012
804.915	8115
805.057	8275
805.199	8130
805.341	8199
805.483	8279
805.626	8233
805.768	8180
805.91	8195
806.052	8229
806.194	8142
806.336	8237
806.478	8130
806.62	8119
806.762	8180
806.904	8298
807.046	8526
807.188	8256
807.33	8309
807.472	8282
807.614	8180
807.756	8145
807.898	8046
808.04	7864
808.182	7871
808.324	7921
808.465	7898
808.607	8065
808.749	8149
808.891	8271
809.033	8317
809.174	8180
809.316	8020
809.458	8096
809.6	7993
809.741	8088
809.883	8012
810.025	8126
810.166	8073
810.308	8046
810.45	7997
810.591	7898
810.733	7742
810.875	7639
811.016	7575
811.158	7483
811.299	7658
811.441	7772
811.582	7700
811.724	7616
811.865	7548
812.007	7597
812.148	7704
812.29	7590
812.431	7811
812.573	7879
812.714	7925
812.855	8111
812.997	8180
813.138	8347
813.279	8138
813.421	8081
813.562	7986
813.703	7879
813.845	7792
813.986	7460
814.127	7213
814.268	7251
814.41	7251
814.551	7225
814.692	7274
814.833	7110
814.974	7122
815.115	7133
815.256	6958
815.397	6920
815.539	6928
815.68	6818
815.821	6783
815.962	6871
816.103	6901
816.244	6677
816.385	6589
816.526	6623
816.666	6540
816.807	6334
816.948	6475
817.089	6479
817.23	6353
817.371	6372
817.512	6391
817.653	6437
817.793	6376
817.934	6372
818.075	6479
818.216	6479
818.356	6395
818.497	6277
818.638	6129
818.778	6171
818.919	6114
819.06	6125
819.2	6338
819.341	6331
819.481	6403
819.622	6490
819.762	6760
819.903	6730
820.043	6570
820.184	6578
820.324	6566
820.465	6696
820.605	6711
820.746	6662
820.886	6574
821.026	6662
821.167	6760
821.307	6814
821.447	6741
821.588	6741
821.728	6627
821.868	6563
822.008	6319
822.149	6391
822.289	6346
822.429	6209
822.569	6098
822.709	6144
822.849	5977
822.99	5923
823.13	5950
823.27	5935
823.41	5817
823.55	5817
823.69	5783
823.83	5798
823.97	5668
824.11	5558
824.25	5562
824.389	5592
824.529	5615
824.669	5547
824.809	5688
824.949	5642
825.089	5615
825.228	5532
825.368	5425
825.508	5337
825.648	5398
825.787	5414
825.927	5376
826.067	5357
826.206	5261
826.346	5414
826.485	5429
826.625	5357
826.765	5570
826.904	5486
827.044	5258
827.183	5193
827.323	5204
827.462	5216
827.601	5204
827.741	5174
827.88	5242
828.02	5159
828.159	5258
828.298	5284
828.437	5372
828.577	5296
828.716	5512
828.855	5353
828.994	5174
829.134	5155
829.273	5197
829.412	5121
829.551	5170
829.69	5140
829.829	5204
829.968	5372
830.107	5273
830.246	5288
830.385	5204
830.524	5109
830.663	5083
830.802	4991
830.941	4881
831.08	4919
831.219	5010
831.357	4991
831.496	5170
831.635	4881
831.774	4915
831.913	4858
832.051	4725
832.19	4733
832.329	4839
832.467	4675
832.606	4622
832.744	4736
832.883	4698
833.022	4748
833.16	4774
833.299	4862
833.437	4824
833.576	4873
833.714	4873
833.852	4854
833.991	4942
834.129	5010
834.267	4919
834.406	4934
834.544	4957
834.682	4984
834.821	4968
834.959	5147
835.097	4987
835.235	5105
835.373	5037
835.511	5083
835.65	5071
835.788	5048
835.926	4923
836.064	4896
836.202	4923
836.34	5201
836.478	5246
836.615	5151
836.753	5216
836.891	5265
837.029	5265
837.167	5223
837.305	5143
837.443	5136
837.58	5094
837.718	5254
837.856	5197
837.993	5193
838.131	5220
838.269	5216
838.406	5185
838.544	5193
838.681	5079
838.819	5029
838.956	4946
839.094	4927
839.231	5029
839.369	5128
839.506	5417
839.643	5261
839.781	5071
839.918	5052
840.055	5113
840.193	5083
840.33	5098
840.467	5155
840.604	5193
840.742	5474
840.879	5037
841.016	5060
841.153	5136
841.29	5376
841.427	5364
841.564	5360
841.701	5364
841.838	5315
841.975	5250
842.112	5269
842.249	5136
842.385	5128
842.522	5341
842.659	5170
842.796	5174
842.933	5227
843.069	5193
843.206	5140
843.343	5292
843.479	5220
843.616	5269
843.752	5010
843.889	5045
844.025	5227
844.162	5079
844.298	5223
844.435	5105
844.571	5079
844.708	5261
844.844	5296
844.98	5353
845.117	5292
845.253	5185
845.389	5102
845.525	5151
845.661	5159
845.798	5121
845.934	5132
846.07	5067
846.206	5181
846.342	5303
846.478	5159
846.614	5064
846.75	4984
846.886	4934
847.022	5166
847.158	5003
847.294	5109
847.429	5086
847.565	5048
847.701	5288
847.837	4873
847.972	4831
848.108	4942
848.244	4965
848.379	4793
848.515	4790
848.65	4752
848.786	4767
848.921	4778
849.057	4839
849.192	4915
849.328	4816
849.463	4896
849.598	4801
849.734	4729
849.869	4691
850.004	4656
850.14	4645
850.275	4603
850.41	4584
850.545	4569
850.68	4588
850.815	4675
850.95	4611
851.085	4850
851.22	4778
851.355	4649
851.49	4565
851.625	4641
851.76	4656
851.895	4535
852.03	4569
852.165	4653
852.299	4698
852.434	4824
852.569	4733
852.703	4797
852.838	4835
852.973	4896
853.107	4946
853.242	4683
853.376	4687
853.511	4596
853.645	4607
853.78	4793
853.914	4660
854.048	4660
854.183	4668
854.317	4733
854.451	4858
854.585	4702
854.72	4637
854.854	4755
854.988	4618
855.122	4603
855.256	4558
855.39	4630
855.524	4733
855.658	4706
855.792	4683
855.926	4714
856.06	4778
856.194	4729
856.327	4691
856.461	4611
856.595	4592
856.729	4622
856.862	4729
856.996	4660
857.13	4733
857.263	4801
857.397	4763
857.53	4615
857.664	4767
857.797	4778
857.931	4755
858.064	4755
858.197	4702
858.331	4687
858.464	4565
858.597	4519
858.731	4656
858.864	4664
858.997	4538
859.13	4664
859.263	4656
859.396	4698
859.529	4569
859.662	4603
859.795	4535
859.928	4622
860.061	4778
860.194	4755
860.327	4561
860.46	4569
860.592	4679
860.725	4748
860.858	4721
860.99	4550
861.123	4512
861.256	4538
861.388	4588
861.521	5246
861.653	4500
861.786	4440
861.918	4409
862.05	4527
862.183	4546
862.315	4607
862.447	4630
862.58	4531
862.712	4413
862.844	4295
862.976	4447
863.108	4478
863.24	4881
863.372	4344
863.504	4436
863.636	4409
863.768	4481
863.9	4451
864.032	4371
864.164	4421
864.296	4459
864.428	4538
864.559	4538
864.691	4466
864.823	4500
864.954	4508
865.086	4538
865.217	4485
865.349	4390
865.48	4436
865.612	4527
865.743	4611
865.875	4451
866.006	4462
866.137	4474
866.269	4417
866.4	4428
866.531	4417
866.662	4386
866.793	4409
866.924	4443
867.055	4504
867.186	4409
867.317	4394
867.448	4367
867.579	4375
867.71	4383
867.841	4344
867.972	4459
868.103	4440
868.233	4417
868.364	4466
868.495	4504
868.625	4649
868.756	4786
868.886	4538
869.017	4618
869.147	4767
869.278	4755
869.408	4649
869.539	4653
869.669	4698
869.799	4656
869.929	4801
870.06	4717
870.19	4961
870.32	4934
870.45	4930
870.58	5045
870.71	5075
870.84	5052
870.97	4923
871.1	4892
871.23	5098
871.36	5166
871.489	4972
871.619	5086
871.749	5128
871.879	5162
872.008	5166
872.138	5052
872.267	5006
872.397	4862
872.526	4839
872.656	4683
872.785	4797
872.915	4942
873.044	5048
873.173	4984
873.303	4957
873.432	4984
873.561	4881
873.69	4896
873.819	4881
873.948	4927
874.077	4850
874.206	4786
874.335	4805
874.464	4949
874.593	5018
874.722	4946
874.851	5140
874.979	5071
875.108	4987
875.237	4885
875.365	4866
875.494	4862
875.623	4999
875.751	4786
875.88	4881
876.008	4965
876.136	5037
876.265	5197
876.393	5360
876.521	5201
876.65	5201
876.778	5174
876.906	5086
877.034	5033
877.162	5079
877.29	4984
877.418	5056
877.546	5022
877.674	5037
877.802	5052
877.93	5048
878.058	4915
878.185	4835
878.313	4934
878.441	5003
878.568	4786
878.696	4866
878.824	4995
878.951	4968
879.079	5094
879.206	5307
879.333	5083
879.461	5010
879.588	4976
879.715	5113
879.842	5258
879.97	4999
880.097	4778
880.224	4759
880.351	4820
880.478	4820
880.605	4824
880.732	4778
880.859	5045
880.986	4885
881.112	4915
881.239	4759
881.366	4710
881.493	4596
881.619	4580
881.746	4664
881.872	4675
881.999	4653
882.125	4744
882.252	4771
882.378	4858
882.505	5006
882.631	4790
882.757	4702
882.883	4721
883.01	4759
883.136	4675
883.262	4580
883.388	4615
883.514	4801
883.64	4858
883.766	4752
883.892	4649
884.018	4691
884.143	4866
884.269	5006
884.395	4702
884.52	4672
884.646	4664
884.772	4577
884.897	4580
885.023	4653
885.148	4763
885.274	4812
885.399	4790
885.524	4729
885.65	4721
885.775	4733
885.9	4744
886.025	4873
886.15	4774
886.275	4702
886.4	4664
886.525	4752
886.65	4755
886.775	4729
886.9	4877
887.025	5003
887.149	4790
887.274	4645
887.399	4573
887.523	4580
887.648	4542
887.773	4649
887.897	4717
888.021	4809
888.146	4687
888.27	4797
888.395	4942
888.519	4736
888.643	4824
888.767	4786
888.891	4698
889.015	4622
889.139	4679
889.263	4645
889.387	4755
889.511	4877
889.635	4767
889.759	4637
889.883	4607
890.006	4721
890.13	4778
890.254	4599
890.377	4683
890.501	4527
890.624	4523
890.748	4634
890.871	4466
890.995	4383
891.118	4424
891.241	4538
891.364	4535
891.488	4649
891.611	4500
891.734	4558
891.857	4630
891.98	4546
892.103	4592
892.226	4580
892.349	4523
892.471	4417
892.594	4504
892.717	4599
892.839	4500
892.962	4596
893.085	4660
893.207	4592
893.33	4390
893.452	4519
893.575	4668
893.697	4653
893.819	4797
893.941	4805
894.064	4744
894.186	4546
894.308	4577
894.43	4691
894.552	4816
894.674	4706
894.796	4565
894.918	4622
895.04	4558
895.161	4679
895.283	4683
895.405	4569
895.526	4664
895.648	4672
895.769	4721
895.891	4679
896.012	4767
896.134	4710
896.255	4698
896.376	4668
896.498	4603
896.619	4679
896.74	4607
896.861	4675
896.982	4896
897.103	5071
897.224	4839
897.345	4706
897.466	4656
897.587	4736
897.708	4824
897.828	4774
897.949	4717
898.07	4535
898.19	4599
898.311	4824
898.431	4675
898.552	4664
898.672	4771
898.792	4778
898.913	4774
899.033	4645
899.153	4459
899.273	4375
899.393	4459
899.513	4500
899.633	4554
899.753	4527
899.873	4512
899.993	4592
900.113	4478
900.232	4577
900.352	4508
900.472	4462
900.591	4375
900.711	4466
900.83	4440
900.95	4603
901.069	4645
901.189	4519
901.308	4363
901.427	4344
901.546	4386
901.665	4466
901.784	4516
901.904	4375
902.023	4276
902.141	4188
902.26	4192
902.379	4284
902.498	4249
902.617	4246
902.735	4348
902.854	4367
902.973	4402
903.091	4188
903.21	4219
903.328	4314
903.446	4257
903.565	4249
903.683	4329
903.801	4318
903.919	4432
904.038	4417
904.156	4322
904.274	4413
904.392	4436
904.51	4390
904.627	4485
904.745	4596
904.863	4615
904.981	4398
905.098	4287
905.216	4310
905.334	4413
905.451	4432
905.569	4413
905.686	4538
905.803	4512
905.921	4383
906.038	4569
906.155	4432
906.272	4367
906.389	4474
906.506	4383
906.623	4375
906.74	4390
906.857	4295
906.974	4386
907.091	4550
907.208	4675
907.324	4569
907.441	4489
907.557	4306
907.674	4371
907.79	4337
907.907	4386
908.023	4489
908.139	4466
908.256	4375
908.372	4489
908.488	4443
908.604	4344
908.72	4314
908.836	4367
908.952	4375
909.068	4504
909.184	4569
909.3	4508
909.415	4584
909.531	4554
909.647	4356
909.762	4352
909.878	4367
909.993	4424
910.108	4402
910.224	4394
910.339	4504
910.454	4375
910.57	4383
910.685	4333
910.8	4626
910.915	4634
911.03	4508
911.145	4333
911.259	4314
911.374	4398
911.489	4314
911.604	4272
911.718	4181
911.833	4200
911.947	4143
912.062	4017
912.176	4173
912.291	4188
912.405	4280
912.519	4481
912.633	4523
912.748	4360
912.862	4337
912.976	4211
913.09	4109
913.204	4177
913.318	4219
913.431	4348
913.545	4333
913.659	4424
913.772	4398
913.886	4211
914	4196
914.113	4363
914.226	4455
914.34	4394
914.453	4261
914.566	4466
914.68	4295
914.793	4348
914.906	4196
915.019	4128
915.132	4074
915.245	4196
915.358	4204
915.47	4227
915.583	4280
915.696	4318
915.809	4436
915.921	4421
916.034	4215
916.146	4291
916.259	4223
916.371	4379
916.483	4325
916.595	4280
916.708	4344
916.82	4329
916.932	4352
917.044	4318
917.156	4284
917.268	4227
917.38	4291
917.491	4291
917.603	4333
917.715	4394
917.826	4398
917.938	4356
918.049	4253
918.161	4428
918.272	4546
918.384	4554
918.495	4394
918.606	4303
918.717	4211
918.828	4344
918.939	4352
919.05	4257
919.161	4371
919.272	4154
919.383	4257
919.494	4440
919.604	4603
919.715	4405
919.826	4352
919.936	4375
920.047	4500
920.157	4470
920.267	4660
920.378	4478
920.488	4497
920.598	4740
920.708	4870
920.818	4763
920.928	4752
921.038	4965
921.148	4847
921.258	4546
921.368	4558
921.477	4493
921.587	4478
921.697	4367
921.806	4588
921.916	4443
922.025	4261
922.134	4299
922.244	4253
922.353	4314
922.462	4162
922.571	4124
922.68	4002
922.789	3960
922.898	4059
923.007	3991
923.116	4120
923.224	4071
923.333	4025
923.442	3991
923.55	3983
923.659	4044
923.767	4105
923.876	3991
923.984	4120
924.092	4025
924.201	4055
924.309	4059
924.417	4082
924.525	4017
924.633	4063
924.741	4877
924.849	3922
924.956	4120
925.064	3960
925.172	3903
925.279	3953
925.387	4086
925.494	4025
925.602	4204
925.709	4150
925.816	4051
925.924	4131
926.031	4219
926.138	4204
926.245	4185
926.352	4036
926.459	4227
926.566	4325
926.673	4135
926.779	4055
926.886	4055
926.993	3983
927.099	3979
927.206	3953
927.312	3975
927.419	4055
927.525	3998
927.631	4093
927.737	3987
927.843	3937
927.95	3797
928.056	3964
928.162	3998
928.267	4021
928.373	4714
928.479	4101
928.585	3865
928.69	4036
928.796	4097
928.901	3956
929.007	3873
929.112	4010
929.218	3964
929.323	3964
929.428	3918
929.533	4131
929.638	3930
929.743	3911
929.848	4067
929.953	3975
930.058	3911
930.163	3766
930.267	3827
930.372	3968
930.477	3789
930.581	4032
930.685	3975
930.79	3789
930.894	3899
930.998	3831
931.103	4036
931.207	3732
931.311	3671
931.415	3625
931.519	3473
931.623	3523
