Data from test_V78500241_1297.txt Node
Date: Fri Mar 25 16:58:01 CST 2022
User: usil
Spectrometer: V785-0024
Trigger mode: 0
Integration Time (sec): 4.000000E-1
Scans to average: 1
Nonlinearity correction enabled: false
Boxcar width: 0
Storing dark spectrum: false
XAxis mode: Wavelengths
Number of Pixels in Spectrum: 1024
>>>>>Begin Spectral Data<<<<<
801.071	8077
801.214	8016
801.356	7906
801.499	7833
801.641	7742
801.783	7830
801.926	7932
802.068	7928
802.211	8005
802.353	7993
802.496	7906
802.638	7864
802.78	7963
802.923	8012
803.065	7917
803.208	7921
803.35	8035
803.492	8092
803.635	8168
803.777	8020
803.919	8111
804.061	8457
804.204	8199
804.346	8115
804.488	7970
804.63	8123
804.773	8031
804.915	8149
805.057	8336
805.199	8206
805.341	8286
805.483	8218
805.626	8176
805.768	8153
805.91	8259
806.052	8240
806.194	8096
806.336	8294
806.478	8065
806.62	8039
806.762	8168
806.904	8229
807.046	8503
807.188	8427
807.33	8206
807.472	8286
807.614	8157
807.756	8168
807.898	8001
808.04	7913
808.182	7890
808.324	7917
808.465	7997
808.607	8153
808.749	8084
808.891	8259
809.033	8317
809.174	8142
809.316	8058
809.458	8043
809.6	8062
809.741	8073
809.883	7986
810.025	8043
810.166	8100
810.308	7974
810.45	8054
810.591	7894
810.733	7734
810.875	7677
811.016	7575
811.158	7464
811.299	7582
811.441	7784
811.582	7696
811.724	7567
811.865	7559
812.007	7537
812.148	7655
812.29	7643
812.431	7719
812.573	7860
812.714	7940
812.855	8100
812.997	8134
813.138	8320
813.279	8183
813.421	8046
813.562	7974
813.703	7879
813.845	7769
813.986	7453
814.127	7221
814.268	7221
814.41	7236
814.551	7156
814.692	7225
814.833	7095
814.974	7114
815.115	7110
815.256	6909
815.397	6916
815.539	6886
815.68	6772
815.821	6795
815.962	6920
816.103	6878
816.244	6696
816.385	6547
816.526	6631
816.666	6498
816.807	6273
816.948	6448
817.089	6467
817.23	6395
817.371	6331
817.512	6384
817.653	6357
817.793	6342
817.934	6429
818.075	6460
818.216	6498
818.356	6403
818.497	6201
818.638	6163
818.778	6095
818.919	6182
819.06	6175
819.2	6426
819.341	6357
819.481	6247
819.622	6517
819.762	6783
819.903	6677
820.043	6559
820.184	6566
820.324	6623
820.465	6722
820.605	6669
820.746	6597
820.886	6506
821.026	6688
821.167	6665
821.307	6764
821.447	6776
821.588	6707
821.728	6563
821.868	6437
822.008	6292
822.149	6380
822.289	6331
822.429	6155
822.569	6114
822.709	6079
822.849	5878
822.99	5870
823.13	5885
823.27	5980
823.41	5737
823.55	5783
823.69	5775
823.83	5745
823.97	5649
824.11	5566
824.25	5478
824.389	5573
824.529	5623
824.669	5520
824.809	5649
824.949	5642
825.089	5608
825.228	5558
825.368	5368
825.508	5322
825.648	5353
825.787	5395
825.927	5425
826.067	5242
826.206	5265
826.346	5429
826.485	5414
826.625	5410
826.765	5539
826.904	5429
827.044	5223
827.183	5220
827.323	5136
827.462	5265
827.601	5201
827.741	5208
827.88	5212
828.02	5113
828.159	5242
828.298	5334
828.437	5383
828.577	5261
828.716	5493
828.855	5288
828.994	5143
829.134	5128
829.273	5216
829.412	5193
829.551	5155
829.69	5155
829.829	5250
829.968	5368
830.107	5311
830.246	5315
830.385	5223
830.524	5155
830.663	5071
830.802	5056
830.941	4892
831.08	4919
831.219	5006
831.357	4991
831.496	5140
831.635	4900
831.774	4831
831.913	4858
832.051	4759
832.19	4801
832.329	4854
832.467	4702
832.606	4675
832.744	4771
832.883	4748
833.022	4755
833.16	4805
833.299	4828
833.437	4828
833.576	4900
833.714	4877
833.852	4911
833.991	4923
834.129	4968
834.267	4984
834.406	4927
834.544	5029
834.682	5003
834.821	4934
834.959	5201
835.097	5033
835.235	5193
835.373	5079
835.511	5124
835.65	5006
835.788	5067
835.926	4938
836.064	4934
836.202	4980
836.34	5193
836.478	5265
836.615	5162
836.753	5216
836.891	5265
837.029	5303
837.167	5201
837.305	5231
837.443	5220
837.58	5170
837.718	5254
837.856	5231
837.993	5140
838.131	5220
838.269	5242
838.406	5204
838.544	5204
838.681	4995
838.819	4972
838.956	4930
839.094	4946
839.231	4995
839.369	5067
839.506	5459
839.643	5330
839.781	5124
839.918	5060
840.055	5147
840.193	5143
840.33	5147
840.467	5197
840.604	5258
840.742	5448
840.879	5124
841.016	5094
841.153	5181
841.29	5372
841.427	5376
841.564	5414
841.701	5414
841.838	5311
841.975	5315
842.112	5261
842.249	5159
842.385	5147
842.522	5353
842.659	5254
842.796	5193
842.933	5220
843.069	5185
843.206	5147
843.343	5326
843.479	5220
843.616	5326
843.752	5067
843.889	5048
844.025	5231
844.162	5045
844.298	5197
844.435	5136
844.571	5056
844.708	5197
844.844	5269
844.98	5360
845.117	5315
845.253	5147
845.389	5113
845.525	5128
845.661	5121
845.798	5060
845.934	5147
846.07	5102
846.206	5181
846.342	5387
846.478	5193
846.614	5124
846.75	5029
846.886	4976
847.022	5174
847.158	5052
847.294	5105
847.429	5140
847.565	5094
847.701	5322
847.837	4896
847.972	4873
848.108	4976
848.244	4881
848.379	4828
848.515	4740
848.65	4740
848.786	4729
848.921	4809
849.057	4930
849.192	4923
849.328	4850
849.463	4877
849.598	4835
849.734	4793
849.869	4710
850.004	4618
850.14	4706
850.275	4622
850.41	4558
850.545	4558
850.68	4653
850.815	4611
850.95	4653
851.085	4850
851.22	4710
851.355	4687
851.49	4656
851.625	4675
851.76	4649
851.895	4645
852.03	4542
852.165	4694
852.299	4740
852.434	4812
852.569	4767
852.703	4767
852.838	4812
852.973	4949
853.107	4911
853.242	4797
853.376	4736
853.511	4580
853.645	4664
853.78	4801
853.914	4710
854.048	4679
854.183	4710
854.317	4672
854.451	4858
854.585	4717
854.72	4698
854.854	4782
854.988	4664
855.122	4660
855.256	4580
855.39	4687
855.524	4824
855.658	4755
855.792	4755
855.926	4736
856.06	4793
856.194	4782
856.327	4725
856.461	4637
856.595	4615
856.729	4656
856.862	4786
856.996	4710
857.13	4744
857.263	4774
857.397	4782
857.53	4641
857.664	4752
857.797	4759
857.931	4793
858.064	4710
858.197	4752
858.331	4687
858.464	4618
858.597	4550
858.731	4668
858.864	4691
858.997	4584
859.13	4691
859.263	4683
859.396	4691
859.529	4607
859.662	4561
859.795	4542
859.928	4653
860.061	4683
860.194	4778
860.327	4668
860.46	4611
860.592	4717
860.725	4744
860.858	4740
860.99	4584
861.123	4546
861.256	4531
861.388	4660
861.521	5216
861.653	4497
861.786	4455
861.918	4459
862.05	4535
862.183	4546
862.315	4607
862.447	4683
862.58	4588
862.712	4455
862.844	4352
862.976	4500
863.108	4481
863.24	4854
863.372	4325
863.504	4421
863.636	4436
863.768	4531
863.9	4436
864.032	4394
864.164	4451
864.296	4478
864.428	4561
864.559	4561
864.691	4531
864.823	4584
864.954	4565
865.086	4523
865.217	4459
865.349	4436
865.48	4447
865.612	4485
865.743	4641
865.875	4481
866.006	4466
866.137	4535
866.269	4481
866.4	4417
866.531	4424
866.662	4447
866.793	4462
866.924	4478
867.055	4451
867.186	4459
867.317	4417
867.448	4367
867.579	4394
867.71	4409
867.841	4360
867.972	4424
868.103	4474
868.233	4443
868.364	4508
868.495	4489
868.625	4656
868.756	4748
868.886	4584
869.017	4599
869.147	4774
869.278	4797
869.408	4672
869.539	4649
869.669	4744
869.799	4637
869.929	4755
870.06	4714
870.19	4949
870.32	4938
870.45	4984
870.58	4999
870.71	5128
870.84	5083
870.97	4965
871.1	4889
871.23	5128
871.36	5140
871.489	5079
871.619	5079
871.749	5113
871.879	5189
872.008	5189
872.138	5067
872.267	5010
872.397	4858
872.526	4763
872.656	4710
872.785	4809
872.915	4968
873.044	5071
873.173	4911
873.303	5014
873.432	4949
873.561	4976
873.69	4923
873.819	4896
873.948	4919
874.077	4839
874.206	4759
874.335	4805
874.464	5014
874.593	5102
874.722	4949
874.851	5113
874.979	5083
875.108	5056
875.237	4957
875.365	4900
875.494	4900
875.623	4976
875.751	4862
875.88	4908
876.008	4980
876.136	5113
876.265	5170
876.393	5398
876.521	5280
876.65	5242
876.778	5147
876.906	5105
877.034	5056
877.162	5018
877.29	4995
877.418	5105
877.546	5128
877.674	5048
877.802	5060
877.93	5033
878.058	4968
878.185	4835
878.313	4961
878.441	4904
878.568	4809
878.696	4858
878.824	4984
878.951	5025
879.079	5140
879.206	5296
879.333	5151
879.461	5003
879.588	4991
879.715	5132
879.842	5185
879.97	5003
880.097	4793
880.224	4755
880.351	4858
880.478	4835
880.605	4862
880.732	4812
880.859	5132
880.986	4930
881.112	4911
881.239	4801
881.366	4656
881.493	4645
881.619	4561
881.746	4653
881.872	4675
881.999	4675
882.125	4668
882.252	4828
882.378	4809
882.505	4961
882.631	4854
882.757	4675
882.883	4767
883.01	4725
883.136	4675
883.262	4599
883.388	4607
883.514	4839
883.64	4854
883.766	4778
883.892	4691
884.018	4717
884.143	4877
884.269	5029
884.395	4721
884.52	4615
884.646	4679
884.772	4615
884.897	4573
885.023	4706
885.148	4771
885.274	4873
885.399	4843
885.524	4725
885.65	4721
885.775	4736
885.9	4717
886.025	4873
886.15	4793
886.275	4725
886.4	4664
886.525	4733
886.65	4714
886.775	4668
886.9	4911
887.025	5041
887.149	4828
887.274	4656
887.399	4596
887.523	4645
887.648	4554
887.773	4554
887.897	4771
888.021	4812
888.146	4683
888.27	4835
888.395	4923
888.519	4862
888.643	4858
888.767	4782
888.891	4664
889.015	4592
889.139	4656
889.263	4637
889.387	4767
889.511	4854
889.635	4820
889.759	4645
889.883	4683
890.006	4797
890.13	4862
890.254	4618
890.377	4717
890.501	4554
890.624	4508
890.748	4691
890.871	4508
890.995	4459
891.118	4432
891.241	4538
891.364	4569
891.488	4656
891.611	4504
891.734	4535
891.857	4618
891.98	4561
892.103	4710
892.226	4607
892.349	4565
892.471	4466
892.594	4588
892.717	4596
892.839	4607
892.962	4588
893.085	4660
893.207	4565
893.33	4512
893.452	4500
893.575	4733
893.697	4596
893.819	4782
893.941	4828
894.064	4809
894.186	4573
894.308	4569
894.43	4679
894.552	4870
894.674	4717
894.796	4565
894.918	4599
895.04	4653
895.161	4729
895.283	4679
895.405	4580
895.526	4649
895.648	4645
895.769	4664
895.891	4721
896.012	4733
896.134	4714
896.255	4626
896.376	4679
896.498	4615
896.619	4706
896.74	4584
896.861	4611
896.982	4927
897.103	5086
897.224	4805
897.345	4748
897.466	4721
897.587	4733
897.708	4858
897.828	4759
897.949	4664
898.07	4569
898.19	4672
898.311	4820
898.431	4740
898.552	4752
898.672	4736
898.792	4809
898.913	4729
899.033	4599
899.153	4546
899.273	4481
899.393	4554
899.513	4542
899.633	4535
899.753	4580
899.873	4508
899.993	4599
900.113	4558
900.232	4584
900.352	4577
900.472	4478
900.591	4428
900.711	4436
900.83	4424
900.95	4599
901.069	4687
901.189	4504
901.308	4398
901.427	4337
901.546	4398
901.665	4481
901.784	4497
901.904	4363
902.023	4310
902.141	4192
902.26	4177
902.379	4295
902.498	4238
902.617	4230
902.735	4386
902.854	4481
902.973	4386
903.091	4238
903.21	4192
903.328	4329
903.446	4287
903.565	4306
903.683	4363
903.801	4303
903.919	4386
904.038	4421
904.156	4322
904.274	4421
904.392	4451
904.51	4424
904.627	4485
904.745	4599
904.863	4668
904.981	4348
905.098	4363
905.216	4409
905.334	4424
905.451	4440
905.569	4478
905.686	4577
905.803	4535
905.921	4443
906.038	4584
906.155	4447
906.272	4390
906.389	4447
906.506	4363
906.623	4394
906.74	4383
906.857	4325
906.974	4379
907.091	4531
907.208	4668
907.324	4618
907.441	4538
907.557	4383
907.674	4360
907.79	4337
907.907	4405
908.023	4489
908.139	4500
908.256	4440
908.372	4424
908.488	4447
908.604	4390
908.72	4363
908.836	4383
908.952	4409
909.068	4451
909.184	4577
909.3	4455
909.415	4630
909.531	4550
909.647	4371
909.762	4402
909.878	4348
909.993	4443
910.108	4421
910.224	4417
910.339	4485
910.454	4440
910.57	4371
910.685	4367
910.8	4683
910.915	4618
911.03	4470
911.145	4367
911.259	4333
911.374	4413
911.489	4306
911.604	4303
911.718	4158
911.833	4200
911.947	4101
912.062	4013
912.176	4158
912.291	4246
912.405	4276
912.519	4493
912.633	4493
912.748	4344
912.862	4303
912.976	4238
913.09	4101
913.204	4177
913.318	4287
913.431	4394
913.545	4379
913.659	4428
913.772	4394
913.886	4204
914	4227
914.113	4390
914.226	4375
914.34	4375
914.453	4246
914.566	4413
914.68	4280
914.793	4356
914.906	4166
915.019	4116
915.132	4067
915.245	4219
915.358	4207
915.47	4211
915.583	4268
915.696	4265
915.809	4421
915.921	4383
916.034	4299
916.146	4265
916.259	4249
916.371	4386
916.483	4386
916.595	4268
916.708	4352
916.82	4341
916.932	4352
917.044	4291
917.156	4310
917.268	4238
917.38	4219
917.491	4291
917.603	4329
917.715	4424
917.826	4417
917.938	4291
918.049	4253
918.161	4417
918.272	4462
918.384	4481
918.495	4497
918.606	4291
918.717	4261
918.828	4371
918.939	4371
919.05	4257
919.161	4356
919.272	4105
919.383	4230
919.494	4478
919.604	4653
919.715	4428
919.826	4360
919.936	4409
920.047	4546
920.157	4470
920.267	4714
920.378	4546
920.488	4481
920.598	4698
920.708	4892
920.818	4729
920.928	4755
921.038	4942
921.148	4915
921.258	4626
921.368	4546
921.477	4508
921.587	4466
921.697	4341
921.806	4558
921.916	4432
922.025	4280
922.134	4303
922.244	4207
922.353	4310
922.462	4188
922.571	4093
922.68	4063
922.789	3991
922.898	4040
923.007	3964
923.116	4090
923.224	4067
923.333	4112
923.442	3945
923.55	3994
923.659	4017
923.767	4135
923.876	4025
923.984	4112
924.092	3983
924.201	4105
924.309	4074
924.417	4101
924.525	4032
924.633	4090
924.741	5006
924.849	3945
924.956	4082
925.064	3983
925.172	3915
925.279	4006
925.387	4006
925.494	4032
925.602	4234
925.709	4200
925.816	4021
925.924	4124
926.031	4234
926.138	4177
926.245	4196
926.352	4101
926.459	4272
926.566	4318
926.673	4147
926.779	4101
926.886	4120
926.993	4002
927.099	3949
927.206	3899
927.312	3934
927.419	4055
927.525	3983
927.631	4090
927.737	3964
927.843	3926
927.95	3903
928.056	3949
928.162	4021
928.267	4082
928.373	4675
928.479	4185
928.585	3854
928.69	4021
928.796	4090
928.901	3987
929.007	3838
929.112	4010
929.218	3968
929.323	3945
929.428	3983
929.533	4109
929.638	3956
929.743	3949
929.848	4067
929.953	4044
930.058	3934
930.163	3766
930.267	3869
930.372	3972
930.477	3804
930.581	4078
930.685	3953
930.79	3823
930.894	3880
930.998	3880
931.103	4021
931.207	3720
931.311	3667
931.415	3690
931.519	3507
931.623	3542
