Data from test_V78500241_843.txt Node
Date: Fri Mar 25 16:54:51 CST 2022
User: usil
Spectrometer: V785-0024
Trigger mode: 0
Integration Time (sec): 4.000000E-1
Scans to average: 1
Nonlinearity correction enabled: false
Boxcar width: 0
Storing dark spectrum: false
XAxis mode: Wavelengths
Number of Pixels in Spectrum: 1024
>>>>>Begin Spectral Data<<<<<
801.071	8046
801.214	8027
801.356	7890
801.499	7906
801.641	7909
801.783	7833
801.926	7997
802.068	7982
802.211	8031
802.353	7898
802.496	7890
802.638	7864
802.78	7902
802.923	7894
803.065	7890
803.208	7917
803.35	7982
803.492	8092
803.635	8199
803.777	8027
803.919	8107
804.061	8408
804.204	8081
804.346	8043
804.488	8054
804.63	8069
804.773	8012
804.915	8046
805.057	8290
805.199	8081
805.341	8195
805.483	8233
805.626	8153
805.768	8149
805.91	8069
806.052	8134
806.194	8069
806.336	8229
806.478	8081
806.62	8035
806.762	8126
806.904	8256
807.046	8385
807.188	8336
807.33	8294
807.472	8377
807.614	8161
807.756	8172
807.898	7978
808.04	7909
808.182	7898
808.324	7856
808.465	7871
808.607	8115
808.749	8115
808.891	8164
809.033	8286
809.174	8218
809.316	8107
809.458	8153
809.6	7951
809.741	8065
809.883	8157
810.025	8100
810.166	8111
810.308	8069
810.45	8092
810.591	7879
810.733	7715
810.875	7636
811.016	7514
811.158	7563
811.299	7552
811.441	7708
811.582	7715
811.724	7571
811.865	7548
812.007	7552
812.148	7586
812.29	7636
812.431	7712
812.573	7845
812.714	7970
812.855	8157
812.997	8157
813.138	8290
813.279	8168
813.421	8092
813.562	8024
813.703	7898
813.845	7708
813.986	7441
814.127	7225
814.268	7247
814.41	7251
814.551	7088
814.692	7145
814.833	7042
814.974	7095
815.115	7099
815.256	6935
815.397	6882
815.539	6977
815.68	6871
815.821	6722
815.962	6913
816.103	6818
816.244	6734
816.385	6700
816.526	6707
816.666	6506
816.807	6300
816.948	6452
817.089	6418
817.23	6426
817.371	6418
817.512	6410
817.653	6384
817.793	6342
817.934	6422
818.075	6525
818.216	6399
818.356	6418
818.497	6201
818.638	6114
818.778	6148
818.919	6155
819.06	6194
819.2	6304
819.341	6254
819.481	6410
819.622	6578
819.762	6749
819.903	6734
820.043	6582
820.184	6578
820.324	6574
820.465	6669
820.605	6646
820.746	6601
820.886	6494
821.026	6700
821.167	6730
821.307	6745
821.447	6684
821.588	6684
821.728	6616
821.868	6490
822.008	6342
822.149	6410
822.289	6315
822.429	6148
822.569	6098
822.709	6110
822.849	5923
822.99	5927
823.13	5893
823.27	5931
823.41	5771
823.55	5733
823.69	5783
823.83	5805
823.97	5703
824.11	5532
824.25	5486
824.389	5566
824.529	5604
824.669	5524
824.809	5646
824.949	5653
825.089	5596
825.228	5596
825.368	5417
825.508	5349
825.648	5341
825.787	5353
825.927	5406
826.067	5265
826.206	5299
826.346	5360
826.485	5402
826.625	5459
826.765	5535
826.904	5516
827.044	5242
827.183	5216
827.323	5124
827.462	5258
827.601	5143
827.741	5162
827.88	5235
828.02	5067
828.159	5280
828.298	5269
828.437	5357
828.577	5311
828.716	5486
828.855	5353
828.994	5113
829.134	5128
829.273	5189
829.412	5124
829.551	5147
829.69	5170
829.829	5261
829.968	5410
830.107	5250
830.246	5250
830.385	5174
830.524	5166
830.663	5109
830.802	4972
830.941	4900
831.08	4885
831.219	4980
831.357	4972
831.496	5166
831.635	4900
831.774	4877
831.913	4820
832.051	4721
832.19	4782
832.329	4889
832.467	4710
832.606	4649
832.744	4755
832.883	4714
833.022	4683
833.16	4805
833.299	4858
833.437	4801
833.576	4881
833.714	4847
833.852	4892
833.991	4870
834.129	4934
834.267	4923
834.406	4919
834.544	4976
834.682	5014
834.821	5003
834.959	5174
835.097	5041
835.235	5136
835.373	5071
835.511	5071
835.65	5048
835.788	4980
835.926	4938
836.064	4889
836.202	4942
836.34	5151
836.478	5250
836.615	5162
836.753	5246
836.891	5284
837.029	5216
837.167	5223
837.305	5162
837.443	5132
837.58	5010
837.718	5242
837.856	5197
837.993	5143
838.131	5208
838.269	5212
838.406	5128
838.544	5220
838.681	5029
838.819	4991
838.956	4870
839.094	4896
839.231	4980
839.369	5086
839.506	5429
839.643	5273
839.781	5067
839.918	5075
840.055	5102
840.193	5079
840.33	5159
840.467	5132
840.604	5223
840.742	5410
840.879	5109
841.016	5071
841.153	5159
841.29	5398
841.427	5353
841.564	5292
841.701	5315
841.838	5280
841.975	5208
842.112	5288
842.249	5178
842.385	5098
842.522	5322
842.659	5159
842.796	5140
842.933	5178
843.069	5124
843.206	5174
843.343	5258
843.479	5185
843.616	5235
843.752	5014
843.889	5060
844.025	5193
844.162	5033
844.298	5201
844.435	5067
844.571	5048
844.708	5170
844.844	5277
844.98	5326
845.117	5242
845.253	5128
845.389	5105
845.525	5151
845.661	5136
845.798	5045
845.934	5128
846.07	5029
846.206	5159
846.342	5273
846.478	5216
846.614	5025
846.75	4991
846.886	4927
847.022	5128
847.158	5052
847.294	5090
847.429	5102
847.565	5086
847.701	5315
847.837	4824
847.972	4824
848.108	4995
848.244	4919
848.379	4721
848.515	4725
848.65	4763
848.786	4733
848.921	4755
849.057	4904
849.192	4885
849.328	4782
849.463	4885
849.598	4812
849.734	4740
849.869	4736
850.004	4656
850.14	4664
850.275	4592
850.41	4546
850.545	4592
850.68	4588
850.815	4660
850.95	4637
851.085	4892
851.22	4774
851.355	4664
851.49	4607
851.625	4618
851.76	4641
851.895	4561
852.03	4523
852.165	4634
852.299	4710
852.434	4854
852.569	4755
852.703	4778
852.838	4847
852.973	4949
853.107	4885
853.242	4694
853.376	4698
853.511	4516
853.645	4626
853.78	4824
853.914	4660
854.048	4725
854.183	4626
854.317	4649
854.451	4820
854.585	4687
854.72	4611
854.854	4748
854.988	4634
855.122	4630
855.256	4474
855.39	4641
855.524	4774
855.658	4721
855.792	4691
855.926	4755
856.06	4793
856.194	4843
856.327	4691
856.461	4592
856.595	4630
856.729	4637
856.862	4778
856.996	4771
857.13	4706
857.263	4759
857.397	4820
857.53	4675
857.664	4687
857.797	4778
857.931	4820
858.064	4668
858.197	4725
858.331	4645
858.464	4580
858.597	4531
858.731	4683
858.864	4637
858.997	4622
859.13	4649
859.263	4637
859.396	4637
859.529	4607
859.662	4588
859.795	4542
859.928	4599
860.061	4759
860.194	4752
860.327	4558
860.46	4588
860.592	4702
860.725	4660
860.858	4710
860.99	4565
861.123	4527
861.256	4538
861.388	4618
861.521	5273
861.653	4546
861.786	4451
861.918	4485
862.05	4489
862.183	4592
862.315	4607
862.447	4618
862.58	4573
862.712	4371
862.844	4348
862.976	4485
863.108	4481
863.24	4824
863.372	4325
863.504	4402
863.636	4394
863.768	4516
863.9	4405
864.032	4379
864.164	4451
864.296	4451
864.428	4542
864.559	4546
864.691	4519
864.823	4508
864.954	4474
865.086	4546
865.217	4497
865.349	4421
865.48	4443
865.612	4474
865.743	4630
865.875	4512
866.006	4432
866.137	4470
866.269	4409
866.4	4417
866.531	4447
866.662	4386
866.793	4413
866.924	4409
867.055	4466
867.186	4466
867.317	4455
867.448	4318
867.579	4390
867.71	4375
867.841	4341
867.972	4497
868.103	4443
868.233	4443
868.364	4493
868.495	4493
868.625	4603
868.756	4759
868.886	4523
869.017	4588
869.147	4793
869.278	4733
869.408	4691
869.539	4596
869.669	4717
869.799	4622
869.929	4717
870.06	4691
870.19	4949
870.32	4900
870.45	4919
870.58	4972
870.71	5117
870.84	5117
870.97	4904
871.1	4919
871.23	5140
871.36	5102
871.489	5003
871.619	5094
871.749	5098
871.879	5136
872.008	5151
872.138	5090
872.267	4999
872.397	4820
872.526	4828
872.656	4740
872.785	4801
872.915	4968
873.044	4972
873.173	4915
873.303	4968
873.432	4938
873.561	4953
873.69	4873
873.819	4847
873.948	4915
874.077	4843
874.206	4752
874.335	4801
874.464	4949
874.593	5018
874.722	4953
874.851	5083
874.979	5067
875.108	5075
875.237	4892
875.365	4873
875.494	4873
875.623	5010
875.751	4824
875.88	4873
876.008	4984
876.136	5067
876.265	5185
876.393	5322
876.521	5193
876.65	5181
876.778	5086
876.906	5060
877.034	5006
877.162	5037
877.29	5025
877.418	5067
877.546	4999
877.674	5014
877.802	5003
877.93	4999
878.058	4934
878.185	4854
878.313	4949
878.441	4934
878.568	4774
878.696	4881
878.824	4995
878.951	5010
879.079	5113
879.206	5265
879.333	5079
879.461	4961
879.588	4953
879.715	5094
879.842	5246
879.97	4965
880.097	4763
880.224	4752
880.351	4835
880.478	4809
880.605	4774
880.732	4771
880.859	5048
880.986	4866
881.112	4900
881.239	4797
881.366	4721
881.493	4618
881.619	4577
881.746	4664
881.872	4660
881.999	4645
882.125	4656
882.252	4755
882.378	4809
882.505	4961
882.631	4812
882.757	4622
882.883	4717
883.01	4748
883.136	4637
883.262	4618
883.388	4637
883.514	4786
883.64	4870
883.766	4767
883.892	4714
884.018	4736
884.143	4870
884.269	5022
884.395	4721
884.52	4687
884.646	4596
884.772	4531
884.897	4535
885.023	4672
885.148	4774
885.274	4835
885.399	4812
885.524	4698
885.65	4672
885.775	4752
885.9	4786
886.025	4790
886.15	4782
886.275	4717
886.4	4645
886.525	4706
886.65	4736
886.775	4687
886.9	4946
887.025	5022
887.149	4778
887.274	4675
887.399	4592
887.523	4588
887.648	4584
887.773	4611
887.897	4755
888.021	4763
888.146	4649
888.27	4816
888.395	4835
888.519	4805
888.643	4812
888.767	4843
888.891	4641
889.015	4596
889.139	4641
889.263	4615
889.387	4729
889.511	4854
889.635	4782
889.759	4618
889.883	4634
890.006	4714
890.13	4809
890.254	4599
890.377	4668
890.501	4561
890.624	4497
890.748	4622
890.871	4489
890.995	4424
891.118	4424
891.241	4508
891.364	4584
891.488	4660
891.611	4512
891.734	4500
891.857	4599
891.98	4527
892.103	4660
892.226	4550
892.349	4523
892.471	4421
892.594	4599
892.717	4538
892.839	4588
892.962	4634
893.085	4649
893.207	4592
893.33	4470
893.452	4554
893.575	4660
893.697	4626
893.819	4767
893.941	4793
894.064	4740
894.186	4565
894.308	4592
894.43	4759
894.552	4801
894.674	4694
894.796	4577
894.918	4542
895.04	4588
895.161	4725
895.283	4660
895.405	4565
895.526	4618
895.648	4683
895.769	4672
895.891	4725
896.012	4736
896.134	4721
896.255	4694
896.376	4637
896.498	4603
896.619	4645
896.74	4641
896.861	4641
896.982	4904
897.103	5105
897.224	4820
897.345	4782
897.466	4668
897.587	4733
897.708	4805
897.828	4782
897.949	4653
898.07	4561
898.19	4660
898.311	4809
898.431	4672
898.552	4755
898.672	4763
898.792	4793
898.913	4679
899.033	4607
899.153	4481
899.273	4432
899.393	4485
899.513	4519
899.633	4489
899.753	4580
899.873	4527
899.993	4599
900.113	4546
900.232	4550
900.352	4531
900.472	4432
900.591	4367
900.711	4451
900.83	4470
900.95	4641
901.069	4649
901.189	4554
901.308	4402
901.427	4318
901.546	4367
901.665	4443
901.784	4500
901.904	4386
902.023	4318
902.141	4192
902.26	4131
902.379	4287
902.498	4287
902.617	4223
902.735	4348
902.854	4432
902.973	4398
903.091	4185
903.21	4215
903.328	4314
903.446	4200
903.565	4276
903.683	4390
903.801	4303
903.919	4383
904.038	4428
904.156	4284
904.274	4436
904.392	4424
904.51	4386
904.627	4500
904.745	4577
904.863	4607
904.981	4371
905.098	4306
905.216	4333
905.334	4405
905.451	4421
905.569	4470
905.686	4554
905.803	4573
905.921	4432
906.038	4519
906.155	4436
906.272	4367
906.389	4459
906.506	4306
906.623	4413
906.74	4398
906.857	4341
906.974	4375
907.091	4565
907.208	4687
907.324	4565
907.441	4538
907.557	4341
907.674	4367
907.79	4325
907.907	4371
908.023	4493
908.139	4451
908.256	4436
908.372	4451
908.488	4466
908.604	4356
908.72	4314
908.836	4390
908.952	4348
909.068	4413
909.184	4550
909.3	4500
909.415	4599
909.531	4558
909.647	4360
909.762	4398
909.878	4352
909.993	4409
910.108	4440
910.224	4383
910.339	4466
910.454	4348
910.57	4386
910.685	4287
910.8	4649
910.915	4592
911.03	4428
911.145	4325
911.259	4348
911.374	4344
911.489	4299
911.604	4306
911.718	4181
911.833	4204
911.947	4090
912.062	4040
912.176	4207
912.291	4265
912.405	4238
912.519	4470
912.633	4516
912.748	4432
912.862	4318
912.976	4207
913.09	4059
913.204	4211
913.318	4268
913.431	4363
913.545	4322
913.659	4421
913.772	4337
913.886	4207
914	4227
914.113	4371
914.226	4417
914.34	4360
914.453	4211
914.566	4443
914.68	4261
914.793	4322
914.906	4185
915.019	4131
915.132	4105
915.245	4215
915.358	4207
915.47	4219
915.583	4272
915.696	4253
915.809	4390
915.921	4409
916.034	4230
916.146	4242
916.259	4234
916.371	4394
916.483	4405
916.595	4246
916.708	4318
916.82	4314
916.932	4306
917.044	4363
917.156	4299
917.268	4211
917.38	4257
917.491	4234
917.603	4337
917.715	4421
917.826	4424
917.938	4322
918.049	4303
918.161	4386
918.272	4542
918.384	4538
918.495	4440
918.606	4314
918.717	4272
918.828	4352
918.939	4363
919.05	4215
919.161	4306
919.272	4143
919.383	4227
919.494	4409
919.604	4584
919.715	4379
919.826	4322
919.936	4386
920.047	4489
920.157	4474
920.267	4694
920.378	4512
920.488	4500
920.598	4660
920.708	4949
920.818	4729
920.928	4733
921.038	4892
921.148	4934
921.258	4615
921.368	4546
921.477	4508
921.587	4485
921.697	4356
921.806	4527
921.916	4386
922.025	4276
922.134	4287
922.244	4227
922.353	4329
922.462	4177
922.571	4097
922.68	3998
922.789	3972
922.898	4021
923.007	3979
923.116	4040
923.224	3998
923.333	4048
923.442	3964
923.55	3991
923.659	4055
923.767	4131
923.876	4017
923.984	4120
924.092	3956
924.201	4013
924.309	4101
924.417	4131
924.525	4067
924.633	4097
924.741	4965
924.849	3941
924.956	4093
925.064	3983
925.172	3903
925.279	3956
925.387	4051
925.494	4029
925.602	4207
925.709	4147
925.816	3994
925.924	4105
926.031	4215
926.138	4150
926.245	4177
926.352	4059
926.459	4211
926.566	4322
926.673	4169
926.779	4055
926.886	4063
926.993	3987
927.099	3964
927.206	3949
927.312	3964
927.419	4086
927.525	4036
927.631	4059
927.737	3987
927.843	3956
927.95	3838
928.056	3949
928.162	3994
928.267	4086
928.373	4675
928.479	4124
928.585	3873
928.69	4025
928.796	4017
928.901	3930
929.007	3850
929.112	4017
929.218	3937
929.323	3941
929.428	3922
929.533	4082
929.638	3892
929.743	3979
929.848	3987
929.953	3987
930.058	3937
930.163	3785
930.267	3873
930.372	3953
930.477	3812
930.581	4063
930.685	3937
930.79	3785
930.894	3869
930.998	3857
931.103	4010
931.207	3709
931.311	3690
931.415	3694
931.519	3507
931.623	3584
