Data from test_V78500241_1780.txt Node
Date: Fri Mar 25 17:01:22 CST 2022
User: usil
Spectrometer: V785-0024
Trigger mode: 0
Integration Time (sec): 4.000000E-1
Scans to average: 1
Nonlinearity correction enabled: false
Boxcar width: 0
Storing dark spectrum: false
XAxis mode: Wavelengths
Number of Pixels in Spectrum: 1024
>>>>>Begin Spectral Data<<<<<
801.071	8012
801.214	7902
801.356	7792
801.499	7917
801.641	7715
801.783	7849
801.926	7986
802.068	7982
802.211	8005
802.353	7974
802.496	7879
802.638	7932
802.78	7902
802.923	7883
803.065	7864
803.208	7841
803.35	7959
803.492	8100
803.635	8164
803.777	8035
803.919	8180
804.061	8469
804.204	8176
804.346	8092
804.488	7898
804.63	8073
804.773	8065
804.915	8100
805.057	8271
805.199	8191
805.341	8252
805.483	8248
805.626	8233
805.768	8092
805.91	8206
806.052	8237
806.194	8130
806.336	8290
806.478	8130
806.62	8008
806.762	8149
806.904	8317
807.046	8476
807.188	8377
807.33	8336
807.472	8301
807.614	8210
807.756	8088
807.898	8035
808.04	7928
808.182	7909
808.324	7913
808.465	7932
808.607	7997
808.749	8084
808.891	8221
809.033	8237
809.174	8191
809.316	8077
809.458	8107
809.6	8001
809.741	8103
809.883	7989
810.025	8096
810.166	8081
810.308	8016
810.45	7951
810.591	7830
810.733	7795
810.875	7723
811.016	7544
811.158	7449
811.299	7571
811.441	7708
811.582	7712
811.724	7578
811.865	7533
812.007	7647
812.148	7601
812.29	7613
812.431	7803
812.573	7989
812.714	8005
812.855	8126
812.997	8324
813.138	8290
813.279	8176
813.421	8073
813.562	7940
813.703	7795
813.845	7693
813.986	7415
814.127	7228
814.268	7202
814.41	7209
814.551	7152
814.692	7278
814.833	7072
814.974	7156
815.115	7129
815.256	6970
815.397	6935
815.539	6924
815.68	6867
815.821	6810
815.962	6867
816.103	6821
816.244	6688
816.385	6646
816.526	6589
816.666	6479
816.807	6342
816.948	6467
817.089	6544
817.23	6452
817.371	6376
817.512	6357
817.653	6399
817.793	6331
817.934	6429
818.075	6494
818.216	6414
818.356	6441
818.497	6235
818.638	6102
818.778	6232
818.919	6175
819.06	6136
819.2	6369
819.341	6292
819.481	6353
819.622	6486
819.762	6730
819.903	6719
820.043	6601
820.184	6646
820.324	6566
820.465	6642
820.605	6719
820.746	6654
820.886	6536
821.026	6578
821.167	6719
821.307	6719
821.447	6772
821.588	6665
821.728	6544
821.868	6467
822.008	6357
822.149	6346
822.289	6319
822.429	6155
822.569	6106
822.709	6121
822.849	5939
822.99	5882
823.13	5946
823.27	5942
823.41	5824
823.55	5798
823.69	5809
823.83	5741
823.97	5627
824.11	5520
824.25	5505
824.389	5558
824.529	5524
824.669	5547
824.809	5661
824.949	5634
825.089	5585
825.228	5558
825.368	5383
825.508	5372
825.648	5318
825.787	5353
825.927	5372
826.067	5299
826.206	5280
826.346	5391
826.485	5349
826.625	5353
826.765	5524
826.904	5463
827.044	5227
827.183	5197
827.323	5143
827.462	5208
827.601	5227
827.741	5227
827.88	5235
828.02	5075
828.159	5208
828.298	5280
828.437	5345
828.577	5311
828.716	5490
828.855	5330
828.994	5170
829.134	5121
829.273	5147
829.412	5155
829.551	5159
829.69	5143
829.829	5216
829.968	5372
830.107	5284
830.246	5280
830.385	5121
830.524	5098
830.663	5056
830.802	4968
830.941	4904
831.08	4854
831.219	4942
831.357	4927
831.496	5166
831.635	4946
831.774	4801
831.913	4831
832.051	4740
832.19	4767
832.329	4812
832.467	4653
832.606	4622
832.744	4710
832.883	4717
833.022	4721
833.16	4740
833.299	4816
833.437	4862
833.576	4850
833.714	4797
833.852	4870
833.991	4908
834.129	4980
834.267	4938
834.406	4934
834.544	4923
834.682	4991
834.821	4976
834.959	5159
835.097	4987
835.235	5143
835.373	5109
835.511	5075
835.65	4987
835.788	5029
835.926	4900
836.064	4915
836.202	4953
836.34	5159
836.478	5220
836.615	5128
836.753	5201
836.891	5307
837.029	5250
837.167	5170
837.305	5151
837.443	5143
837.58	5014
837.718	5273
837.856	5239
837.993	5185
838.131	5269
838.269	5189
838.406	5147
838.544	5197
838.681	4999
838.819	5029
838.956	4862
839.094	4946
839.231	5010
839.369	5086
839.506	5372
839.643	5318
839.781	5105
839.918	5022
840.055	5052
840.193	5136
840.33	5132
840.467	5189
840.604	5147
840.742	5429
840.879	5083
841.016	5098
841.153	5105
841.29	5364
841.427	5326
841.564	5315
841.701	5326
841.838	5258
841.975	5201
842.112	5201
842.249	5197
842.385	5090
842.522	5303
842.659	5174
842.796	5147
842.933	5189
843.069	5143
843.206	5151
843.343	5296
843.479	5239
843.616	5254
843.752	5048
843.889	5003
844.025	5250
844.162	5014
844.298	5212
844.435	5052
844.571	5022
844.708	5204
844.844	5315
844.98	5296
845.117	5239
845.253	5098
845.389	5086
845.525	5147
845.661	5132
845.798	5052
845.934	5128
846.07	5090
846.206	5170
846.342	5280
846.478	5162
846.614	4980
846.75	4968
846.886	4968
847.022	5132
847.158	5006
847.294	5037
847.429	5105
847.565	5018
847.701	5349
847.837	4885
847.972	4824
848.108	4965
848.244	4904
848.379	4759
848.515	4736
848.65	4694
848.786	4763
848.921	4767
849.057	4850
849.192	4984
849.328	4782
849.463	4820
849.598	4782
849.734	4824
849.869	4717
850.004	4649
850.14	4668
850.275	4558
850.41	4504
850.545	4588
850.68	4596
850.815	4649
850.95	4577
851.085	4805
851.22	4767
851.355	4637
851.49	4622
851.625	4634
851.76	4634
851.895	4546
852.03	4550
852.165	4664
852.299	4721
852.434	4771
852.569	4702
852.703	4733
852.838	4816
852.973	4911
853.107	4873
853.242	4698
853.376	4645
853.511	4538
853.645	4618
853.78	4862
853.914	4679
854.048	4607
854.183	4622
854.317	4683
854.451	4866
854.585	4637
854.72	4641
854.854	4748
854.988	4550
855.122	4618
855.256	4538
855.39	4626
855.524	4755
855.658	4706
855.792	4721
855.926	4752
856.06	4786
856.194	4801
856.327	4706
856.461	4596
856.595	4641
856.729	4630
856.862	4714
856.996	4641
857.13	4717
857.263	4816
857.397	4824
857.53	4675
857.664	4771
857.797	4752
857.931	4786
858.064	4672
858.197	4744
858.331	4672
858.464	4615
858.597	4531
858.731	4615
858.864	4687
858.997	4573
859.13	4672
859.263	4679
859.396	4733
859.529	4565
859.662	4554
859.795	4508
859.928	4634
860.061	4790
860.194	4744
860.327	4599
860.46	4573
860.592	4733
860.725	4729
860.858	4672
860.99	4558
861.123	4508
861.256	4538
861.388	4599
861.521	5311
861.653	4451
861.786	4424
861.918	4459
862.05	4577
862.183	4516
862.315	4634
862.447	4668
862.58	4519
862.712	4402
862.844	4314
862.976	4481
863.108	4424
863.24	4877
863.372	4314
863.504	4390
863.636	4417
863.768	4440
863.9	4443
864.032	4360
864.164	4383
864.296	4470
864.428	4550
864.559	4542
864.691	4550
864.823	4523
864.954	4478
865.086	4504
865.217	4440
865.349	4466
865.48	4440
865.612	4504
865.743	4611
865.875	4470
866.006	4390
866.137	4462
866.269	4440
866.4	4497
866.531	4409
866.662	4390
866.793	4352
866.924	4417
867.055	4462
867.186	4436
867.317	4409
867.448	4363
867.579	4379
867.71	4394
867.841	4348
867.972	4443
868.103	4470
868.233	4428
868.364	4493
868.495	4523
868.625	4694
868.756	4759
868.886	4546
869.017	4573
869.147	4721
869.278	4721
869.408	4687
869.539	4634
869.669	4714
869.799	4656
869.929	4767
870.06	4706
870.19	4949
870.32	4934
870.45	4965
870.58	4965
870.71	5071
870.84	5045
870.97	4915
871.1	4862
871.23	5121
871.36	5105
871.489	4987
871.619	5060
871.749	5098
871.879	5159
872.008	5204
872.138	5109
872.267	4965
872.397	4805
872.526	4816
872.656	4744
872.785	4831
872.915	4953
873.044	4984
873.173	4946
873.303	5033
873.432	4934
873.561	4881
873.69	4896
873.819	4854
873.948	4923
874.077	4797
874.206	4748
874.335	4835
874.464	4919
874.593	5014
874.722	4919
874.851	5090
874.979	5060
875.108	5064
875.237	4892
875.365	4847
875.494	4862
875.623	4980
875.751	4828
875.88	4835
876.008	4953
876.136	5045
876.265	5181
876.393	5330
876.521	5216
876.65	5277
876.778	5193
876.906	5048
877.034	5003
877.162	5060
877.29	4987
877.418	5029
877.546	5048
877.674	5029
877.802	5033
877.93	5022
878.058	4942
878.185	4873
878.313	4957
878.441	4942
878.568	4767
878.696	4862
878.824	4908
878.951	4987
879.079	5124
879.206	5326
879.333	5109
879.461	4987
879.588	4961
879.715	5136
879.842	5170
879.97	4972
880.097	4801
880.224	4691
880.351	4744
880.478	4858
880.605	4763
880.732	4771
880.859	5052
880.986	4904
881.112	4908
881.239	4740
881.366	4626
881.493	4577
881.619	4584
881.746	4588
881.872	4645
881.999	4634
882.125	4687
882.252	4759
882.378	4862
882.505	4949
882.631	4729
882.757	4656
882.883	4679
883.01	4717
883.136	4653
883.262	4607
883.388	4618
883.514	4805
883.64	4839
883.766	4774
883.892	4626
884.018	4725
884.143	4911
884.269	5010
884.395	4664
884.52	4622
884.646	4664
884.772	4573
884.897	4599
885.023	4694
885.148	4698
885.274	4862
885.399	4782
885.524	4710
885.65	4702
885.775	4740
885.9	4740
886.025	4816
886.15	4786
886.275	4733
886.4	4656
886.525	4729
886.65	4687
886.775	4660
886.9	4919
887.025	4991
887.149	4755
887.274	4668
887.399	4558
887.523	4618
887.648	4569
887.773	4580
887.897	4744
888.021	4755
888.146	4649
888.27	4866
888.395	4915
888.519	4801
888.643	4843
888.767	4778
888.891	4645
889.015	4618
889.139	4664
889.263	4588
889.387	4740
889.511	4885
889.635	4801
889.759	4641
889.883	4634
890.006	4710
890.13	4809
890.254	4599
890.377	4645
890.501	4577
890.624	4485
890.748	4664
890.871	4531
890.995	4428
891.118	4337
891.241	4523
891.364	4565
891.488	4622
891.611	4489
891.734	4527
891.857	4630
891.98	4569
892.103	4607
892.226	4577
892.349	4512
892.471	4371
892.594	4531
892.717	4611
892.839	4558
892.962	4615
893.085	4660
893.207	4592
893.33	4451
893.452	4500
893.575	4622
893.697	4561
893.819	4774
893.941	4858
894.064	4786
894.186	4550
894.308	4584
894.43	4759
894.552	4896
894.674	4786
894.796	4519
894.918	4573
895.04	4519
895.161	4714
895.283	4691
895.405	4592
895.526	4615
895.648	4736
895.769	4653
895.891	4706
896.012	4774
896.134	4683
896.255	4656
896.376	4577
896.498	4615
896.619	4694
896.74	4626
896.861	4603
896.982	4885
897.103	5083
897.224	4812
897.345	4786
897.466	4649
897.587	4702
897.708	4816
897.828	4748
897.949	4634
898.07	4535
898.19	4645
898.311	4858
898.431	4660
898.552	4744
898.672	4763
898.792	4820
898.913	4725
899.033	4645
899.153	4558
899.273	4447
899.393	4474
899.513	4527
899.633	4538
899.753	4516
899.873	4538
899.993	4542
900.113	4569
900.232	4565
900.352	4546
900.472	4497
900.591	4436
900.711	4478
900.83	4424
900.95	4607
901.069	4637
901.189	4531
901.308	4341
901.427	4341
901.546	4424
901.665	4447
901.784	4500
901.904	4367
902.023	4314
902.141	4234
902.26	4162
902.379	4341
902.498	4192
902.617	4211
902.735	4379
902.854	4383
902.973	4363
903.091	4185
903.21	4192
903.328	4291
903.446	4287
903.565	4299
903.683	4341
903.801	4276
903.919	4440
904.038	4413
904.156	4337
904.274	4470
904.392	4432
904.51	4470
904.627	4424
904.745	4577
904.863	4645
904.981	4409
905.098	4295
905.216	4421
905.334	4417
905.451	4474
905.569	4462
905.686	4561
905.803	4603
905.921	4424
906.038	4546
906.155	4508
906.272	4421
906.389	4447
906.506	4295
906.623	4348
906.74	4413
906.857	4280
906.974	4371
907.091	4592
907.208	4679
907.324	4512
907.441	4542
907.557	4352
907.674	4325
907.79	4287
907.907	4398
908.023	4440
908.139	4516
908.256	4413
908.372	4440
908.488	4421
908.604	4367
908.72	4303
908.836	4371
908.952	4371
909.068	4447
909.184	4561
909.3	4474
909.415	4596
909.531	4538
909.647	4386
909.762	4310
909.878	4348
909.993	4481
910.108	4424
910.224	4428
910.339	4500
910.454	4432
910.57	4341
910.685	4310
910.8	4653
910.915	4603
911.03	4500
911.145	4253
911.259	4318
911.374	4394
911.489	4268
911.604	4272
911.718	4188
911.833	4169
911.947	4074
912.062	4029
912.176	4261
912.291	4223
912.405	4253
912.519	4470
912.633	4516
912.748	4375
912.862	4268
912.976	4234
913.09	4105
913.204	4128
913.318	4227
913.431	4402
913.545	4367
913.659	4432
913.772	4390
913.886	4249
914	4204
914.113	4405
914.226	4432
914.34	4398
914.453	4268
914.566	4447
914.68	4287
914.793	4329
914.906	4181
915.019	4097
915.132	4097
915.245	4135
915.358	4147
915.47	4219
915.583	4238
915.696	4344
915.809	4383
915.921	4424
916.034	4280
916.146	4299
916.259	4211
916.371	4371
916.483	4337
916.595	4299
916.708	4318
916.82	4325
916.932	4352
917.044	4337
917.156	4352
917.268	4207
917.38	4230
917.491	4299
917.603	4356
917.715	4394
917.826	4443
917.938	4390
918.049	4284
918.161	4348
918.272	4527
918.384	4504
918.495	4447
918.606	4360
918.717	4223
918.828	4348
918.939	4367
919.05	4265
919.161	4325
919.272	4120
919.383	4207
919.494	4455
919.604	4596
919.715	4398
919.826	4306
919.936	4424
920.047	4489
920.157	4504
920.267	4706
920.378	4554
920.488	4512
920.598	4717
920.708	4862
920.818	4740
920.928	4755
921.038	4915
921.148	4896
921.258	4615
921.368	4573
921.477	4497
921.587	4447
921.697	4386
921.806	4554
921.916	4417
922.025	4223
922.134	4257
922.244	4223
922.353	4322
922.462	4181
922.571	4150
922.68	4006
922.789	3987
922.898	4036
923.007	4006
923.116	4067
923.224	4082
923.333	4048
923.442	3991
923.55	3998
923.659	4002
923.767	4128
923.876	4010
923.984	4154
924.092	3994
924.201	4131
924.309	4109
924.417	4116
924.525	4032
924.633	4078
924.741	5045
924.849	3896
924.956	4097
925.064	3968
925.172	3873
925.279	3953
925.387	4010
925.494	4017
925.602	4249
925.709	4185
925.816	4040
925.924	4124
926.031	4246
926.138	4116
926.245	4181
926.352	4067
926.459	4227
926.566	4325
926.673	4158
926.779	4105
926.886	4063
926.993	3956
927.099	3937
927.206	3945
927.312	3903
927.419	4040
927.525	4097
927.631	4116
927.737	3987
927.843	3968
927.95	3850
928.056	3949
928.162	3960
928.267	4029
928.373	4569
928.479	4105
928.585	3869
928.69	4029
928.796	4124
928.901	3964
929.007	3854
929.112	3998
929.218	4002
929.323	3930
929.428	3922
929.533	4101
929.638	3838
929.743	3941
929.848	4055
929.953	4032
930.058	3899
930.163	3797
930.267	3838
930.372	3953
930.477	3778
930.581	4116
930.685	3926
930.79	3781
930.894	3892
930.998	3865
931.103	3998
931.207	3713
931.311	3663
931.415	3652
931.519	3511
931.623	3561
