Data from test_V78500241_1980.txt Node
Date: Fri Mar 25 17:02:46 CST 2022
User: usil
Spectrometer: V785-0024
Trigger mode: 0
Integration Time (sec): 4.000000E-1
Scans to average: 1
Nonlinearity correction enabled: false
Boxcar width: 0
Storing dark spectrum: false
XAxis mode: Wavelengths
Number of Pixels in Spectrum: 1024
>>>>>Begin Spectral Data<<<<<
801.071	7928
801.214	7940
801.356	7856
801.499	7837
801.641	7879
801.783	7799
801.926	7913
802.068	7856
802.211	7947
802.353	7982
802.496	7856
802.638	7837
802.78	7841
802.923	7887
803.065	7879
803.208	7860
803.35	7986
803.492	8081
803.635	8107
803.777	7936
803.919	7997
804.061	8461
804.204	8225
804.346	8039
804.488	7917
804.63	8084
804.773	7940
804.915	8084
805.057	8320
805.199	8149
805.341	8233
805.483	8229
805.626	8130
805.768	8092
805.91	8172
806.052	8168
806.194	8119
806.336	8237
806.478	8058
806.62	8024
806.762	8149
806.904	8176
807.046	8469
807.188	8415
807.33	8275
807.472	8324
807.614	8130
807.756	8157
807.898	7947
808.04	7871
808.182	7879
808.324	7849
808.465	7951
808.607	8012
808.749	8115
808.891	8233
809.033	8301
809.174	8214
809.316	8103
809.458	8039
809.6	8100
809.741	8077
809.883	8043
810.025	8084
810.166	8012
810.308	8016
810.45	7909
810.591	7852
810.733	7658
810.875	7712
811.016	7506
811.158	7453
811.299	7506
811.441	7731
811.582	7708
811.724	7552
811.865	7556
812.007	7540
812.148	7609
812.29	7647
812.431	7681
812.573	7879
812.714	7947
812.855	8100
812.997	8161
813.138	8206
813.279	8195
813.421	8027
813.562	7947
813.703	7753
813.845	7704
813.986	7457
814.127	7236
814.268	7232
814.41	7209
814.551	7221
814.692	7202
814.833	7107
814.974	7145
815.115	7141
815.256	6966
815.397	6856
815.539	6954
815.68	6783
815.821	6776
815.962	6897
816.103	6779
816.244	6719
816.385	6616
816.526	6646
816.666	6483
816.807	6323
816.948	6407
817.089	6456
817.23	6460
817.371	6357
817.512	6410
817.653	6365
817.793	6448
817.934	6376
818.075	6418
818.216	6422
818.356	6414
818.497	6292
818.638	6133
818.778	6182
818.919	6087
819.06	6106
819.2	6334
819.341	6300
819.481	6338
819.622	6566
819.762	6684
819.903	6635
820.043	6593
820.184	6540
820.324	6559
820.465	6707
820.605	6684
820.746	6669
820.886	6528
821.026	6616
821.167	6726
821.307	6772
821.447	6764
821.588	6684
821.728	6608
821.868	6513
822.008	6338
822.149	6433
822.289	6300
822.429	6167
822.569	6068
822.709	6102
822.849	5973
822.99	5885
823.13	5847
823.27	5920
823.41	5817
823.55	5733
823.69	5767
823.83	5798
823.97	5668
824.11	5551
824.25	5528
824.389	5558
824.529	5573
824.669	5516
824.809	5581
824.949	5619
825.089	5581
825.228	5524
825.368	5402
825.508	5318
825.648	5353
825.787	5360
825.927	5383
826.067	5299
826.206	5288
826.346	5341
826.485	5387
826.625	5379
826.765	5501
826.904	5455
827.044	5235
827.183	5147
827.323	5147
827.462	5220
827.601	5140
827.741	5132
827.88	5231
828.02	5109
828.159	5197
828.298	5349
828.437	5379
828.577	5269
828.716	5452
828.855	5307
828.994	5185
829.134	5079
829.273	5166
829.412	5159
829.551	5098
829.69	5193
829.829	5204
829.968	5391
830.107	5258
830.246	5292
830.385	5132
830.524	5113
830.663	5090
830.802	4991
830.941	4858
831.08	4896
831.219	4995
831.357	4927
831.496	5143
831.635	4911
831.774	4805
831.913	4831
832.051	4729
832.19	4736
832.329	4839
832.467	4675
832.606	4641
832.744	4683
832.883	4744
833.022	4679
833.16	4805
833.299	4797
833.437	4805
833.576	4847
833.714	4828
833.852	4862
833.991	4938
834.129	4934
834.267	4957
834.406	4896
834.544	4980
834.682	4984
834.821	4953
834.959	5181
835.097	4953
835.235	5220
835.373	5060
835.511	5117
835.65	5018
835.788	5029
835.926	4915
836.064	4816
836.202	4938
836.34	5178
836.478	5193
836.615	5162
836.753	5162
836.891	5223
837.029	5227
837.167	5193
837.305	5121
837.443	5117
837.58	5071
837.718	5269
837.856	5159
837.993	5159
838.131	5250
838.269	5174
838.406	5178
838.544	5181
838.681	4991
838.819	4999
838.956	4896
839.094	4877
839.231	4991
839.369	5052
839.506	5429
839.643	5273
839.781	5033
839.918	5029
840.055	5094
840.193	5090
840.33	5056
840.467	5102
840.604	5166
840.742	5436
840.879	5064
841.016	5105
841.153	5117
841.29	5345
841.427	5303
841.564	5265
841.701	5303
841.838	5280
841.975	5231
842.112	5250
842.249	5128
842.385	5086
842.522	5292
842.659	5132
842.796	5166
842.933	5197
843.069	5140
843.206	5124
843.343	5288
843.479	5250
843.616	5296
843.752	5025
843.889	5003
844.025	5181
844.162	5003
844.298	5212
844.435	5090
844.571	5014
844.708	5147
844.844	5311
844.98	5349
845.117	5280
845.253	5094
845.389	5086
845.525	5143
845.661	5147
845.798	5048
845.934	5102
846.07	5079
846.206	5166
846.342	5315
846.478	5197
846.614	5033
846.75	4957
846.886	4942
847.022	5143
847.158	5003
847.294	5060
847.429	5155
847.565	5048
847.701	5288
847.837	4900
847.972	4801
848.108	4930
848.244	4885
848.379	4721
848.515	4752
848.65	4706
848.786	4710
848.921	4759
849.057	4908
849.192	4911
849.328	4782
849.463	4839
849.598	4835
849.734	4771
849.869	4672
850.004	4607
850.14	4675
850.275	4588
850.41	4573
850.545	4599
850.68	4615
850.815	4577
850.95	4615
851.085	4782
851.22	4767
851.355	4634
851.49	4653
851.625	4596
851.76	4653
851.895	4512
852.03	4546
852.165	4683
852.299	4736
852.434	4797
852.569	4744
852.703	4774
852.838	4858
852.973	4946
853.107	4858
853.242	4714
853.376	4687
853.511	4550
853.645	4637
853.78	4805
853.914	4679
854.048	4698
854.183	4626
854.317	4683
854.451	4866
854.585	4626
854.72	4634
854.854	4782
854.988	4596
855.122	4645
855.256	4527
855.39	4668
855.524	4809
855.658	4683
855.792	4721
855.926	4767
856.06	4767
856.194	4816
856.327	4729
856.461	4561
856.595	4637
856.729	4611
856.862	4771
856.996	4710
857.13	4683
857.263	4790
857.397	4809
857.53	4683
857.664	4675
857.797	4733
857.931	4786
858.064	4637
858.197	4714
858.331	4588
858.464	4611
858.597	4516
858.731	4641
858.864	4626
858.997	4554
859.13	4622
859.263	4656
859.396	4714
859.529	4660
859.662	4637
859.795	4561
859.928	4611
860.061	4801
860.194	4755
860.327	4664
860.46	4546
860.592	4656
860.725	4744
860.858	4763
860.99	4573
861.123	4546
861.256	4523
861.388	4641
861.521	5151
861.653	4466
861.786	4417
861.918	4451
862.05	4470
862.183	4584
862.315	4584
862.447	4679
862.58	4500
862.712	4356
862.844	4341
862.976	4500
863.108	4466
863.24	4790
863.372	4367
863.504	4443
863.636	4436
863.768	4512
863.9	4447
864.032	4352
864.164	4390
864.296	4424
864.428	4542
864.559	4508
864.691	4561
864.823	4489
864.954	4493
865.086	4485
865.217	4421
865.349	4474
865.48	4481
865.612	4466
865.743	4668
865.875	4443
866.006	4394
866.137	4424
866.269	4455
866.4	4459
866.531	4428
866.662	4367
866.793	4348
866.924	4428
867.055	4470
867.186	4470
867.317	4390
867.448	4356
867.579	4394
867.71	4375
867.841	4341
867.972	4405
868.103	4394
868.233	4405
868.364	4451
868.495	4500
868.625	4656
868.756	4725
868.886	4618
869.017	4653
869.147	4786
869.278	4759
869.408	4694
869.539	4588
869.669	4740
869.799	4672
869.929	4744
870.06	4771
870.19	4896
870.32	4949
870.45	4911
870.58	4999
870.71	5060
870.84	5109
870.97	4976
871.1	4843
871.23	5113
871.36	5147
871.489	5029
871.619	5022
871.749	5075
871.879	5166
872.008	5193
872.138	5071
872.267	4991
872.397	4870
872.526	4805
872.656	4706
872.785	4809
872.915	4976
873.044	5056
873.173	4904
873.303	4908
873.432	4995
873.561	4919
873.69	4881
873.819	4843
873.948	4866
874.077	4854
874.206	4809
874.335	4797
874.464	4930
874.593	5006
874.722	4923
874.851	5064
874.979	5048
875.108	4987
875.237	4911
875.365	4873
875.494	4900
875.623	5045
875.751	4850
875.88	4854
876.008	4953
876.136	5052
876.265	5181
876.393	5311
876.521	5254
876.65	5220
876.778	5193
876.906	5052
877.034	5075
877.162	5045
877.29	4976
877.418	5022
877.546	5018
877.674	5056
877.802	5045
877.93	4984
878.058	4900
878.185	4877
878.313	4911
878.441	4911
878.568	4786
878.696	4850
878.824	5006
878.951	4976
879.079	5109
879.206	5277
879.333	5128
879.461	4976
879.588	5018
879.715	5117
879.842	5189
879.97	4995
880.097	4820
880.224	4725
880.351	4774
880.478	4782
880.605	4771
880.732	4778
880.859	5052
880.986	4862
881.112	4904
881.239	4710
881.366	4698
881.493	4615
881.619	4580
881.746	4653
881.872	4683
881.999	4615
882.125	4710
882.252	4801
882.378	4797
882.505	4965
882.631	4763
882.757	4675
882.883	4714
883.01	4744
883.136	4653
883.262	4637
883.388	4611
883.514	4816
883.64	4904
883.766	4782
883.892	4672
884.018	4702
884.143	4927
884.269	4991
884.395	4668
884.52	4603
884.646	4694
884.772	4569
884.897	4580
885.023	4634
885.148	4771
885.274	4854
885.399	4805
885.524	4706
885.65	4698
885.775	4691
885.9	4717
886.025	4805
886.15	4740
886.275	4717
886.4	4660
886.525	4752
886.65	4706
886.775	4668
886.9	4847
887.025	4991
887.149	4782
887.274	4660
887.399	4577
887.523	4565
887.648	4584
887.773	4592
887.897	4755
888.021	4797
888.146	4672
888.27	4835
888.395	4885
888.519	4771
888.643	4812
888.767	4835
888.891	4706
889.015	4607
889.139	4649
889.263	4622
889.387	4767
889.511	4809
889.635	4778
889.759	4634
889.883	4645
890.006	4717
890.13	4809
890.254	4641
890.377	4660
890.501	4523
890.624	4531
890.748	4641
890.871	4512
890.995	4443
891.118	4348
891.241	4527
891.364	4531
891.488	4641
891.611	4516
891.734	4550
891.857	4618
891.98	4565
892.103	4710
892.226	4584
892.349	4538
892.471	4375
892.594	4584
892.717	4592
892.839	4561
892.962	4615
893.085	4611
893.207	4584
893.33	4485
893.452	4512
893.575	4679
893.697	4569
893.819	4767
893.941	4831
894.064	4740
894.186	4573
894.308	4550
894.43	4717
894.552	4771
894.674	4835
894.796	4565
894.918	4569
895.04	4561
895.161	4721
895.283	4615
895.405	4542
895.526	4645
895.648	4675
895.769	4668
895.891	4683
896.012	4698
896.134	4740
896.255	4618
896.376	4634
896.498	4649
896.619	4637
896.74	4649
896.861	4641
896.982	4957
897.103	5071
897.224	4801
897.345	4702
897.466	4637
897.587	4733
897.708	4908
897.828	4782
897.949	4634
898.07	4554
898.19	4630
898.311	4812
898.431	4656
898.552	4729
898.672	4805
898.792	4778
898.913	4717
899.033	4641
899.153	4478
899.273	4451
899.393	4531
899.513	4500
899.633	4538
899.753	4558
899.873	4519
899.993	4599
900.113	4538
900.232	4527
900.352	4550
900.472	4493
900.591	4341
900.711	4474
900.83	4466
900.95	4596
901.069	4653
901.189	4527
901.308	4394
901.427	4299
901.546	4337
901.665	4519
901.784	4516
901.904	4299
902.023	4322
902.141	4166
902.26	4162
902.379	4280
902.498	4253
902.617	4246
902.735	4379
902.854	4386
902.973	4314
903.091	4181
903.21	4272
903.328	4348
903.446	4314
903.565	4230
903.683	4325
903.801	4284
903.919	4363
904.038	4367
904.156	4291
904.274	4405
904.392	4417
904.51	4478
904.627	4421
904.745	4588
904.863	4615
904.981	4417
905.098	4284
905.216	4379
905.334	4417
905.451	4417
905.569	4360
905.686	4546
905.803	4603
905.921	4447
906.038	4558
906.155	4497
906.272	4413
906.389	4409
906.506	4341
906.623	4360
906.74	4428
906.857	4268
906.974	4371
907.091	4542
907.208	4702
907.324	4596
907.441	4527
907.557	4344
907.674	4291
907.79	4303
907.907	4409
908.023	4470
908.139	4489
908.256	4417
908.372	4455
908.488	4440
908.604	4375
908.72	4322
908.836	4375
908.952	4348
909.068	4462
909.184	4573
909.3	4512
909.415	4584
909.531	4538
909.647	4337
909.762	4352
909.878	4276
909.993	4383
910.108	4424
910.224	4398
910.339	4485
910.454	4413
910.57	4333
910.685	4306
910.8	4668
910.915	4584
911.03	4493
911.145	4337
911.259	4291
911.374	4405
911.489	4303
911.604	4219
911.718	4162
911.833	4219
911.947	4116
912.062	4036
912.176	4162
912.291	4242
912.405	4219
912.519	4440
912.633	4489
912.748	4379
912.862	4306
912.976	4188
913.09	4109
913.204	4185
913.318	4257
913.431	4394
913.545	4371
913.659	4455
913.772	4344
913.886	4196
914	4249
914.113	4386
914.226	4394
914.34	4424
914.453	4238
914.566	4398
914.68	4276
914.793	4337
914.906	4116
915.019	4097
915.132	4109
915.245	4185
915.358	4169
915.47	4284
915.583	4246
915.696	4295
915.809	4360
915.921	4440
916.034	4303
916.146	4284
916.259	4204
916.371	4371
916.483	4341
916.595	4242
916.708	4299
916.82	4333
916.932	4341
917.044	4318
917.156	4360
917.268	4230
917.38	4314
917.491	4261
917.603	4337
917.715	4394
917.826	4432
917.938	4383
918.049	4215
918.161	4379
918.272	4535
918.384	4527
918.495	4478
918.606	4310
918.717	4223
918.828	4329
918.939	4352
919.05	4257
919.161	4329
919.272	4154
919.383	4234
919.494	4447
919.604	4607
919.715	4398
919.826	4371
919.936	4424
920.047	4508
920.157	4508
920.267	4683
920.378	4584
920.488	4500
920.598	4736
920.708	4904
920.818	4725
920.928	4725
921.038	4942
921.148	4858
921.258	4637
921.368	4561
921.477	4462
921.587	4394
921.697	4383
921.806	4565
921.916	4360
922.025	4204
922.134	4276
922.244	4185
922.353	4310
922.462	4177
922.571	4154
922.68	4025
922.789	3960
922.898	4059
923.007	3998
923.116	4120
923.224	4093
923.333	4086
923.442	3964
923.55	3941
923.659	4013
923.767	4078
923.876	3960
923.984	4078
924.092	3941
924.201	4059
924.309	4078
924.417	4097
924.525	4036
924.633	4032
924.741	5022
924.849	3915
924.956	4128
925.064	3941
925.172	3892
925.279	3941
925.387	4040
925.494	4082
925.602	4192
925.709	4177
925.816	3983
925.924	4101
926.031	4215
926.138	4181
926.245	4166
926.352	4109
926.459	4230
926.566	4265
926.673	4162
926.779	4093
926.886	4067
926.993	3991
927.099	3930
927.206	3956
927.312	3930
927.419	4044
927.525	4013
927.631	4032
927.737	3922
927.843	3915
927.95	3896
928.056	3956
928.162	4021
928.267	4090
928.373	4630
928.479	4105
928.585	3861
928.69	3975
928.796	4090
928.901	4017
929.007	3827
929.112	4036
929.218	3979
929.323	3941
929.428	3911
929.533	4093
929.638	3926
929.743	3991
929.848	4067
929.953	3991
930.058	3945
930.163	3755
930.267	3838
930.372	4002
930.477	3808
930.581	4101
930.685	3941
930.79	3861
930.894	3880
930.998	3873
931.103	3994
931.207	3690
931.311	3732
931.415	3694
931.519	3515
931.623	3500
