Data from test_V78500241_920.txt Node
Date: Fri Mar 25 16:55:23 CST 2022
User: usil
Spectrometer: V785-0024
Trigger mode: 0
Integration Time (sec): 4.000000E-1
Scans to average: 1
Nonlinearity correction enabled: false
Boxcar width: 0
Storing dark spectrum: false
XAxis mode: Wavelengths
Number of Pixels in Spectrum: 1024
>>>>>Begin Spectral Data<<<<<
801.071	8062
801.214	8096
801.356	7921
801.499	7890
801.641	7833
801.783	7845
801.926	8005
802.068	7967
802.211	7967
802.353	7936
802.496	7833
802.638	7875
802.78	7955
802.923	7963
803.065	7887
803.208	7959
803.35	7993
803.492	8119
803.635	8229
803.777	8039
803.919	8157
804.061	8438
804.204	8123
804.346	8031
804.488	7989
804.63	8069
804.773	8024
804.915	8115
805.057	8286
805.199	8161
805.341	8195
805.483	8214
805.626	8164
805.768	8081
805.91	8145
806.052	8191
806.194	8084
806.336	8271
806.478	8081
806.62	8054
806.762	8168
806.904	8271
807.046	8499
807.188	8324
807.33	8199
807.472	8244
807.614	8195
807.756	8107
807.898	7997
808.04	7871
808.182	7913
808.324	7860
808.465	7871
808.607	8039
808.749	8115
808.891	8199
809.033	8313
809.174	8138
809.316	8062
809.458	8027
809.6	8027
809.741	7955
809.883	8027
810.025	8065
810.166	8069
810.308	8084
810.45	7967
810.591	7898
810.733	7681
810.875	7658
811.016	7495
811.158	7483
811.299	7571
811.441	7685
811.582	7727
811.724	7624
811.865	7499
812.007	7632
812.148	7571
812.29	7632
812.431	7727
812.573	7818
812.714	7940
812.855	8092
812.997	8225
813.138	8259
813.279	8237
813.421	8084
813.562	7982
813.703	7890
813.845	7753
813.986	7460
814.127	7282
814.268	7190
814.41	7198
814.551	7129
814.692	7084
814.833	6981
814.974	7053
815.115	7084
815.256	6958
815.397	6897
815.539	6951
815.68	6825
815.821	6795
815.962	6856
816.103	6749
816.244	6745
816.385	6627
816.526	6601
816.666	6532
816.807	6315
816.948	6388
817.089	6460
817.23	6410
817.371	6327
817.512	6391
817.653	6369
817.793	6399
817.934	6346
818.075	6475
818.216	6418
818.356	6372
818.497	6281
818.638	6125
818.778	6152
818.919	6148
819.06	6114
819.2	6281
819.341	6285
819.481	6315
819.622	6528
819.762	6654
819.903	6688
820.043	6589
820.184	6551
820.324	6604
820.465	6662
820.605	6650
820.746	6608
820.886	6555
821.026	6620
821.167	6749
821.307	6779
821.447	6760
821.588	6703
821.728	6593
821.868	6460
822.008	6311
822.149	6414
822.289	6308
822.429	6152
822.569	6125
822.709	6167
822.849	5889
822.99	5935
823.13	5961
823.27	5920
823.41	5805
823.55	5775
823.69	5851
823.83	5821
823.97	5733
824.11	5516
824.25	5551
824.389	5532
824.529	5604
824.669	5543
824.809	5672
824.949	5752
825.089	5627
825.228	5623
825.368	5482
825.508	5364
825.648	5398
825.787	5414
825.927	5395
826.067	5307
826.206	5334
826.346	5395
826.485	5444
826.625	5410
826.765	5573
826.904	5505
827.044	5246
827.183	5204
827.323	5166
827.462	5296
827.601	5208
827.741	5208
827.88	5231
828.02	5136
828.159	5341
828.298	5303
828.437	5357
828.577	5318
828.716	5543
828.855	5372
828.994	5178
829.134	5170
829.273	5223
829.412	5185
829.551	5220
829.69	5166
829.829	5273
829.968	5364
830.107	5288
830.246	5280
830.385	5212
830.524	5166
830.663	5132
830.802	5006
830.941	4889
831.08	4877
831.219	5029
831.357	5029
831.496	5250
831.635	4968
831.774	4862
831.913	4896
832.051	4714
832.19	4755
832.329	4854
832.467	4748
832.606	4653
832.744	4809
832.883	4748
833.022	4706
833.16	4812
833.299	4847
833.437	4816
833.576	4923
833.714	4915
833.852	4934
833.991	4930
834.129	4961
834.267	4949
834.406	4942
834.544	5025
834.682	4995
834.821	4976
834.959	5159
835.097	4976
835.235	5147
835.373	5079
835.511	5128
835.65	5052
835.788	5064
835.926	4923
836.064	4892
836.202	4957
836.34	5170
836.478	5239
836.615	5189
836.753	5242
836.891	5307
837.029	5265
837.167	5254
837.305	5193
837.443	5185
837.58	5102
837.718	5284
837.856	5250
837.993	5185
838.131	5239
838.269	5204
838.406	5197
838.544	5223
838.681	5045
838.819	5067
838.956	4873
839.094	4942
839.231	5022
839.369	5086
839.506	5471
839.643	5269
839.781	5060
839.918	5048
840.055	5140
840.193	5151
840.33	5105
840.467	5208
840.604	5185
840.742	5474
840.879	5060
841.016	5075
841.153	5181
841.29	5383
841.427	5387
841.564	5273
841.701	5345
841.838	5265
841.975	5269
842.112	5288
842.249	5155
842.385	5098
842.522	5376
842.659	5197
842.796	5162
842.933	5216
843.069	5113
843.206	5181
843.343	5379
843.479	5235
843.616	5239
843.752	5086
843.889	5056
844.025	5235
844.162	5067
844.298	5231
844.435	5067
844.571	5090
844.708	5235
844.844	5318
844.98	5379
845.117	5307
845.253	5143
845.389	5098
845.525	5166
845.661	5174
845.798	5117
845.934	5147
846.07	5086
846.206	5220
846.342	5284
846.478	5174
846.614	5071
846.75	4987
846.886	4949
847.022	5143
847.158	5048
847.294	5117
847.429	5117
847.565	5071
847.701	5296
847.837	4900
847.972	4805
848.108	4953
848.244	4953
848.379	4805
848.515	4733
848.65	4752
848.786	4801
848.921	4752
849.057	4843
849.192	4930
849.328	4828
849.463	4831
849.598	4809
849.734	4835
849.869	4702
850.004	4637
850.14	4672
850.275	4634
850.41	4592
850.545	4603
850.68	4615
850.815	4607
850.95	4687
851.085	4881
851.22	4778
851.355	4698
851.49	4599
851.625	4637
851.76	4634
851.895	4603
852.03	4561
852.165	4660
852.299	4752
852.434	4790
852.569	4717
852.703	4755
852.838	4828
852.973	4885
853.107	4946
853.242	4801
853.376	4675
853.511	4580
853.645	4725
853.78	4820
853.914	4729
854.048	4710
854.183	4672
854.317	4721
854.451	4866
854.585	4672
854.72	4668
854.854	4809
854.988	4637
855.122	4660
855.256	4516
855.39	4694
855.524	4771
855.658	4759
855.792	4729
855.926	4736
856.06	4805
856.194	4858
856.327	4660
856.461	4641
856.595	4637
856.729	4649
856.862	4740
856.996	4752
857.13	4748
857.263	4831
857.397	4847
857.53	4679
857.664	4710
857.797	4759
857.931	4801
858.064	4740
858.197	4778
858.331	4675
858.464	4607
858.597	4538
858.731	4649
858.864	4664
858.997	4588
859.13	4664
859.263	4653
859.396	4736
859.529	4504
859.662	4588
859.795	4531
859.928	4675
860.061	4828
860.194	4771
860.327	4645
860.46	4550
860.592	4717
860.725	4774
860.858	4740
860.99	4634
861.123	4565
861.256	4474
861.388	4649
861.521	5185
861.653	4508
861.786	4455
861.918	4462
862.05	4481
862.183	4542
862.315	4615
862.447	4656
862.58	4565
862.712	4428
862.844	4337
862.976	4470
863.108	4493
863.24	4801
863.372	4363
863.504	4451
863.636	4405
863.768	4516
863.9	4451
864.032	4432
864.164	4402
864.296	4478
864.428	4538
864.559	4569
864.691	4580
864.823	4508
864.954	4497
865.086	4447
865.217	4523
865.349	4481
865.48	4470
865.612	4500
865.743	4679
865.875	4481
866.006	4436
866.137	4478
866.269	4417
866.4	4459
866.531	4451
866.662	4417
866.793	4443
866.924	4417
867.055	4523
867.186	4523
867.317	4459
867.448	4363
867.579	4405
867.71	4394
867.841	4394
867.972	4512
868.103	4481
868.233	4451
868.364	4459
868.495	4504
868.625	4679
868.756	4767
868.886	4588
869.017	4626
869.147	4759
869.278	4820
869.408	4664
869.539	4672
869.669	4755
869.799	4649
869.929	4748
870.06	4748
870.19	4984
870.32	4923
870.45	4927
870.58	5052
870.71	5113
870.84	5102
870.97	4957
871.1	4870
871.23	5124
871.36	5128
871.489	5064
871.619	5140
871.749	5109
871.879	5197
872.008	5185
872.138	5086
872.267	5010
872.397	4862
872.526	4797
872.656	4710
872.785	4797
872.915	4953
873.044	5067
873.173	4904
873.303	4976
873.432	4995
873.561	4987
873.69	4911
873.819	4870
873.948	4927
874.077	4831
874.206	4774
874.335	4877
874.464	4908
874.593	5033
874.722	4961
874.851	5090
874.979	5121
875.108	5041
875.237	4980
875.365	4885
875.494	4919
875.623	4984
875.751	4854
875.88	4915
876.008	4995
876.136	5045
876.265	5159
876.393	5307
876.521	5284
876.65	5212
876.778	5113
876.906	5048
877.034	5041
877.162	5075
877.29	4991
877.418	4999
877.546	5022
877.674	5060
877.802	5006
877.93	5037
878.058	4923
878.185	4858
878.313	4968
878.441	4934
878.568	4790
878.696	4873
878.824	4949
878.951	5022
879.079	5109
879.206	5258
879.333	5117
879.461	4980
879.588	4968
879.715	5083
879.842	5201
879.97	5003
880.097	4816
880.224	4744
880.351	4824
880.478	4778
880.605	4831
880.732	4790
880.859	5029
880.986	4858
881.112	4915
881.239	4816
881.366	4691
881.493	4550
881.619	4596
881.746	4599
881.872	4641
881.999	4668
882.125	4664
882.252	4778
882.378	4816
882.505	4949
882.631	4854
882.757	4706
882.883	4767
883.01	4733
883.136	4698
883.262	4592
883.388	4626
883.514	4831
883.64	4831
883.766	4801
883.892	4714
884.018	4733
884.143	4892
884.269	5041
884.395	4672
884.52	4653
884.646	4615
884.772	4584
884.897	4573
885.023	4702
885.148	4797
885.274	4854
885.399	4866
885.524	4725
885.65	4702
885.775	4740
885.9	4759
886.025	4885
886.15	4744
886.275	4706
886.4	4664
886.525	4752
886.65	4694
886.775	4706
886.9	4850
887.025	5003
887.149	4797
887.274	4664
887.399	4565
887.523	4607
887.648	4584
887.773	4634
887.897	4820
888.021	4839
888.146	4668
888.27	4809
888.395	4946
888.519	4797
888.643	4824
888.767	4828
888.891	4687
889.015	4577
889.139	4660
889.263	4603
889.387	4736
889.511	4889
889.635	4778
889.759	4649
889.883	4626
890.006	4736
890.13	4854
890.254	4653
890.377	4645
890.501	4542
890.624	4527
890.748	4653
890.871	4493
890.995	4424
891.118	4417
891.241	4527
891.364	4508
891.488	4592
891.611	4523
891.734	4558
891.857	4565
891.98	4584
892.103	4645
892.226	4584
892.349	4538
892.471	4428
892.594	4580
892.717	4535
892.839	4615
892.962	4618
893.085	4675
893.207	4615
893.33	4470
893.452	4527
893.575	4637
893.697	4607
893.819	4767
893.941	4843
894.064	4771
894.186	4592
894.308	4554
894.43	4706
894.552	4782
894.674	4763
894.796	4516
894.918	4565
895.04	4584
895.161	4706
895.283	4660
895.405	4622
895.526	4645
895.648	4698
895.769	4675
895.891	4729
896.012	4755
896.134	4714
896.255	4698
896.376	4607
896.498	4653
896.619	4653
896.74	4584
896.861	4683
896.982	4961
897.103	5094
897.224	4831
897.345	4763
897.466	4653
897.587	4702
897.708	4866
897.828	4805
897.949	4634
898.07	4580
898.19	4596
898.311	4850
898.431	4675
898.552	4767
898.672	4816
898.792	4797
898.913	4721
899.033	4683
899.153	4504
899.273	4379
899.393	4470
899.513	4512
899.633	4497
899.753	4569
899.873	4489
899.993	4554
900.113	4500
900.232	4580
900.352	4523
900.472	4516
900.591	4413
900.711	4504
900.83	4432
900.95	4603
901.069	4679
901.189	4508
901.308	4348
901.427	4333
901.546	4356
901.665	4470
901.784	4584
901.904	4356
902.023	4344
902.141	4223
902.26	4147
902.379	4284
902.498	4276
902.617	4249
902.735	4352
902.854	4383
902.973	4348
903.091	4223
903.21	4227
903.328	4306
903.446	4272
903.565	4219
903.683	4390
903.801	4272
903.919	4402
904.038	4512
904.156	4325
904.274	4390
904.392	4356
904.51	4405
904.627	4451
904.745	4580
904.863	4584
904.981	4371
905.098	4299
905.216	4333
905.334	4386
905.451	4417
905.569	4443
905.686	4554
905.803	4561
905.921	4413
906.038	4512
906.155	4489
906.272	4390
906.389	4455
906.506	4337
906.623	4394
906.74	4421
906.857	4261
906.974	4390
907.091	4565
907.208	4702
907.324	4569
907.441	4512
907.557	4329
907.674	4363
907.79	4299
907.907	4363
908.023	4436
908.139	4436
908.256	4481
908.372	4478
908.488	4424
908.604	4360
908.72	4303
908.836	4363
908.952	4367
909.068	4394
909.184	4569
909.3	4474
909.415	4531
909.531	4527
909.647	4375
909.762	4375
909.878	4287
909.993	4451
910.108	4394
910.224	4375
910.339	4447
910.454	4428
910.57	4409
910.685	4306
910.8	4656
910.915	4550
911.03	4489
911.145	4352
911.259	4352
911.374	4360
911.489	4291
911.604	4276
911.718	4215
911.833	4204
911.947	4040
912.062	4002
912.176	4192
912.291	4242
912.405	4253
912.519	4474
912.633	4436
912.748	4371
912.862	4295
912.976	4204
913.09	4105
913.204	4211
913.318	4261
913.431	4344
913.545	4333
913.659	4432
913.772	4322
913.886	4242
914	4223
914.113	4344
914.226	4383
914.34	4443
914.453	4211
914.566	4417
914.68	4265
914.793	4325
914.906	4124
915.019	4090
915.132	4143
915.245	4181
915.358	4223
915.47	4242
915.583	4230
915.696	4265
915.809	4409
915.921	4383
916.034	4265
916.146	4299
916.259	4211
916.371	4371
916.483	4367
916.595	4253
916.708	4325
916.82	4379
916.932	4344
917.044	4318
917.156	4318
917.268	4200
917.38	4280
917.491	4242
917.603	4333
917.715	4417
917.826	4440
917.938	4360
918.049	4227
918.161	4383
918.272	4474
918.384	4550
918.495	4443
918.606	4284
918.717	4230
918.828	4314
918.939	4360
919.05	4253
919.161	4325
919.272	4116
919.383	4280
919.494	4428
919.604	4626
919.715	4451
919.826	4325
919.936	4329
920.047	4531
920.157	4504
920.267	4672
920.378	4554
920.488	4516
920.598	4668
920.708	4877
920.818	4755
920.928	4736
921.038	4942
921.148	4915
921.258	4607
921.368	4481
921.477	4481
921.587	4440
921.697	4337
921.806	4500
921.916	4436
922.025	4219
922.134	4261
922.244	4223
922.353	4329
922.462	4124
922.571	4128
922.68	3979
922.789	3956
922.898	4063
923.007	3987
923.116	4067
923.224	4055
923.333	4105
923.442	3979
923.55	3994
923.659	3994
923.767	4105
923.876	3991
923.984	4124
924.092	3994
924.201	4040
924.309	4101
924.417	4112
924.525	4048
924.633	4074
924.741	4870
924.849	3907
924.956	4147
925.064	3956
925.172	3861
925.279	3953
925.387	4032
925.494	4086
925.602	4185
925.709	4162
925.816	4101
925.924	4143
926.031	4234
926.138	4177
926.245	4200
926.352	4105
926.459	4261
926.566	4310
926.673	4147
926.779	4082
926.886	4051
926.993	3960
927.099	3972
927.206	3934
927.312	3918
927.419	4032
927.525	4025
927.631	4074
927.737	3949
927.843	3953
927.95	3854
928.056	3991
928.162	3975
928.267	4036
928.373	4550
928.479	4090
928.585	3869
928.69	3979
928.796	4044
928.901	4036
929.007	3869
929.112	3968
929.218	4017
929.323	3941
929.428	3953
929.533	4112
929.638	3922
929.743	3956
929.848	4040
929.953	3979
930.058	3930
930.163	3766
930.267	3812
930.372	3956
930.477	3793
930.581	4059
930.685	3861
930.79	3869
930.894	3880
930.998	3804
931.103	4010
931.207	3713
931.311	3686
931.415	3705
931.519	3511
931.623	3568
