Data from test_V78500241_1193.txt Node
Date: Fri Mar 25 16:57:17 CST 2022
User: usil
Spectrometer: V785-0024
Trigger mode: 0
Integration Time (sec): 4.000000E-1
Scans to average: 1
Nonlinearity correction enabled: false
Boxcar width: 0
Storing dark spectrum: false
XAxis mode: Wavelengths
Number of Pixels in Spectrum: 1024
>>>>>Begin Spectral Data<<<<<
801.071	7940
801.214	8054
801.356	7947
801.499	7814
801.641	7765
801.783	7841
801.926	7959
802.068	7959
802.211	7909
802.353	7917
802.496	7811
802.638	7875
802.78	7917
802.923	7913
803.065	7860
803.208	7913
803.35	8012
803.492	8084
803.635	8183
803.777	8058
803.919	8096
804.061	8412
804.204	8145
804.346	8024
804.488	7955
804.63	8088
804.773	7982
804.915	8115
805.057	8252
805.199	8183
805.341	8256
805.483	8298
805.626	8218
805.768	8202
805.91	8240
806.052	8259
806.194	8031
806.336	8267
806.478	8020
806.62	8001
806.762	8138
806.904	8229
807.046	8415
807.188	8332
807.33	8271
807.472	8279
807.614	8191
807.756	8073
807.898	7989
808.04	7917
808.182	7974
808.324	7944
808.465	7940
808.607	8088
808.749	8130
808.891	8153
809.033	8290
809.174	8202
809.316	8008
809.458	7963
809.6	7959
809.741	8001
809.883	7993
810.025	8111
810.166	8027
810.308	8020
810.45	8020
810.591	7947
810.733	7742
810.875	7636
811.016	7495
811.158	7491
811.299	7578
811.441	7696
811.582	7689
811.724	7613
811.865	7472
812.007	7559
812.148	7578
812.29	7620
812.431	7750
812.573	7913
812.714	7917
812.855	8065
812.997	8187
813.138	8271
813.279	8180
813.421	8107
813.562	8016
813.703	7852
813.845	7753
813.986	7438
814.127	7202
814.268	7236
814.41	7187
814.551	7160
814.692	7133
814.833	7038
814.974	7069
815.115	7069
815.256	6916
815.397	6954
815.539	6897
815.68	6779
815.821	6783
815.962	6821
816.103	6753
816.244	6707
816.385	6593
816.526	6662
816.666	6540
816.807	6308
816.948	6448
817.089	6452
817.23	6422
817.371	6346
817.512	6353
817.653	6353
817.793	6388
817.934	6429
818.075	6448
818.216	6426
818.356	6357
818.497	6167
818.638	6102
818.778	6155
818.919	6114
819.06	6125
819.2	6369
819.341	6247
819.481	6311
819.622	6479
819.762	6684
819.903	6673
820.043	6532
820.184	6547
820.324	6570
820.465	6623
820.605	6654
820.746	6612
820.886	6471
821.026	6589
821.167	6711
821.307	6726
821.447	6681
821.588	6711
821.728	6604
821.868	6502
822.008	6300
822.149	6327
822.289	6380
822.429	6072
822.569	6060
822.709	6106
822.849	5935
822.99	5931
823.13	5882
823.27	5855
823.41	5809
823.55	5794
823.69	5786
823.83	5790
823.97	5653
824.11	5562
824.25	5509
824.389	5592
824.529	5551
824.669	5535
824.809	5596
824.949	5642
825.089	5592
825.228	5638
825.368	5444
825.508	5383
825.648	5357
825.787	5368
825.927	5387
826.067	5292
826.206	5261
826.346	5410
826.485	5402
826.625	5429
826.765	5558
826.904	5474
827.044	5269
827.183	5239
827.323	5117
827.462	5250
827.601	5197
827.741	5250
827.88	5261
828.02	5178
828.159	5235
828.298	5318
828.437	5425
828.577	5311
828.716	5497
828.855	5387
828.994	5216
829.134	5181
829.273	5239
829.412	5109
829.551	5216
829.69	5212
829.829	5220
829.968	5433
830.107	5258
830.246	5269
830.385	5212
830.524	5181
830.663	5109
830.802	5025
830.941	4949
831.08	4908
831.219	5022
831.357	4984
831.496	5181
831.635	4987
831.774	4927
831.913	4839
832.051	4771
832.19	4759
832.329	4900
832.467	4687
832.606	4675
832.744	4744
832.883	4782
833.022	4752
833.16	4805
833.299	4847
833.437	4850
833.576	4873
833.714	4881
833.852	4843
833.991	4934
834.129	4991
834.267	4953
834.406	4968
834.544	5003
834.682	4984
834.821	5003
834.959	5250
835.097	5010
835.235	5090
835.373	5102
835.511	5071
835.65	5018
835.788	5098
835.926	4900
836.064	4839
836.202	4927
836.34	5201
836.478	5288
836.615	5162
836.753	5242
836.891	5311
837.029	5227
837.167	5246
837.305	5178
837.443	5174
837.58	5128
837.718	5261
837.856	5220
837.993	5181
838.131	5299
838.269	5242
838.406	5212
838.544	5166
838.681	5086
838.819	5033
838.956	4938
839.094	4923
839.231	5006
839.369	5128
839.506	5486
839.643	5334
839.781	5128
839.918	5079
840.055	5113
840.193	5117
840.33	5166
840.467	5147
840.604	5185
840.742	5471
840.879	5136
841.016	5098
841.153	5117
841.29	5383
841.427	5326
841.564	5337
841.701	5376
841.838	5277
841.975	5235
842.112	5288
842.249	5121
842.385	5086
842.522	5311
842.659	5223
842.796	5151
842.933	5208
843.069	5155
843.206	5128
843.343	5330
843.479	5261
843.616	5277
843.752	5113
843.889	5067
844.025	5292
844.162	5010
844.298	5242
844.435	5124
844.571	5022
844.708	5223
844.844	5299
844.98	5372
845.117	5280
845.253	5151
845.389	5064
845.525	5178
845.661	5147
845.798	5079
845.934	5109
846.07	5083
846.206	5216
846.342	5277
846.478	5193
846.614	5022
846.75	5006
846.886	4984
847.022	5143
847.158	5003
847.294	5109
847.429	5079
847.565	5132
847.701	5311
847.837	4873
847.972	4805
848.108	5006
848.244	4965
848.379	4820
848.515	4733
848.65	4767
848.786	4748
848.921	4809
849.057	4946
849.192	4930
849.328	4843
849.463	4862
849.598	4843
849.734	4778
849.869	4691
850.004	4687
850.14	4694
850.275	4615
850.41	4485
850.545	4599
850.68	4618
850.815	4637
850.95	4634
851.085	4873
851.22	4752
851.355	4660
851.49	4630
851.625	4672
851.76	4649
851.895	4573
852.03	4508
852.165	4672
852.299	4733
852.434	4824
852.569	4755
852.703	4759
852.838	4881
852.973	4980
853.107	4908
853.242	4774
853.376	4714
853.511	4588
853.645	4634
853.78	4805
853.914	4725
854.048	4656
854.183	4683
854.317	4714
854.451	4858
854.585	4691
854.72	4683
854.854	4790
854.988	4584
855.122	4634
855.256	4558
855.39	4706
855.524	4793
855.658	4691
855.792	4752
855.926	4698
856.06	4778
856.194	4797
856.327	4736
856.461	4653
856.595	4588
856.729	4649
856.862	4767
856.996	4698
857.13	4740
857.263	4782
857.397	4824
857.53	4641
857.664	4740
857.797	4793
857.931	4843
858.064	4733
858.197	4801
858.331	4702
858.464	4592
858.597	4542
858.731	4649
858.864	4622
858.997	4584
859.13	4733
859.263	4733
859.396	4656
859.529	4615
859.662	4603
859.795	4550
859.928	4656
860.061	4801
860.194	4752
860.327	4649
860.46	4626
860.592	4744
860.725	4725
860.858	4691
860.99	4630
861.123	4535
861.256	4531
861.388	4607
861.521	5315
861.653	4500
861.786	4485
861.918	4512
862.05	4542
862.183	4573
862.315	4607
862.447	4634
862.58	4538
862.712	4402
862.844	4333
862.976	4523
863.108	4497
863.24	4889
863.372	4352
863.504	4443
863.636	4394
863.768	4478
863.9	4478
864.032	4386
864.164	4440
864.296	4466
864.428	4630
864.559	4603
864.691	4561
864.823	4569
864.954	4508
865.086	4538
865.217	4451
865.349	4432
865.48	4481
865.612	4497
865.743	4664
865.875	4470
866.006	4428
866.137	4497
866.269	4440
866.4	4466
866.531	4481
866.662	4470
866.793	4432
866.924	4440
867.055	4516
867.186	4489
867.317	4440
867.448	4436
867.579	4424
867.71	4398
867.841	4409
867.972	4443
868.103	4432
868.233	4470
868.364	4459
868.495	4485
868.625	4668
868.756	4752
868.886	4592
869.017	4645
869.147	4820
869.278	4839
869.408	4637
869.539	4668
869.669	4725
869.799	4675
869.929	4759
870.06	4755
870.19	4946
870.32	4908
870.45	4934
870.58	5056
870.71	5064
870.84	5105
870.97	4930
871.1	4949
871.23	5170
871.36	5128
871.489	5029
871.619	5090
871.749	5102
871.879	5140
872.008	5181
872.138	5014
872.267	4965
872.397	4824
872.526	4820
872.656	4767
872.785	4812
872.915	5003
873.044	5010
873.173	4919
873.303	4995
873.432	4908
873.561	4904
873.69	4892
873.819	4850
873.948	4904
874.077	4854
874.206	4759
874.335	4767
874.464	4930
874.593	5113
874.722	4968
874.851	5109
874.979	5067
875.108	5052
875.237	4927
875.365	4862
875.494	4892
875.623	4942
875.751	4854
875.88	4896
876.008	4949
876.136	5045
876.265	5170
876.393	5292
876.521	5220
876.65	5197
876.778	5201
876.906	5105
877.034	5060
877.162	5045
877.29	5037
877.418	5064
877.546	5064
877.674	5132
877.802	5048
877.93	5033
878.058	4934
878.185	4805
878.313	4965
878.441	4968
878.568	4835
878.696	4881
878.824	4991
878.951	4984
879.079	5231
879.206	5296
879.333	5113
879.461	4980
879.588	5041
879.715	5140
879.842	5258
879.97	4995
880.097	4809
880.224	4729
880.351	4839
880.478	4824
880.605	4824
880.732	4820
880.859	5105
880.986	4904
881.112	4904
881.239	4812
881.366	4668
881.493	4630
881.619	4599
881.746	4634
881.872	4675
881.999	4656
882.125	4717
882.252	4771
882.378	4816
882.505	4930
882.631	4809
882.757	4691
882.883	4733
883.01	4717
883.136	4729
883.262	4607
883.388	4626
883.514	4831
883.64	4904
883.766	4782
883.892	4706
884.018	4767
884.143	4927
884.269	5010
884.395	4691
884.52	4615
884.646	4618
884.772	4607
884.897	4531
885.023	4653
885.148	4850
885.274	4835
885.399	4809
885.524	4725
885.65	4691
885.775	4786
885.9	4672
886.025	4854
886.15	4763
886.275	4748
886.4	4672
886.525	4721
886.65	4733
886.775	4717
886.9	4889
887.025	5060
887.149	4839
887.274	4668
887.399	4580
887.523	4622
887.648	4607
887.773	4584
887.897	4790
888.021	4816
888.146	4710
888.27	4820
888.395	4934
888.519	4774
888.643	4843
888.767	4835
888.891	4645
889.015	4630
889.139	4615
889.263	4607
889.387	4763
889.511	4854
889.635	4824
889.759	4634
889.883	4656
890.006	4755
890.13	4812
890.254	4634
890.377	4721
890.501	4474
890.624	4550
890.748	4649
890.871	4546
890.995	4398
891.118	4405
891.241	4542
891.364	4523
891.488	4645
891.611	4512
891.734	4588
891.857	4626
891.98	4535
892.103	4664
892.226	4573
892.349	4500
892.471	4394
892.594	4592
892.717	4618
892.839	4542
892.962	4584
893.085	4694
893.207	4634
893.33	4432
893.452	4538
893.575	4649
893.697	4603
893.819	4816
893.941	4858
894.064	4752
894.186	4588
894.308	4588
894.43	4744
894.552	4866
894.674	4767
894.796	4561
894.918	4599
895.04	4561
895.161	4733
895.283	4698
895.405	4599
895.526	4599
895.648	4687
895.769	4706
895.891	4691
896.012	4710
896.134	4714
896.255	4626
896.376	4592
896.498	4672
896.619	4630
896.74	4637
896.861	4637
896.982	4976
897.103	5117
897.224	4866
897.345	4744
897.466	4694
897.587	4710
897.708	4900
897.828	4816
897.949	4664
898.07	4558
898.19	4679
898.311	4771
898.431	4641
898.552	4752
898.672	4831
898.792	4759
898.913	4736
899.033	4653
899.153	4508
899.273	4417
899.393	4504
899.513	4478
899.633	4527
899.753	4550
899.873	4569
899.993	4592
900.113	4596
900.232	4569
900.352	4554
900.472	4512
900.591	4417
900.711	4519
900.83	4447
900.95	4596
901.069	4641
901.189	4535
901.308	4405
901.427	4310
901.546	4375
901.665	4455
901.784	4554
901.904	4428
902.023	4329
902.141	4211
902.26	4181
902.379	4318
902.498	4261
902.617	4215
902.735	4341
902.854	4371
902.973	4337
903.091	4219
903.21	4253
903.328	4280
903.446	4287
903.565	4230
903.683	4371
903.801	4291
903.919	4409
904.038	4421
904.156	4310
904.274	4436
904.392	4409
904.51	4390
904.627	4459
904.745	4558
904.863	4653
904.981	4413
905.098	4318
905.216	4379
905.334	4390
905.451	4478
905.569	4421
905.686	4519
905.803	4542
905.921	4424
906.038	4542
906.155	4489
906.272	4436
906.389	4512
906.506	4363
906.623	4344
906.74	4383
906.857	4341
906.974	4432
907.091	4565
907.208	4683
907.324	4592
907.441	4527
907.557	4299
907.674	4333
907.79	4284
907.907	4375
908.023	4481
908.139	4493
908.256	4440
908.372	4470
908.488	4459
908.604	4272
908.72	4325
908.836	4360
908.952	4337
909.068	4367
909.184	4516
909.3	4470
909.415	4565
909.531	4512
909.647	4360
909.762	4409
909.878	4363
909.993	4428
910.108	4402
910.224	4409
910.339	4500
910.454	4440
910.57	4352
910.685	4367
910.8	4656
910.915	4641
911.03	4485
911.145	4276
911.259	4325
911.374	4371
911.489	4329
911.604	4246
911.718	4154
911.833	4173
911.947	4120
912.062	4036
912.176	4223
912.291	4234
912.405	4284
912.519	4432
912.633	4493
912.748	4360
912.862	4329
912.976	4181
913.09	4120
913.204	4158
913.318	4261
913.431	4394
913.545	4379
913.659	4424
913.772	4356
913.886	4246
914	4246
914.113	4386
914.226	4394
914.34	4383
914.453	4268
914.566	4417
914.68	4314
914.793	4299
914.906	4192
915.019	4112
915.132	4074
915.245	4207
915.358	4207
915.47	4230
915.583	4287
915.696	4284
915.809	4436
915.921	4386
916.034	4227
916.146	4261
916.259	4196
916.371	4394
916.483	4341
916.595	4242
916.708	4310
916.82	4356
916.932	4363
917.044	4265
917.156	4333
917.268	4249
917.38	4291
917.491	4268
917.603	4352
917.715	4447
917.826	4432
917.938	4371
918.049	4234
918.161	4390
918.272	4508
918.384	4546
918.495	4455
918.606	4318
918.717	4234
918.828	4325
918.939	4352
919.05	4265
919.161	4344
919.272	4112
919.383	4234
919.494	4432
919.604	4626
919.715	4474
919.826	4398
919.936	4383
920.047	4542
920.157	4497
920.267	4683
920.378	4523
920.488	4512
920.598	4714
920.708	4877
920.818	4702
920.928	4740
921.038	4938
921.148	4904
921.258	4664
921.368	4523
921.477	4481
921.587	4424
921.697	4333
921.806	4527
921.916	4432
922.025	4318
922.134	4272
922.244	4219
922.353	4314
922.462	4158
922.571	4139
922.68	4059
922.789	3964
922.898	4078
923.007	4010
923.116	4101
923.224	4086
923.333	4082
923.442	4010
923.55	3987
923.659	3968
923.767	4071
923.876	3960
923.984	4131
924.092	3983
924.201	4074
924.309	4055
924.417	4105
924.525	4063
924.633	4093
924.741	4991
924.849	3903
924.956	4082
925.064	3975
925.172	3884
925.279	3964
925.387	4036
925.494	4055
925.602	4192
925.709	4177
925.816	4051
925.924	4128
926.031	4215
926.138	4169
926.245	4207
926.352	4112
926.459	4306
926.566	4314
926.673	4177
926.779	4086
926.886	4063
926.993	3956
927.099	3979
927.206	3956
927.312	3922
927.419	4086
927.525	4040
927.631	4097
927.737	3953
927.843	3949
927.95	3873
928.056	3911
928.162	4021
928.267	4101
928.373	4672
928.479	4078
928.585	3876
928.69	4040
928.796	4036
928.901	3960
929.007	3838
929.112	4025
929.218	3991
929.323	3975
929.428	3918
929.533	4086
929.638	3903
929.743	3968
929.848	4029
929.953	3987
930.058	3922
930.163	3751
930.267	3842
930.372	3975
930.477	3766
930.581	4090
930.685	3945
930.79	3797
930.894	3873
930.998	3808
931.103	4013
931.207	3709
931.311	3694
931.415	3667
931.519	3496
931.623	3523
