Data from test_V78500241_1359.txt Node
Date: Fri Mar 25 16:58:27 CST 2022
User: usil
Spectrometer: V785-0024
Trigger mode: 0
Integration Time (sec): 4.000000E-1
Scans to average: 1
Nonlinearity correction enabled: false
Boxcar width: 0
Storing dark spectrum: false
XAxis mode: Wavelengths
Number of Pixels in Spectrum: 1024
>>>>>Begin Spectral Data<<<<<
801.071	7963
801.214	8027
801.356	7921
801.499	7894
801.641	7792
801.783	7811
801.926	8001
802.068	8005
802.211	8039
802.353	7932
802.496	7814
802.638	7974
802.78	7989
802.923	7967
803.065	7936
803.208	7883
803.35	7974
803.492	8111
803.635	8161
803.777	8058
803.919	8161
804.061	8431
804.204	8168
804.346	8092
804.488	8005
804.63	8126
804.773	8107
804.915	8119
805.057	8298
805.199	8233
805.341	8195
805.483	8298
805.626	8195
805.768	8103
805.91	8248
806.052	8202
806.194	8100
806.336	8225
806.478	8157
806.62	8035
806.762	8130
806.904	8317
807.046	8522
807.188	8343
807.33	8313
807.472	8358
807.614	8149
807.756	8088
807.898	7986
808.04	7928
808.182	7936
808.324	7940
808.465	8020
808.607	8084
808.749	8069
808.891	8142
809.033	8305
809.174	8210
809.316	8039
809.458	8062
809.6	8077
809.741	8001
809.883	8092
810.025	8058
810.166	8054
810.308	8058
810.45	7989
810.591	7925
810.733	7746
810.875	7696
811.016	7567
811.158	7499
811.299	7559
811.441	7719
811.582	7723
811.724	7643
811.865	7537
812.007	7639
812.148	7533
812.29	7605
812.431	7651
812.573	7951
812.714	7944
812.855	8161
812.997	8248
813.138	8328
813.279	8282
813.421	8081
813.562	8035
813.703	7864
813.845	7746
813.986	7472
814.127	7289
814.268	7282
814.41	7198
814.551	7129
814.692	7213
814.833	7118
814.974	7122
815.115	7076
815.256	6939
815.397	6897
815.539	6928
815.68	6859
815.821	6806
815.962	6878
816.103	6856
816.244	6760
816.385	6608
816.526	6559
816.666	6467
816.807	6391
816.948	6517
817.089	6429
817.23	6403
817.371	6414
817.512	6410
817.653	6388
817.793	6323
817.934	6414
818.075	6445
818.216	6471
818.356	6372
818.497	6182
818.638	6152
818.778	6175
818.919	6171
819.06	6136
819.2	6357
819.341	6357
819.481	6388
819.622	6547
819.762	6734
819.903	6684
820.043	6566
820.184	6578
820.324	6601
820.465	6715
820.605	6726
820.746	6677
820.886	6528
821.026	6654
821.167	6715
821.307	6795
821.447	6700
821.588	6738
821.728	6528
821.868	6498
822.008	6403
822.149	6353
822.289	6369
822.429	6171
822.569	6106
822.709	6079
822.849	5920
822.99	5923
823.13	5863
823.27	5935
823.41	5821
823.55	5805
823.69	5752
823.83	5794
823.97	5665
824.11	5520
824.25	5539
824.389	5520
824.529	5627
824.669	5535
824.809	5653
824.949	5699
825.089	5623
825.228	5532
825.368	5402
825.508	5307
825.648	5383
825.787	5349
825.927	5341
826.067	5280
826.206	5258
826.346	5387
826.485	5387
826.625	5398
826.765	5512
826.904	5505
827.044	5250
827.183	5227
827.323	5132
827.462	5231
827.601	5178
827.741	5193
827.88	5201
828.02	5098
828.159	5311
828.298	5318
828.437	5349
828.577	5311
828.716	5478
828.855	5307
828.994	5159
829.134	5155
829.273	5212
829.412	5159
829.551	5174
829.69	5220
829.829	5265
829.968	5357
830.107	5296
830.246	5261
830.385	5181
830.524	5140
830.663	5052
830.802	4953
830.941	4896
831.08	4904
831.219	4961
831.357	4946
831.496	5170
831.635	4892
831.774	4828
831.913	4828
832.051	4767
832.19	4714
832.329	4820
832.467	4702
832.606	4565
832.744	4771
832.883	4710
833.022	4714
833.16	4744
833.299	4824
833.437	4839
833.576	4847
833.714	4847
833.852	4870
833.991	4892
834.129	5003
834.267	4930
834.406	4889
834.544	4942
834.682	4995
834.821	5006
834.959	5159
835.097	4968
835.235	5071
835.373	5113
835.511	5109
835.65	5029
835.788	4999
835.926	4866
836.064	4885
836.202	4923
836.34	5201
836.478	5227
836.615	5064
836.753	5231
836.891	5250
837.029	5261
837.167	5113
837.305	5193
837.443	5098
837.58	5094
837.718	5220
837.856	5166
837.993	5166
838.131	5239
838.269	5204
838.406	5216
838.544	5178
838.681	5041
838.819	5010
838.956	4938
839.094	4904
839.231	5018
839.369	5090
839.506	5406
839.643	5307
839.781	5105
839.918	5022
840.055	5064
840.193	5086
840.33	5102
840.467	5132
840.604	5178
840.742	5463
840.879	5098
841.016	5037
841.153	5132
841.29	5330
841.427	5299
841.564	5288
841.701	5368
841.838	5311
841.975	5220
842.112	5242
842.249	5109
842.385	5098
842.522	5364
842.659	5212
842.796	5094
842.933	5197
843.069	5151
843.206	5132
843.343	5273
843.479	5220
843.616	5307
843.752	5033
843.889	5048
844.025	5227
844.162	5003
844.298	5227
844.435	5048
844.571	5041
844.708	5246
844.844	5299
844.98	5330
845.117	5265
845.253	5109
845.389	5102
845.525	5159
845.661	5098
845.798	5025
845.934	5162
846.07	5022
846.206	5227
846.342	5296
846.478	5159
846.614	5041
846.75	4972
846.886	4930
847.022	5094
847.158	5029
847.294	5033
847.429	5117
847.565	5060
847.701	5265
847.837	4843
847.972	4812
848.108	4949
848.244	4942
848.379	4774
848.515	4752
848.65	4687
848.786	4736
848.921	4793
849.057	4870
849.192	4881
849.328	4805
849.463	4816
849.598	4824
849.734	4717
849.869	4717
850.004	4615
850.14	4637
850.275	4634
850.41	4561
850.545	4558
850.68	4630
850.815	4653
850.95	4668
851.085	4858
851.22	4755
851.355	4664
851.49	4630
851.625	4626
851.76	4649
851.895	4531
852.03	4531
852.165	4660
852.299	4748
852.434	4786
852.569	4733
852.703	4816
852.838	4938
852.973	4965
853.107	4946
853.242	4771
853.376	4706
853.511	4519
853.645	4675
853.78	4774
853.914	4733
854.048	4748
854.183	4717
854.317	4721
854.451	4881
854.585	4702
854.72	4668
854.854	4786
854.988	4615
855.122	4706
855.256	4607
855.39	4656
855.524	4805
855.658	4763
855.792	4740
855.926	4809
856.06	4797
856.194	4839
856.327	4714
856.461	4668
856.595	4645
856.729	4675
856.862	4748
856.996	4721
857.13	4755
857.263	4850
857.397	4786
857.53	4645
857.664	4755
857.797	4786
857.931	4763
858.064	4656
858.197	4774
858.331	4672
858.464	4656
858.597	4523
858.731	4706
858.864	4634
858.997	4675
859.13	4702
859.263	4679
859.396	4717
859.529	4615
859.662	4607
859.795	4611
859.928	4683
860.061	4805
860.194	4816
860.327	4645
860.46	4584
860.592	4714
860.725	4736
860.858	4782
860.99	4660
861.123	4554
861.256	4618
861.388	4679
861.521	5334
861.653	4584
861.786	4447
861.918	4512
862.05	4542
862.183	4592
862.315	4683
862.447	4679
862.58	4603
862.712	4474
862.844	4348
862.976	4512
863.108	4512
863.24	4942
863.372	4314
863.504	4447
863.636	4417
863.768	4550
863.9	4489
864.032	4417
864.164	4417
864.296	4508
864.428	4573
864.559	4561
864.691	4573
864.823	4622
864.954	4558
865.086	4531
865.217	4470
865.349	4417
865.48	4531
865.612	4497
865.743	4603
865.875	4497
866.006	4455
866.137	4470
866.269	4440
866.4	4443
866.531	4455
866.662	4478
866.793	4421
866.924	4417
867.055	4542
867.186	4462
867.317	4417
867.448	4417
867.579	4398
867.71	4481
867.841	4356
867.972	4500
868.103	4500
868.233	4504
868.364	4531
868.495	4519
868.625	4702
868.756	4797
868.886	4573
869.017	4584
869.147	4820
869.278	4801
869.408	4664
869.539	4668
869.669	4740
869.799	4698
869.929	4793
870.06	4752
870.19	4987
870.32	4984
870.45	4984
870.58	5022
870.71	5151
870.84	5128
870.97	4980
871.1	4938
871.23	5193
871.36	5143
871.489	5079
871.619	5117
871.749	5132
871.879	5098
872.008	5170
872.138	5079
872.267	4991
872.397	4850
872.526	4850
872.656	4733
872.785	4828
872.915	4972
873.044	5041
873.173	4953
873.303	4995
873.432	5010
873.561	4934
873.69	4866
873.819	4915
873.948	4953
874.077	4805
874.206	4801
874.335	4820
874.464	4984
874.593	5090
874.722	4972
874.851	5128
874.979	5064
875.108	5052
875.237	4930
875.365	4858
875.494	4946
875.623	4995
875.751	4862
875.88	4896
876.008	4957
876.136	5083
876.265	5212
876.393	5345
876.521	5273
876.65	5269
876.778	5140
876.906	5151
877.034	5075
877.162	5083
877.29	5022
877.418	5056
877.546	5071
877.674	5025
877.802	5086
877.93	5048
878.058	4984
878.185	4896
878.313	4957
878.441	4999
878.568	4854
878.696	4915
878.824	4965
878.951	5006
879.079	5143
879.206	5277
879.333	5098
879.461	4987
879.588	5060
879.715	5132
879.842	5269
879.97	5018
880.097	4812
880.224	4801
880.351	4820
880.478	4820
880.605	4816
880.732	4782
880.859	5132
880.986	4938
881.112	4942
881.239	4786
881.366	4748
881.493	4653
881.619	4622
881.746	4653
881.872	4687
881.999	4706
882.125	4691
882.252	4797
882.378	4866
882.505	4995
882.631	4835
882.757	4694
882.883	4744
883.01	4797
883.136	4653
883.262	4630
883.388	4611
883.514	4824
883.64	4862
883.766	4831
883.892	4675
884.018	4736
884.143	4843
884.269	4980
884.395	4683
884.52	4653
884.646	4656
884.772	4607
884.897	4596
885.023	4683
885.148	4812
885.274	4927
885.399	4824
885.524	4736
885.65	4752
885.775	4744
885.9	4729
886.025	4854
886.15	4793
886.275	4774
886.4	4641
886.525	4831
886.65	4687
886.775	4702
886.9	4942
887.025	4995
887.149	4847
887.274	4653
887.399	4641
887.523	4596
887.648	4607
887.773	4558
887.897	4801
888.021	4866
888.146	4694
888.27	4873
888.395	4972
888.519	4839
888.643	4828
888.767	4812
888.891	4694
889.015	4656
889.139	4691
889.263	4603
889.387	4729
889.511	4877
889.635	4786
889.759	4675
889.883	4660
890.006	4736
890.13	4790
890.254	4637
890.377	4702
890.501	4535
890.624	4550
890.748	4649
890.871	4523
890.995	4451
891.118	4455
891.241	4527
891.364	4535
891.488	4672
891.611	4531
891.734	4550
891.857	4668
891.98	4554
892.103	4694
892.226	4615
892.349	4546
892.471	4432
892.594	4565
892.717	4607
892.839	4573
892.962	4634
893.085	4706
893.207	4592
893.33	4493
893.452	4542
893.575	4706
893.697	4577
893.819	4778
893.941	4873
894.064	4801
894.186	4603
894.308	4584
894.43	4752
894.552	4850
894.674	4736
894.796	4573
894.918	4637
895.04	4531
895.161	4759
895.283	4698
895.405	4588
895.526	4607
895.648	4729
895.769	4675
895.891	4752
896.012	4755
896.134	4755
896.255	4675
896.376	4672
896.498	4622
896.619	4660
896.74	4577
896.861	4664
896.982	4961
897.103	5105
897.224	4831
897.345	4748
897.466	4710
897.587	4748
897.708	4862
897.828	4793
897.949	4694
898.07	4577
898.19	4641
898.311	4862
898.431	4721
898.552	4736
898.672	4801
898.792	4782
898.913	4767
899.033	4618
899.153	4508
899.273	4440
899.393	4527
899.513	4531
899.633	4493
899.753	4523
899.873	4516
899.993	4588
900.113	4527
900.232	4615
900.352	4535
900.472	4497
900.591	4402
900.711	4508
900.83	4409
900.95	4607
901.069	4664
901.189	4554
901.308	4383
901.427	4344
901.546	4383
901.665	4485
901.784	4497
901.904	4398
902.023	4329
902.141	4215
902.26	4219
902.379	4299
902.498	4253
902.617	4257
902.735	4417
902.854	4409
902.973	4402
903.091	4181
903.21	4230
903.328	4299
903.446	4299
903.565	4287
903.683	4367
903.801	4318
903.919	4394
904.038	4383
904.156	4322
904.274	4363
904.392	4417
904.51	4417
904.627	4440
904.745	4565
904.863	4634
904.981	4428
905.098	4280
905.216	4398
905.334	4424
905.451	4424
905.569	4459
905.686	4550
905.803	4550
905.921	4413
906.038	4550
906.155	4508
906.272	4413
906.389	4459
906.506	4352
906.623	4333
906.74	4360
906.857	4287
906.974	4409
907.091	4592
907.208	4656
907.324	4592
907.441	4489
907.557	4367
907.674	4356
907.79	4337
907.907	4432
908.023	4493
908.139	4478
908.256	4405
908.372	4459
908.488	4455
908.604	4398
908.72	4356
908.836	4424
908.952	4375
909.068	4436
909.184	4569
909.3	4508
909.415	4584
909.531	4554
909.647	4367
909.762	4356
909.878	4375
909.993	4459
910.108	4390
910.224	4447
910.339	4447
910.454	4417
910.57	4390
910.685	4291
910.8	4641
910.915	4599
911.03	4500
911.145	4329
911.259	4303
911.374	4363
911.489	4295
911.604	4287
911.718	4162
911.833	4242
911.947	4078
912.062	4029
912.176	4261
912.291	4249
912.405	4265
912.519	4394
912.633	4466
912.748	4367
912.862	4360
912.976	4185
913.09	4128
913.204	4188
913.318	4234
913.431	4375
913.545	4363
913.659	4440
913.772	4341
913.886	4261
914	4257
914.113	4417
914.226	4462
914.34	4402
914.453	4230
914.566	4432
914.68	4356
914.793	4348
914.906	4139
915.019	4105
915.132	4093
915.245	4200
915.358	4162
915.47	4230
915.583	4253
915.696	4329
915.809	4417
915.921	4455
916.034	4276
916.146	4257
916.259	4249
916.371	4409
916.483	4379
916.595	4253
916.708	4280
916.82	4314
916.932	4371
917.044	4367
917.156	4287
917.268	4234
917.38	4276
917.491	4291
917.603	4333
917.715	4409
917.826	4432
917.938	4413
918.049	4257
918.161	4409
918.272	4516
918.384	4550
918.495	4508
918.606	4272
918.717	4261
918.828	4344
918.939	4386
919.05	4242
919.161	4341
919.272	4147
919.383	4246
919.494	4428
919.604	4584
919.715	4443
919.826	4348
919.936	4390
920.047	4527
920.157	4512
920.267	4660
920.378	4561
920.488	4474
920.598	4691
920.708	4923
920.818	4778
920.928	4805
921.038	5003
921.148	4927
921.258	4615
921.368	4580
921.477	4523
921.587	4428
921.697	4379
921.806	4531
921.916	4432
922.025	4265
922.134	4223
922.244	4181
922.353	4363
922.462	4188
922.571	4116
922.68	4006
922.789	3998
922.898	4025
923.007	3991
923.116	4086
923.224	4074
923.333	4078
923.442	3972
923.55	3934
923.659	4055
923.767	4097
923.876	4010
923.984	4105
924.092	3975
924.201	4017
924.309	4093
924.417	4093
924.525	4048
924.633	4143
924.741	5014
924.849	3937
924.956	4185
925.064	3968
925.172	3850
925.279	3975
925.387	4055
925.494	4051
925.602	4246
925.709	4185
925.816	4074
925.924	4112
926.031	4215
926.138	4139
926.245	4219
926.352	4067
926.459	4257
926.566	4310
926.673	4143
926.779	4143
926.886	4086
926.993	3994
927.099	3972
927.206	3934
927.312	3911
927.419	4051
927.525	3998
927.631	4101
927.737	3975
927.843	3945
927.95	3846
928.056	3979
928.162	3975
928.267	4051
928.373	4691
928.479	4097
928.585	3903
928.69	3972
928.796	4105
928.901	3994
929.007	3876
929.112	4013
929.218	4013
929.323	3953
929.428	3915
929.533	4139
929.638	3949
929.743	3956
929.848	4032
929.953	3991
930.058	3983
930.163	3747
930.267	3793
930.372	4002
930.477	3808
930.581	4082
930.685	3949
930.79	3823
930.894	3876
930.998	3838
931.103	4013
931.207	3732
931.311	3629
931.415	3713
931.519	3511
931.623	3553
