Data from test_V78500241_229.txt Node
Date: Fri Mar 25 16:50:35 CST 2022
User: usil
Spectrometer: V785-0024
Trigger mode: 0
Integration Time (sec): 4.000000E-1
Scans to average: 1
Nonlinearity correction enabled: false
Boxcar width: 0
Storing dark spectrum: false
XAxis mode: Wavelengths
Number of Pixels in Spectrum: 1024
>>>>>Begin Spectral Data<<<<<
801.071	8035
801.214	8024
801.356	7955
801.499	7890
801.641	7845
801.783	7909
801.926	8062
802.068	7970
802.211	8012
802.353	7997
802.496	7932
802.638	7890
802.78	7967
802.923	7925
803.065	7898
803.208	7909
803.35	8031
803.492	8062
803.635	8119
803.777	8035
803.919	8180
804.061	8419
804.204	8142
804.346	7993
804.488	8005
804.63	8062
804.773	8043
804.915	8050
805.057	8237
805.199	8134
805.341	8191
805.483	8275
805.626	8191
805.768	8115
805.91	8180
806.052	8191
806.194	8073
806.336	8320
806.478	8119
806.62	8107
806.762	8088
806.904	8161
807.046	8503
807.188	8332
807.33	8305
807.472	8324
807.614	8206
807.756	8077
807.898	8016
808.04	7944
808.182	7875
808.324	7902
808.465	7818
808.607	8062
808.749	8107
808.891	8248
809.033	8385
809.174	8225
809.316	8069
809.458	8081
809.6	7974
809.741	8058
809.883	8069
810.025	8065
810.166	8153
810.308	8046
810.45	8035
810.591	7928
810.733	7753
810.875	7590
811.016	7590
811.158	7468
811.299	7597
811.441	7689
811.582	7677
811.724	7525
811.865	7586
812.007	7685
812.148	7632
812.29	7712
812.431	7788
812.573	7890
812.714	7944
812.855	8180
812.997	8286
813.138	8358
813.279	8240
813.421	8130
813.562	8050
813.703	7826
813.845	7750
813.986	7407
814.127	7175
814.268	7175
814.41	7209
814.551	7236
814.692	7270
814.833	7126
814.974	7114
815.115	7133
815.256	6993
815.397	6962
815.539	6928
815.68	6814
815.821	6848
815.962	6882
816.103	6821
816.244	6768
816.385	6597
816.526	6669
816.666	6555
816.807	6353
816.948	6422
817.089	6448
817.23	6418
817.371	6486
817.512	6388
817.653	6361
817.793	6353
817.934	6426
818.075	6486
818.216	6460
818.356	6433
818.497	6258
818.638	6114
818.778	6152
818.919	6133
819.06	6110
819.2	6361
819.341	6331
819.481	6319
819.622	6506
819.762	6700
819.903	6700
820.043	6585
820.184	6483
820.324	6574
820.465	6703
820.605	6703
820.746	6665
820.886	6517
821.026	6635
821.167	6696
821.307	6787
821.447	6749
821.588	6642
821.728	6566
821.868	6479
822.008	6331
822.149	6350
822.289	6342
822.429	6224
822.569	6076
822.709	6171
822.849	5973
822.99	5882
823.13	5931
823.27	5958
823.41	5828
823.55	5851
823.69	5802
823.83	5775
823.97	5661
824.11	5589
824.25	5528
824.389	5589
824.529	5619
824.669	5520
824.809	5619
824.949	5653
825.089	5623
825.228	5505
825.368	5440
825.508	5406
825.648	5353
825.787	5433
825.927	5402
826.067	5353
826.206	5311
826.346	5379
826.485	5452
826.625	5410
826.765	5570
826.904	5570
827.044	5250
827.183	5193
827.323	5159
827.462	5223
827.601	5178
827.741	5181
827.88	5261
828.02	5075
828.159	5235
828.298	5315
828.437	5364
828.577	5288
828.716	5444
828.855	5296
828.994	5189
829.134	5178
829.273	5201
829.412	5113
829.551	5155
829.69	5132
829.829	5292
829.968	5379
830.107	5288
830.246	5288
830.385	5159
830.524	5170
830.663	5048
830.802	4991
830.941	4889
831.08	4904
831.219	5006
831.357	4968
831.496	5147
831.635	4938
831.774	4885
831.913	4847
832.051	4733
832.19	4740
832.329	4835
832.467	4664
832.606	4675
832.744	4721
832.883	4694
833.022	4687
833.16	4763
833.299	4843
833.437	4904
833.576	4839
833.714	4839
833.852	4854
833.991	4877
834.129	4980
834.267	4911
834.406	5014
834.544	4987
834.682	4999
834.821	4999
834.959	5174
835.097	4991
835.235	5193
835.373	5132
835.511	5090
835.65	5071
835.788	5029
835.926	4911
836.064	4889
836.202	4934
836.34	5204
836.478	5265
836.615	5140
836.753	5261
836.891	5303
837.029	5227
837.167	5239
837.305	5212
837.443	5170
837.58	5117
837.718	5261
837.856	5140
837.993	5181
838.131	5296
838.269	5208
838.406	5269
838.544	5193
838.681	5048
838.819	5052
838.956	4942
839.094	4927
839.231	4976
839.369	5094
839.506	5406
839.643	5265
839.781	5048
839.918	5041
840.055	5090
840.193	5098
840.33	5124
840.467	5109
840.604	5216
840.742	5395
840.879	5109
841.016	5045
841.153	5178
841.29	5402
841.427	5372
841.564	5353
841.701	5353
841.838	5292
841.975	5174
842.112	5258
842.249	5117
842.385	5102
842.522	5330
842.659	5201
842.796	5155
842.933	5201
843.069	5155
843.206	5174
843.343	5330
843.479	5307
843.616	5261
843.752	5022
843.889	5003
844.025	5239
844.162	5010
844.298	5258
844.435	5064
844.571	5060
844.708	5178
844.844	5326
844.98	5357
845.117	5303
845.253	5162
845.389	5086
845.525	5170
845.661	5166
845.798	5045
845.934	5143
846.07	5060
846.206	5239
846.342	5242
846.478	5170
846.614	5037
846.75	4957
846.886	4972
847.022	5170
847.158	5025
847.294	5075
847.429	5143
847.565	5086
847.701	5337
847.837	4805
847.972	4850
848.108	4961
848.244	4961
848.379	4759
848.515	4729
848.65	4744
848.786	4702
848.921	4786
849.057	4938
849.192	4900
849.328	4816
849.463	4870
849.598	4839
849.734	4782
849.869	4664
850.004	4656
850.14	4687
850.275	4637
850.41	4542
850.545	4580
850.68	4660
850.815	4618
850.95	4622
851.085	4850
851.22	4725
851.355	4660
851.49	4622
851.625	4683
851.76	4683
851.895	4569
852.03	4565
852.165	4664
852.299	4725
852.434	4835
852.569	4733
852.703	4774
852.838	4816
852.973	4938
853.107	4908
853.242	4702
853.376	4702
853.511	4531
853.645	4603
853.78	4771
853.914	4694
854.048	4668
854.183	4679
854.317	4721
854.451	4873
854.585	4641
854.72	4672
854.854	4809
854.988	4565
855.122	4607
855.256	4523
855.39	4653
855.524	4782
855.658	4733
855.792	4675
855.926	4725
856.06	4771
856.194	4763
856.327	4691
856.461	4630
856.595	4607
856.729	4660
856.862	4759
856.996	4668
857.13	4725
857.263	4763
857.397	4858
857.53	4687
857.664	4736
857.797	4733
857.931	4801
858.064	4668
858.197	4744
858.331	4683
858.464	4618
858.597	4558
858.731	4615
858.864	4660
858.997	4626
859.13	4675
859.263	4740
859.396	4725
859.529	4573
859.662	4584
859.795	4569
859.928	4653
860.061	4778
860.194	4721
860.327	4653
860.46	4607
860.592	4736
860.725	4736
860.858	4755
860.99	4565
861.123	4546
861.256	4531
861.388	4622
861.521	5448
861.653	4481
861.786	4497
861.918	4478
862.05	4542
862.183	4577
862.315	4584
862.447	4656
862.58	4546
862.712	4390
862.844	4322
862.976	4485
863.108	4462
863.24	4885
863.372	4405
863.504	4417
863.636	4417
863.768	4504
863.9	4432
864.032	4337
864.164	4432
864.296	4459
864.428	4565
864.559	4584
864.691	4550
864.823	4527
864.954	4508
865.086	4500
865.217	4466
865.349	4443
865.48	4440
865.612	4474
865.743	4611
865.875	4466
866.006	4459
866.137	4481
866.269	4474
866.4	4455
866.531	4447
866.662	4428
866.793	4413
866.924	4440
867.055	4531
867.186	4481
867.317	4432
867.448	4436
867.579	4421
867.71	4379
867.841	4375
867.972	4447
868.103	4474
868.233	4455
868.364	4470
868.495	4500
868.625	4679
868.756	4790
868.886	4531
869.017	4622
869.147	4805
869.278	4782
869.408	4656
869.539	4679
869.669	4748
869.799	4675
869.929	4797
870.06	4755
870.19	4965
870.32	4896
870.45	4987
870.58	5029
870.71	5094
870.84	5147
870.97	4946
871.1	4904
871.23	5178
871.36	5079
871.489	4965
871.619	5083
871.749	5067
871.879	5109
872.008	5159
872.138	5048
872.267	4965
872.397	4816
872.526	4790
872.656	4675
872.785	4828
872.915	4995
873.044	5006
873.173	4930
873.303	4991
873.432	4957
873.561	4953
873.69	4877
873.819	4831
873.948	4915
874.077	4835
874.206	4767
874.335	4812
874.464	4942
874.593	5090
874.722	5025
874.851	5067
874.979	5056
875.108	5003
875.237	4927
875.365	4900
875.494	4900
875.623	4999
875.751	4828
875.88	4919
876.008	4987
876.136	5041
876.265	5231
876.393	5349
876.521	5239
876.65	5254
876.778	5159
876.906	5151
877.034	5086
877.162	5029
877.29	4968
877.418	5083
877.546	5086
877.674	4999
877.802	5071
877.93	5010
878.058	4904
878.185	4862
878.313	4965
878.441	5022
878.568	4850
878.696	4892
878.824	4927
878.951	5022
879.079	5121
879.206	5315
879.333	5151
879.461	4984
879.588	5071
879.715	5159
879.842	5220
879.97	5006
880.097	4774
880.224	4809
880.351	4771
880.478	4889
880.605	4828
880.732	4828
880.859	5079
880.986	4896
881.112	4866
881.239	4771
881.366	4672
881.493	4641
881.619	4580
881.746	4630
881.872	4622
881.999	4649
882.125	4740
882.252	4812
882.378	4847
882.505	4961
882.631	4793
882.757	4664
882.883	4759
883.01	4752
883.136	4672
883.262	4626
883.388	4641
883.514	4824
883.64	4858
883.766	4793
883.892	4672
884.018	4759
884.143	4889
884.269	5045
884.395	4637
884.52	4611
884.646	4706
884.772	4558
884.897	4535
885.023	4637
885.148	4835
885.274	4858
885.399	4797
885.524	4736
885.65	4687
885.775	4763
885.9	4694
886.025	4870
886.15	4793
886.275	4694
886.4	4675
886.525	4714
886.65	4717
886.775	4694
886.9	4953
887.025	5056
887.149	4866
887.274	4611
887.399	4573
887.523	4558
887.648	4599
887.773	4618
887.897	4816
888.021	4828
888.146	4679
888.27	4847
888.395	4961
888.519	4831
888.643	4831
888.767	4850
888.891	4649
889.015	4603
889.139	4630
889.263	4634
889.387	4755
889.511	4904
889.635	4831
889.759	4656
889.883	4656
890.006	4744
890.13	4839
890.254	4618
890.377	4721
890.501	4561
890.624	4519
890.748	4698
890.871	4516
890.995	4409
891.118	4360
891.241	4489
891.364	4565
891.488	4565
891.611	4512
891.734	4569
891.857	4607
891.98	4546
892.103	4615
892.226	4580
892.349	4531
892.471	4443
892.594	4554
892.717	4637
892.839	4596
892.962	4550
893.085	4645
893.207	4622
893.33	4478
893.452	4546
893.575	4660
893.697	4573
893.819	4831
893.941	4835
894.064	4759
894.186	4588
894.308	4546
894.43	4736
894.552	4828
894.674	4755
894.796	4584
894.918	4618
895.04	4596
895.161	4698
895.283	4672
895.405	4565
895.526	4668
895.648	4694
895.769	4702
895.891	4714
896.012	4721
896.134	4744
896.255	4668
896.376	4641
896.498	4634
896.619	4683
896.74	4592
896.861	4672
896.982	4900
897.103	5083
897.224	4858
897.345	4767
897.466	4618
897.587	4771
897.708	4881
897.828	4793
897.949	4679
898.07	4592
898.19	4622
898.311	4870
898.431	4702
898.552	4733
898.672	4828
898.792	4793
898.913	4744
899.033	4611
899.153	4531
899.273	4428
899.393	4508
899.513	4554
899.633	4493
899.753	4554
899.873	4519
899.993	4588
900.113	4523
900.232	4561
900.352	4573
900.472	4470
900.591	4417
900.711	4546
900.83	4443
900.95	4580
901.069	4729
901.189	4538
901.308	4367
901.427	4348
901.546	4383
901.665	4447
901.784	4497
901.904	4325
902.023	4356
902.141	4173
902.26	4215
902.379	4325
902.498	4234
902.617	4196
902.735	4367
902.854	4402
902.973	4360
903.091	4234
903.21	4219
903.328	4272
903.446	4261
903.565	4253
903.683	4379
903.801	4287
903.919	4428
904.038	4436
904.156	4356
904.274	4421
904.392	4394
904.51	4386
904.627	4417
904.745	4607
904.863	4603
904.981	4447
905.098	4314
905.216	4348
905.334	4424
905.451	4409
905.569	4421
905.686	4577
905.803	4561
905.921	4383
906.038	4565
906.155	4500
906.272	4344
906.389	4447
906.506	4402
906.623	4367
906.74	4421
906.857	4348
906.974	4417
907.091	4565
907.208	4675
907.324	4599
907.441	4489
907.557	4375
907.674	4337
907.79	4341
907.907	4386
908.023	4531
908.139	4489
908.256	4432
908.372	4478
908.488	4405
908.604	4356
908.72	4333
908.836	4375
908.952	4348
909.068	4409
909.184	4531
909.3	4519
909.415	4653
909.531	4561
909.647	4409
909.762	4440
909.878	4371
909.993	4481
910.108	4417
910.224	4390
910.339	4459
910.454	4443
910.57	4367
910.685	4310
910.8	4630
910.915	4675
911.03	4493
911.145	4367
911.259	4337
911.374	4356
911.489	4261
911.604	4276
911.718	4181
911.833	4207
911.947	4097
912.062	4067
912.176	4219
912.291	4280
912.405	4219
912.519	4451
912.633	4527
912.748	4379
912.862	4291
912.976	4272
913.09	4128
913.204	4154
913.318	4246
913.431	4367
913.545	4371
913.659	4447
913.772	4352
913.886	4318
914	4249
914.113	4398
914.226	4447
914.34	4421
914.453	4230
914.566	4436
914.68	4303
914.793	4341
914.906	4166
915.019	4124
915.132	4093
915.245	4177
915.358	4219
915.47	4207
915.583	4291
915.696	4333
915.809	4436
915.921	4428
916.034	4261
916.146	4272
916.259	4223
916.371	4356
916.483	4333
916.595	4253
916.708	4341
916.82	4375
916.932	4314
917.044	4325
917.156	4341
917.268	4295
917.38	4280
917.491	4291
917.603	4356
917.715	4443
917.826	4417
917.938	4363
918.049	4253
918.161	4413
918.272	4607
918.384	4573
918.495	4466
918.606	4299
918.717	4185
918.828	4341
918.939	4402
919.05	4287
919.161	4371
919.272	4131
919.383	4200
919.494	4436
919.604	4596
919.715	4443
919.826	4371
919.936	4386
920.047	4493
920.157	4573
920.267	4687
920.378	4550
920.488	4504
920.598	4725
920.708	4892
920.818	4740
920.928	4771
921.038	4965
921.148	4930
921.258	4615
921.368	4577
921.477	4554
921.587	4459
921.697	4432
921.806	4558
921.916	4459
922.025	4253
922.134	4246
922.244	4234
922.353	4337
922.462	4181
922.571	4147
922.68	4025
922.789	3983
922.898	4048
923.007	4029
923.116	4086
923.224	4101
923.333	4067
923.442	3975
923.55	4010
923.659	4105
923.767	4135
923.876	4013
923.984	4143
924.092	4002
924.201	4105
924.309	4063
924.417	4116
924.525	4074
924.633	4147
924.741	5071
924.849	3896
924.956	4150
925.064	3975
925.172	3865
925.279	3953
925.387	4063
925.494	4059
925.602	4246
925.709	4230
925.816	4032
925.924	4128
926.031	4268
926.138	4204
926.245	4196
926.352	4116
926.459	4242
926.566	4325
926.673	4181
926.779	4071
926.886	4093
926.993	3979
927.099	3937
927.206	3907
927.312	3930
927.419	4097
927.525	4013
927.631	4143
927.737	3911
927.843	3949
927.95	3838
928.056	3964
928.162	4040
928.267	4120
928.373	4596
928.479	4158
928.585	3911
928.69	4048
928.796	4093
928.901	3949
929.007	3835
929.112	3987
929.218	3998
929.323	3953
929.428	3953
929.533	4082
929.638	3899
929.743	3979
929.848	4051
929.953	3979
930.058	3960
930.163	3823
930.267	3819
930.372	3896
930.477	3850
930.581	4090
930.685	3930
930.79	3819
930.894	3903
930.998	3876
931.103	4048
931.207	3713
931.311	3720
931.415	3671
931.519	3515
931.623	3530
