Data from test_V78500241_2356.txt Node
Date: Fri Mar 25 17:05:23 CST 2022
User: usil
Spectrometer: V785-0024
Trigger mode: 0
Integration Time (sec): 4.000000E-1
Scans to average: 1
Nonlinearity correction enabled: false
Boxcar width: 0
Storing dark spectrum: false
XAxis mode: Wavelengths
Number of Pixels in Spectrum: 1024
>>>>>Begin Spectral Data<<<<<
801.071	8092
801.214	8008
801.356	7871
801.499	7879
801.641	7795
801.783	7811
801.926	7875
802.068	7928
802.211	8001
802.353	8008
802.496	7940
802.638	7963
802.78	7997
802.923	7879
803.065	7871
803.208	7860
803.35	8039
803.492	8092
803.635	8210
803.777	8107
803.919	8191
804.061	8492
804.204	8218
804.346	8084
804.488	7947
804.63	8077
804.773	8054
804.915	8149
805.057	8377
805.199	8168
805.341	8263
805.483	8305
805.626	8290
805.768	8164
805.91	8225
806.052	8237
806.194	8103
806.336	8259
806.478	8138
806.62	8119
806.762	8164
806.904	8214
807.046	8450
807.188	8370
807.33	8358
807.472	8370
807.614	8218
807.756	8149
807.898	8065
808.04	7841
808.182	7894
808.324	7890
808.465	7951
808.607	8046
808.749	8084
808.891	8233
809.033	8282
809.174	8214
809.316	8107
809.458	8096
809.6	8008
809.741	8020
809.883	8016
810.025	8210
810.166	8107
810.308	8153
810.45	8046
810.591	7917
810.733	7769
810.875	7704
811.016	7571
811.158	7449
811.299	7521
811.441	7696
811.582	7776
811.724	7609
811.865	7556
812.007	7632
812.148	7609
812.29	7609
812.431	7727
812.573	7879
812.714	7951
812.855	8138
812.997	8229
813.138	8358
813.279	8279
813.421	8119
813.562	7982
813.703	7868
813.845	7738
813.986	7392
814.127	7255
814.268	7225
814.41	7209
814.551	7217
814.692	7270
814.833	7164
814.974	7122
815.115	7129
815.256	7008
815.397	6962
815.539	7015
815.68	6829
815.821	6844
815.962	6833
816.103	6818
816.244	6726
816.385	6635
816.526	6570
816.666	6452
816.807	6357
816.948	6490
817.089	6502
817.23	6460
817.371	6418
817.512	6418
817.653	6403
817.793	6395
817.934	6327
818.075	6467
818.216	6452
818.356	6456
818.497	6308
818.638	6201
818.778	6167
818.919	6201
819.06	6175
819.2	6369
819.341	6357
819.481	6395
819.622	6559
819.762	6749
819.903	6757
820.043	6669
820.184	6601
820.324	6597
820.465	6707
820.605	6741
820.746	6726
820.886	6517
821.026	6703
821.167	6722
821.307	6753
821.447	6757
821.588	6719
821.728	6642
821.868	6483
822.008	6334
822.149	6350
822.289	6342
822.429	6136
822.569	6102
822.709	6095
822.849	5897
822.99	5847
823.13	5916
823.27	5870
823.41	5798
823.55	5786
823.69	5813
823.83	5779
823.97	5665
824.11	5611
824.25	5520
824.389	5604
824.529	5600
824.669	5585
824.809	5642
824.949	5668
825.089	5630
825.228	5558
825.368	5467
825.508	5387
825.648	5322
825.787	5372
825.927	5379
826.067	5341
826.206	5303
826.346	5444
826.485	5387
826.625	5448
826.765	5608
826.904	5482
827.044	5307
827.183	5250
827.323	5166
827.462	5250
827.601	5201
827.741	5197
827.88	5208
828.02	5166
828.159	5288
828.298	5280
828.437	5410
828.577	5334
828.716	5497
828.855	5372
828.994	5246
829.134	5189
829.273	5231
829.412	5147
829.551	5147
829.69	5174
829.829	5220
829.968	5364
830.107	5265
830.246	5303
830.385	5231
830.524	5181
830.663	5121
830.802	4976
830.941	4835
831.08	4847
831.219	4984
831.357	5022
831.496	5109
831.635	4881
831.774	4850
831.913	4870
832.051	4767
832.19	4759
832.329	4850
832.467	4691
832.606	4664
832.744	4721
832.883	4729
833.022	4702
833.16	4805
833.299	4790
833.437	4858
833.576	4870
833.714	4908
833.852	4873
833.991	4904
834.129	4965
834.267	4915
834.406	4961
834.544	4946
834.682	4999
834.821	4976
834.959	5193
835.097	5018
835.235	5178
835.373	5105
835.511	5140
835.65	5064
835.788	5037
835.926	4892
836.064	4839
836.202	4930
836.34	5178
836.478	5231
836.615	5155
836.753	5265
836.891	5299
837.029	5284
837.167	5208
837.305	5155
837.443	5132
837.58	5105
837.718	5296
837.856	5151
837.993	5143
838.131	5280
838.269	5254
838.406	5231
838.544	5197
838.681	4999
838.819	4999
838.956	4915
839.094	4934
839.231	5022
839.369	5143
839.506	5444
839.643	5261
839.781	5090
839.918	5029
840.055	5136
840.193	5094
840.33	5117
840.467	5121
840.604	5189
840.742	5444
840.879	5094
841.016	5102
841.153	5208
841.29	5349
841.427	5349
841.564	5360
841.701	5326
841.838	5303
841.975	5216
842.112	5250
842.249	5147
842.385	5102
842.522	5334
842.659	5193
842.796	5166
842.933	5201
843.069	5147
843.206	5185
843.343	5326
843.479	5235
843.616	5235
843.752	5010
843.889	4995
844.025	5299
844.162	5041
844.298	5174
844.435	5079
844.571	5052
844.708	5216
844.844	5303
844.98	5330
845.117	5277
845.253	5128
845.389	5075
845.525	5151
845.661	5136
845.798	5056
845.934	5159
846.07	5045
846.206	5197
846.342	5277
846.478	5174
846.614	5037
846.75	5033
846.886	4961
847.022	5151
847.158	5079
847.294	5067
847.429	5102
847.565	5056
847.701	5330
847.837	4877
847.972	4835
848.108	4938
848.244	4930
848.379	4820
848.515	4744
848.65	4721
848.786	4759
848.921	4786
849.057	4881
849.192	4965
849.328	4843
849.463	4870
849.598	4774
849.734	4740
849.869	4710
850.004	4615
850.14	4637
850.275	4649
850.41	4519
850.545	4611
850.68	4641
850.815	4630
850.95	4679
851.085	4828
851.22	4755
851.355	4672
851.49	4622
851.625	4675
851.76	4618
851.895	4554
852.03	4577
852.165	4660
852.299	4721
852.434	4831
852.569	4744
852.703	4801
852.838	4831
852.973	4976
853.107	4881
853.242	4706
853.376	4656
853.511	4577
853.645	4618
853.78	4786
853.914	4710
854.048	4702
854.183	4668
854.317	4694
854.451	4812
854.585	4691
854.72	4611
854.854	4771
854.988	4618
855.122	4679
855.256	4535
855.39	4691
855.524	4778
855.658	4748
855.792	4672
855.926	4714
856.06	4778
856.194	4740
856.327	4767
856.461	4653
856.595	4637
856.729	4664
856.862	4748
856.996	4679
857.13	4744
857.263	4740
857.397	4767
857.53	4607
857.664	4698
857.797	4801
857.931	4793
858.064	4683
858.197	4725
858.331	4672
858.464	4615
858.597	4538
858.731	4622
858.864	4649
858.997	4584
859.13	4649
859.263	4668
859.396	4691
859.529	4577
859.662	4523
859.795	4569
859.928	4641
860.061	4736
860.194	4778
860.327	4554
860.46	4535
860.592	4706
860.725	4733
860.858	4736
860.99	4558
861.123	4546
861.256	4512
861.388	4622
861.521	5296
861.653	4485
861.786	4443
861.918	4481
862.05	4485
862.183	4569
862.315	4618
862.447	4656
862.58	4546
862.712	4394
862.844	4303
862.976	4474
863.108	4432
863.24	4885
863.372	4371
863.504	4402
863.636	4390
863.768	4466
863.9	4421
864.032	4417
864.164	4402
864.296	4489
864.428	4531
864.559	4637
864.691	4489
864.823	4542
864.954	4451
865.086	4519
865.217	4485
865.349	4424
865.48	4462
865.612	4493
865.743	4649
865.875	4485
866.006	4440
866.137	4455
866.269	4447
866.4	4436
866.531	4455
866.662	4417
866.793	4459
866.924	4398
867.055	4462
867.186	4462
867.317	4497
867.448	4371
867.579	4428
867.71	4417
867.841	4325
867.972	4462
868.103	4443
868.233	4440
868.364	4451
868.495	4451
868.625	4641
868.756	4733
868.886	4580
869.017	4596
869.147	4771
869.278	4816
869.408	4668
869.539	4611
869.669	4702
869.799	4641
869.929	4717
870.06	4774
870.19	4946
870.32	4889
870.45	4892
870.58	4972
870.71	5109
870.84	5086
870.97	4972
871.1	4881
871.23	5143
871.36	5117
871.489	5045
871.619	5075
871.749	5136
871.879	5128
872.008	5162
872.138	5041
872.267	5010
872.397	4850
872.526	4771
872.656	4736
872.785	4828
872.915	4949
873.044	5094
873.173	4896
873.303	4961
873.432	4942
873.561	4987
873.69	4847
873.819	4908
873.948	4930
874.077	4870
874.206	4740
874.335	4793
874.464	4908
874.593	5045
874.722	4980
874.851	5105
874.979	5075
875.108	4980
875.237	4892
875.365	4930
875.494	4930
875.623	4946
875.751	4870
875.88	4850
876.008	4946
876.136	5041
876.265	5162
876.393	5334
876.521	5242
876.65	5265
876.778	5159
876.906	5083
877.034	5048
877.162	5060
877.29	4995
877.418	5071
877.546	5022
877.674	5071
877.802	5056
877.93	4995
878.058	4923
878.185	4930
878.313	4908
878.441	4968
878.568	4828
878.696	4911
878.824	4953
878.951	4957
879.079	5121
879.206	5284
879.333	5079
879.461	5010
879.588	4980
879.715	5170
879.842	5265
879.97	4965
880.097	4801
880.224	4752
880.351	4793
880.478	4816
880.605	4748
880.732	4793
880.859	5121
880.986	4923
881.112	4930
881.239	4778
881.366	4714
881.493	4637
881.619	4519
881.746	4573
881.872	4626
881.999	4649
882.125	4710
882.252	4809
882.378	4790
882.505	5022
882.631	4805
882.757	4653
882.883	4752
883.01	4721
883.136	4725
883.262	4611
883.388	4588
883.514	4812
883.64	4870
883.766	4824
883.892	4607
884.018	4755
884.143	4881
884.269	5022
884.395	4649
884.52	4641
884.646	4660
884.772	4611
884.897	4622
885.023	4645
885.148	4797
885.274	4862
885.399	4858
885.524	4733
885.65	4698
885.775	4710
885.9	4656
886.025	4866
886.15	4801
886.275	4710
886.4	4634
886.525	4763
886.65	4710
886.775	4683
886.9	4911
887.025	5075
887.149	4763
887.274	4649
887.399	4607
887.523	4554
887.648	4607
887.773	4588
887.897	4702
888.021	4812
888.146	4656
888.27	4831
888.395	4877
888.519	4839
888.643	4805
888.767	4816
888.891	4649
889.015	4592
889.139	4626
889.263	4622
889.387	4755
889.511	4847
889.635	4801
889.759	4649
889.883	4630
890.006	4748
890.13	4847
890.254	4622
890.377	4679
890.501	4580
890.624	4519
890.748	4607
890.871	4489
890.995	4402
891.118	4413
891.241	4500
891.364	4519
891.488	4653
891.611	4516
891.734	4535
891.857	4588
891.98	4489
892.103	4641
892.226	4584
892.349	4527
892.471	4428
892.594	4493
892.717	4550
892.839	4577
892.962	4577
893.085	4675
893.207	4615
893.33	4462
893.452	4504
893.575	4649
893.697	4561
893.819	4790
893.941	4782
894.064	4797
894.186	4554
894.308	4523
894.43	4733
894.552	4850
894.674	4774
894.796	4577
894.918	4561
895.04	4531
895.161	4744
895.283	4660
895.405	4573
895.526	4660
895.648	4710
895.769	4672
895.891	4714
896.012	4733
896.134	4759
896.255	4672
896.376	4649
896.498	4660
896.619	4683
896.74	4584
896.861	4649
896.982	4919
897.103	5075
897.224	4831
897.345	4748
897.466	4660
897.587	4744
897.708	4824
897.828	4850
897.949	4660
898.07	4580
898.19	4656
898.311	4839
898.431	4641
898.552	4744
898.672	4805
898.792	4801
898.913	4763
899.033	4649
899.153	4489
899.273	4375
899.393	4497
899.513	4538
899.633	4558
899.753	4580
899.873	4535
899.993	4554
900.113	4565
900.232	4618
900.352	4577
900.472	4497
900.591	4356
900.711	4500
900.83	4440
900.95	4599
901.069	4653
901.189	4504
901.308	4394
901.427	4314
901.546	4363
901.665	4459
901.784	4500
901.904	4356
902.023	4318
902.141	4188
902.26	4200
902.379	4291
902.498	4249
902.617	4196
902.735	4344
902.854	4432
902.973	4322
903.091	4185
903.21	4200
903.328	4272
903.446	4249
903.565	4242
903.683	4333
903.801	4280
903.919	4398
904.038	4424
904.156	4375
904.274	4398
904.392	4390
904.51	4436
904.627	4489
904.745	4580
904.863	4607
904.981	4413
905.098	4322
905.216	4352
905.334	4405
905.451	4443
905.569	4493
905.686	4565
905.803	4584
905.921	4402
906.038	4569
906.155	4470
906.272	4421
906.389	4455
906.506	4333
906.623	4367
906.74	4402
906.857	4318
906.974	4363
907.091	4550
907.208	4683
907.324	4561
907.441	4519
907.557	4310
907.674	4325
907.79	4287
907.907	4375
908.023	4481
908.139	4481
908.256	4421
908.372	4474
908.488	4428
908.604	4402
908.72	4367
908.836	4348
908.952	4341
909.068	4455
909.184	4588
909.3	4466
909.415	4569
909.531	4573
909.647	4375
909.762	4356
909.878	4348
909.993	4432
910.108	4352
910.224	4436
910.339	4455
910.454	4413
910.57	4322
910.685	4314
910.8	4672
910.915	4630
911.03	4508
911.145	4318
911.259	4276
911.374	4409
911.489	4280
911.604	4287
911.718	4185
911.833	4166
911.947	4078
912.062	4025
912.176	4181
912.291	4253
912.405	4261
912.519	4459
912.633	4523
912.748	4356
912.862	4295
912.976	4192
913.09	4116
913.204	4173
913.318	4261
913.431	4363
913.545	4383
913.659	4462
913.772	4379
913.886	4238
914	4185
914.113	4329
914.226	4432
914.34	4390
914.453	4227
914.566	4443
914.68	4333
914.793	4360
914.906	4150
915.019	4154
915.132	4093
915.245	4234
915.358	4227
915.47	4253
915.583	4276
915.696	4337
915.809	4421
915.921	4440
916.034	4227
916.146	4234
916.259	4207
916.371	4379
916.483	4360
916.595	4265
916.708	4310
916.82	4314
916.932	4318
917.044	4337
917.156	4299
917.268	4265
917.38	4299
917.491	4291
917.603	4310
917.715	4405
917.826	4424
917.938	4344
918.049	4227
918.161	4409
918.272	4493
918.384	4497
918.495	4485
918.606	4303
918.717	4238
918.828	4352
918.939	4356
919.05	4227
919.161	4306
919.272	4101
919.383	4253
919.494	4413
919.604	4618
919.715	4413
919.826	4356
919.936	4405
920.047	4516
920.157	4493
920.267	4672
920.378	4603
920.488	4516
920.598	4729
920.708	4889
920.818	4748
920.928	4752
921.038	4938
921.148	4930
921.258	4588
921.368	4569
921.477	4489
921.587	4443
921.697	4375
921.806	4535
921.916	4405
922.025	4246
922.134	4261
922.244	4211
922.353	4337
922.462	4188
922.571	4124
922.68	3987
922.789	3972
922.898	4010
923.007	3987
923.116	4063
923.224	4071
923.333	4071
923.442	4006
923.55	3975
923.659	3991
923.767	4101
923.876	3972
923.984	4128
924.092	3949
924.201	4063
924.309	4051
924.417	4105
924.525	4063
924.633	4086
924.741	5071
924.849	3903
924.956	4109
925.064	3983
925.172	3930
925.279	3934
925.387	4063
925.494	4067
925.602	4181
925.709	4177
925.816	4067
925.924	4105
926.031	4242
926.138	4120
926.245	4223
926.352	4074
926.459	4242
926.566	4280
926.673	4196
926.779	4063
926.886	4044
926.993	3941
927.099	3945
927.206	3937
927.312	3975
927.419	4048
927.525	4002
927.631	4093
927.737	3968
927.843	3949
927.95	3846
928.056	3987
928.162	3922
928.267	4044
928.373	4554
928.479	4147
928.585	3861
928.69	3998
928.796	4006
928.901	3960
929.007	3884
929.112	3987
929.218	3987
929.323	3983
929.428	3937
929.533	4074
929.638	3911
929.743	3953
929.848	4025
929.953	3953
930.058	3903
930.163	3789
930.267	3808
930.372	3960
930.477	3793
930.581	4071
930.685	3983
930.79	3789
930.894	3873
930.998	3827
931.103	4029
931.207	3713
931.311	3705
931.415	3648
931.519	3485
931.623	3572
