Data from test_V78500241_399.txt Node
Date: Fri Mar 25 16:51:46 CST 2022
User: usil
Spectrometer: V785-0024
Trigger mode: 0
Integration Time (sec): 4.000000E-1
Scans to average: 1
Nonlinearity correction enabled: false
Boxcar width: 0
Storing dark spectrum: false
XAxis mode: Wavelengths
Number of Pixels in Spectrum: 1024
>>>>>Begin Spectral Data<<<<<
801.071	8035
801.214	7997
801.356	7890
801.499	7909
801.641	7833
801.783	7818
801.926	7967
802.068	7963
802.211	8031
802.353	7997
802.496	7890
802.638	7932
802.78	7928
802.923	7887
803.065	7871
803.208	7849
803.35	7925
803.492	8016
803.635	8100
803.777	7928
803.919	8111
804.061	8442
804.204	8111
804.346	8046
804.488	7997
804.63	8100
804.773	8031
804.915	8084
805.057	8275
805.199	8142
805.341	8199
805.483	8263
805.626	8145
805.768	8039
805.91	8119
806.052	8199
806.194	8111
806.336	8358
806.478	8176
806.62	8180
806.762	8088
806.904	8248
807.046	8461
807.188	8290
807.33	8221
807.472	8275
807.614	8210
807.756	8183
807.898	8016
808.04	7928
808.182	8020
808.324	7944
808.465	7967
808.607	8149
808.749	8115
808.891	8202
809.033	8351
809.174	8145
809.316	8092
809.458	8111
809.6	8069
809.741	8039
809.883	8050
810.025	8157
810.166	8115
810.308	8035
810.45	8084
810.591	7913
810.733	7792
810.875	7647
811.016	7483
811.158	7578
811.299	7658
811.441	7784
811.582	7776
811.724	7620
811.865	7578
812.007	7636
812.148	7666
812.29	7639
812.431	7792
812.573	7970
812.714	7959
812.855	8168
812.997	8282
813.138	8374
813.279	8180
813.421	8107
813.562	8046
813.703	7906
813.845	7738
813.986	7529
814.127	7407
814.268	7339
814.41	7278
814.551	7255
814.692	7232
814.833	7133
814.974	7126
815.115	7183
815.256	7012
815.397	6966
815.539	6966
815.68	6856
815.821	6825
815.962	6882
816.103	6890
816.244	6764
816.385	6673
816.526	6566
816.666	6532
816.807	6361
816.948	6422
817.089	6475
817.23	6479
817.371	6483
817.512	6353
817.653	6407
817.793	6361
817.934	6407
818.075	6452
818.216	6479
818.356	6380
818.497	6296
818.638	6117
818.778	6182
818.919	6167
819.06	6159
819.2	6342
819.341	6292
819.481	6380
819.622	6540
819.762	6711
819.903	6745
820.043	6604
820.184	6597
820.324	6585
820.465	6688
820.605	6673
820.746	6631
820.886	6551
821.026	6688
821.167	6730
821.307	6795
821.447	6764
821.588	6703
821.728	6540
821.868	6521
822.008	6315
822.149	6380
822.289	6388
822.429	6117
822.569	6102
822.709	6079
822.849	5961
822.99	5893
823.13	5866
823.27	5931
823.41	5802
823.55	5741
823.69	5745
823.83	5771
823.97	5726
824.11	5543
824.25	5512
824.389	5573
824.529	5562
824.669	5539
824.809	5676
824.949	5672
825.089	5573
825.228	5547
825.368	5406
825.508	5353
825.648	5341
825.787	5360
825.927	5410
826.067	5334
826.206	5303
826.346	5444
826.485	5364
826.625	5417
826.765	5596
826.904	5486
827.044	5288
827.183	5189
827.323	5155
827.462	5254
827.601	5124
827.741	5162
827.88	5250
828.02	5128
828.159	5296
828.298	5334
828.437	5425
828.577	5322
828.716	5505
828.855	5330
828.994	5197
829.134	5185
829.273	5204
829.412	5189
829.551	5155
829.69	5193
829.829	5299
829.968	5395
830.107	5288
830.246	5273
830.385	5265
830.524	5151
830.663	5086
830.802	5029
830.941	4900
831.08	4881
831.219	5033
831.357	5083
831.496	5201
831.635	4976
831.774	4900
831.913	4881
832.051	4759
832.19	4835
832.329	4885
832.467	4744
832.606	4675
832.744	4805
832.883	4774
833.022	4771
833.16	4793
833.299	4877
833.437	4858
833.576	4858
833.714	4915
833.852	4919
833.991	4987
834.129	4999
834.267	4995
834.406	4930
834.544	4999
834.682	5067
834.821	5003
834.959	5216
835.097	5067
835.235	5185
835.373	5185
835.511	5136
835.65	5048
835.788	5048
835.926	4965
836.064	4946
836.202	4934
836.34	5216
836.478	5307
836.615	5159
836.753	5261
836.891	5368
837.029	5235
837.167	5265
837.305	5155
837.443	5239
837.58	5147
837.718	5277
837.856	5235
837.993	5181
838.131	5288
838.269	5273
838.406	5246
838.544	5223
838.681	5045
838.819	5086
838.956	4927
839.094	4957
839.231	5006
839.369	5128
839.506	5497
839.643	5258
839.781	5098
839.918	5060
840.055	5185
840.193	5132
840.33	5128
840.467	5159
840.604	5258
840.742	5516
840.879	5086
841.016	5124
841.153	5193
841.29	5414
841.427	5383
841.564	5360
841.701	5372
841.838	5357
841.975	5326
842.112	5345
842.249	5159
842.385	5174
842.522	5353
842.659	5216
842.796	5265
842.933	5246
843.069	5181
843.206	5204
843.343	5322
843.479	5292
843.616	5326
843.752	5052
843.889	5067
844.025	5303
844.162	5071
844.298	5277
844.435	5162
844.571	5102
844.708	5258
844.844	5330
844.98	5376
845.117	5345
845.253	5166
845.389	5105
845.525	5220
845.661	5197
845.798	5067
845.934	5166
846.07	5102
846.206	5242
846.342	5322
846.478	5242
846.614	5071
846.75	5003
846.886	5018
847.022	5174
847.158	5064
847.294	5094
847.429	5086
847.565	5090
847.701	5402
847.837	4946
847.972	4858
848.108	5003
848.244	5033
848.379	4835
848.515	4774
848.65	4809
848.786	4786
848.921	4816
849.057	4870
849.192	4930
849.328	4831
849.463	4854
849.598	4854
849.734	4793
849.869	4752
850.004	4683
850.14	4733
850.275	4668
850.41	4577
850.545	4558
850.68	4637
850.815	4622
850.95	4664
851.085	4873
851.22	4774
851.355	4725
851.49	4645
851.625	4687
851.76	4656
851.895	4580
852.03	4580
852.165	4664
852.299	4710
852.434	4740
852.569	4717
852.703	4850
852.838	4896
852.973	4911
853.107	4965
853.242	4778
853.376	4687
853.511	4641
853.645	4683
853.78	4805
853.914	4729
854.048	4710
854.183	4664
854.317	4752
854.451	4877
854.585	4702
854.72	4649
854.854	4740
854.988	4664
855.122	4672
855.256	4592
855.39	4710
855.524	4812
855.658	4744
855.792	4729
855.926	4828
856.06	4755
856.194	4850
856.327	4752
856.461	4668
856.595	4637
856.729	4683
856.862	4790
856.996	4752
857.13	4797
857.263	4816
857.397	4847
857.53	4698
857.664	4755
857.797	4793
857.931	4816
858.064	4721
858.197	4774
858.331	4672
858.464	4664
858.597	4516
858.731	4618
858.864	4675
858.997	4622
859.13	4736
859.263	4748
859.396	4755
859.529	4615
859.662	4622
859.795	4592
859.928	4683
860.061	4748
860.194	4763
860.327	4626
860.46	4603
860.592	4759
860.725	4714
860.858	4729
860.99	4592
861.123	4584
861.256	4561
861.388	4634
861.521	5349
861.653	4618
861.786	4500
861.918	4519
862.05	4580
862.183	4577
862.315	4634
862.447	4683
862.58	4588
862.712	4462
862.844	4363
862.976	4497
863.108	4478
863.24	4835
863.372	4360
863.504	4421
863.636	4493
863.768	4523
863.9	4447
864.032	4394
864.164	4424
864.296	4523
864.428	4512
864.559	4611
864.691	4531
864.823	4584
864.954	4527
865.086	4508
865.217	4481
865.349	4428
865.48	4481
865.612	4535
865.743	4660
865.875	4455
866.006	4504
866.137	4508
866.269	4451
866.4	4474
866.531	4459
866.662	4447
866.793	4424
866.924	4409
867.055	4527
867.186	4447
867.317	4413
867.448	4432
867.579	4424
867.71	4421
867.841	4432
867.972	4500
868.103	4535
868.233	4489
868.364	4516
868.495	4497
868.625	4714
868.756	4828
868.886	4634
869.017	4641
869.147	4793
869.278	4809
869.408	4702
869.539	4630
869.669	4748
869.799	4710
869.929	4767
870.06	4763
870.19	4953
870.32	4984
870.45	4999
870.58	4995
870.71	5155
870.84	5143
870.97	5003
871.1	4934
871.23	5143
871.36	5166
871.489	5060
871.619	5090
871.749	5113
871.879	5124
872.008	5227
872.138	5086
872.267	5010
872.397	4904
872.526	4839
872.656	4740
872.785	4881
872.915	4984
873.044	5052
873.173	5003
873.303	4995
873.432	4995
873.561	4991
873.69	4889
873.819	4843
873.948	4938
874.077	4847
874.206	4809
874.335	4850
874.464	4938
874.593	5060
874.722	4957
874.851	5113
874.979	5113
875.108	5067
875.237	4930
875.365	4877
875.494	4892
875.623	4991
875.751	4877
875.88	4961
876.008	5029
876.136	5124
876.265	5231
876.393	5406
876.521	5254
876.65	5242
876.778	5189
876.906	5121
877.034	5025
877.162	5086
877.29	5075
877.418	5064
877.546	5102
877.674	5064
877.802	5052
877.93	5094
878.058	5014
878.185	4904
878.313	5041
878.441	4934
878.568	4835
878.696	4816
878.824	4999
878.951	5010
879.079	5166
879.206	5341
879.333	5193
879.461	5010
879.588	5003
879.715	5174
879.842	5269
879.97	5022
880.097	4809
880.224	4774
880.351	4847
880.478	4881
880.605	4835
880.732	4831
880.859	5143
880.986	4976
881.112	4934
881.239	4782
881.366	4698
881.493	4656
881.619	4561
881.746	4733
881.872	4675
881.999	4679
882.125	4721
882.252	4771
882.378	4854
882.505	4995
882.631	4831
882.757	4710
882.883	4725
883.01	4763
883.136	4733
883.262	4645
883.388	4580
883.514	4831
883.64	4911
883.766	4839
883.892	4729
884.018	4717
884.143	4957
884.269	5014
884.395	4710
884.52	4660
884.646	4698
884.772	4653
884.897	4592
885.023	4660
885.148	4824
885.274	4850
885.399	4889
885.524	4702
885.65	4706
885.775	4797
885.9	4740
886.025	4889
886.15	4786
886.275	4752
886.4	4679
886.525	4828
886.65	4748
886.775	4691
886.9	4892
887.025	5045
887.149	4930
887.274	4668
887.399	4561
887.523	4603
887.648	4580
887.773	4588
887.897	4767
888.021	4805
888.146	4687
888.27	4771
888.395	4930
888.519	4790
888.643	4831
888.767	4843
888.891	4687
889.015	4592
889.139	4672
889.263	4679
889.387	4744
889.511	4862
889.635	4820
889.759	4687
889.883	4672
890.006	4763
890.13	4831
890.254	4645
890.377	4672
890.501	4512
890.624	4561
890.748	4653
890.871	4569
890.995	4455
891.118	4390
891.241	4542
891.364	4618
891.488	4679
891.611	4523
891.734	4569
891.857	4645
891.98	4573
892.103	4687
892.226	4618
892.349	4546
892.471	4390
892.594	4558
892.717	4630
892.839	4588
892.962	4599
893.085	4729
893.207	4622
893.33	4474
893.452	4577
893.575	4702
893.697	4580
893.819	4805
893.941	4858
894.064	4767
894.186	4649
894.308	4592
894.43	4744
894.552	4839
894.674	4748
894.796	4580
894.918	4615
895.04	4546
895.161	4763
895.283	4664
895.405	4641
895.526	4630
895.648	4774
895.769	4721
895.891	4729
896.012	4774
896.134	4771
896.255	4691
896.376	4698
896.498	4641
896.619	4672
896.74	4615
896.861	4641
896.982	4919
897.103	5128
897.224	4793
897.345	4733
897.466	4717
897.587	4744
897.708	4862
897.828	4790
897.949	4710
898.07	4599
898.19	4687
898.311	4881
898.431	4656
898.552	4717
898.672	4820
898.792	4805
898.913	4721
899.033	4618
899.153	4592
899.273	4470
899.393	4542
899.513	4538
899.633	4489
899.753	4538
899.873	4493
899.993	4588
900.113	4523
900.232	4569
900.352	4584
900.472	4538
900.591	4443
900.711	4523
900.83	4466
900.95	4630
901.069	4706
901.189	4569
901.308	4409
901.427	4360
901.546	4394
901.665	4508
901.784	4538
901.904	4398
902.023	4314
902.141	4204
902.26	4181
902.379	4306
902.498	4257
902.617	4268
902.735	4318
902.854	4447
902.973	4371
903.091	4219
903.21	4249
903.328	4280
903.446	4314
903.565	4268
903.683	4341
903.801	4344
903.919	4436
904.038	4447
904.156	4371
904.274	4443
904.392	4409
904.51	4459
904.627	4504
904.745	4558
904.863	4603
904.981	4417
905.098	4299
905.216	4344
905.334	4405
905.451	4478
905.569	4459
905.686	4535
905.803	4607
905.921	4409
906.038	4512
906.155	4504
906.272	4405
906.389	4500
906.506	4390
906.623	4383
906.74	4402
906.857	4325
906.974	4402
907.091	4607
907.208	4694
907.324	4649
907.441	4508
907.557	4322
907.674	4402
907.79	4348
907.907	4405
908.023	4497
908.139	4497
908.256	4455
908.372	4478
908.488	4455
908.604	4348
908.72	4356
908.836	4402
908.952	4394
909.068	4497
909.184	4599
909.3	4508
909.415	4554
909.531	4577
909.647	4344
909.762	4363
909.878	4337
909.993	4413
910.108	4428
910.224	4413
910.339	4485
910.454	4413
910.57	4443
910.685	4310
910.8	4691
910.915	4641
911.03	4531
911.145	4284
911.259	4409
911.374	4352
911.489	4272
911.604	4291
911.718	4192
911.833	4227
911.947	4067
912.062	4101
912.176	4246
912.291	4200
912.405	4295
912.519	4531
912.633	4535
912.748	4417
912.862	4295
912.976	4257
913.09	4116
913.204	4188
913.318	4284
913.431	4386
913.545	4413
913.659	4402
913.772	4402
913.886	4272
914	4253
914.113	4375
914.226	4462
914.34	4367
914.453	4257
914.566	4443
914.68	4337
914.793	4363
914.906	4169
915.019	4177
915.132	4097
915.245	4169
915.358	4207
915.47	4234
915.583	4257
915.696	4303
915.809	4459
915.921	4459
916.034	4268
916.146	4253
916.259	4242
916.371	4379
916.483	4348
916.595	4261
916.708	4306
916.82	4356
916.932	4356
917.044	4329
917.156	4318
917.268	4284
917.38	4287
917.491	4325
917.603	4371
917.715	4440
917.826	4432
917.938	4398
918.049	4284
918.161	4432
918.272	4535
918.384	4592
918.495	4466
918.606	4306
918.717	4299
918.828	4344
918.939	4394
919.05	4268
919.161	4325
919.272	4120
919.383	4196
919.494	4462
919.604	4630
919.715	4398
919.826	4337
919.936	4440
920.047	4550
920.157	4474
920.267	4729
920.378	4565
920.488	4516
920.598	4729
920.708	4877
920.818	4752
920.928	4763
921.038	4965
921.148	4930
921.258	4618
921.368	4558
921.477	4500
921.587	4489
921.697	4413
921.806	4542
921.916	4443
922.025	4299
922.134	4268
922.244	4215
922.353	4344
922.462	4211
922.571	4112
922.68	4032
922.789	4006
922.898	4021
923.007	4013
923.116	4112
923.224	4071
923.333	4135
923.442	4029
923.55	3941
923.659	4055
923.767	4116
923.876	4040
923.984	4143
924.092	3991
924.201	4090
924.309	4067
924.417	4158
924.525	4071
924.633	4105
924.741	5064
924.849	3876
924.956	4128
925.064	3972
925.172	3926
925.279	3964
925.387	4063
925.494	4055
925.602	4249
925.709	4204
925.816	4025
925.924	4116
926.031	4207
926.138	4219
926.245	4234
926.352	4082
926.459	4287
926.566	4306
926.673	4173
926.779	4063
926.886	4090
926.993	3937
927.099	3994
927.206	3934
927.312	3949
927.419	4101
927.525	4051
927.631	4143
927.737	4002
927.843	3907
927.95	3865
928.056	3964
928.162	3987
928.267	4082
928.373	4698
928.479	4135
928.585	3873
928.69	4006
928.796	4128
928.901	4002
929.007	3857
929.112	4067
929.218	3987
929.323	3934
929.428	3998
929.533	4120
929.638	3915
929.743	3960
929.848	4071
929.953	4017
930.058	3911
930.163	3827
930.267	3861
930.372	3953
930.477	3819
930.581	4105
930.685	3979
930.79	3831
930.894	3865
930.998	3873
931.103	4051
931.207	3698
931.311	3747
931.415	3694
931.519	3542
931.623	3584
