Data from test_V78500241_2312.txt Node
Date: Fri Mar 25 17:05:04 CST 2022
User: usil
Spectrometer: V785-0024
Trigger mode: 0
Integration Time (sec): 4.000000E-1
Scans to average: 1
Nonlinearity correction enabled: false
Boxcar width: 0
Storing dark spectrum: false
XAxis mode: Wavelengths
Number of Pixels in Spectrum: 1024
>>>>>Begin Spectral Data<<<<<
801.071	8046
801.214	8035
801.356	7883
801.499	7913
801.641	7845
801.783	7837
801.926	8020
802.068	7986
802.211	8043
802.353	8027
802.496	7906
802.638	7879
802.78	7909
802.923	7955
803.065	7875
803.208	7871
803.35	8027
803.492	8065
803.635	8123
803.777	8103
803.919	8218
804.061	8484
804.204	8191
804.346	8130
804.488	8001
804.63	8172
804.773	8088
804.915	8164
805.057	8351
805.199	8153
805.341	8191
805.483	8279
805.626	8252
805.768	8164
805.91	8221
806.052	8237
806.194	8149
806.336	8168
806.478	8134
806.62	8046
806.762	8096
806.904	8282
807.046	8415
807.188	8450
807.33	8290
807.472	8317
807.614	8195
807.756	8153
807.898	8107
808.04	7898
808.182	7913
808.324	7868
808.465	7925
808.607	8096
808.749	8107
808.891	8218
809.033	8324
809.174	8263
809.316	8115
809.458	8092
809.6	8016
809.741	8069
809.883	8035
810.025	8100
810.166	8100
810.308	8065
810.45	8027
810.591	7944
810.733	7689
810.875	7670
811.016	7495
811.158	7460
811.299	7616
811.441	7693
811.582	7636
811.724	7605
811.865	7525
812.007	7647
812.148	7601
812.29	7639
812.431	7750
812.573	7822
812.714	7967
812.855	8157
812.997	8191
813.138	8362
813.279	8153
813.421	8119
813.562	7978
813.703	7849
813.845	7700
813.986	7400
814.127	7278
814.268	7259
814.41	7206
814.551	7168
814.692	7194
814.833	7141
814.974	7000
815.115	7122
815.256	6977
815.397	6966
815.539	6913
815.68	6848
815.821	6810
815.962	6913
816.103	6856
816.244	6753
816.385	6578
816.526	6597
816.666	6536
816.807	6334
816.948	6437
817.089	6479
817.23	6464
817.371	6369
817.512	6338
817.653	6369
817.793	6395
817.934	6391
818.075	6471
818.216	6410
818.356	6456
818.497	6251
818.638	6121
818.778	6159
818.919	6163
819.06	6106
819.2	6353
819.341	6338
819.481	6403
819.622	6555
819.762	6707
819.903	6688
820.043	6544
820.184	6555
820.324	6639
820.465	6673
820.605	6703
820.746	6631
820.886	6532
821.026	6696
821.167	6711
821.307	6852
821.447	6722
821.588	6749
821.728	6578
821.868	6532
822.008	6289
822.149	6380
822.289	6414
822.429	6205
822.569	6102
822.709	6175
822.849	5988
822.99	5901
823.13	5946
823.27	5916
823.41	5748
823.55	5805
823.69	5851
823.83	5813
823.97	5726
824.11	5512
824.25	5509
824.389	5547
824.529	5570
824.669	5520
824.809	5672
824.949	5653
825.089	5619
825.228	5543
825.368	5345
825.508	5372
825.648	5398
825.787	5414
825.927	5383
826.067	5345
826.206	5322
826.346	5345
826.485	5448
826.625	5467
826.765	5619
826.904	5520
827.044	5284
827.183	5201
827.323	5159
827.462	5223
827.601	5235
827.741	5201
827.88	5212
828.02	5117
828.159	5292
828.298	5349
828.437	5410
828.577	5284
828.716	5528
828.855	5368
828.994	5220
829.134	5136
829.273	5197
829.412	5140
829.551	5166
829.69	5143
829.829	5242
829.968	5337
830.107	5307
830.246	5288
830.385	5181
830.524	5136
830.663	5064
830.802	4995
830.941	4949
831.08	4938
831.219	5006
831.357	4999
831.496	5117
831.635	4919
831.774	4870
831.913	4820
832.051	4698
832.19	4763
832.329	4835
832.467	4687
832.606	4637
832.744	4729
832.883	4710
833.022	4706
833.16	4774
833.299	4835
833.437	4805
833.576	4824
833.714	4889
833.852	4866
833.991	4862
834.129	4995
834.267	4927
834.406	4881
834.544	4980
834.682	5006
834.821	5052
834.959	5147
835.097	5010
835.235	5128
835.373	5083
835.511	5060
835.65	5041
835.788	5045
835.926	4915
836.064	4889
836.202	4904
836.34	5181
836.478	5242
836.615	5140
836.753	5208
836.891	5307
837.029	5280
837.167	5223
837.305	5102
837.443	5147
837.58	5067
837.718	5239
837.856	5147
837.993	5090
838.131	5254
838.269	5261
838.406	5201
838.544	5159
838.681	5033
838.819	4991
838.956	4896
839.094	4900
839.231	4930
839.369	5132
839.506	5410
839.643	5315
839.781	5109
839.918	5064
840.055	5102
840.193	5098
840.33	5067
840.467	5132
840.604	5197
840.742	5410
840.879	5094
841.016	5109
841.153	5178
841.29	5444
841.427	5315
841.564	5345
841.701	5341
841.838	5273
841.975	5280
842.112	5227
842.249	5140
842.385	5086
842.522	5360
842.659	5166
842.796	5181
842.933	5223
843.069	5162
843.206	5151
843.343	5277
843.479	5254
843.616	5246
843.752	4999
843.889	4995
844.025	5258
844.162	5025
844.298	5231
844.435	5079
844.571	5075
844.708	5174
844.844	5315
844.98	5326
845.117	5280
845.253	5151
845.389	5113
845.525	5170
845.661	5162
845.798	5033
845.934	5147
846.07	5067
846.206	5147
846.342	5292
846.478	5181
846.614	5064
846.75	4965
846.886	4949
847.022	5090
847.158	5003
847.294	5033
847.429	5113
847.565	5064
847.701	5307
847.837	4877
847.972	4831
848.108	5037
848.244	5018
848.379	4797
848.515	4714
848.65	4733
848.786	4740
848.921	4790
849.057	4911
849.192	4870
849.328	4805
849.463	4858
849.598	4793
849.734	4740
849.869	4721
850.004	4626
850.14	4618
850.275	4615
850.41	4584
850.545	4538
850.68	4569
850.815	4645
850.95	4596
851.085	4881
851.22	4698
851.355	4664
851.49	4634
851.625	4645
851.76	4664
851.895	4577
852.03	4535
852.165	4660
852.299	4679
852.434	4771
852.569	4755
852.703	4790
852.838	4885
852.973	4949
853.107	4930
853.242	4748
853.376	4626
853.511	4615
853.645	4626
853.78	4812
853.914	4729
854.048	4698
854.183	4656
854.317	4714
854.451	4835
854.585	4736
854.72	4641
854.854	4767
854.988	4599
855.122	4645
855.256	4516
855.39	4675
855.524	4752
855.658	4702
855.792	4698
855.926	4668
856.06	4767
856.194	4820
856.327	4626
856.461	4649
856.595	4596
856.729	4668
856.862	4721
856.996	4679
857.13	4736
857.263	4771
857.397	4782
857.53	4683
857.664	4694
857.797	4778
857.931	4748
858.064	4679
858.197	4744
858.331	4668
858.464	4618
858.597	4542
858.731	4599
858.864	4630
858.997	4588
859.13	4691
859.263	4656
859.396	4714
859.529	4561
859.662	4580
859.795	4535
859.928	4649
860.061	4805
860.194	4790
860.327	4580
860.46	4535
860.592	4675
860.725	4717
860.858	4710
860.99	4599
861.123	4519
861.256	4538
861.388	4603
861.521	5288
861.653	4459
861.786	4447
861.918	4497
862.05	4523
862.183	4538
862.315	4645
862.447	4626
862.58	4527
862.712	4459
862.844	4329
862.976	4443
863.108	4466
863.24	4896
863.372	4356
863.504	4409
863.636	4443
863.768	4531
863.9	4440
864.032	4371
864.164	4409
864.296	4459
864.428	4573
864.559	4546
864.691	4523
864.823	4542
864.954	4535
865.086	4481
865.217	4443
865.349	4421
865.48	4432
865.612	4470
865.743	4615
865.875	4478
866.006	4466
866.137	4432
866.269	4428
866.4	4417
866.531	4398
866.662	4470
866.793	4405
866.924	4409
867.055	4508
867.186	4417
867.317	4417
867.448	4344
867.579	4402
867.71	4402
867.841	4398
867.972	4459
868.103	4436
868.233	4447
868.364	4428
868.495	4485
868.625	4691
868.756	4759
868.886	4558
869.017	4603
869.147	4774
869.278	4778
869.408	4622
869.539	4607
869.669	4714
869.799	4653
869.929	4790
870.06	4714
870.19	4942
870.32	4957
870.45	4957
870.58	5041
870.71	5064
870.84	5075
870.97	4892
871.1	4930
871.23	5075
871.36	5132
871.489	4999
871.619	5056
871.749	5086
871.879	5143
872.008	5193
872.138	5033
872.267	4957
872.397	4816
872.526	4824
872.656	4748
872.785	4828
872.915	4927
873.044	5037
873.173	4949
873.303	4987
873.432	4904
873.561	4972
873.69	4923
873.819	4873
873.948	4896
874.077	4778
874.206	4771
874.335	4812
874.464	4862
874.593	5071
874.722	4976
874.851	5056
874.979	5079
875.108	4995
875.237	4881
875.365	4870
875.494	4904
875.623	5003
875.751	4790
875.88	4866
876.008	4995
876.136	5060
876.265	5197
876.393	5318
876.521	5277
876.65	5159
876.778	5181
876.906	5056
877.034	4995
877.162	5079
877.29	5014
877.418	5060
877.546	5060
877.674	4957
877.802	5014
877.93	5022
878.058	4987
878.185	4908
878.313	4980
878.441	4961
878.568	4828
878.696	4854
878.824	4980
878.951	4972
879.079	5166
879.206	5284
879.333	5102
879.461	4984
879.588	4991
879.715	5105
879.842	5201
879.97	5003
880.097	4767
880.224	4759
880.351	4812
880.478	4801
880.605	4809
880.732	4778
880.859	5045
880.986	4892
881.112	4904
881.239	4771
881.366	4626
881.493	4607
881.619	4565
881.746	4634
881.872	4630
881.999	4622
882.125	4668
882.252	4752
882.378	4786
882.505	4976
882.631	4782
882.757	4668
882.883	4733
883.01	4714
883.136	4691
883.262	4599
883.388	4645
883.514	4752
883.64	4850
883.766	4786
883.892	4691
884.018	4702
884.143	4896
884.269	5022
884.395	4672
884.52	4596
884.646	4664
884.772	4622
884.897	4592
885.023	4641
885.148	4767
885.274	4862
885.399	4824
885.524	4744
885.65	4706
885.775	4755
885.9	4691
886.025	4835
886.15	4797
886.275	4637
886.4	4615
886.525	4755
886.65	4679
886.775	4729
886.9	4927
887.025	5033
887.149	4790
887.274	4664
887.399	4573
887.523	4577
887.648	4500
887.773	4603
887.897	4733
888.021	4767
888.146	4706
888.27	4774
888.395	4953
888.519	4816
888.643	4824
888.767	4839
888.891	4714
889.015	4599
889.139	4675
889.263	4588
889.387	4748
889.511	4862
889.635	4839
889.759	4645
889.883	4634
890.006	4706
890.13	4828
890.254	4607
890.377	4683
890.501	4561
890.624	4535
890.748	4645
890.871	4497
890.995	4417
891.118	4375
891.241	4474
891.364	4569
891.488	4622
891.611	4493
891.734	4504
891.857	4607
891.98	4573
892.103	4694
892.226	4588
892.349	4516
892.471	4451
892.594	4519
892.717	4603
892.839	4637
892.962	4554
893.085	4672
893.207	4622
893.33	4500
893.452	4538
893.575	4660
893.697	4599
893.819	4782
893.941	4854
894.064	4752
894.186	4554
894.308	4554
894.43	4733
894.552	4839
894.674	4752
894.796	4535
894.918	4577
895.04	4554
895.161	4736
895.283	4687
895.405	4565
895.526	4607
895.648	4710
895.769	4683
895.891	4740
896.012	4691
896.134	4714
896.255	4664
896.376	4615
896.498	4599
896.619	4660
896.74	4535
896.861	4634
896.982	4908
897.103	5029
897.224	4843
897.345	4744
897.466	4656
897.587	4672
897.708	4805
897.828	4801
897.949	4630
898.07	4569
898.19	4607
898.311	4816
898.431	4687
898.552	4691
898.672	4858
898.792	4790
898.913	4748
899.033	4660
899.153	4504
899.273	4409
899.393	4523
899.513	4493
899.633	4512
899.753	4519
899.873	4455
899.993	4554
900.113	4535
900.232	4523
900.352	4542
900.472	4459
900.591	4386
900.711	4500
900.83	4451
900.95	4535
901.069	4664
901.189	4542
901.308	4383
901.427	4363
901.546	4405
901.665	4421
901.784	4493
901.904	4390
902.023	4360
902.141	4207
902.26	4162
902.379	4333
902.498	4227
902.617	4219
902.735	4379
902.854	4402
902.973	4360
903.091	4211
903.21	4211
903.328	4265
903.446	4265
903.565	4227
903.683	4314
903.801	4265
903.919	4424
904.038	4386
904.156	4310
904.274	4383
904.392	4375
904.51	4398
904.627	4459
904.745	4573
904.863	4626
904.981	4375
905.098	4280
905.216	4352
905.334	4386
905.451	4432
905.569	4436
905.686	4481
905.803	4558
905.921	4443
906.038	4531
906.155	4500
906.272	4379
906.389	4443
906.506	4310
906.623	4363
906.74	4341
906.857	4306
906.974	4291
907.091	4519
907.208	4691
907.324	4580
907.441	4455
907.557	4318
907.674	4402
907.79	4333
907.907	4390
908.023	4470
908.139	4432
908.256	4436
908.372	4421
908.488	4432
908.604	4341
908.72	4352
908.836	4390
908.952	4306
909.068	4443
909.184	4523
909.3	4478
909.415	4538
909.531	4519
909.647	4383
909.762	4314
909.878	4356
909.993	4443
910.108	4417
910.224	4451
910.339	4455
910.454	4447
910.57	4363
910.685	4287
910.8	4637
910.915	4542
911.03	4489
911.145	4344
911.259	4329
911.374	4383
911.489	4303
911.604	4257
911.718	4177
911.833	4200
911.947	4109
912.062	4055
912.176	4192
912.291	4295
912.405	4295
912.519	4474
912.633	4470
912.748	4344
912.862	4322
912.976	4169
913.09	4067
913.204	4192
913.318	4223
913.431	4398
913.545	4367
913.659	4344
913.772	4344
913.886	4223
914	4211
914.113	4348
914.226	4447
914.34	4424
914.453	4215
914.566	4398
914.68	4295
914.793	4314
914.906	4185
915.019	4124
915.132	4032
915.245	4112
915.358	4204
915.47	4177
915.583	4291
915.696	4333
915.809	4360
915.921	4375
916.034	4238
916.146	4246
916.259	4200
916.371	4371
916.483	4310
916.595	4261
916.708	4314
916.82	4337
916.932	4379
917.044	4329
917.156	4310
917.268	4227
917.38	4318
917.491	4299
917.603	4333
917.715	4443
917.826	4402
917.938	4371
918.049	4257
918.161	4398
918.272	4565
918.384	4489
918.495	4455
918.606	4287
918.717	4265
918.828	4352
918.939	4310
919.05	4234
919.161	4322
919.272	4109
919.383	4215
919.494	4413
919.604	4683
919.715	4459
919.826	4375
919.936	4352
920.047	4535
920.157	4478
920.267	4687
920.378	4573
920.488	4489
920.598	4733
920.708	4904
920.818	4725
920.928	4714
921.038	4930
921.148	4877
921.258	4637
921.368	4527
921.477	4512
921.587	4470
921.697	4386
921.806	4558
921.916	4432
922.025	4253
922.134	4268
922.244	4230
922.353	4360
922.462	4204
922.571	4131
922.68	4010
922.789	3972
922.898	4036
923.007	3975
923.116	4131
923.224	4051
923.333	4055
923.442	4021
923.55	3975
923.659	4036
923.767	4105
923.876	4002
923.984	4112
924.092	4021
924.201	4040
924.309	4090
924.417	4135
924.525	4078
924.633	4071
924.741	5018
924.849	3922
924.956	4169
925.064	3987
925.172	3915
925.279	3972
925.387	4048
925.494	4021
925.602	4215
925.709	4207
925.816	4059
925.924	4109
926.031	4188
926.138	4188
926.245	4234
926.352	4116
926.459	4215
926.566	4272
926.673	4143
926.779	4044
926.886	4086
926.993	3991
927.099	3907
927.206	3918
927.312	3972
927.419	4082
927.525	4006
927.631	4105
927.737	3972
927.843	3941
927.95	3865
928.056	3941
928.162	3983
928.267	4048
928.373	4668
928.479	4105
928.585	3857
928.69	4006
928.796	4101
928.901	4002
929.007	3831
929.112	4010
929.218	3949
929.323	3918
929.428	3903
929.533	4090
929.638	3907
929.743	3937
929.848	4013
929.953	4040
930.058	3922
930.163	3797
930.267	3781
930.372	4010
930.477	3842
930.581	4032
930.685	3945
930.79	3831
930.894	3869
930.998	3846
931.103	4059
931.207	3671
931.311	3682
931.415	3648
931.519	3519
931.623	3538
