Data from test_V78500241_2402.txt Node
Date: Fri Mar 25 17:05:42 CST 2022
User: usil
Spectrometer: V785-0024
Trigger mode: 0
Integration Time (sec): 4.000000E-1
Scans to average: 1
Nonlinearity correction enabled: false
Boxcar width: 0
Storing dark spectrum: false
XAxis mode: Wavelengths
Number of Pixels in Spectrum: 1024
>>>>>Begin Spectral Data<<<<<
801.071	8031
801.214	7974
801.356	7887
801.499	7856
801.641	7765
801.783	7822
801.926	7963
802.068	7936
802.211	7921
802.353	7986
802.496	7830
802.638	7849
802.78	7856
802.923	7883
803.065	7917
803.208	7837
803.35	7951
803.492	8081
803.635	8111
803.777	8065
803.919	8153
804.061	8454
804.204	8180
804.346	8050
804.488	8001
804.63	8111
804.773	7959
804.915	8130
805.057	8377
805.199	8187
805.341	8244
805.483	8324
805.626	8282
805.768	8168
805.91	8233
806.052	8229
806.194	8107
806.336	8275
806.478	8092
806.62	8077
806.762	8123
806.904	8267
807.046	8412
807.188	8400
807.33	8320
807.472	8358
807.614	8142
807.756	8145
807.898	8027
808.04	7879
808.182	7871
808.324	7898
808.465	7887
808.607	8027
808.749	8214
808.891	8279
809.033	8210
809.174	8229
809.316	8172
809.458	8058
809.6	8005
809.741	7928
809.883	8024
810.025	8096
810.166	8039
810.308	8035
810.45	8001
810.591	7902
810.733	7734
810.875	7674
811.016	7582
811.158	7521
811.299	7537
811.441	7742
811.582	7658
811.724	7502
811.865	7548
812.007	7556
812.148	7651
812.29	7647
812.431	7788
812.573	7913
812.714	7993
812.855	8187
812.997	8275
813.138	8328
813.279	8202
813.421	8077
813.562	7967
813.703	7940
813.845	7753
813.986	7483
814.127	7255
814.268	7274
814.41	7236
814.551	7168
814.692	7198
814.833	7050
814.974	7145
815.115	7141
815.256	7004
815.397	6928
815.539	6993
815.68	6837
815.821	6726
815.962	6871
816.103	6818
816.244	6677
816.385	6604
816.526	6688
816.666	6547
816.807	6300
816.948	6452
817.089	6486
817.23	6441
817.371	6422
817.512	6376
817.653	6403
817.793	6395
817.934	6372
818.075	6456
818.216	6441
818.356	6418
818.497	6224
818.638	6079
818.778	6163
818.919	6140
819.06	6163
819.2	6327
819.341	6311
819.481	6342
819.622	6513
819.762	6711
819.903	6681
820.043	6601
820.184	6578
820.324	6502
820.465	6722
820.605	6757
820.746	6631
820.886	6483
821.026	6665
821.167	6760
821.307	6825
821.447	6791
821.588	6669
821.728	6563
821.868	6502
822.008	6281
822.149	6399
822.289	6296
822.429	6205
822.569	6117
822.709	6117
822.849	5942
822.99	5931
823.13	5954
823.27	5939
823.41	5805
823.55	5752
823.69	5767
823.83	5756
823.97	5657
824.11	5585
824.25	5509
824.389	5596
824.529	5600
824.669	5505
824.809	5608
824.949	5665
825.089	5581
825.228	5524
825.368	5379
825.508	5383
825.648	5376
825.787	5341
825.927	5406
826.067	5265
826.206	5299
826.346	5353
826.485	5364
826.625	5410
826.765	5577
826.904	5459
827.044	5269
827.183	5220
827.323	5140
827.462	5258
827.601	5147
827.741	5174
827.88	5269
828.02	5102
828.159	5231
828.298	5334
828.437	5330
828.577	5273
828.716	5516
828.855	5383
828.994	5189
829.134	5143
829.273	5216
829.412	5174
829.551	5178
829.69	5193
829.829	5197
829.968	5353
830.107	5265
830.246	5231
830.385	5185
830.524	5083
830.663	5102
830.802	4942
830.941	4873
831.08	4858
831.219	5018
831.357	4984
831.496	5162
831.635	4938
831.774	4870
831.913	4854
832.051	4782
832.19	4752
832.329	4824
832.467	4706
832.606	4637
832.744	4721
832.883	4672
833.022	4710
833.16	4771
833.299	4782
833.437	4801
833.576	4824
833.714	4850
833.852	4850
833.991	4900
834.129	4957
834.267	4957
834.406	4873
834.544	4991
834.682	4980
834.821	4980
834.959	5178
835.097	4999
835.235	5128
835.373	5045
835.511	5121
835.65	5029
835.788	5041
835.926	4900
836.064	4900
836.202	4923
836.34	5201
836.478	5239
836.615	5132
836.753	5216
836.891	5284
837.029	5265
837.167	5193
837.305	5178
837.443	5159
837.58	5094
837.718	5261
837.856	5151
837.993	5151
838.131	5208
838.269	5185
838.406	5193
838.544	5155
838.681	5029
838.819	5010
838.956	4885
839.094	4889
839.231	4976
839.369	5086
839.506	5463
839.643	5246
839.781	5029
839.918	5025
840.055	5064
840.193	5060
840.33	5151
840.467	5159
840.604	5265
840.742	5459
840.879	5109
841.016	5071
841.153	5083
841.29	5391
841.427	5330
841.564	5311
841.701	5360
841.838	5235
841.975	5273
842.112	5265
842.249	5086
842.385	5105
842.522	5360
842.659	5178
842.796	5147
842.933	5227
843.069	5136
843.206	5166
843.343	5246
843.479	5231
843.616	5235
843.752	5060
843.889	5025
844.025	5216
844.162	4995
844.298	5193
844.435	5094
844.571	5029
844.708	5208
844.844	5311
844.98	5364
845.117	5273
845.253	5159
845.389	5060
845.525	5159
845.661	5140
845.798	5075
845.934	5090
846.07	5045
846.206	5189
846.342	5322
846.478	5166
846.614	5033
846.75	4949
846.886	4965
847.022	5136
847.158	5010
847.294	5098
847.429	5105
847.565	5041
847.701	5265
847.837	4858
847.972	4797
848.108	4953
848.244	4965
848.379	4759
848.515	4725
848.65	4721
848.786	4767
848.921	4759
849.057	4908
849.192	4930
849.328	4782
849.463	4843
849.598	4809
849.734	4763
849.869	4683
850.004	4664
850.14	4664
850.275	4599
850.41	4527
850.545	4550
850.68	4580
850.815	4653
850.95	4630
851.085	4847
851.22	4763
851.355	4694
851.49	4599
851.625	4599
851.76	4683
851.895	4554
852.03	4558
852.165	4615
852.299	4706
852.434	4816
852.569	4752
852.703	4778
852.838	4858
852.973	4942
853.107	4946
853.242	4706
853.376	4653
853.511	4538
853.645	4588
853.78	4774
853.914	4721
854.048	4675
854.183	4637
854.317	4691
854.451	4843
854.585	4630
854.72	4611
854.854	4733
854.988	4622
855.122	4656
855.256	4519
855.39	4645
855.524	4797
855.658	4763
855.792	4683
855.926	4729
856.06	4725
856.194	4812
856.327	4649
856.461	4588
856.595	4603
856.729	4641
856.862	4771
856.996	4675
857.13	4694
857.263	4763
857.397	4782
857.53	4664
857.664	4668
857.797	4740
857.931	4828
858.064	4675
858.197	4748
858.331	4656
858.464	4569
858.597	4516
858.731	4634
858.864	4592
858.997	4611
859.13	4679
859.263	4653
859.396	4683
859.529	4615
859.662	4577
859.795	4535
859.928	4653
860.061	4763
860.194	4782
860.327	4653
860.46	4573
860.592	4729
860.725	4698
860.858	4725
860.99	4596
861.123	4497
861.256	4538
861.388	4599
861.521	5307
861.653	4500
861.786	4428
861.918	4455
862.05	4519
862.183	4558
862.315	4630
862.447	4694
862.58	4535
862.712	4375
862.844	4337
862.976	4451
863.108	4421
863.24	4793
863.372	4337
863.504	4413
863.636	4402
863.768	4489
863.9	4402
864.032	4375
864.164	4421
864.296	4470
864.428	4531
864.559	4599
864.691	4538
864.823	4519
864.954	4485
865.086	4451
865.217	4443
865.349	4405
865.48	4443
865.612	4512
865.743	4607
865.875	4497
866.006	4424
866.137	4428
866.269	4462
866.4	4466
866.531	4383
866.662	4421
866.793	4383
866.924	4379
867.055	4481
867.186	4451
867.317	4398
867.448	4363
867.579	4375
867.71	4398
867.841	4386
867.972	4455
868.103	4398
868.233	4413
868.364	4459
868.495	4508
868.625	4691
868.756	4725
868.886	4580
869.017	4599
869.147	4786
869.278	4790
869.408	4634
869.539	4664
869.669	4679
869.799	4630
869.929	4755
870.06	4717
870.19	4896
870.32	4900
870.45	4911
870.58	4949
870.71	5105
870.84	5159
870.97	4984
871.1	4957
871.23	5178
871.36	5132
871.489	5071
871.619	5067
871.749	5075
871.879	5124
872.008	5151
872.138	5094
872.267	4938
872.397	4839
872.526	4812
872.656	4755
872.785	4805
872.915	4938
873.044	5048
873.173	4953
873.303	4961
873.432	4900
873.561	4976
873.69	4873
873.819	4892
873.948	4915
874.077	4831
874.206	4710
874.335	4774
874.464	4908
874.593	5060
874.722	4976
874.851	5083
874.979	4999
875.108	5064
875.237	4961
875.365	4900
875.494	4900
875.623	4991
875.751	4854
875.88	4877
876.008	4953
876.136	5052
876.265	5227
876.393	5326
876.521	5273
876.65	5223
876.778	5162
876.906	5090
877.034	4995
877.162	5075
877.29	4991
877.418	5029
877.546	5060
877.674	5033
877.802	5075
877.93	5006
878.058	4934
878.185	4923
878.313	4927
878.441	4930
878.568	4809
878.696	4839
878.824	4953
878.951	4987
879.079	5162
879.206	5250
879.333	5121
879.461	4980
879.588	5014
879.715	5113
879.842	5197
879.97	4991
880.097	4816
880.224	4725
880.351	4805
880.478	4805
880.605	4782
880.732	4805
880.859	5079
880.986	4889
881.112	4889
881.239	4771
881.366	4691
881.493	4561
881.619	4611
881.746	4668
881.872	4641
881.999	4641
882.125	4653
882.252	4778
882.378	4828
882.505	4965
882.631	4816
882.757	4691
882.883	4710
883.01	4767
883.136	4683
883.262	4592
883.388	4611
883.514	4782
883.64	4900
883.766	4801
883.892	4714
884.018	4710
884.143	4885
884.269	5006
884.395	4687
884.52	4626
884.646	4660
884.772	4550
884.897	4603
885.023	4637
885.148	4763
885.274	4881
885.399	4843
885.524	4736
885.65	4752
885.775	4733
885.9	4683
886.025	4850
886.15	4820
886.275	4752
886.4	4675
886.525	4706
886.65	4679
886.775	4691
886.9	4930
887.025	4984
887.149	4809
887.274	4637
887.399	4573
887.523	4599
887.648	4573
887.773	4573
887.897	4717
888.021	4831
888.146	4637
888.27	4771
888.395	4904
888.519	4774
888.643	4778
888.767	4805
888.891	4687
889.015	4603
889.139	4596
889.263	4596
889.387	4733
889.511	4889
889.635	4801
889.759	4630
889.883	4653
890.006	4702
890.13	4839
890.254	4622
890.377	4717
890.501	4516
890.624	4558
890.748	4630
890.871	4523
890.995	4352
891.118	4367
891.241	4519
891.364	4561
891.488	4641
891.611	4493
891.734	4569
891.857	4668
891.98	4554
892.103	4645
892.226	4626
892.349	4508
892.471	4436
892.594	4523
892.717	4596
892.839	4577
892.962	4630
893.085	4675
893.207	4603
893.33	4474
893.452	4504
893.575	4672
893.697	4588
893.819	4828
893.941	4820
894.064	4740
894.186	4607
894.308	4542
894.43	4748
894.552	4812
894.674	4752
894.796	4558
894.918	4580
895.04	4577
895.161	4721
895.283	4634
895.405	4569
895.526	4630
895.648	4687
895.769	4687
895.891	4694
896.012	4729
896.134	4729
896.255	4733
896.376	4637
896.498	4607
896.619	4679
896.74	4641
896.861	4649
896.982	4866
897.103	5121
897.224	4805
897.345	4679
897.466	4637
897.587	4744
897.708	4831
897.828	4721
897.949	4645
898.07	4561
898.19	4664
898.311	4839
898.431	4656
898.552	4668
898.672	4793
898.792	4786
898.913	4714
899.033	4618
899.153	4516
899.273	4440
899.393	4470
899.513	4561
899.633	4493
899.753	4485
899.873	4523
899.993	4561
900.113	4462
900.232	4596
900.352	4500
900.472	4512
900.591	4367
900.711	4481
900.83	4417
900.95	4615
901.069	4694
901.189	4558
901.308	4348
901.427	4295
901.546	4402
901.665	4462
901.784	4535
901.904	4379
902.023	4344
902.141	4223
902.26	4166
902.379	4291
902.498	4211
902.617	4185
902.735	4348
902.854	4375
902.973	4363
903.091	4181
903.21	4242
903.328	4287
903.446	4253
903.565	4322
903.683	4379
903.801	4249
903.919	4432
904.038	4428
904.156	4310
904.274	4474
904.392	4409
904.51	4413
904.627	4489
904.745	4550
904.863	4641
904.981	4383
905.098	4299
905.216	4375
905.334	4428
905.451	4398
905.569	4459
905.686	4558
905.803	4577
905.921	4405
906.038	4573
906.155	4455
906.272	4424
906.389	4451
906.506	4337
906.623	4379
906.74	4402
906.857	4276
906.974	4363
907.091	4584
907.208	4694
907.324	4577
907.441	4512
907.557	4299
907.674	4386
907.79	4318
907.907	4432
908.023	4500
908.139	4493
908.256	4390
908.372	4493
908.488	4409
908.604	4398
908.72	4367
908.836	4360
908.952	4306
909.068	4470
909.184	4554
909.3	4459
909.415	4558
909.531	4535
909.647	4318
909.762	4352
909.878	4303
909.993	4474
910.108	4436
910.224	4409
910.339	4451
910.454	4421
910.57	4367
910.685	4287
910.8	4672
910.915	4592
911.03	4500
911.145	4344
911.259	4303
911.374	4363
911.489	4314
911.604	4261
911.718	4162
911.833	4147
911.947	4109
912.062	4040
912.176	4207
912.291	4185
912.405	4295
912.519	4485
912.633	4485
912.748	4398
912.862	4306
912.976	4227
913.09	4109
913.204	4204
913.318	4257
913.431	4394
913.545	4394
913.659	4447
913.772	4386
913.886	4227
914	4196
914.113	4371
914.226	4390
914.34	4375
914.453	4227
914.566	4405
914.68	4253
914.793	4329
914.906	4173
915.019	4166
915.132	4109
915.245	4181
915.358	4188
915.47	4234
915.583	4253
915.696	4337
915.809	4451
915.921	4409
916.034	4291
916.146	4219
916.259	4204
916.371	4367
916.483	4356
916.595	4265
916.708	4318
916.82	4337
916.932	4383
917.044	4314
917.156	4344
917.268	4238
917.38	4287
917.491	4280
917.603	4287
917.715	4443
917.826	4459
917.938	4306
918.049	4272
918.161	4371
918.272	4550
918.384	4565
918.495	4386
918.606	4329
918.717	4268
918.828	4310
918.939	4352
919.05	4280
919.161	4325
919.272	4139
919.383	4200
919.494	4489
919.604	4599
919.715	4383
919.826	4360
919.936	4390
920.047	4542
920.157	4466
920.267	4679
920.378	4523
920.488	4512
920.598	4702
920.708	4885
920.818	4786
920.928	4767
921.038	4938
921.148	4911
921.258	4588
921.368	4546
921.477	4451
921.587	4500
921.697	4436
921.806	4569
921.916	4428
922.025	4318
922.134	4249
922.244	4188
922.353	4352
922.462	4185
922.571	4139
922.68	4044
922.789	4017
922.898	4010
923.007	3960
923.116	4116
923.224	4109
923.333	4013
923.442	4032
923.55	3979
923.659	4010
923.767	4086
923.876	3998
923.984	4147
924.092	3975
924.201	4074
924.309	4124
924.417	4154
924.525	4036
924.633	4093
924.741	5037
924.849	3915
924.956	4139
925.064	3991
925.172	3892
925.279	3991
925.387	3975
925.494	4071
925.602	4211
925.709	4150
925.816	4040
925.924	4105
926.031	4219
926.138	4169
926.245	4207
926.352	4093
926.459	4238
926.566	4291
926.673	4188
926.779	4055
926.886	4101
926.993	3956
927.099	3930
927.206	3937
927.312	3994
927.419	4017
927.525	4048
927.631	4032
927.737	3979
927.843	3987
927.95	3854
928.056	3953
928.162	3983
928.267	4067
928.373	4714
928.479	4128
928.585	3911
928.69	4032
928.796	4074
928.901	3987
929.007	3819
929.112	3979
929.218	3972
929.323	3922
929.428	3949
929.533	4074
929.638	3896
929.743	3953
929.848	4025
929.953	4044
930.058	3907
930.163	3789
930.267	3819
930.372	3975
930.477	3838
930.581	4109
930.685	3953
930.79	3842
930.894	3884
930.998	3823
931.103	4029
931.207	3701
931.311	3728
931.415	3732
931.519	3526
931.623	3568
