Data from test_V78500241_584.txt Node
Date: Fri Mar 25 16:53:03 CST 2022
User: usil
Spectrometer: V785-0024
Trigger mode: 0
Integration Time (sec): 4.000000E-1
Scans to average: 1
Nonlinearity correction enabled: false
Boxcar width: 0
Storing dark spectrum: false
XAxis mode: Wavelengths
Number of Pixels in Spectrum: 1024
>>>>>Begin Spectral Data<<<<<
801.071	8008
801.214	7951
801.356	7761
801.499	7852
801.641	7776
801.783	7883
801.926	7967
802.068	7921
802.211	7951
802.353	7944
802.496	7856
802.638	7887
802.78	7909
802.923	7944
803.065	7776
803.208	7841
803.35	7963
803.492	8096
803.635	8115
803.777	7989
803.919	8043
804.061	8427
804.204	8153
804.346	8077
804.488	7978
804.63	8092
804.773	8020
804.915	8107
805.057	8248
805.199	8130
805.341	8237
805.483	8279
805.626	8229
805.768	8084
805.91	8168
806.052	8267
806.194	8126
806.336	8309
806.478	8157
806.62	8088
806.762	8149
806.904	8263
807.046	8492
807.188	8339
807.33	8259
807.472	8328
807.614	8134
807.756	8134
807.898	7967
808.04	7879
808.182	7955
808.324	7894
808.465	7860
808.607	8050
808.749	8126
808.891	8183
809.033	8259
809.174	8138
809.316	8115
809.458	8081
809.6	7955
809.741	8039
809.883	7978
810.025	8058
810.166	8065
810.308	8001
810.45	7947
810.591	7875
810.733	7761
810.875	7700
811.016	7529
811.158	7537
811.299	7559
811.441	7674
811.582	7624
811.724	7616
811.865	7594
812.007	7540
812.148	7605
812.29	7647
812.431	7723
812.573	7845
812.714	7978
812.855	8172
812.997	8237
813.138	8347
813.279	8221
813.421	8153
813.562	8050
813.703	7898
813.845	7803
813.986	7480
814.127	7346
814.268	7388
814.41	7247
814.551	7175
814.692	7156
814.833	7023
814.974	7114
815.115	7156
815.256	7103
815.397	6935
815.539	6973
815.68	6875
815.821	6795
815.962	6863
816.103	6840
816.244	6730
816.385	6673
816.526	6608
816.666	6479
816.807	6277
816.948	6475
817.089	6486
817.23	6448
817.371	6292
817.512	6399
817.653	6426
817.793	6361
817.934	6369
818.075	6494
818.216	6388
818.356	6418
818.497	6220
818.638	6068
818.778	6182
818.919	6117
819.06	6144
819.2	6334
819.341	6350
819.481	6391
819.622	6555
819.762	6707
819.903	6719
820.043	6616
820.184	6528
820.324	6578
820.465	6654
820.605	6658
820.746	6582
820.886	6502
821.026	6665
821.167	6650
821.307	6753
821.447	6760
821.588	6654
821.728	6578
821.868	6486
822.008	6346
822.149	6334
822.289	6380
822.429	6144
822.569	6053
822.709	6049
822.849	5961
822.99	5870
823.13	5939
823.27	5901
823.41	5764
823.55	5737
823.69	5729
823.83	5775
823.97	5710
824.11	5623
824.25	5452
824.389	5554
824.529	5535
824.669	5573
824.809	5646
824.949	5726
825.089	5592
825.228	5543
825.368	5395
825.508	5334
825.648	5391
825.787	5398
825.927	5334
826.067	5307
826.206	5280
826.346	5387
826.485	5410
826.625	5436
826.765	5474
826.904	5486
827.044	5284
827.183	5140
827.323	5064
827.462	5239
827.601	5162
827.741	5170
827.88	5235
828.02	5090
828.159	5280
828.298	5277
828.437	5376
828.577	5288
828.716	5478
828.855	5326
828.994	5178
829.134	5140
829.273	5201
829.412	5147
829.551	5159
829.69	5162
829.829	5242
829.968	5337
830.107	5280
830.246	5250
830.385	5174
830.524	5067
830.663	5029
830.802	4953
830.941	4881
831.08	4866
831.219	4972
831.357	4934
831.496	5162
831.635	4911
831.774	4854
831.913	4843
832.051	4763
832.19	4767
832.329	4862
832.467	4672
832.606	4637
832.744	4736
832.883	4687
833.022	4710
833.16	4793
833.299	4767
833.437	4793
833.576	4843
833.714	4801
833.852	4809
833.991	4885
834.129	5003
834.267	4942
834.406	4862
834.544	4961
834.682	4953
834.821	4915
834.959	5197
835.097	4995
835.235	5143
835.373	5105
835.511	5064
835.65	5056
835.788	5041
835.926	4911
836.064	4919
836.202	4915
836.34	5124
836.478	5201
836.615	5109
836.753	5185
836.891	5284
837.029	5231
837.167	5212
837.305	5132
837.443	5102
837.58	5117
837.718	5242
837.856	5189
837.993	5189
838.131	5296
838.269	5208
838.406	5208
838.544	5185
838.681	5048
838.819	5025
838.956	4885
839.094	4889
839.231	4961
839.369	5071
839.506	5440
839.643	5212
839.781	5048
839.918	5067
840.055	5117
840.193	5136
840.33	5105
840.467	5155
840.604	5170
840.742	5436
840.879	5094
841.016	5102
841.153	5109
841.29	5360
841.427	5334
841.564	5326
841.701	5330
841.838	5296
841.975	5204
842.112	5273
842.249	5147
842.385	5083
842.522	5311
842.659	5166
842.796	5174
842.933	5185
843.069	5159
843.206	5166
843.343	5284
843.479	5212
843.616	5273
843.752	4999
843.889	5037
844.025	5269
844.162	5094
844.298	5174
844.435	5033
844.571	5086
844.708	5216
844.844	5326
844.98	5368
845.117	5288
845.253	5181
845.389	5064
845.525	5239
845.661	5162
845.798	5029
845.934	5178
846.07	5064
846.206	5231
846.342	5227
846.478	5185
846.614	5060
846.75	4987
846.886	4934
847.022	5121
847.158	5067
847.294	5071
847.429	5121
847.565	5056
847.701	5322
847.837	4877
847.972	4771
848.108	4938
848.244	4930
848.379	4816
848.515	4733
848.65	4725
848.786	4702
848.921	4744
849.057	4873
849.192	4934
849.328	4759
849.463	4870
849.598	4793
849.734	4793
849.869	4603
850.004	4630
850.14	4687
850.275	4618
850.41	4538
850.545	4569
850.68	4584
850.815	4599
850.95	4641
851.085	4835
851.22	4740
851.355	4653
851.49	4630
851.625	4634
851.76	4599
851.895	4592
852.03	4516
852.165	4656
852.299	4736
852.434	4767
852.569	4717
852.703	4771
852.838	4847
852.973	4892
853.107	4946
853.242	4691
853.376	4641
853.511	4573
853.645	4622
853.78	4828
853.914	4675
854.048	4664
854.183	4634
854.317	4740
854.451	4877
854.585	4649
854.72	4641
854.854	4729
854.988	4558
855.122	4637
855.256	4508
855.39	4649
855.524	4797
855.658	4736
855.792	4717
855.926	4752
856.06	4710
856.194	4797
856.327	4637
856.461	4580
856.595	4634
856.729	4634
856.862	4793
856.996	4687
857.13	4729
857.263	4763
857.397	4828
857.53	4656
857.664	4725
857.797	4763
857.931	4767
858.064	4714
858.197	4774
858.331	4653
858.464	4561
858.597	4500
858.731	4637
858.864	4634
858.997	4592
859.13	4683
859.263	4725
859.396	4729
859.529	4592
859.662	4584
859.795	4558
859.928	4607
860.061	4748
860.194	4786
860.327	4599
860.46	4542
860.592	4702
860.725	4740
860.858	4725
860.99	4554
861.123	4527
861.256	4542
861.388	4592
861.521	5330
861.653	4462
861.786	4402
861.918	4451
862.05	4508
862.183	4580
862.315	4596
862.447	4622
862.58	4550
862.712	4421
862.844	4375
862.976	4428
863.108	4432
863.24	4721
863.372	4329
863.504	4421
863.636	4421
863.768	4474
863.9	4451
864.032	4344
864.164	4409
864.296	4500
864.428	4573
864.559	4542
864.691	4542
864.823	4531
864.954	4474
865.086	4500
865.217	4443
865.349	4428
865.48	4451
865.612	4485
865.743	4611
865.875	4474
866.006	4443
866.137	4485
866.269	4417
866.4	4428
866.531	4383
866.662	4398
866.793	4402
866.924	4409
867.055	4481
867.186	4447
867.317	4390
867.448	4352
867.579	4398
867.71	4379
867.841	4344
867.972	4451
868.103	4436
868.233	4447
868.364	4470
868.495	4440
868.625	4618
868.756	4774
868.886	4588
869.017	4618
869.147	4717
869.278	4740
869.408	4622
869.539	4634
869.669	4714
869.799	4634
869.929	4744
870.06	4736
870.19	4938
870.32	4946
870.45	4930
870.58	5003
870.71	5090
870.84	5098
870.97	4949
871.1	4866
871.23	5189
871.36	5079
871.489	5018
871.619	5060
871.749	5086
871.879	5121
872.008	5227
872.138	5075
872.267	4965
872.397	4870
872.526	4774
872.656	4778
872.785	4797
872.915	4972
873.044	5003
873.173	4911
873.303	4980
873.432	4995
873.561	4984
873.69	4889
873.819	4858
873.948	4889
874.077	4828
874.206	4763
874.335	4828
874.464	4923
874.593	5060
874.722	4949
874.851	5102
874.979	5113
875.108	5056
875.237	4934
875.365	4835
875.494	4850
875.623	4976
875.751	4793
875.88	4858
876.008	4949
876.136	5025
876.265	5189
876.393	5307
876.521	5246
876.65	5216
876.778	5181
876.906	5048
877.034	4980
877.162	5022
877.29	5010
877.418	5060
877.546	5025
877.674	5048
877.802	5071
877.93	5033
878.058	5003
878.185	4904
878.313	4957
878.441	4976
878.568	4771
878.696	4881
878.824	4984
878.951	4968
879.079	5159
879.206	5296
879.333	5136
879.461	5018
879.588	4999
879.715	5124
879.842	5220
879.97	5003
880.097	4763
880.224	4759
880.351	4809
880.478	4809
880.605	4797
880.732	4740
880.859	5060
880.986	4896
881.112	4889
881.239	4759
881.366	4687
881.493	4626
881.619	4592
881.746	4668
881.872	4660
881.999	4618
882.125	4763
882.252	4786
882.378	4839
882.505	4949
882.631	4816
882.757	4660
882.883	4736
883.01	4721
883.136	4672
883.262	4558
883.388	4630
883.514	4793
883.64	4881
883.766	4805
883.892	4679
884.018	4744
884.143	4904
884.269	5060
884.395	4687
884.52	4569
884.646	4660
884.772	4622
884.897	4615
885.023	4637
885.148	4816
885.274	4889
885.399	4816
885.524	4679
885.65	4733
885.775	4740
885.9	4710
886.025	4889
886.15	4763
886.275	4668
886.4	4672
886.525	4748
886.65	4694
886.775	4740
886.9	4900
887.025	4976
887.149	4820
887.274	4645
887.399	4573
887.523	4550
887.648	4573
887.773	4584
887.897	4782
888.021	4793
888.146	4691
888.27	4782
888.395	4858
888.519	4854
888.643	4816
888.767	4778
888.891	4683
889.015	4637
889.139	4656
889.263	4615
889.387	4778
889.511	4885
889.635	4744
889.759	4550
889.883	4634
890.006	4740
890.13	4831
890.254	4626
890.377	4679
890.501	4516
890.624	4516
890.748	4664
890.871	4451
890.995	4493
891.118	4413
891.241	4481
891.364	4561
891.488	4592
891.611	4508
891.734	4535
891.857	4584
891.98	4516
892.103	4580
892.226	4637
892.349	4542
892.471	4409
892.594	4519
892.717	4592
892.839	4569
892.962	4580
893.085	4634
893.207	4592
893.33	4493
893.452	4550
893.575	4607
893.697	4561
893.819	4801
893.941	4828
894.064	4824
894.186	4615
894.308	4577
894.43	4702
894.552	4847
894.674	4778
894.796	4546
894.918	4596
895.04	4599
895.161	4702
895.283	4664
895.405	4584
895.526	4607
895.648	4710
895.769	4679
895.891	4675
896.012	4862
896.134	4736
896.255	4714
896.376	4634
896.498	4656
896.619	4615
896.74	4569
896.861	4683
896.982	4927
897.103	5105
897.224	4831
897.345	4771
897.466	4656
897.587	4748
897.708	4881
897.828	4793
897.949	4714
898.07	4558
898.19	4641
898.311	4809
898.431	4706
898.552	4748
898.672	4854
898.792	4809
898.913	4687
899.033	4660
899.153	4531
899.273	4379
899.393	4500
899.513	4538
899.633	4493
899.753	4531
899.873	4527
899.993	4596
900.113	4478
900.232	4622
900.352	4497
900.472	4497
900.591	4413
900.711	4493
900.83	4451
900.95	4611
901.069	4717
901.189	4558
901.308	4386
901.427	4367
901.546	4413
901.665	4443
901.784	4497
901.904	4363
902.023	4268
902.141	4204
902.26	4177
902.379	4303
902.498	4238
902.617	4207
902.735	4360
902.854	4375
902.973	4314
903.091	4223
903.21	4253
903.328	4295
903.446	4268
903.565	4230
903.683	4375
903.801	4276
903.919	4371
904.038	4405
904.156	4299
904.274	4459
904.392	4394
904.51	4424
904.627	4424
904.745	4542
904.863	4622
904.981	4398
905.098	4314
905.216	4386
905.334	4466
905.451	4443
905.569	4421
905.686	4546
905.803	4554
905.921	4432
906.038	4546
906.155	4417
906.272	4383
906.389	4478
906.506	4352
906.623	4375
906.74	4394
906.857	4299
906.974	4348
907.091	4558
907.208	4672
907.324	4580
907.441	4493
907.557	4318
907.674	4341
907.79	4375
907.907	4398
908.023	4497
908.139	4478
908.256	4432
908.372	4523
908.488	4428
908.604	4333
908.72	4306
908.836	4352
908.952	4383
909.068	4443
909.184	4592
909.3	4489
909.415	4599
909.531	4542
909.647	4375
909.762	4424
909.878	4337
909.993	4428
910.108	4383
910.224	4409
910.339	4455
910.454	4386
910.57	4363
910.685	4318
910.8	4637
910.915	4603
911.03	4527
911.145	4379
911.259	4299
911.374	4371
911.489	4322
911.604	4291
911.718	4173
911.833	4188
911.947	4105
912.062	4040
912.176	4215
912.291	4284
912.405	4234
912.519	4409
912.633	4478
912.748	4386
912.862	4333
912.976	4166
913.09	4097
913.204	4185
913.318	4261
913.431	4379
913.545	4421
913.659	4443
913.772	4383
913.886	4249
914	4253
914.113	4432
914.226	4447
914.34	4344
914.453	4196
914.566	4356
914.68	4356
914.793	4360
914.906	4150
915.019	4139
915.132	4105
915.245	4177
915.358	4177
915.47	4227
915.583	4287
915.696	4295
915.809	4375
915.921	4402
916.034	4223
916.146	4261
916.259	4246
916.371	4390
916.483	4344
916.595	4246
916.708	4314
916.82	4299
916.932	4333
917.044	4284
917.156	4299
917.268	4227
917.38	4261
917.491	4276
917.603	4325
917.715	4436
917.826	4504
917.938	4344
918.049	4227
918.161	4413
918.272	4508
918.384	4527
918.495	4462
918.606	4276
918.717	4215
918.828	4344
918.939	4360
919.05	4219
919.161	4306
919.272	4131
919.383	4276
919.494	4440
919.604	4592
919.715	4402
919.826	4356
919.936	4405
920.047	4542
920.157	4489
920.267	4706
920.378	4481
920.488	4451
920.598	4736
920.708	4843
920.818	4729
920.928	4771
921.038	4984
921.148	4904
921.258	4626
921.368	4546
921.477	4489
921.587	4451
921.697	4367
921.806	4588
921.916	4462
922.025	4280
922.134	4268
922.244	4207
922.353	4371
922.462	4196
922.571	4128
922.68	4017
922.789	3998
922.898	4067
923.007	3998
923.116	4116
923.224	4105
923.333	4059
923.442	4010
923.55	3964
923.659	4025
923.767	4086
923.876	3998
923.984	4112
924.092	3979
924.201	4097
924.309	4048
924.417	4082
924.525	4120
924.633	4112
924.741	5071
924.849	3945
924.956	4109
925.064	3945
925.172	3846
925.279	3975
925.387	4090
925.494	4029
925.602	4162
925.709	4185
925.816	4105
925.924	4112
926.031	4227
926.138	4177
926.245	4230
926.352	4090
926.459	4268
926.566	4303
926.673	4128
926.779	4067
926.886	4074
926.993	4002
927.099	3972
927.206	3934
927.312	3953
927.419	4036
927.525	4040
927.631	4105
927.737	3987
927.843	3941
927.95	3865
928.056	3937
928.162	3983
928.267	4063
928.373	4698
928.479	4131
928.585	3876
928.69	3983
928.796	4071
928.901	3945
929.007	3857
929.112	3983
929.218	3991
929.323	3983
929.428	3960
929.533	4135
929.638	3884
929.743	3907
929.848	4006
929.953	3991
930.058	3941
930.163	3759
930.267	3831
930.372	3960
930.477	3857
930.581	4097
930.685	3975
930.79	3804
930.894	3888
930.998	3846
931.103	4029
931.207	3698
931.311	3694
931.415	3648
931.519	3507
931.623	3576
