Data from test_V78500241_1270.txt Node
Date: Fri Mar 25 16:57:49 CST 2022
User: usil
Spectrometer: V785-0024
Trigger mode: 0
Integration Time (sec): 4.000000E-1
Scans to average: 1
Nonlinearity correction enabled: false
Boxcar width: 0
Storing dark spectrum: false
XAxis mode: Wavelengths
Number of Pixels in Spectrum: 1024
>>>>>Begin Spectral Data<<<<<
801.071	8054
801.214	8065
801.356	7883
801.499	7871
801.641	7826
801.783	7826
801.926	8005
802.068	7925
802.211	8012
802.353	7963
802.496	7792
802.638	7883
802.78	7917
802.923	8043
803.065	7894
803.208	7868
803.35	8008
803.492	8119
803.635	8142
803.777	8027
803.919	8180
804.061	8415
804.204	8187
804.346	8077
804.488	8012
804.63	8081
804.773	8084
804.915	8115
805.057	8343
805.199	8138
805.341	8298
805.483	8279
805.626	8233
805.768	8107
805.91	8206
806.052	8218
806.194	8123
806.336	8206
806.478	8081
806.62	8088
806.762	8107
806.904	8286
807.046	8473
807.188	8347
807.33	8168
807.472	8290
807.614	8111
807.756	8100
807.898	8024
808.04	7959
808.182	7917
808.324	7917
808.465	7928
808.607	8031
808.749	8111
808.891	8199
809.033	8366
809.174	8240
809.316	8039
809.458	8027
809.6	7936
809.741	8012
809.883	8039
810.025	8069
810.166	8096
810.308	8024
810.45	7978
810.591	7822
810.733	7708
810.875	7681
811.016	7540
811.158	7480
811.299	7525
811.441	7704
811.582	7708
811.724	7601
811.865	7571
812.007	7613
812.148	7552
812.29	7639
812.431	7753
812.573	7837
812.714	7978
812.855	8107
812.997	8218
813.138	8286
813.279	8180
813.421	8058
813.562	7936
813.703	7826
813.845	7784
813.986	7419
814.127	7198
814.268	7187
814.41	7198
814.551	7133
814.692	7183
814.833	7088
814.974	7091
815.115	7122
815.256	6962
815.397	6951
815.539	6897
815.68	6806
815.821	6772
815.962	6798
816.103	6787
816.244	6715
816.385	6616
816.526	6601
816.666	6464
816.807	6251
816.948	6494
817.089	6490
817.23	6437
817.371	6346
817.512	6350
817.653	6331
817.793	6365
817.934	6376
818.075	6395
818.216	6426
818.356	6361
818.497	6243
818.638	6064
818.778	6133
818.919	6121
819.06	6133
819.2	6331
819.341	6357
819.481	6357
819.622	6555
819.762	6768
819.903	6734
820.043	6574
820.184	6559
820.324	6604
820.465	6692
820.605	6646
820.746	6654
820.886	6498
821.026	6566
821.167	6719
821.307	6749
821.447	6711
821.588	6703
821.728	6566
821.868	6483
822.008	6258
822.149	6372
822.289	6357
822.429	6239
822.569	6034
822.709	6114
822.849	5965
822.99	5885
823.13	5840
823.27	5897
823.41	5707
823.55	5756
823.69	5748
823.83	5688
823.97	5665
824.11	5520
824.25	5486
824.389	5482
824.529	5558
824.669	5520
824.809	5592
824.949	5657
825.089	5619
825.228	5512
825.368	5402
825.508	5353
825.648	5299
825.787	5322
825.927	5296
826.067	5269
826.206	5246
826.346	5395
826.485	5395
826.625	5433
826.765	5532
826.904	5436
827.044	5246
827.183	5204
827.323	5117
827.462	5258
827.601	5181
827.741	5155
827.88	5250
828.02	5075
828.159	5204
828.298	5341
828.437	5372
828.577	5284
828.716	5520
828.855	5341
828.994	5143
829.134	5170
829.273	5212
829.412	5147
829.551	5193
829.69	5174
829.829	5284
829.968	5353
830.107	5277
830.246	5303
830.385	5170
830.524	5147
830.663	5140
830.802	4946
830.941	4889
831.08	4949
831.219	5010
831.357	5041
831.496	5178
831.635	4911
831.774	4843
831.913	4892
832.051	4771
832.19	4801
832.329	4843
832.467	4717
832.606	4679
832.744	4702
832.883	4816
833.022	4748
833.16	4790
833.299	4873
833.437	4816
833.576	4873
833.714	4930
833.852	4927
833.991	4919
834.129	5003
834.267	5014
834.406	4968
834.544	5067
834.682	5033
834.821	5010
834.959	5189
835.097	5033
835.235	5189
835.373	5102
835.511	5174
835.65	5014
835.788	5071
835.926	4911
836.064	4889
836.202	4968
836.34	5174
836.478	5242
836.615	5143
836.753	5212
836.891	5284
837.029	5273
837.167	5250
837.305	5201
837.443	5223
837.58	5098
837.718	5269
837.856	5216
837.993	5147
838.131	5269
838.269	5250
838.406	5288
838.544	5220
838.681	5121
838.819	5060
838.956	4889
839.094	4938
839.231	5018
839.369	5117
839.506	5482
839.643	5292
839.781	5083
839.918	5041
840.055	5140
840.193	5155
840.33	5128
840.467	5159
840.604	5181
840.742	5452
840.879	5094
841.016	5105
841.153	5174
841.29	5379
841.427	5334
841.564	5353
841.701	5391
841.838	5349
841.975	5265
842.112	5277
842.249	5132
842.385	5140
842.522	5315
842.659	5181
842.796	5201
842.933	5265
843.069	5204
843.206	5189
843.343	5315
843.479	5277
843.616	5265
843.752	5052
843.889	5037
844.025	5239
844.162	4957
844.298	5166
844.435	5064
844.571	5079
844.708	5227
844.844	5357
844.98	5349
845.117	5311
845.253	5208
845.389	5098
845.525	5193
845.661	5147
845.798	5045
845.934	5140
846.07	5056
846.206	5204
846.342	5273
846.478	5185
846.614	4995
846.75	4991
846.886	4976
847.022	5128
847.158	5033
847.294	5079
847.429	5117
847.565	5010
847.701	5318
847.837	4866
847.972	4866
848.108	4991
848.244	4957
848.379	4816
848.515	4725
848.65	4759
848.786	4748
848.921	4778
849.057	4908
849.192	4904
849.328	4877
849.463	4866
849.598	4797
849.734	4801
849.869	4714
850.004	4672
850.14	4645
850.275	4615
850.41	4531
850.545	4569
850.68	4618
850.815	4664
850.95	4660
851.085	4816
851.22	4725
851.355	4675
851.49	4656
851.625	4683
851.76	4653
851.895	4588
852.03	4565
852.165	4691
852.299	4714
852.434	4782
852.569	4748
852.703	4759
852.838	4843
852.973	4961
853.107	4972
853.242	4782
853.376	4702
853.511	4580
853.645	4656
853.78	4797
853.914	4729
854.048	4664
854.183	4660
854.317	4763
854.451	4892
854.585	4706
854.72	4637
854.854	4790
854.988	4653
855.122	4637
855.256	4569
855.39	4664
855.524	4801
855.658	4763
855.792	4698
855.926	4755
856.06	4729
856.194	4809
856.327	4748
856.461	4649
856.595	4630
856.729	4672
856.862	4816
856.996	4748
857.13	4778
857.263	4809
857.397	4839
857.53	4668
857.664	4771
857.797	4778
857.931	4854
858.064	4755
858.197	4763
858.331	4668
858.464	4630
858.597	4584
858.731	4599
858.864	4675
858.997	4618
859.13	4683
859.263	4698
859.396	4725
859.529	4573
859.662	4569
859.795	4599
859.928	4675
860.061	4824
860.194	4790
860.327	4584
860.46	4622
860.592	4649
860.725	4755
860.858	4755
860.99	4603
861.123	4523
861.256	4542
861.388	4611
861.521	5265
861.653	4508
861.786	4500
861.918	4508
862.05	4542
862.183	4592
862.315	4558
862.447	4622
862.58	4577
862.712	4424
862.844	4356
862.976	4542
863.108	4462
863.24	4877
863.372	4344
863.504	4470
863.636	4428
863.768	4481
863.9	4478
864.032	4402
864.164	4402
864.296	4481
864.428	4565
864.559	4554
864.691	4531
864.823	4542
864.954	4470
865.086	4538
865.217	4489
865.349	4421
865.48	4436
865.612	4527
865.743	4664
865.875	4470
866.006	4474
866.137	4455
866.269	4436
866.4	4421
866.531	4436
866.662	4417
866.793	4466
866.924	4497
867.055	4538
867.186	4405
867.317	4440
867.448	4390
867.579	4398
867.71	4398
867.841	4432
867.972	4478
868.103	4489
868.233	4447
868.364	4512
868.495	4531
868.625	4649
868.756	4752
868.886	4618
869.017	4653
869.147	4786
869.278	4812
869.408	4698
869.539	4641
869.669	4759
869.799	4649
869.929	4790
870.06	4809
870.19	4965
870.32	4976
870.45	4961
870.58	5033
870.71	5090
870.84	5105
870.97	4908
871.1	4908
871.23	5105
871.36	5147
871.489	5060
871.619	5094
871.749	5102
871.879	5098
872.008	5193
872.138	5052
872.267	5025
872.397	4877
872.526	4805
872.656	4782
872.785	4847
872.915	4984
873.044	5045
873.173	4900
873.303	4987
873.432	4953
873.561	5025
873.69	4877
873.819	4900
873.948	4911
874.077	4824
874.206	4786
874.335	4774
874.464	4942
874.593	5056
874.722	4927
874.851	5121
874.979	5064
875.108	5060
875.237	4927
875.365	4915
875.494	4831
875.623	4987
875.751	4843
875.88	4904
876.008	4942
876.136	5048
876.265	5227
876.393	5357
876.521	5227
876.65	5254
876.778	5147
876.906	5071
877.034	5067
877.162	5033
877.29	4984
877.418	5067
877.546	5060
877.674	5071
877.802	5048
877.93	5018
878.058	4908
878.185	4873
878.313	4976
878.441	4965
878.568	4843
878.696	4873
878.824	4976
878.951	5033
879.079	5151
879.206	5307
879.333	5113
879.461	5025
879.588	5014
879.715	5102
879.842	5239
879.97	4953
880.097	4786
880.224	4748
880.351	4828
880.478	4820
880.605	4801
880.732	4809
880.859	5090
880.986	4934
881.112	4889
881.239	4755
881.366	4634
881.493	4649
881.619	4630
881.746	4637
881.872	4691
881.999	4649
882.125	4698
882.252	4790
882.378	4805
882.505	4984
882.631	4782
882.757	4653
882.883	4740
883.01	4759
883.136	4660
883.262	4630
883.388	4637
883.514	4850
883.64	4866
883.766	4790
883.892	4702
884.018	4759
884.143	4934
884.269	5033
884.395	4679
884.52	4672
884.646	4668
884.772	4618
884.897	4588
885.023	4683
885.148	4763
885.274	4847
885.399	4892
885.524	4725
885.65	4687
885.775	4733
885.9	4752
886.025	4889
886.15	4831
886.275	4767
886.4	4626
886.525	4786
886.65	4755
886.775	4698
886.9	4904
887.025	4991
887.149	4816
887.274	4694
887.399	4577
887.523	4656
887.648	4561
887.773	4596
887.897	4812
888.021	4801
888.146	4653
888.27	4854
888.395	4957
888.519	4812
888.643	4801
888.767	4812
888.891	4755
889.015	4611
889.139	4683
889.263	4592
889.387	4782
889.511	4885
889.635	4847
889.759	4675
889.883	4634
890.006	4740
890.13	4824
890.254	4656
890.377	4679
890.501	4554
890.624	4592
890.748	4634
890.871	4527
890.995	4436
891.118	4424
891.241	4531
891.364	4577
891.488	4637
891.611	4493
891.734	4577
891.857	4656
891.98	4599
892.103	4637
892.226	4573
892.349	4558
892.471	4451
892.594	4561
892.717	4607
892.839	4611
892.962	4637
893.085	4653
893.207	4599
893.33	4504
893.452	4493
893.575	4725
893.697	4637
893.819	4774
893.941	4866
894.064	4812
894.186	4558
894.308	4569
894.43	4755
894.552	4828
894.674	4725
894.796	4580
894.918	4607
895.04	4641
895.161	4744
895.283	4691
895.405	4645
895.526	4668
895.648	4717
895.769	4660
895.891	4702
896.012	4721
896.134	4755
896.255	4641
896.376	4687
896.498	4641
896.619	4679
896.74	4592
896.861	4668
896.982	4965
897.103	5086
897.224	4790
897.345	4767
897.466	4702
897.587	4752
897.708	4835
897.828	4843
897.949	4672
898.07	4592
898.19	4630
898.311	4843
898.431	4672
898.552	4698
898.672	4885
898.792	4725
898.913	4752
899.033	4653
899.153	4481
899.273	4405
899.393	4535
899.513	4512
899.633	4497
899.753	4554
899.873	4500
899.993	4569
900.113	4516
900.232	4554
900.352	4554
900.472	4474
900.591	4405
900.711	4531
900.83	4447
900.95	4596
901.069	4672
901.189	4569
901.308	4428
901.427	4265
901.546	4409
901.665	4474
901.784	4489
901.904	4386
902.023	4322
902.141	4192
902.26	4139
902.379	4295
902.498	4257
902.617	4188
902.735	4379
902.854	4424
902.973	4436
903.091	4211
903.21	4204
903.328	4306
903.446	4295
903.565	4337
903.683	4375
903.801	4272
903.919	4402
904.038	4417
904.156	4325
904.274	4451
904.392	4394
904.51	4459
904.627	4485
904.745	4596
904.863	4607
904.981	4402
905.098	4303
905.216	4352
905.334	4421
905.451	4462
905.569	4436
905.686	4569
905.803	4573
905.921	4413
906.038	4611
906.155	4481
906.272	4394
906.389	4466
906.506	4333
906.623	4329
906.74	4348
906.857	4325
906.974	4436
907.091	4512
907.208	4710
907.324	4615
907.441	4485
907.557	4363
907.674	4360
907.79	4341
907.907	4337
908.023	4470
908.139	4470
908.256	4443
908.372	4474
908.488	4432
908.604	4375
908.72	4341
908.836	4360
908.952	4394
909.068	4474
909.184	4618
909.3	4481
909.415	4554
909.531	4569
909.647	4352
909.762	4352
909.878	4284
909.993	4481
910.108	4436
910.224	4402
910.339	4485
910.454	4390
910.57	4352
910.685	4333
910.8	4607
910.915	4577
911.03	4508
911.145	4314
911.259	4337
911.374	4367
911.489	4348
911.604	4265
911.718	4207
911.833	4246
911.947	4082
912.062	4017
912.176	4215
912.291	4227
912.405	4268
912.519	4485
912.633	4481
912.748	4375
912.862	4344
912.976	4219
913.09	4082
913.204	4188
913.318	4234
913.431	4352
913.545	4367
913.659	4436
913.772	4348
913.886	4227
914	4249
914.113	4409
914.226	4432
914.34	4360
914.453	4215
914.566	4440
914.68	4291
914.793	4325
914.906	4196
915.019	4120
915.132	4021
915.245	4211
915.358	4204
915.47	4227
915.583	4276
915.696	4295
915.809	4413
915.921	4481
916.034	4284
916.146	4291
916.259	4215
916.371	4337
916.483	4360
916.595	4272
916.708	4325
916.82	4291
916.932	4367
917.044	4371
917.156	4367
917.268	4261
917.38	4272
917.491	4246
917.603	4295
917.715	4436
917.826	4375
917.938	4360
918.049	4181
918.161	4344
918.272	4519
918.384	4504
918.495	4466
918.606	4329
918.717	4246
918.828	4375
918.939	4363
919.05	4230
919.161	4318
919.272	4120
919.383	4200
919.494	4432
919.604	4630
919.715	4390
919.826	4314
919.936	4386
920.047	4535
920.157	4523
920.267	4702
920.378	4542
920.488	4546
920.598	4752
920.708	4862
920.818	4740
920.928	4774
921.038	4927
921.148	4904
921.258	4637
921.368	4538
921.477	4497
921.587	4447
921.697	4352
921.806	4516
921.916	4443
922.025	4310
922.134	4230
922.244	4188
922.353	4379
922.462	4154
922.571	4131
922.68	3998
922.789	3930
922.898	4063
923.007	3972
923.116	4074
923.224	4063
923.333	4078
923.442	4021
923.55	3998
923.659	4006
923.767	4063
923.876	4048
923.984	4147
924.092	3998
924.201	4097
924.309	4082
924.417	4093
924.525	4082
924.633	4109
924.741	5064
924.849	3907
924.956	4086
925.064	3972
925.172	3888
925.279	3937
925.387	4067
925.494	4063
925.602	4230
925.709	4173
925.816	4010
925.924	4112
926.031	4249
926.138	4196
926.245	4185
926.352	4082
926.459	4188
926.566	4310
926.673	4169
926.779	4059
926.886	4059
926.993	3975
927.099	3915
927.206	3934
927.312	3941
927.419	4029
927.525	4006
927.631	4135
927.737	3960
927.843	3915
927.95	3861
928.056	3926
928.162	4021
928.267	4090
928.373	4714
928.479	4086
928.585	3896
928.69	4010
928.796	4029
928.901	3949
929.007	3854
929.112	3994
929.218	4025
929.323	3960
929.428	3937
929.533	4093
929.638	3896
929.743	3987
929.848	4051
929.953	4025
930.058	3949
930.163	3766
930.267	3831
930.372	4002
930.477	3804
930.581	4093
930.685	3945
930.79	3827
930.894	3949
930.998	3838
931.103	4048
931.207	3724
931.311	3686
931.415	3633
931.519	3496
931.623	3561
