Data from test_V78500241_358.txt Node
Date: Fri Mar 25 16:51:29 CST 2022
User: usil
Spectrometer: V785-0024
Trigger mode: 0
Integration Time (sec): 4.000000E-1
Scans to average: 1
Nonlinearity correction enabled: false
Boxcar width: 0
Storing dark spectrum: false
XAxis mode: Wavelengths
Number of Pixels in Spectrum: 1024
>>>>>Begin Spectral Data<<<<<
801.071	8100
801.214	8020
801.356	7940
801.499	7890
801.641	7772
801.783	7830
801.926	7997
802.068	7917
802.211	8005
802.353	8001
802.496	7913
802.638	7963
802.78	7932
802.923	7944
803.065	7894
803.208	7883
803.35	8054
803.492	8081
803.635	8168
803.777	8024
803.919	8077
804.061	8434
804.204	8206
804.346	8050
804.488	7959
804.63	8134
804.773	8005
804.915	8123
805.057	8320
805.199	8164
805.341	8176
805.483	8221
805.626	8187
805.768	8092
805.91	8172
806.052	8142
806.194	8096
806.336	8370
806.478	8157
806.62	8202
806.762	8229
806.904	8351
807.046	8503
807.188	8347
807.33	8286
807.472	8343
807.614	8142
807.756	8153
807.898	8027
808.04	7970
808.182	7913
808.324	7944
808.465	7970
808.607	8077
808.749	8183
808.891	8176
809.033	8385
809.174	8259
809.316	8069
809.458	8115
809.6	8073
809.741	8012
809.883	8012
810.025	8111
810.166	8111
810.308	8035
810.45	7974
810.591	7856
810.733	7750
810.875	7719
811.016	7594
811.158	7552
811.299	7597
811.441	7788
811.582	7750
811.724	7597
811.865	7639
812.007	7670
812.148	7597
812.29	7662
812.431	7772
812.573	7887
812.714	8016
812.855	8138
812.997	8263
813.138	8358
813.279	8271
813.421	8100
813.562	8005
813.703	7906
813.845	7852
813.986	7506
814.127	7343
814.268	7278
814.41	7183
814.551	7274
814.692	7183
814.833	7133
814.974	7175
815.115	7088
815.256	6977
815.397	6882
815.539	6966
815.68	6909
815.821	6848
815.962	6909
816.103	6844
816.244	6726
816.385	6681
816.526	6684
816.666	6555
816.807	6342
816.948	6502
817.089	6486
817.23	6445
817.371	6395
817.512	6418
817.653	6445
817.793	6391
817.934	6346
818.075	6445
818.216	6490
818.356	6471
818.497	6319
818.638	6167
818.778	6125
818.919	6171
819.06	6133
819.2	6311
819.341	6357
819.481	6308
819.622	6574
819.762	6818
819.903	6798
820.043	6642
820.184	6570
820.324	6582
820.465	6650
820.605	6669
820.746	6650
820.886	6513
821.026	6646
821.167	6745
821.307	6806
821.447	6776
821.588	6734
821.728	6608
821.868	6498
822.008	6327
822.149	6334
822.289	6384
822.429	6148
822.569	6041
822.709	6163
822.849	5973
822.99	5874
823.13	5923
823.27	5882
823.41	5863
823.55	5855
823.69	5802
823.83	5764
823.97	5691
824.11	5558
824.25	5467
824.389	5581
824.529	5619
824.669	5524
824.809	5646
824.949	5665
825.089	5661
825.228	5562
825.368	5436
825.508	5311
825.648	5353
825.787	5383
825.927	5376
826.067	5341
826.206	5284
826.346	5425
826.485	5372
826.625	5429
826.765	5570
826.904	5448
827.044	5303
827.183	5189
827.323	5155
827.462	5250
827.601	5193
827.741	5197
827.88	5227
828.02	5128
828.159	5254
828.298	5242
828.437	5368
828.577	5284
828.716	5463
828.855	5360
828.994	5178
829.134	5147
829.273	5208
829.412	5170
829.551	5128
829.69	5136
829.829	5250
829.968	5326
830.107	5246
830.246	5322
830.385	5193
830.524	5151
830.663	5083
830.802	4999
830.941	4862
831.08	4900
831.219	5010
831.357	4965
831.496	5151
831.635	4927
831.774	4854
831.913	4839
832.051	4771
832.19	4748
832.329	4858
832.467	4698
832.606	4618
832.744	4733
832.883	4725
833.022	4752
833.16	4824
833.299	4786
833.437	4850
833.576	4839
833.714	4839
833.852	4877
833.991	4870
834.129	4968
834.267	4991
834.406	4949
834.544	4976
834.682	4976
834.821	5018
834.959	5151
835.097	4953
835.235	5128
835.373	5102
835.511	5079
835.65	5071
835.788	5029
835.926	4927
836.064	4889
836.202	4900
836.34	5174
836.478	5231
836.615	5117
836.753	5212
836.891	5326
837.029	5258
837.167	5231
837.305	5181
837.443	5159
837.58	5124
837.718	5269
837.856	5166
837.993	5124
838.131	5235
838.269	5273
838.406	5239
838.544	5242
838.681	5056
838.819	5033
838.956	4885
839.094	4942
839.231	4999
839.369	5071
839.506	5463
839.643	5242
839.781	5090
839.918	5064
840.055	5094
840.193	5121
840.33	5117
840.467	5147
840.604	5246
840.742	5429
840.879	5117
841.016	5075
841.153	5197
841.29	5330
841.427	5318
841.564	5360
841.701	5379
841.838	5337
841.975	5231
842.112	5322
842.249	5109
842.385	5113
842.522	5353
842.659	5227
842.796	5174
842.933	5189
843.069	5189
843.206	5162
843.343	5334
843.479	5220
843.616	5277
843.752	5041
843.889	5003
844.025	5242
844.162	5048
844.298	5162
844.435	5105
844.571	5071
844.708	5189
844.844	5277
844.98	5349
845.117	5269
845.253	5151
845.389	5109
845.525	5121
845.661	5174
845.798	5067
845.934	5136
846.07	5064
846.206	5181
846.342	5288
846.478	5155
846.614	5048
846.75	5029
846.886	4972
847.022	5162
847.158	5003
847.294	5025
847.429	5124
847.565	5067
847.701	5345
847.837	4873
847.972	4831
848.108	4972
848.244	4949
848.379	4790
848.515	4740
848.65	4710
848.786	4755
848.921	4759
849.057	4919
849.192	4972
849.328	4793
849.463	4854
849.598	4801
849.734	4755
849.869	4714
850.004	4649
850.14	4683
850.275	4630
850.41	4470
850.545	4577
850.68	4584
850.815	4637
850.95	4618
851.085	4797
851.22	4763
851.355	4679
851.49	4603
851.625	4649
851.76	4649
851.895	4519
852.03	4565
852.165	4637
852.299	4691
852.434	4790
852.569	4755
852.703	4790
852.838	4866
852.973	4896
853.107	4915
853.242	4755
853.376	4630
853.511	4569
853.645	4599
853.78	4782
853.914	4694
854.048	4656
854.183	4706
854.317	4717
854.451	4809
854.585	4691
854.72	4611
854.854	4797
854.988	4618
855.122	4622
855.256	4531
855.39	4634
855.524	4835
855.658	4691
855.792	4698
855.926	4759
856.06	4736
856.194	4793
856.327	4706
856.461	4630
856.595	4672
856.729	4649
856.862	4774
856.996	4649
857.13	4710
857.263	4744
857.397	4801
857.53	4649
857.664	4717
857.797	4793
857.931	4793
858.064	4736
858.197	4771
858.331	4641
858.464	4615
858.597	4489
858.731	4599
858.864	4660
858.997	4630
859.13	4653
859.263	4679
859.396	4702
859.529	4611
859.662	4527
859.795	4584
859.928	4687
860.061	4771
860.194	4763
860.327	4603
860.46	4596
860.592	4698
860.725	4683
860.858	4706
860.99	4569
861.123	4508
861.256	4542
861.388	4607
861.521	5330
861.653	4504
861.786	4451
861.918	4451
862.05	4561
862.183	4599
862.315	4702
862.447	4672
862.58	4535
862.712	4386
862.844	4299
862.976	4478
863.108	4497
863.24	4793
863.372	4360
863.504	4455
863.636	4405
863.768	4478
863.9	4405
864.032	4375
864.164	4440
864.296	4481
864.428	4588
864.559	4569
864.691	4527
864.823	4535
864.954	4531
865.086	4504
865.217	4523
865.349	4424
865.48	4508
865.612	4538
865.743	4588
865.875	4466
866.006	4424
866.137	4489
866.269	4470
866.4	4428
866.531	4375
866.662	4402
866.793	4428
866.924	4424
867.055	4500
867.186	4478
867.317	4402
867.448	4371
867.579	4375
867.71	4367
867.841	4356
867.972	4459
868.103	4421
868.233	4478
868.364	4428
868.495	4474
868.625	4649
868.756	4771
868.886	4550
869.017	4649
869.147	4786
869.278	4778
869.408	4645
869.539	4683
869.669	4683
869.799	4660
869.929	4782
870.06	4721
870.19	4915
870.32	4919
870.45	4915
870.58	4987
870.71	5052
870.84	5090
870.97	4934
871.1	4919
871.23	5132
871.36	5147
871.489	5052
871.619	5094
871.749	5071
871.879	5147
872.008	5174
872.138	5086
872.267	4991
872.397	4866
872.526	4816
872.656	4748
872.785	4805
872.915	4984
873.044	4987
873.173	4957
873.303	4957
873.432	4927
873.561	4987
873.69	4885
873.819	4839
873.948	4968
874.077	4797
874.206	4736
874.335	4801
874.464	4911
874.593	5071
874.722	4942
874.851	5022
874.979	5086
875.108	5037
875.237	4949
875.365	4843
875.494	4892
875.623	4976
875.751	4854
875.88	4824
876.008	4999
876.136	5048
876.265	5204
876.393	5372
876.521	5242
876.65	5212
876.778	5136
876.906	5033
877.034	5041
877.162	5045
877.29	4991
877.418	5033
877.546	4995
877.674	5037
877.802	5041
877.93	5056
878.058	4934
878.185	4839
878.313	4987
878.441	4938
878.568	4839
878.696	4854
878.824	4987
878.951	5003
879.079	5143
879.206	5330
879.333	5109
879.461	4980
879.588	4987
879.715	5136
879.842	5246
879.97	5018
880.097	4790
880.224	4755
880.351	4850
880.478	4904
880.605	4797
880.732	4774
880.859	5094
880.986	4900
881.112	4927
881.239	4759
881.366	4679
881.493	4626
881.619	4573
881.746	4683
881.872	4626
881.999	4721
882.125	4710
882.252	4767
882.378	4809
882.505	4968
882.631	4790
882.757	4637
882.883	4759
883.01	4759
883.136	4668
883.262	4603
883.388	4645
883.514	4839
883.64	4862
883.766	4820
883.892	4653
884.018	4717
884.143	4896
884.269	4980
884.395	4691
884.52	4653
884.646	4637
884.772	4626
884.897	4607
885.023	4683
885.148	4778
885.274	4908
885.399	4790
885.524	4725
885.65	4721
885.775	4717
885.9	4660
886.025	4862
886.15	4809
886.275	4733
886.4	4672
886.525	4736
886.65	4675
886.775	4691
886.9	4892
887.025	5067
887.149	4866
887.274	4653
887.399	4618
887.523	4596
887.648	4618
887.773	4577
887.897	4752
888.021	4793
888.146	4683
888.27	4801
888.395	4889
888.519	4828
888.643	4801
888.767	4812
888.891	4733
889.015	4561
889.139	4630
889.263	4577
889.387	4771
889.511	4835
889.635	4782
889.759	4668
889.883	4691
890.006	4759
890.13	4835
890.254	4634
890.377	4672
890.501	4546
890.624	4485
890.748	4649
890.871	4516
890.995	4489
891.118	4394
891.241	4508
891.364	4561
891.488	4603
891.611	4516
891.734	4584
891.857	4580
891.98	4546
892.103	4645
892.226	4577
892.349	4546
892.471	4428
892.594	4523
892.717	4615
892.839	4573
892.962	4626
893.085	4660
893.207	4622
893.33	4413
893.452	4542
893.575	4611
893.697	4592
893.819	4797
893.941	4763
894.064	4763
894.186	4588
894.308	4611
894.43	4733
894.552	4805
894.674	4755
894.796	4504
894.918	4653
895.04	4561
895.161	4717
895.283	4649
895.405	4561
895.526	4603
895.648	4710
895.769	4683
895.891	4645
896.012	4710
896.134	4736
896.255	4630
896.376	4615
896.498	4618
896.619	4634
896.74	4603
896.861	4615
896.982	4972
897.103	5056
897.224	4824
897.345	4725
897.466	4679
897.587	4740
897.708	4854
897.828	4759
897.949	4653
898.07	4516
898.19	4637
898.311	4809
898.431	4725
898.552	4752
898.672	4774
898.792	4774
898.913	4740
899.033	4603
899.153	4500
899.273	4413
899.393	4519
899.513	4478
899.633	4538
899.753	4527
899.873	4531
899.993	4554
900.113	4531
900.232	4580
900.352	4538
900.472	4489
900.591	4417
900.711	4508
900.83	4470
900.95	4599
901.069	4714
901.189	4546
901.308	4383
901.427	4314
901.546	4386
901.665	4459
901.784	4489
901.904	4462
902.023	4337
902.141	4215
902.26	4192
902.379	4348
902.498	4268
902.617	4249
902.735	4409
902.854	4421
902.973	4371
903.091	4272
903.21	4303
903.328	4394
903.446	4329
903.565	4310
903.683	4375
903.801	4295
903.919	4432
904.038	4455
904.156	4352
904.274	4470
904.392	4462
904.51	4462
904.627	4474
904.745	4618
904.863	4645
904.981	4421
905.098	4386
905.216	4375
905.334	4462
905.451	4523
905.569	4466
905.686	4584
905.803	4656
905.921	4466
906.038	4550
906.155	4535
906.272	4402
906.389	4489
906.506	4379
906.623	4470
906.74	4470
906.857	4383
906.974	4421
907.091	4626
907.208	4752
907.324	4668
907.441	4561
907.557	4409
907.674	4428
907.79	4383
907.907	4485
908.023	4504
908.139	4508
908.256	4478
908.372	4512
908.488	4519
908.604	4409
908.72	4379
908.836	4451
908.952	4409
909.068	4478
909.184	4622
909.3	4531
909.415	4603
909.531	4561
909.647	4367
909.762	4402
909.878	4390
909.993	4478
910.108	4493
910.224	4470
910.339	4542
910.454	4432
910.57	4413
910.685	4325
910.8	4717
910.915	4622
911.03	4542
911.145	4360
911.259	4371
911.374	4470
911.489	4299
911.604	4329
911.718	4265
911.833	4234
911.947	4105
912.062	4074
912.176	4249
912.291	4230
912.405	4314
912.519	4485
912.633	4554
912.748	4428
912.862	4348
912.976	4268
913.09	4169
913.204	4223
913.318	4287
913.431	4379
913.545	4394
913.659	4478
913.772	4383
913.886	4322
914	4280
914.113	4424
914.226	4481
914.34	4462
914.453	4291
914.566	4497
914.68	4341
914.793	4344
914.906	4200
915.019	4173
915.132	4143
915.245	4207
915.358	4253
915.47	4295
915.583	4284
915.696	4318
915.809	4451
915.921	4436
916.034	4276
916.146	4322
916.259	4268
916.371	4466
916.483	4405
916.595	4348
916.708	4363
916.82	4337
916.932	4360
917.044	4363
917.156	4375
917.268	4272
917.38	4352
917.491	4329
917.603	4363
917.715	4459
917.826	4462
917.938	4386
918.049	4276
918.161	4443
918.272	4599
918.384	4577
918.495	4432
918.606	4325
918.717	4291
918.828	4363
918.939	4455
919.05	4280
919.161	4352
919.272	4166
919.383	4234
919.494	4497
919.604	4691
919.715	4485
919.826	4383
919.936	4432
920.047	4542
920.157	4554
920.267	4771
920.378	4599
920.488	4569
920.598	4733
920.708	4889
920.818	4759
920.928	4790
921.038	4904
921.148	4991
921.258	4664
921.368	4672
921.477	4554
921.587	4500
921.697	4405
921.806	4584
921.916	4474
922.025	4344
922.134	4318
922.244	4265
922.353	4398
922.462	4211
922.571	4192
922.68	4055
922.789	4006
922.898	4051
923.007	4006
923.116	4173
923.224	4082
923.333	4097
923.442	4032
923.55	4032
923.659	4082
923.767	4154
923.876	4086
923.984	4158
924.092	4051
924.201	4128
924.309	4135
924.417	4139
924.525	4139
924.633	4101
924.741	4930
924.849	3972
924.956	4196
925.064	3964
925.172	3945
925.279	3975
925.387	4078
925.494	4112
925.602	4234
925.709	4234
925.816	4059
925.924	4185
926.031	4291
926.138	4219
926.245	4257
926.352	4131
926.459	4242
926.566	4371
926.673	4215
926.779	4078
926.886	4093
926.993	3987
927.099	4025
927.206	4006
927.312	3964
927.419	4074
927.525	4036
927.631	4158
927.737	4013
927.843	3964
927.95	3896
928.056	3937
928.162	4048
928.267	4078
928.373	4740
928.479	4150
928.585	3892
928.69	4082
928.796	4124
928.901	3975
929.007	3876
929.112	4086
929.218	3983
929.323	3949
929.428	3964
929.533	4147
929.638	3926
929.743	4029
929.848	4051
929.953	3998
930.058	3964
930.163	3762
930.267	3888
930.372	4044
930.477	3869
930.581	4074
930.685	3998
930.79	3831
930.894	3953
930.998	3899
931.103	4063
931.207	3770
931.311	3736
931.415	3713
931.519	3564
931.623	3614
