Data from test_V78500241_958.txt Node
Date: Fri Mar 25 16:55:39 CST 2022
User: usil
Spectrometer: V785-0024
Trigger mode: 0
Integration Time (sec): 4.000000E-1
Scans to average: 1
Nonlinearity correction enabled: false
Boxcar width: 0
Storing dark spectrum: false
XAxis mode: Wavelengths
Number of Pixels in Spectrum: 1024
>>>>>Begin Spectral Data<<<<<
801.071	7955
801.214	7986
801.356	7890
801.499	7921
801.641	7772
801.783	7772
801.926	7947
802.068	7917
802.211	7970
802.353	7951
802.496	7803
802.638	7879
802.78	7909
802.923	7890
803.065	7906
803.208	7925
803.35	7932
803.492	8054
803.635	8157
803.777	8020
803.919	8157
804.061	8370
804.204	8126
804.346	8001
804.488	7921
804.63	8081
804.773	7997
804.915	8096
805.057	8267
805.199	8123
805.341	8149
805.483	8229
805.626	8199
805.768	8084
805.91	8218
806.052	8153
806.194	8138
806.336	8290
806.478	8103
806.62	8046
806.762	8126
806.904	8229
807.046	8457
807.188	8339
807.33	8351
807.472	8339
807.614	8149
807.756	8123
807.898	7974
808.04	7826
808.182	7875
808.324	7909
808.465	7894
808.607	8024
808.749	8058
808.891	8130
809.033	8275
809.174	8157
809.316	8077
809.458	8008
809.6	8016
809.741	8012
809.883	8016
810.025	8062
810.166	8035
810.308	7970
810.45	7963
810.591	7894
810.733	7696
810.875	7666
811.016	7552
811.158	7480
811.299	7571
811.441	7734
811.582	7662
811.724	7529
811.865	7476
812.007	7582
812.148	7548
812.29	7628
812.431	7753
812.573	7784
812.714	7875
812.855	8149
812.997	8252
813.138	8317
813.279	8092
813.421	8081
813.562	8008
813.703	7841
813.845	7776
813.986	7453
814.127	7270
814.268	7270
814.41	7190
814.551	7065
814.692	7114
814.833	7015
814.974	7107
815.115	7175
815.256	6962
815.397	6977
815.539	6939
815.68	6814
815.821	6802
815.962	6852
816.103	6791
816.244	6684
816.385	6627
816.526	6654
816.666	6506
816.807	6277
816.948	6372
817.089	6414
817.23	6422
817.371	6399
817.512	6384
817.653	6388
817.793	6365
817.934	6418
818.075	6441
818.216	6410
818.356	6353
818.497	6190
818.638	6140
818.778	6125
818.919	6098
819.06	6136
819.2	6296
819.341	6308
819.481	6308
819.622	6509
819.762	6711
819.903	6692
820.043	6635
820.184	6555
820.324	6563
820.465	6692
820.605	6627
820.746	6620
820.886	6506
821.026	6639
821.167	6726
821.307	6814
821.447	6711
821.588	6612
821.728	6563
821.868	6456
822.008	6319
822.149	6304
822.289	6319
822.429	6148
822.569	6095
822.709	6083
822.849	5973
822.99	5897
823.13	5958
823.27	5859
823.41	5775
823.55	5760
823.69	5741
823.83	5790
823.97	5649
824.11	5505
824.25	5528
824.389	5528
824.529	5554
824.669	5505
824.809	5585
824.949	5688
825.089	5589
825.228	5535
825.368	5406
825.508	5395
825.648	5353
825.787	5376
825.927	5318
826.067	5284
826.206	5277
826.346	5372
826.485	5368
826.625	5368
826.765	5532
826.904	5459
827.044	5254
827.183	5223
827.323	5128
827.462	5231
827.601	5124
827.741	5197
827.88	5185
828.02	5121
828.159	5223
828.298	5231
828.437	5357
828.577	5261
828.716	5486
828.855	5299
828.994	5193
829.134	5136
829.273	5212
829.412	5109
829.551	5094
829.69	5178
829.829	5261
829.968	5299
830.107	5296
830.246	5254
830.385	5166
830.524	5128
830.663	5090
830.802	4965
830.941	4877
831.08	4889
831.219	4953
831.357	4965
831.496	5174
831.635	4877
831.774	4850
831.913	4839
832.051	4710
832.19	4744
832.329	4831
832.467	4637
832.606	4618
832.744	4702
832.883	4714
833.022	4744
833.16	4805
833.299	4835
833.437	4850
833.576	4828
833.714	4873
833.852	4793
833.991	4839
834.129	4908
834.267	4915
834.406	4873
834.544	5003
834.682	4972
834.821	4976
834.959	5143
835.097	5010
835.235	5140
835.373	5098
835.511	5079
835.65	4991
835.788	5018
835.926	4896
836.064	4854
836.202	4839
836.34	5124
836.478	5227
836.615	5090
836.753	5178
836.891	5273
837.029	5261
837.167	5155
837.305	5185
837.443	5143
837.58	5113
837.718	5235
837.856	5185
837.993	5121
838.131	5204
838.269	5143
838.406	5151
838.544	5124
838.681	5014
838.819	5064
838.956	4896
839.094	4873
839.231	4999
839.369	5090
839.506	5417
839.643	5258
839.781	5033
839.918	4987
840.055	5018
840.193	5071
840.33	5109
840.467	5155
840.604	5189
840.742	5440
840.879	5064
841.016	5045
841.153	5128
841.29	5406
841.427	5296
841.564	5311
841.701	5326
841.838	5258
841.975	5204
842.112	5242
842.249	5147
842.385	5136
842.522	5334
842.659	5117
842.796	5094
842.933	5201
843.069	5121
843.206	5208
843.343	5269
843.479	5223
843.616	5296
843.752	5060
843.889	4972
844.025	5193
844.162	4991
844.298	5140
844.435	5094
844.571	5010
844.708	5197
844.844	5284
844.98	5326
845.117	5235
845.253	5155
845.389	5105
845.525	5174
845.661	5159
845.798	5018
845.934	5071
846.07	5033
846.206	5170
846.342	5242
846.478	5151
846.614	5048
846.75	4949
846.886	4877
847.022	5170
847.158	5010
847.294	5037
847.429	5079
847.565	5052
847.701	5330
847.837	4828
847.972	4843
848.108	4949
848.244	4927
848.379	4721
848.515	4729
848.65	4710
848.786	4717
848.921	4740
849.057	4877
849.192	4885
849.328	4809
849.463	4839
849.598	4736
849.734	4736
849.869	4645
850.004	4611
850.14	4649
850.275	4565
850.41	4527
850.545	4516
850.68	4584
850.815	4584
850.95	4577
851.085	4809
851.22	4748
851.355	4660
851.49	4580
851.625	4634
851.76	4641
851.895	4569
852.03	4527
852.165	4698
852.299	4725
852.434	4744
852.569	4725
852.703	4744
852.838	4820
852.973	4923
853.107	4866
853.242	4778
853.376	4683
853.511	4542
853.645	4637
853.78	4778
853.914	4672
854.048	4672
854.183	4668
854.317	4672
854.451	4843
854.585	4668
854.72	4584
854.854	4717
854.988	4580
855.122	4645
855.256	4470
855.39	4679
855.524	4744
855.658	4660
855.792	4698
855.926	4721
856.06	4721
856.194	4816
856.327	4668
856.461	4656
856.595	4603
856.729	4637
856.862	4778
856.996	4634
857.13	4752
857.263	4748
857.397	4820
857.53	4645
857.664	4694
857.797	4744
857.931	4793
858.064	4634
858.197	4771
858.331	4603
858.464	4622
858.597	4535
858.731	4660
858.864	4634
858.997	4596
859.13	4672
859.263	4641
859.396	4706
859.529	4615
859.662	4565
859.795	4489
859.928	4622
860.061	4706
860.194	4744
860.327	4546
860.46	4542
860.592	4721
860.725	4714
860.858	4725
860.99	4531
861.123	4489
861.256	4538
861.388	4615
861.521	5235
861.653	4455
861.786	4489
861.918	4459
862.05	4542
862.183	4489
862.315	4558
862.447	4622
862.58	4485
862.712	4398
862.844	4280
862.976	4428
863.108	4440
863.24	4870
863.372	4322
863.504	4402
863.636	4413
863.768	4497
863.9	4466
864.032	4333
864.164	4405
864.296	4413
864.428	4546
864.559	4519
864.691	4535
864.823	4493
864.954	4459
865.086	4489
865.217	4466
865.349	4402
865.48	4436
865.612	4470
865.743	4645
865.875	4447
866.006	4405
866.137	4443
866.269	4436
866.4	4375
866.531	4436
866.662	4432
866.793	4341
866.924	4398
867.055	4523
867.186	4443
867.317	4402
867.448	4375
867.579	4432
867.71	4367
867.841	4344
867.972	4481
868.103	4424
868.233	4462
868.364	4417
868.495	4436
868.625	4611
868.756	4771
868.886	4558
869.017	4607
869.147	4736
869.278	4698
869.408	4687
869.539	4611
869.669	4656
869.799	4641
869.929	4797
870.06	4721
870.19	4923
870.32	4889
870.45	4915
870.58	4995
870.71	5113
870.84	5098
870.97	4904
871.1	4889
871.23	5117
871.36	5128
871.489	5041
871.619	5022
871.749	5029
871.879	5132
872.008	5174
872.138	5029
872.267	4984
872.397	4824
872.526	4748
872.656	4733
872.785	4786
872.915	4976
873.044	4972
873.173	4896
873.303	4938
873.432	4934
873.561	4866
873.69	4854
873.819	4850
873.948	4877
874.077	4816
874.206	4774
874.335	4797
874.464	4908
874.593	5067
874.722	4976
874.851	5155
874.979	5083
875.108	5033
875.237	4900
875.365	4850
875.494	4881
875.623	4999
875.751	4797
875.88	4809
876.008	4892
876.136	5022
876.265	5170
876.393	5299
876.521	5250
876.65	5223
876.778	5140
876.906	5083
877.034	5041
877.162	5018
877.29	4972
877.418	5025
877.546	5029
877.674	5006
877.802	4991
877.93	5041
878.058	4942
878.185	4885
878.313	4946
878.441	4930
878.568	4778
878.696	4843
878.824	4900
878.951	4968
879.079	5155
879.206	5280
879.333	5094
879.461	4938
879.588	4984
879.715	5048
879.842	5181
879.97	5010
880.097	4790
880.224	4698
880.351	4793
880.478	4790
880.605	4820
880.732	4809
880.859	5052
880.986	4858
881.112	4896
881.239	4733
881.366	4668
881.493	4603
881.619	4588
881.746	4641
881.872	4634
881.999	4656
882.125	4668
882.252	4797
882.378	4797
882.505	4961
882.631	4759
882.757	4641
882.883	4725
883.01	4702
883.136	4694
883.262	4577
883.388	4634
883.514	4801
883.64	4824
883.766	4778
883.892	4672
884.018	4687
884.143	4847
884.269	4995
884.395	4672
884.52	4645
884.646	4649
884.772	4596
884.897	4588
885.023	4637
885.148	4793
885.274	4828
885.399	4805
885.524	4714
885.65	4710
885.775	4778
885.9	4664
886.025	4866
886.15	4797
886.275	4748
886.4	4603
886.525	4721
886.65	4656
886.775	4611
886.9	4896
887.025	5018
887.149	4755
887.274	4645
887.399	4565
887.523	4592
887.648	4584
887.773	4618
887.897	4714
888.021	4759
888.146	4675
888.27	4774
888.395	4915
888.519	4755
888.643	4763
888.767	4801
888.891	4615
889.015	4580
889.139	4641
889.263	4634
889.387	4740
889.511	4873
889.635	4740
889.759	4622
889.883	4630
890.006	4744
890.13	4835
890.254	4637
890.377	4675
890.501	4546
890.624	4512
890.748	4641
890.871	4497
890.995	4443
891.118	4371
891.241	4489
891.364	4561
891.488	4615
891.611	4493
891.734	4542
891.857	4622
891.98	4538
892.103	4634
892.226	4577
892.349	4512
892.471	4398
892.594	4519
892.717	4523
892.839	4558
892.962	4599
893.085	4634
893.207	4554
893.33	4470
893.452	4497
893.575	4653
893.697	4599
893.819	4831
893.941	4809
894.064	4812
894.186	4535
894.308	4561
894.43	4729
894.552	4809
894.674	4748
894.796	4558
894.918	4565
895.04	4504
895.161	4653
895.283	4679
895.405	4588
895.526	4634
895.648	4626
895.769	4626
895.891	4706
896.012	4675
896.134	4714
896.255	4656
896.376	4592
896.498	4599
896.619	4675
896.74	4626
896.861	4577
896.982	4915
897.103	5094
897.224	4801
897.345	4733
897.466	4649
897.587	4729
897.708	4847
897.828	4782
897.949	4683
898.07	4531
898.19	4653
898.311	4870
898.431	4660
898.552	4710
898.672	4801
898.792	4771
898.913	4771
899.033	4637
899.153	4485
899.273	4394
899.393	4497
899.513	4527
899.633	4451
899.753	4542
899.873	4508
899.993	4580
900.113	4527
900.232	4569
900.352	4504
900.472	4466
900.591	4432
900.711	4455
900.83	4398
900.95	4550
901.069	4660
901.189	4538
901.308	4375
901.427	4284
901.546	4333
901.665	4489
901.784	4462
901.904	4322
902.023	4291
902.141	4181
902.26	4128
902.379	4261
902.498	4227
902.617	4219
902.735	4405
902.854	4371
902.973	4337
903.091	4169
903.21	4234
903.328	4246
903.446	4249
903.565	4207
903.683	4383
903.801	4253
903.919	4394
904.038	4402
904.156	4337
904.274	4436
904.392	4379
904.51	4402
904.627	4455
904.745	4607
904.863	4596
904.981	4379
905.098	4272
905.216	4371
905.334	4394
905.451	4451
905.569	4413
905.686	4561
905.803	4577
905.921	4390
906.038	4493
906.155	4478
906.272	4352
906.389	4443
906.506	4314
906.623	4386
906.74	4394
906.857	4322
906.974	4390
907.091	4603
907.208	4694
907.324	4577
907.441	4478
907.557	4306
907.674	4356
907.79	4280
907.907	4432
908.023	4485
908.139	4481
908.256	4417
908.372	4474
908.488	4402
908.604	4375
908.72	4287
908.836	4356
908.952	4337
909.068	4405
909.184	4577
909.3	4500
909.415	4592
909.531	4569
909.647	4337
909.762	4352
909.878	4310
909.993	4462
910.108	4402
910.224	4405
910.339	4462
910.454	4432
910.57	4360
910.685	4333
910.8	4626
910.915	4596
911.03	4508
911.145	4287
911.259	4337
911.374	4341
911.489	4299
911.604	4268
911.718	4154
911.833	4185
911.947	4116
912.062	4025
912.176	4234
912.291	4238
912.405	4223
912.519	4443
912.633	4474
912.748	4409
912.862	4280
912.976	4154
913.09	4101
913.204	4192
913.318	4196
913.431	4348
913.545	4337
913.659	4436
913.772	4386
913.886	4249
914	4219
914.113	4383
914.226	4440
914.34	4363
914.453	4211
914.566	4421
914.68	4284
914.793	4295
914.906	4177
915.019	4101
915.132	4097
915.245	4166
915.358	4215
915.47	4246
915.583	4215
915.696	4306
915.809	4398
915.921	4375
916.034	4215
916.146	4261
916.259	4253
916.371	4402
916.483	4318
916.595	4223
916.708	4306
916.82	4352
916.932	4295
917.044	4306
917.156	4318
917.268	4230
917.38	4276
917.491	4261
917.603	4352
917.715	4390
917.826	4428
917.938	4306
918.049	4207
918.161	4390
918.272	4504
918.384	4546
918.495	4440
918.606	4337
918.717	4242
918.828	4348
918.939	4363
919.05	4242
919.161	4325
919.272	4120
919.383	4230
919.494	4459
919.604	4607
919.715	4413
919.826	4344
919.936	4394
920.047	4519
920.157	4436
920.267	4702
920.378	4542
920.488	4466
920.598	4733
920.708	4862
920.818	4717
920.928	4752
921.038	4949
921.148	4900
921.258	4615
921.368	4550
921.477	4497
921.587	4485
921.697	4367
921.806	4516
921.916	4394
922.025	4249
922.134	4249
922.244	4177
922.353	4318
922.462	4173
922.571	4128
922.68	3991
922.789	3968
922.898	4036
923.007	3987
923.116	4074
923.224	4044
923.333	4074
923.442	3975
923.55	3922
923.659	3991
923.767	4090
923.876	4021
923.984	4116
924.092	3987
924.201	4097
924.309	4105
924.417	4135
924.525	4032
924.633	4086
924.741	5003
924.849	3903
924.956	4086
925.064	3953
925.172	3899
925.279	3960
925.387	4025
925.494	4044
925.602	4181
925.709	4215
925.816	4051
925.924	4143
926.031	4230
926.138	4196
926.245	4177
926.352	4086
926.459	4265
926.566	4280
926.673	4173
926.779	4044
926.886	4078
926.993	3949
927.099	3956
927.206	3903
927.312	3964
927.419	4067
927.525	3983
927.631	4074
927.737	3945
927.843	3956
927.95	3823
928.056	3941
928.162	3972
928.267	4036
928.373	4626
928.479	4143
928.585	3869
928.69	3972
928.796	4086
928.901	3972
929.007	3827
929.112	3994
929.218	3975
929.323	3918
929.428	3945
929.533	4112
929.638	3896
929.743	3941
929.848	4051
929.953	3983
930.058	3937
930.163	3732
930.267	3804
930.372	3979
930.477	3797
930.581	4071
930.685	3964
930.79	3812
930.894	3899
930.998	3857
931.103	4051
931.207	3724
931.311	3679
931.415	3686
931.519	3477
931.623	3557
