Data from test_V78500241_1880.txt Node
Date: Fri Mar 25 17:02:04 CST 2022
User: usil
Spectrometer: V785-0024
Trigger mode: 0
Integration Time (sec): 4.000000E-1
Scans to average: 1
Nonlinearity correction enabled: false
Boxcar width: 0
Storing dark spectrum: false
XAxis mode: Wavelengths
Number of Pixels in Spectrum: 1024
>>>>>Begin Spectral Data<<<<<
801.071	7951
801.214	7947
801.356	7845
801.499	7906
801.641	7803
801.783	7784
801.926	8001
802.068	7982
802.211	7989
802.353	7955
802.496	7788
802.638	7860
802.78	7902
802.923	7890
803.065	7871
803.208	7875
803.35	7967
803.492	8050
803.635	8145
803.777	8016
803.919	8145
804.061	8484
804.204	8206
804.346	8126
804.488	8001
804.63	8126
804.773	8043
804.915	8164
805.057	8332
805.199	8240
805.341	8157
805.483	8267
805.626	8206
805.768	8103
805.91	8286
806.052	8210
806.194	8149
806.336	8290
806.478	8084
806.62	8073
806.762	8138
806.904	8366
807.046	8503
807.188	8408
807.33	8290
807.472	8381
807.614	8142
807.756	8183
807.898	7947
808.04	7902
808.182	7875
808.324	7898
808.465	7989
808.607	8092
808.749	8126
808.891	8183
809.033	8282
809.174	8221
809.316	8115
809.458	8123
809.6	8035
809.741	8092
809.883	7989
810.025	8054
810.166	8024
810.308	8001
810.45	7947
810.591	7887
810.733	7731
810.875	7643
811.016	7514
811.158	7487
811.299	7575
811.441	7689
811.582	7681
811.724	7632
811.865	7594
812.007	7571
812.148	7582
812.29	7609
812.431	7769
812.573	7879
812.714	8008
812.855	8107
812.997	8202
813.138	8355
813.279	8145
813.421	8103
813.562	7997
813.703	7761
813.845	7696
813.986	7411
814.127	7263
814.268	7225
814.41	7206
814.551	7141
814.692	7228
814.833	7129
814.974	7088
815.115	7141
815.256	6954
815.397	6920
815.539	6878
815.68	6798
815.821	6818
815.962	6886
816.103	6779
816.244	6696
816.385	6551
816.526	6585
816.666	6536
816.807	6296
816.948	6410
817.089	6490
817.23	6467
817.371	6365
817.512	6369
817.653	6391
817.793	6357
817.934	6464
818.075	6452
818.216	6369
818.356	6342
818.497	6239
818.638	6136
818.778	6114
818.919	6163
819.06	6110
819.2	6331
819.341	6300
819.481	6399
819.622	6506
819.762	6749
819.903	6707
820.043	6601
820.184	6540
820.324	6589
820.465	6700
820.605	6658
820.746	6662
820.886	6555
821.026	6673
821.167	6764
821.307	6795
821.447	6810
821.588	6669
821.728	6582
821.868	6563
822.008	6327
822.149	6410
822.289	6391
822.429	6194
822.569	6095
822.709	6136
822.849	5984
822.99	5946
823.13	5916
823.27	5954
823.41	5786
823.55	5767
823.69	5779
823.83	5783
823.97	5684
824.11	5604
824.25	5520
824.389	5589
824.529	5623
824.669	5532
824.809	5634
824.949	5699
825.089	5691
825.228	5562
825.368	5421
825.508	5440
825.648	5334
825.787	5417
825.927	5433
826.067	5337
826.206	5383
826.346	5429
826.485	5429
826.625	5459
826.765	5551
826.904	5535
827.044	5250
827.183	5223
827.323	5128
827.462	5288
827.601	5170
827.741	5220
827.88	5246
828.02	5121
828.159	5269
828.298	5299
828.437	5391
828.577	5261
828.716	5547
828.855	5330
828.994	5166
829.134	5170
829.273	5181
829.412	5170
829.551	5178
829.69	5166
829.829	5303
829.968	5357
830.107	5322
830.246	5307
830.385	5223
830.524	5212
830.663	5113
830.802	5006
830.941	4881
831.08	4889
831.219	4995
831.357	4999
831.496	5212
831.635	4991
831.774	4885
831.913	4850
832.051	4778
832.19	4752
832.329	4839
832.467	4744
832.606	4630
832.744	4755
832.883	4763
833.022	4801
833.16	4858
833.299	4870
833.437	4847
833.576	4892
833.714	4892
833.852	4870
833.991	4908
834.129	4976
834.267	4938
834.406	4934
834.544	4968
834.682	5029
834.821	5014
834.959	5220
835.097	4965
835.235	5204
835.373	5109
835.511	5113
835.65	5048
835.788	5022
835.926	4946
836.064	4885
836.202	4968
836.34	5193
836.478	5258
836.615	5143
836.753	5242
836.891	5296
837.029	5242
837.167	5189
837.305	5185
837.443	5136
837.58	5113
837.718	5250
837.856	5147
837.993	5178
838.131	5292
838.269	5246
838.406	5239
838.544	5227
838.681	5109
838.819	5025
838.956	4911
839.094	4965
839.231	4942
839.369	5083
839.506	5459
839.643	5258
839.781	5128
839.918	5014
840.055	5079
840.193	5121
840.33	5147
840.467	5155
840.604	5242
840.742	5433
840.879	5102
841.016	5079
841.153	5174
841.29	5402
841.427	5345
841.564	5334
841.701	5391
841.838	5307
841.975	5197
842.112	5277
842.249	5166
842.385	5113
842.522	5360
842.659	5197
842.796	5220
842.933	5246
843.069	5197
843.206	5231
843.343	5326
843.479	5284
843.616	5254
843.752	5067
843.889	5006
844.025	5269
844.162	5029
844.298	5193
844.435	5132
844.571	5083
844.708	5231
844.844	5292
844.98	5376
845.117	5337
845.253	5174
845.389	5075
845.525	5159
845.661	5204
845.798	5060
845.934	5181
846.07	5067
846.206	5250
846.342	5299
846.478	5216
846.614	5037
846.75	4968
846.886	4927
847.022	5159
847.158	5090
847.294	5109
847.429	5113
847.565	5041
847.701	5330
847.837	4942
847.972	4805
848.108	4995
848.244	4923
848.379	4839
848.515	4782
848.65	4725
848.786	4801
848.921	4782
849.057	4885
849.192	4896
849.328	4824
849.463	4862
849.598	4816
849.734	4752
849.869	4672
850.004	4660
850.14	4725
850.275	4637
850.41	4546
850.545	4584
850.68	4649
850.815	4634
850.95	4615
851.085	4892
851.22	4809
851.355	4714
851.49	4653
851.625	4672
851.76	4660
851.895	4630
852.03	4592
852.165	4649
852.299	4714
852.434	4805
852.569	4725
852.703	4801
852.838	4873
852.973	4957
853.107	4968
853.242	4744
853.376	4664
853.511	4622
853.645	4626
853.78	4828
853.914	4748
854.048	4748
854.183	4675
854.317	4748
854.451	4927
854.585	4702
854.72	4675
854.854	4740
854.988	4607
855.122	4672
855.256	4538
855.39	4641
855.524	4778
855.658	4782
855.792	4702
855.926	4729
856.06	4790
856.194	4790
856.327	4687
856.461	4622
856.595	4634
856.729	4668
856.862	4774
856.996	4698
857.13	4717
857.263	4847
857.397	4805
857.53	4664
857.664	4740
857.797	4782
857.931	4812
858.064	4672
858.197	4744
858.331	4664
858.464	4653
858.597	4538
858.731	4672
858.864	4679
858.997	4607
859.13	4687
859.263	4733
859.396	4717
859.529	4592
859.662	4577
859.795	4569
859.928	4645
860.061	4786
860.194	4782
860.327	4668
860.46	4622
860.592	4702
860.725	4714
860.858	4714
860.99	4603
861.123	4500
861.256	4550
861.388	4698
861.521	5429
861.653	4508
861.786	4512
861.918	4478
862.05	4508
862.183	4599
862.315	4656
862.447	4664
862.58	4546
862.712	4394
862.844	4371
862.976	4485
863.108	4558
863.24	4908
863.372	4344
863.504	4413
863.636	4440
863.768	4493
863.9	4409
864.032	4356
864.164	4402
864.296	4489
864.428	4565
864.559	4611
864.691	4535
864.823	4535
864.954	4500
865.086	4588
865.217	4459
865.349	4451
865.48	4508
865.612	4500
865.743	4668
865.875	4470
866.006	4481
866.137	4481
866.269	4478
866.4	4470
866.531	4462
866.662	4455
866.793	4443
866.924	4436
867.055	4523
867.186	4485
867.317	4443
867.448	4409
867.579	4421
867.71	4371
867.841	4402
867.972	4478
868.103	4531
868.233	4497
868.364	4455
868.495	4481
868.625	4710
868.756	4771
868.886	4569
869.017	4603
869.147	4843
869.278	4778
869.408	4672
869.539	4618
869.669	4736
869.799	4660
869.929	4748
870.06	4771
870.19	4991
870.32	4949
870.45	4942
870.58	5052
870.71	5090
870.84	5140
870.97	5041
871.1	4934
871.23	5109
871.36	5189
871.489	5067
871.619	5113
871.749	5094
871.879	5181
872.008	5193
872.138	5067
872.267	5003
872.397	4889
872.526	4812
872.656	4687
872.785	4831
872.915	4984
873.044	5025
873.173	5006
873.303	4946
873.432	4946
873.561	4949
873.69	4870
873.819	4866
873.948	4900
874.077	4824
874.206	4805
874.335	4767
874.464	4934
874.593	5105
874.722	4980
874.851	5113
874.979	5067
875.108	5037
875.237	4889
875.365	4965
875.494	4889
875.623	5010
875.751	4809
875.88	4885
876.008	4984
876.136	5048
876.265	5208
876.393	5387
876.521	5258
876.65	5181
876.778	5170
876.906	5098
877.034	5045
877.162	5045
877.29	4980
877.418	5086
877.546	5014
877.674	5052
877.802	5060
877.93	4991
878.058	4949
878.185	4870
878.313	4968
878.441	4896
878.568	4831
878.696	4889
878.824	4938
878.951	5033
879.079	5132
879.206	5326
879.333	5052
879.461	5014
879.588	5025
879.715	5113
879.842	5231
879.97	5048
880.097	4786
880.224	4752
880.351	4824
880.478	4847
880.605	4782
880.732	4816
880.859	5090
880.986	4881
881.112	4889
881.239	4801
881.366	4729
881.493	4630
881.619	4603
881.746	4626
881.872	4660
881.999	4675
882.125	4725
882.252	4805
882.378	4877
882.505	5010
882.631	4786
882.757	4714
882.883	4725
883.01	4767
883.136	4702
883.262	4580
883.388	4634
883.514	4824
883.64	4858
883.766	4801
883.892	4675
884.018	4755
884.143	4892
884.269	5006
884.395	4679
884.52	4653
884.646	4656
884.772	4573
884.897	4558
885.023	4702
885.148	4809
885.274	4854
885.399	4824
885.524	4702
885.65	4717
885.775	4752
885.9	4675
886.025	4847
886.15	4748
886.275	4740
886.4	4653
886.525	4774
886.65	4679
886.775	4710
886.9	4957
887.025	5048
887.149	4820
887.274	4675
887.399	4656
887.523	4607
887.648	4573
887.773	4618
887.897	4767
888.021	4797
888.146	4679
888.27	4801
888.395	4934
888.519	4835
888.643	4801
888.767	4843
888.891	4675
889.015	4596
889.139	4634
889.263	4622
889.387	4767
889.511	4862
889.635	4820
889.759	4641
889.883	4660
890.006	4694
890.13	4854
890.254	4622
890.377	4675
890.501	4599
890.624	4558
890.748	4622
890.871	4546
890.995	4451
891.118	4352
891.241	4508
891.364	4558
891.488	4656
891.611	4504
891.734	4565
891.857	4622
891.98	4588
892.103	4626
892.226	4580
892.349	4527
892.471	4459
892.594	4550
892.717	4561
892.839	4584
892.962	4592
893.085	4679
893.207	4622
893.33	4455
893.452	4512
893.575	4691
893.697	4622
893.819	4809
893.941	4858
894.064	4824
894.186	4569
894.308	4538
894.43	4740
894.552	4809
894.674	4748
894.796	4569
894.918	4584
895.04	4615
895.161	4733
895.283	4660
895.405	4649
895.526	4672
895.648	4694
895.769	4679
895.891	4725
896.012	4725
896.134	4748
896.255	4645
896.376	4656
896.498	4645
896.619	4702
896.74	4615
896.861	4656
896.982	4904
897.103	5075
897.224	4900
897.345	4725
897.466	4702
897.587	4710
897.708	4870
897.828	4782
897.949	4660
898.07	4611
898.19	4717
898.311	4812
898.431	4630
898.552	4752
898.672	4793
898.792	4767
898.913	4729
899.033	4653
899.153	4554
899.273	4432
899.393	4466
899.513	4497
899.633	4481
899.753	4546
899.873	4459
899.993	4588
900.113	4504
900.232	4565
900.352	4546
900.472	4493
900.591	4436
900.711	4485
900.83	4478
900.95	4615
901.069	4649
901.189	4569
901.308	4363
901.427	4299
901.546	4352
901.665	4493
901.784	4516
901.904	4398
902.023	4318
902.141	4185
902.26	4173
902.379	4295
902.498	4230
902.617	4238
902.735	4394
902.854	4360
902.973	4314
903.091	4207
903.21	4257
903.328	4325
903.446	4268
903.565	4280
903.683	4390
903.801	4295
903.919	4409
904.038	4447
904.156	4344
904.274	4398
904.392	4367
904.51	4421
904.627	4447
904.745	4538
904.863	4660
904.981	4402
905.098	4280
905.216	4344
905.334	4421
905.451	4421
905.569	4451
905.686	4558
905.803	4580
905.921	4405
906.038	4577
906.155	4512
906.272	4424
906.389	4451
906.506	4379
906.623	4386
906.74	4405
906.857	4268
906.974	4383
907.091	4580
907.208	4736
907.324	4580
907.441	4474
907.557	4398
907.674	4379
907.79	4322
907.907	4390
908.023	4508
908.139	4481
908.256	4455
908.372	4508
908.488	4447
908.604	4356
908.72	4276
908.836	4337
908.952	4333
909.068	4413
909.184	4519
909.3	4462
909.415	4622
909.531	4535
909.647	4341
909.762	4386
909.878	4363
909.993	4447
910.108	4459
910.224	4413
910.339	4470
910.454	4409
910.57	4352
910.685	4291
910.8	4622
910.915	4577
911.03	4519
911.145	4341
911.259	4341
911.374	4322
911.489	4322
911.604	4223
911.718	4177
911.833	4249
911.947	4116
912.062	4048
912.176	4223
912.291	4246
912.405	4265
912.519	4459
912.633	4497
912.748	4367
912.862	4299
912.976	4192
913.09	4097
913.204	4181
913.318	4249
913.431	4386
913.545	4409
913.659	4474
913.772	4352
913.886	4223
914	4185
914.113	4390
914.226	4451
914.34	4375
914.453	4249
914.566	4462
914.68	4303
914.793	4341
914.906	4173
915.019	4158
915.132	4082
915.245	4188
915.358	4169
915.47	4234
915.583	4284
915.696	4299
915.809	4421
915.921	4424
916.034	4284
916.146	4238
916.259	4215
916.371	4390
916.483	4371
916.595	4272
916.708	4299
916.82	4314
916.932	4303
917.044	4344
917.156	4310
917.268	4257
917.38	4310
917.491	4318
917.603	4306
917.715	4398
917.826	4413
917.938	4348
918.049	4246
918.161	4394
918.272	4535
918.384	4538
918.495	4493
918.606	4314
918.717	4177
918.828	4341
918.939	4379
919.05	4234
919.161	4268
919.272	4120
919.383	4234
919.494	4432
919.604	4637
919.715	4470
919.826	4360
919.936	4386
920.047	4516
920.157	4527
920.267	4672
920.378	4546
920.488	4519
920.598	4729
920.708	4889
920.818	4774
920.928	4736
921.038	4946
921.148	4934
921.258	4645
921.368	4569
921.477	4447
921.587	4443
921.697	4356
921.806	4519
921.916	4432
922.025	4272
922.134	4215
922.244	4253
922.353	4356
922.462	4158
922.571	4135
922.68	3987
922.789	3964
922.898	3972
923.007	3983
923.116	4032
923.224	4086
923.333	4097
923.442	3991
923.55	3964
923.659	4010
923.767	4112
923.876	4006
923.984	4124
924.092	3994
924.201	4074
924.309	4097
924.417	4109
924.525	4074
924.633	4139
924.741	5014
924.849	3922
924.956	4086
925.064	3972
925.172	3903
925.279	3975
925.387	4074
925.494	4063
925.602	4196
925.709	4177
925.816	4029
925.924	4128
926.031	4181
926.138	4143
926.245	4230
926.352	4101
926.459	4204
926.566	4356
926.673	4135
926.779	4055
926.886	4109
926.993	3964
927.099	3964
927.206	3930
927.312	3964
927.419	4051
927.525	4013
927.631	4074
927.737	3937
927.843	3960
927.95	3888
928.056	3960
928.162	4017
928.267	4051
928.373	4573
928.479	4109
928.585	3869
928.69	4006
928.796	4112
928.901	3945
929.007	3861
929.112	4021
929.218	3998
929.323	3934
929.428	3968
929.533	4120
929.638	3918
929.743	3930
929.848	4051
929.953	4021
930.058	3945
930.163	3770
930.267	3808
930.372	3972
930.477	3778
930.581	4067
930.685	3934
930.79	3873
930.894	3869
930.998	3842
931.103	4048
931.207	3709
931.311	3717
931.415	3660
931.519	3519
931.623	3538
