Data from test_V78500241_1738.txt Node
Date: Fri Mar 25 17:01:05 CST 2022
User: usil
Spectrometer: V785-0024
Trigger mode: 0
Integration Time (sec): 4.000000E-1
Scans to average: 1
Nonlinearity correction enabled: false
Boxcar width: 0
Storing dark spectrum: false
XAxis mode: Wavelengths
Number of Pixels in Spectrum: 1024
>>>>>Begin Spectral Data<<<<<
801.071	8046
801.214	8016
801.356	7852
801.499	7856
801.641	7769
801.783	7784
801.926	7913
802.068	7906
802.211	7959
802.353	8046
802.496	7833
802.638	7845
802.78	7906
802.923	7925
803.065	7852
803.208	7909
803.35	7967
803.492	8077
803.635	8145
803.777	7993
803.919	8107
804.061	8423
804.204	8195
804.346	8054
804.488	8012
804.63	8031
804.773	7978
804.915	8161
805.057	8248
805.199	8233
805.341	8237
805.483	8256
805.626	8191
805.768	8134
805.91	8199
806.052	8206
806.194	8100
806.336	8366
806.478	8107
806.62	8065
806.762	8142
806.904	8271
807.046	8526
807.188	8385
807.33	8355
807.472	8275
807.614	8096
807.756	8138
807.898	7940
808.04	7868
808.182	7898
808.324	7868
808.465	7894
808.607	8084
808.749	8065
808.891	8183
809.033	8290
809.174	8164
809.316	8142
809.458	8073
809.6	8039
809.741	7978
809.883	8046
810.025	8096
810.166	8065
810.308	7967
810.45	8027
810.591	7780
810.733	7712
810.875	7712
811.016	7518
811.158	7464
811.299	7525
811.441	7647
811.582	7662
811.724	7643
811.865	7552
812.007	7540
812.148	7567
812.29	7586
812.431	7784
812.573	7928
812.714	8008
812.855	8126
812.997	8267
813.138	8301
813.279	8145
813.421	8058
813.562	8008
813.703	7849
813.845	7647
813.986	7369
814.127	7206
814.268	7221
814.41	7175
814.551	7118
814.692	7168
814.833	7080
814.974	7103
815.115	7126
815.256	6966
815.397	6901
815.539	6977
815.68	6768
815.821	6798
815.962	6859
816.103	6795
816.244	6749
816.385	6540
816.526	6654
816.666	6475
816.807	6369
816.948	6422
817.089	6456
817.23	6445
817.371	6327
817.512	6342
817.653	6365
817.793	6391
817.934	6407
818.075	6498
818.216	6422
818.356	6357
818.497	6266
818.638	6110
818.778	6110
818.919	6129
819.06	6117
819.2	6323
819.341	6331
819.481	6388
819.622	6513
819.762	6684
819.903	6654
820.043	6540
820.184	6574
820.324	6597
820.465	6696
820.605	6646
820.746	6593
820.886	6559
821.026	6684
821.167	6631
821.307	6791
821.447	6745
821.588	6684
821.728	6506
821.868	6506
822.008	6338
822.149	6346
822.289	6372
822.429	6133
822.569	6041
822.709	6121
822.849	5912
822.99	5916
823.13	5889
823.27	5885
823.41	5733
823.55	5779
823.69	5752
823.83	5760
823.97	5627
824.11	5535
824.25	5455
824.389	5547
824.529	5581
824.669	5528
824.809	5615
824.949	5615
825.089	5566
825.228	5535
825.368	5353
825.508	5322
825.648	5318
825.787	5379
825.927	5322
826.067	5322
826.206	5303
826.346	5368
826.485	5440
826.625	5406
826.765	5543
826.904	5455
827.044	5258
827.183	5193
827.323	5079
827.462	5235
827.601	5174
827.741	5170
827.88	5204
828.02	5102
828.159	5269
828.298	5303
828.437	5349
828.577	5265
828.716	5463
828.855	5334
828.994	5140
829.134	5105
829.273	5185
829.412	5105
829.551	5113
829.69	5250
829.829	5246
829.968	5334
830.107	5231
830.246	5280
830.385	5185
830.524	5105
830.663	5098
830.802	4965
830.941	4847
831.08	4877
831.219	4987
831.357	4984
831.496	5090
831.635	4934
831.774	4847
831.913	4835
832.051	4748
832.19	4744
832.329	4793
832.467	4675
832.606	4584
832.744	4717
832.883	4729
833.022	4664
833.16	4740
833.299	4778
833.437	4786
833.576	4812
833.714	4850
833.852	4881
833.991	4870
834.129	4896
834.267	4961
834.406	4900
834.544	4965
834.682	4987
834.821	4911
834.959	5151
835.097	4976
835.235	5121
835.373	5098
835.511	5060
835.65	4991
835.788	4984
835.926	4866
836.064	4862
836.202	4915
836.34	5197
836.478	5223
836.615	5090
836.753	5155
836.891	5318
837.029	5185
837.167	5246
837.305	5201
837.443	5113
837.58	5090
837.718	5201
837.856	5208
837.993	5170
838.131	5147
838.269	5235
838.406	5197
838.544	5178
838.681	5029
838.819	4991
838.956	4866
839.094	4873
839.231	4991
839.369	5098
839.506	5436
839.643	5269
839.781	5014
839.918	4987
840.055	5124
840.193	5056
840.33	5102
840.467	5147
840.604	5216
840.742	5471
840.879	5083
841.016	5117
841.153	5113
841.29	5311
841.427	5345
841.564	5296
841.701	5318
841.838	5242
841.975	5178
842.112	5250
842.249	5181
842.385	5086
842.522	5341
842.659	5178
842.796	5102
842.933	5189
843.069	5117
843.206	5121
843.343	5284
843.479	5239
843.616	5250
843.752	5022
843.889	4972
844.025	5185
844.162	5037
844.298	5185
844.435	5098
844.571	5064
844.708	5147
844.844	5284
844.98	5337
845.117	5261
845.253	5086
845.389	5098
845.525	5159
845.661	5124
845.798	5022
845.934	5124
846.07	5113
846.206	5197
846.342	5250
846.478	5147
846.614	5003
846.75	4987
846.886	4881
847.022	5124
847.158	5033
847.294	5052
847.429	5102
847.565	5060
847.701	5364
847.837	4824
847.972	4843
848.108	4965
848.244	4946
848.379	4771
848.515	4668
848.65	4698
848.786	4782
848.921	4767
849.057	4843
849.192	4889
849.328	4786
849.463	4831
849.598	4778
849.734	4740
849.869	4729
850.004	4645
850.14	4679
850.275	4637
850.41	4497
850.545	4584
850.68	4618
850.815	4607
850.95	4634
851.085	4835
851.22	4733
851.355	4653
851.49	4599
851.625	4637
851.76	4649
851.895	4550
852.03	4493
852.165	4675
852.299	4717
852.434	4771
852.569	4698
852.703	4805
852.838	4759
852.973	4938
853.107	4870
853.242	4698
853.376	4668
853.511	4535
853.645	4565
853.78	4786
853.914	4630
854.048	4626
854.183	4649
854.317	4683
854.451	4790
854.585	4675
854.72	4611
854.854	4755
854.988	4622
855.122	4626
855.256	4565
855.39	4630
855.524	4782
855.658	4755
855.792	4672
855.926	4714
856.06	4744
856.194	4790
856.327	4660
856.461	4615
856.595	4637
856.729	4607
856.862	4740
856.996	4664
857.13	4710
857.263	4706
857.397	4812
857.53	4649
857.664	4664
857.797	4687
857.931	4763
858.064	4687
858.197	4683
858.331	4641
858.464	4626
858.597	4508
858.731	4622
858.864	4599
858.997	4554
859.13	4626
859.263	4664
859.396	4687
859.529	4569
859.662	4580
859.795	4519
859.928	4615
860.061	4740
860.194	4809
860.327	4588
860.46	4577
860.592	4656
860.725	4702
860.858	4759
860.99	4588
861.123	4538
861.256	4504
861.388	4645
861.521	5284
861.653	4481
861.786	4421
861.918	4436
862.05	4550
862.183	4516
862.315	4561
862.447	4656
862.58	4519
862.712	4421
862.844	4379
862.976	4462
863.108	4405
863.24	4873
863.372	4341
863.504	4386
863.636	4409
863.768	4481
863.9	4413
864.032	4363
864.164	4386
864.296	4481
864.428	4527
864.559	4580
864.691	4546
864.823	4519
864.954	4478
865.086	4519
865.217	4474
865.349	4417
865.48	4413
865.612	4493
865.743	4653
865.875	4485
866.006	4436
866.137	4504
866.269	4379
866.4	4421
866.531	4432
866.662	4402
866.793	4402
866.924	4409
867.055	4481
867.186	4462
867.317	4478
867.448	4352
867.579	4398
867.71	4390
867.841	4356
867.972	4428
868.103	4428
868.233	4481
868.364	4394
868.495	4519
868.625	4618
868.756	4706
868.886	4573
869.017	4622
869.147	4733
869.278	4778
869.408	4668
869.539	4592
869.669	4679
869.799	4649
869.929	4752
870.06	4755
870.19	4957
870.32	4866
870.45	4957
870.58	4972
870.71	5079
870.84	5083
870.97	4873
871.1	4831
871.23	5109
871.36	5109
871.489	5045
871.619	5014
871.749	5075
871.879	5113
872.008	5170
872.138	5086
872.267	4949
872.397	4847
872.526	4774
872.656	4694
872.785	4793
872.915	4919
873.044	4995
873.173	4900
873.303	4904
873.432	4972
873.561	4995
873.69	4877
873.819	4839
873.948	4870
874.077	4748
874.206	4702
874.335	4805
874.464	4968
874.593	5052
874.722	4942
874.851	5121
874.979	5041
875.108	4999
875.237	4904
875.365	4866
875.494	4873
875.623	5018
875.751	4790
875.88	4866
876.008	4927
876.136	4961
876.265	5174
876.393	5288
876.521	5227
876.65	5208
876.778	5155
876.906	5086
877.034	4987
877.162	5022
877.29	4987
877.418	5018
877.546	5056
877.674	5003
877.802	5014
877.93	5018
878.058	4885
878.185	4831
878.313	4946
878.441	4900
878.568	4809
878.696	4862
878.824	4961
878.951	4972
879.079	5090
879.206	5216
879.333	5121
879.461	4953
879.588	4949
879.715	5109
879.842	5223
879.97	5052
880.097	4778
880.224	4755
880.351	4801
880.478	4828
880.605	4828
880.732	4786
880.859	5090
880.986	4911
881.112	4892
881.239	4721
881.366	4626
881.493	4641
881.619	4554
881.746	4535
881.872	4672
881.999	4630
882.125	4687
882.252	4755
882.378	4816
882.505	4949
882.631	4786
882.757	4660
882.883	4717
883.01	4729
883.136	4645
883.262	4577
883.388	4596
883.514	4797
883.64	4812
883.766	4748
883.892	4649
884.018	4733
884.143	4889
884.269	4965
884.395	4668
884.52	4596
884.646	4664
884.772	4599
884.897	4531
885.023	4668
885.148	4763
885.274	4812
885.399	4809
885.524	4706
885.65	4672
885.775	4729
885.9	4706
886.025	4812
886.15	4763
886.275	4679
886.4	4668
886.525	4736
886.65	4607
886.775	4656
886.9	4904
887.025	5029
887.149	4778
887.274	4664
887.399	4611
887.523	4569
887.648	4615
887.773	4611
887.897	4801
888.021	4767
888.146	4668
888.27	4801
888.395	4896
888.519	4752
888.643	4877
888.767	4824
888.891	4675
889.015	4634
889.139	4637
889.263	4668
889.387	4759
889.511	4873
889.635	4767
889.759	4656
889.883	4706
890.006	4729
890.13	4862
890.254	4599
890.377	4672
890.501	4573
890.624	4554
890.748	4668
890.871	4554
890.995	4436
891.118	4451
891.241	4504
891.364	4542
891.488	4634
891.611	4527
891.734	4603
891.857	4675
891.98	4599
892.103	4660
892.226	4603
892.349	4542
892.471	4481
892.594	4584
892.717	4645
892.839	4603
892.962	4653
893.085	4668
893.207	4653
893.33	4519
893.452	4599
893.575	4675
893.697	4634
893.819	4835
893.941	4843
894.064	4793
894.186	4599
894.308	4584
894.43	4805
894.552	4900
894.674	4801
894.796	4580
894.918	4656
895.04	4596
895.161	4729
895.283	4721
895.405	4622
895.526	4691
895.648	4759
895.769	4702
895.891	4767
896.012	4816
896.134	4790
896.255	4733
896.376	4691
896.498	4675
896.619	4767
896.74	4645
896.861	4653
896.982	4965
897.103	5102
897.224	4866
897.345	4801
897.466	4717
897.587	4778
897.708	4957
897.828	4774
897.949	4698
898.07	4580
898.19	4653
898.311	4900
898.431	4710
898.552	4786
898.672	4793
898.792	4870
898.913	4748
899.033	4664
899.153	4500
899.273	4470
899.393	4527
899.513	4546
899.633	4523
899.753	4542
899.873	4531
899.993	4649
900.113	4542
900.232	4622
900.352	4580
900.472	4550
900.591	4440
900.711	4508
900.83	4474
900.95	4599
901.069	4717
901.189	4596
901.308	4409
901.427	4337
901.546	4402
901.665	4550
901.784	4531
901.904	4436
902.023	4394
902.141	4219
902.26	4173
902.379	4337
902.498	4280
902.617	4268
902.735	4436
902.854	4451
902.973	4383
903.091	4200
903.21	4280
903.328	4356
903.446	4299
903.565	4272
903.683	4432
903.801	4303
903.919	4409
904.038	4466
904.156	4322
904.274	4428
904.392	4428
904.51	4447
904.627	4489
904.745	4634
904.863	4672
904.981	4451
905.098	4352
905.216	4371
905.334	4485
905.451	4512
905.569	4459
905.686	4599
905.803	4577
905.921	4447
906.038	4550
906.155	4500
906.272	4394
906.389	4500
906.506	4363
906.623	4428
906.74	4409
906.857	4352
906.974	4409
907.091	4580
907.208	4733
907.324	4580
907.441	4485
907.557	4409
907.674	4322
907.79	4318
907.907	4413
908.023	4508
908.139	4478
908.256	4402
908.372	4497
908.488	4497
908.604	4379
908.72	4348
908.836	4459
908.952	4417
909.068	4470
909.184	4622
909.3	4535
909.415	4584
909.531	4577
909.647	4356
909.762	4398
909.878	4405
909.993	4428
910.108	4470
910.224	4474
910.339	4561
910.454	4455
910.57	4394
910.685	4333
910.8	4645
910.915	4641
911.03	4527
911.145	4352
911.259	4360
911.374	4375
911.489	4344
911.604	4280
911.718	4177
911.833	4223
911.947	4147
912.062	4074
912.176	4234
912.291	4242
912.405	4299
912.519	4512
912.633	4535
912.748	4402
912.862	4341
912.976	4219
913.09	4120
913.204	4211
913.318	4265
913.431	4432
913.545	4421
913.659	4485
913.772	4398
913.886	4329
914	4265
914.113	4394
914.226	4455
914.34	4432
914.453	4257
914.566	4440
914.68	4314
914.793	4337
914.906	4196
915.019	4139
915.132	4147
915.245	4211
915.358	4207
915.47	4242
915.583	4272
915.696	4341
915.809	4405
915.921	4459
916.034	4291
916.146	4314
916.259	4280
916.371	4413
916.483	4398
916.595	4272
916.708	4333
916.82	4341
916.932	4371
917.044	4333
917.156	4402
917.268	4230
917.38	4276
917.491	4291
917.603	4390
917.715	4432
917.826	4478
917.938	4390
918.049	4272
918.161	4428
918.272	4588
918.384	4558
918.495	4485
918.606	4310
918.717	4238
918.828	4367
918.939	4379
919.05	4287
919.161	4344
919.272	4139
919.383	4257
919.494	4489
919.604	4634
919.715	4470
919.826	4337
919.936	4447
920.047	4565
920.157	4546
920.267	4755
920.378	4584
920.488	4497
920.598	4729
920.708	4908
920.818	4744
920.928	4763
921.038	4999
921.148	4949
921.258	4645
921.368	4535
921.477	4508
921.587	4478
921.697	4409
921.806	4512
921.916	4455
922.025	4291
922.134	4291
922.244	4238
922.353	4379
922.462	4177
922.571	4207
922.68	4055
922.789	4010
922.898	4048
923.007	4010
923.116	4116
923.224	4093
923.333	4078
923.442	4010
923.55	4006
923.659	4010
923.767	4166
923.876	4051
923.984	4109
924.092	4017
924.201	4093
924.309	4162
924.417	4109
924.525	4078
924.633	4150
924.741	4870
924.849	4010
924.956	4139
925.064	3960
925.172	3964
925.279	3994
925.387	4078
925.494	4128
925.602	4249
925.709	4173
925.816	4040
925.924	4162
926.031	4303
926.138	4238
926.245	4211
926.352	4139
926.459	4265
926.566	4341
926.673	4169
926.779	4135
926.886	4093
926.993	4021
927.099	3987
927.206	3968
927.312	3945
927.419	4044
927.525	4051
927.631	4063
927.737	3968
927.843	3987
927.95	3823
928.056	3983
928.162	4036
928.267	4078
928.373	4717
928.479	4112
928.585	3865
928.69	4021
928.796	4101
928.901	3964
929.007	3880
929.112	4002
929.218	4021
929.323	3956
929.428	3983
929.533	4120
929.638	3934
929.743	3972
929.848	4090
929.953	4006
930.058	3949
930.163	3812
930.267	3842
930.372	3975
930.477	3816
930.581	4147
930.685	4006
930.79	3857
930.894	3884
930.998	3892
931.103	4051
931.207	3770
931.311	3686
931.415	3709
931.519	3519
931.623	3553
