Data from test_V78500241_1529.txt Node
Date: Fri Mar 25 16:59:37 CST 2022
User: usil
Spectrometer: V785-0024
Trigger mode: 0
Integration Time (sec): 4.000000E-1
Scans to average: 1
Nonlinearity correction enabled: false
Boxcar width: 0
Storing dark spectrum: false
XAxis mode: Wavelengths
Number of Pixels in Spectrum: 1024
>>>>>Begin Spectral Data<<<<<
801.071	7986
801.214	8043
801.356	7879
801.499	7860
801.641	7830
801.783	7826
801.926	7951
802.068	7993
802.211	7986
802.353	7986
802.496	7849
802.638	7879
802.78	7925
802.923	7993
803.065	7921
803.208	7902
803.35	8008
803.492	8081
803.635	8191
803.777	8043
803.919	8210
804.061	8454
804.204	8172
804.346	7989
804.488	7947
804.63	8111
804.773	8005
804.915	8088
805.057	8324
805.199	8172
805.341	8275
805.483	8305
805.626	8214
805.768	8088
805.91	8210
806.052	8240
806.194	8191
806.336	8225
806.478	8142
806.62	8008
806.762	8119
806.904	8263
807.046	8530
807.188	8404
807.33	8282
807.472	8332
807.614	8218
807.756	8111
807.898	8039
808.04	7925
808.182	7868
808.324	7947
808.465	7898
808.607	8134
808.749	8115
808.891	8271
809.033	8263
809.174	8259
809.316	8081
809.458	8024
809.6	8012
809.741	7997
809.883	8016
810.025	8054
810.166	8058
810.308	8016
810.45	8005
810.591	7879
810.733	7708
810.875	7677
811.016	7540
811.158	7582
811.299	7647
811.441	7670
811.582	7696
811.724	7559
811.865	7506
812.007	7620
812.148	7613
812.29	7559
812.431	7761
812.573	7913
812.714	7936
812.855	8161
812.997	8199
813.138	8377
813.279	8214
813.421	8130
813.562	7944
813.703	7909
813.845	7784
813.986	7472
814.127	7232
814.268	7213
814.41	7209
814.551	7171
814.692	7118
814.833	7061
814.974	7069
815.115	7107
815.256	6985
815.397	6890
815.539	6909
815.68	6776
815.821	6848
815.962	6863
816.103	6825
816.244	6722
816.385	6620
816.526	6559
816.666	6521
816.807	6315
816.948	6483
817.089	6441
817.23	6479
817.371	6414
817.512	6433
817.653	6410
817.793	6338
817.934	6365
818.075	6437
818.216	6437
818.356	6407
818.497	6243
818.638	6098
818.778	6133
818.919	6144
819.06	6125
819.2	6311
819.341	6338
819.481	6388
819.622	6506
819.762	6734
819.903	6745
820.043	6627
820.184	6570
820.324	6635
820.465	6726
820.605	6692
820.746	6707
820.886	6486
821.026	6639
821.167	6745
821.307	6791
821.447	6798
821.588	6635
821.728	6551
821.868	6540
822.008	6289
822.149	6418
822.289	6331
822.429	6140
822.569	6152
822.709	6114
822.849	5904
822.99	5882
823.13	5920
823.27	5885
823.41	5779
823.55	5794
823.69	5767
823.83	5813
823.97	5695
824.11	5535
824.25	5520
824.389	5608
824.529	5596
824.669	5547
824.809	5600
824.949	5668
825.089	5638
825.228	5551
825.368	5364
825.508	5315
825.648	5353
825.787	5379
825.927	5364
826.067	5299
826.206	5334
826.346	5410
826.485	5429
826.625	5402
826.765	5611
826.904	5497
827.044	5277
827.183	5239
827.323	5124
827.462	5193
827.601	5185
827.741	5197
827.88	5231
828.02	5098
828.159	5250
828.298	5265
828.437	5379
828.577	5311
828.716	5509
828.855	5296
828.994	5166
829.134	5178
829.273	5208
829.412	5159
829.551	5147
829.69	5151
829.829	5216
829.968	5410
830.107	5242
830.246	5284
830.385	5147
830.524	5159
830.663	5064
830.802	5010
830.941	4885
831.08	4892
831.219	4987
831.357	4980
831.496	5166
831.635	4987
831.774	4847
831.913	4870
832.051	4725
832.19	4793
832.329	4847
832.467	4717
832.606	4729
832.744	4710
832.883	4763
833.022	4729
833.16	4820
833.299	4831
833.437	4828
833.576	4866
833.714	4831
833.852	4854
833.991	4934
834.129	4976
834.267	4953
834.406	4873
834.544	4953
834.682	5033
834.821	4953
834.959	5181
835.097	4946
835.235	5178
835.373	5060
835.511	5117
835.65	5022
835.788	5018
835.926	4885
836.064	4843
836.202	4957
836.34	5159
836.478	5223
836.615	5159
836.753	5258
836.891	5345
837.029	5231
837.167	5212
837.305	5151
837.443	5143
837.58	5136
837.718	5273
837.856	5178
837.993	5147
838.131	5212
838.269	5193
838.406	5185
838.544	5208
838.681	5025
838.819	5037
838.956	4927
839.094	4949
839.231	4980
839.369	5113
839.506	5349
839.643	5254
839.781	5052
839.918	4980
840.055	5071
840.193	5105
840.33	5124
840.467	5155
840.604	5159
840.742	5406
840.879	5094
841.016	5098
841.153	5162
841.29	5349
841.427	5330
841.564	5296
841.701	5360
841.838	5235
841.975	5292
842.112	5223
842.249	5132
842.385	5155
842.522	5315
842.659	5216
842.796	5159
842.933	5223
843.069	5204
843.206	5121
843.343	5273
843.479	5235
843.616	5299
843.752	5029
843.889	4999
844.025	5242
844.162	4999
844.298	5189
844.435	5083
844.571	5006
844.708	5201
844.844	5292
844.98	5353
845.117	5330
845.253	5121
845.389	5064
845.525	5151
845.661	5162
845.798	5022
845.934	5083
846.07	5052
846.206	5220
846.342	5261
846.478	5178
846.614	5037
846.75	4976
846.886	4911
847.022	5113
847.158	5037
847.294	5083
847.429	5117
847.565	5052
847.701	5326
847.837	4866
847.972	4824
848.108	4968
848.244	4934
848.379	4763
848.515	4763
848.65	4725
848.786	4748
848.921	4786
849.057	4828
849.192	4957
849.328	4816
849.463	4850
849.598	4786
849.734	4782
849.869	4679
850.004	4672
850.14	4694
850.275	4592
850.41	4538
850.545	4565
850.68	4615
850.815	4645
850.95	4641
851.085	4828
851.22	4744
851.355	4679
851.49	4649
851.625	4603
851.76	4626
851.895	4554
852.03	4550
852.165	4668
852.299	4729
852.434	4767
852.569	4725
852.703	4759
852.838	4828
852.973	4934
853.107	4908
853.242	4736
853.376	4653
853.511	4554
853.645	4611
853.78	4786
853.914	4694
854.048	4637
854.183	4672
854.317	4660
854.451	4858
854.585	4714
854.72	4630
854.854	4736
854.988	4580
855.122	4580
855.256	4523
855.39	4668
855.524	4786
855.658	4706
855.792	4714
855.926	4725
856.06	4755
856.194	4763
856.327	4706
856.461	4653
856.595	4637
856.729	4637
856.862	4755
856.996	4668
857.13	4717
857.263	4755
857.397	4847
857.53	4634
857.664	4710
857.797	4763
857.931	4774
858.064	4694
858.197	4767
858.331	4679
858.464	4565
858.597	4512
858.731	4607
858.864	4596
858.997	4603
859.13	4630
859.263	4634
859.396	4664
859.529	4565
859.662	4573
859.795	4504
859.928	4630
860.061	4755
860.194	4790
860.327	4626
860.46	4603
860.592	4736
860.725	4752
860.858	4748
860.99	4554
861.123	4504
861.256	4519
861.388	4626
861.521	5303
861.653	4497
861.786	4440
861.918	4462
862.05	4493
862.183	4538
862.315	4645
862.447	4683
862.58	4565
862.712	4390
862.844	4333
862.976	4455
863.108	4443
863.24	4714
863.372	4337
863.504	4409
863.636	4390
863.768	4466
863.9	4413
864.032	4344
864.164	4394
864.296	4504
864.428	4561
864.559	4504
864.691	4497
864.823	4554
864.954	4500
865.086	4493
865.217	4466
865.349	4405
865.48	4462
865.612	4462
865.743	4649
865.875	4481
866.006	4394
866.137	4455
866.269	4466
866.4	4436
866.531	4379
866.662	4413
866.793	4341
866.924	4390
867.055	4493
867.186	4489
867.317	4417
867.448	4360
867.579	4383
867.71	4413
867.841	4398
867.972	4459
868.103	4459
868.233	4405
868.364	4428
868.495	4474
868.625	4653
868.756	4736
868.886	4550
869.017	4603
869.147	4797
869.278	4736
869.408	4694
869.539	4634
869.669	4687
869.799	4649
869.929	4740
870.06	4706
870.19	4972
870.32	4881
870.45	4885
870.58	4999
870.71	5083
870.84	5121
870.97	4877
871.1	4862
871.23	5132
871.36	5155
871.489	5048
871.619	5117
871.749	5098
871.879	5105
872.008	5140
872.138	5041
872.267	4946
872.397	4797
872.526	4767
872.656	4702
872.785	4820
872.915	4934
873.044	5033
873.173	4949
873.303	4961
873.432	4949
873.561	4919
873.69	4870
873.819	4835
873.948	4911
874.077	4805
874.206	4733
874.335	4771
874.464	4961
874.593	5056
874.722	4957
874.851	5079
874.979	5048
875.108	5052
875.237	4904
875.365	4877
875.494	4873
875.623	4999
875.751	4809
875.88	4870
876.008	4942
876.136	5025
876.265	5159
876.393	5357
876.521	5239
876.65	5193
876.778	5174
876.906	5056
877.034	5045
877.162	5048
877.29	4961
877.418	5083
877.546	5010
877.674	5048
877.802	5022
877.93	5018
878.058	4934
878.185	4892
878.313	4927
878.441	4923
878.568	4790
878.696	4824
878.824	4915
878.951	5041
879.079	5113
879.206	5296
879.333	5067
879.461	4938
879.588	4984
879.715	5140
879.842	5216
879.97	4953
880.097	4744
880.224	4767
880.351	4835
880.478	4862
880.605	4790
880.732	4774
880.859	5105
880.986	4816
881.112	4881
881.239	4778
881.366	4622
881.493	4599
881.619	4599
881.746	4641
881.872	4656
881.999	4664
882.125	4653
882.252	4778
882.378	4824
882.505	4942
882.631	4801
882.757	4660
882.883	4771
883.01	4717
883.136	4637
883.262	4664
883.388	4596
883.514	4755
883.64	4839
883.766	4831
883.892	4694
884.018	4687
884.143	4831
884.269	5064
884.395	4660
884.52	4603
884.646	4634
884.772	4599
884.897	4538
885.023	4653
885.148	4790
885.274	4892
885.399	4778
885.524	4702
885.65	4668
885.775	4759
885.9	4714
886.025	4854
886.15	4786
886.275	4733
886.4	4653
886.525	4778
886.65	4649
886.775	4714
886.9	4870
887.025	5033
887.149	4835
887.274	4656
887.399	4588
887.523	4607
887.648	4542
887.773	4561
887.897	4748
888.021	4755
888.146	4698
888.27	4793
888.395	4923
888.519	4812
888.643	4809
888.767	4809
888.891	4649
889.015	4561
889.139	4615
889.263	4599
889.387	4691
889.511	4881
889.635	4843
889.759	4588
889.883	4615
890.006	4717
890.13	4820
890.254	4622
890.377	4656
890.501	4523
890.624	4527
890.748	4649
890.871	4481
890.995	4409
891.118	4337
891.241	4569
891.364	4531
891.488	4611
891.611	4531
891.734	4538
891.857	4580
891.98	4561
892.103	4618
892.226	4611
892.349	4474
892.471	4447
892.594	4554
892.717	4615
892.839	4523
892.962	4577
893.085	4687
893.207	4584
893.33	4447
893.452	4550
893.575	4634
893.697	4546
893.819	4835
893.941	4866
894.064	4786
894.186	4527
894.308	4527
894.43	4721
894.552	4763
894.674	4725
894.796	4584
894.918	4584
895.04	4550
895.161	4656
895.283	4664
895.405	4588
895.526	4645
895.648	4656
895.769	4653
895.891	4683
896.012	4706
896.134	4687
896.255	4687
896.376	4634
896.498	4637
896.619	4691
896.74	4611
896.861	4668
896.982	4908
897.103	5094
897.224	4908
897.345	4736
897.466	4637
897.587	4736
897.708	4843
897.828	4786
897.949	4626
898.07	4558
898.19	4607
898.311	4763
898.431	4664
898.552	4714
898.672	4786
898.792	4755
898.913	4721
899.033	4596
899.153	4478
899.273	4386
899.393	4516
899.513	4554
899.633	4538
899.753	4577
899.873	4535
899.993	4558
900.113	4538
900.232	4599
900.352	4535
900.472	4466
900.591	4424
900.711	4508
900.83	4440
900.95	4599
901.069	4702
901.189	4542
901.308	4371
901.427	4322
901.546	4436
901.665	4424
901.784	4527
901.904	4394
902.023	4337
902.141	4173
902.26	4131
902.379	4306
902.498	4257
902.617	4177
902.735	4363
902.854	4371
902.973	4363
903.091	4177
903.21	4257
903.328	4299
903.446	4280
903.565	4257
903.683	4344
903.801	4257
903.919	4436
904.038	4428
904.156	4314
904.274	4462
904.392	4394
904.51	4394
904.627	4474
904.745	4558
904.863	4645
904.981	4360
905.098	4337
905.216	4402
905.334	4394
905.451	4459
905.569	4424
905.686	4504
905.803	4538
905.921	4440
906.038	4512
906.155	4474
906.272	4394
906.389	4428
906.506	4348
906.623	4383
906.74	4417
906.857	4306
906.974	4303
907.091	4584
907.208	4683
907.324	4584
907.441	4493
907.557	4333
907.674	4356
907.79	4329
907.907	4371
908.023	4459
908.139	4485
908.256	4459
908.372	4432
908.488	4447
908.604	4329
908.72	4356
908.836	4344
908.952	4367
909.068	4424
909.184	4550
909.3	4447
909.415	4569
909.531	4580
909.647	4352
909.762	4341
909.878	4325
909.993	4432
910.108	4424
910.224	4413
910.339	4500
910.454	4386
910.57	4325
910.685	4322
910.8	4611
910.915	4599
911.03	4497
911.145	4310
911.259	4325
911.374	4360
911.489	4287
911.604	4268
911.718	4173
911.833	4207
911.947	4071
912.062	4071
912.176	4207
912.291	4227
912.405	4230
912.519	4451
912.633	4489
912.748	4402
912.862	4295
912.976	4204
913.09	4105
913.204	4143
913.318	4261
913.431	4348
913.545	4329
913.659	4455
913.772	4337
913.886	4246
914	4238
914.113	4375
914.226	4470
914.34	4375
914.453	4234
914.566	4440
914.68	4344
914.793	4310
914.906	4188
915.019	4166
915.132	4067
915.245	4188
915.358	4200
915.47	4207
915.583	4261
915.696	4299
915.809	4409
915.921	4417
916.034	4265
916.146	4272
916.259	4230
916.371	4344
916.483	4360
916.595	4253
916.708	4318
916.82	4341
916.932	4329
917.044	4310
917.156	4398
917.268	4219
917.38	4325
917.491	4268
917.603	4310
917.715	4424
917.826	4451
917.938	4344
918.049	4234
918.161	4379
918.272	4550
918.384	4504
918.495	4489
918.606	4303
918.717	4227
918.828	4352
918.939	4367
919.05	4249
919.161	4333
919.272	4093
919.383	4219
919.494	4436
919.604	4618
919.715	4447
919.826	4367
919.936	4417
920.047	4558
920.157	4443
920.267	4694
920.378	4535
920.488	4516
920.598	4736
920.708	4862
920.818	4805
920.928	4729
921.038	4930
921.148	4915
921.258	4592
921.368	4607
921.477	4489
921.587	4436
921.697	4360
921.806	4542
921.916	4383
922.025	4284
922.134	4261
922.244	4215
922.353	4348
922.462	4211
922.571	4120
922.68	4032
922.789	3975
922.898	4029
923.007	3979
923.116	4078
923.224	4071
923.333	4055
923.442	3979
923.55	3991
923.659	4036
923.767	4055
923.876	4017
923.984	4124
924.092	3968
924.201	4078
924.309	4071
924.417	4105
924.525	4029
924.633	4090
924.741	4896
924.849	3865
924.956	4071
925.064	3899
925.172	3918
925.279	3930
925.387	4029
925.494	4032
925.602	4211
925.709	4158
925.816	4025
925.924	4169
926.031	4227
926.138	4173
926.245	4207
926.352	4093
926.459	4219
926.566	4314
926.673	4128
926.779	4093
926.886	4112
926.993	4010
927.099	3945
927.206	3930
927.312	3907
927.419	4051
927.525	4006
927.631	4105
927.737	3956
927.843	3945
927.95	3865
928.056	3960
928.162	3945
928.267	4063
928.373	4538
928.479	4090
928.585	3876
928.69	4021
928.796	4063
928.901	3983
929.007	3819
929.112	3975
929.218	3937
929.323	3960
929.428	3930
929.533	4105
929.638	3854
929.743	3918
929.848	4040
929.953	4006
930.058	3915
930.163	3804
930.267	3842
930.372	3975
930.477	3785
930.581	4044
930.685	3956
930.79	3808
930.894	3842
930.998	3842
931.103	4051
931.207	3709
931.311	3663
931.415	3705
931.519	3526
931.623	3580
