Data from test_V78500241_904.txt Node
Date: Fri Mar 25 16:55:17 CST 2022
User: usil
Spectrometer: V785-0024
Trigger mode: 0
Integration Time (sec): 4.000000E-1
Scans to average: 1
Nonlinearity correction enabled: false
Boxcar width: 0
Storing dark spectrum: false
XAxis mode: Wavelengths
Number of Pixels in Spectrum: 1024
>>>>>Begin Spectral Data<<<<<
801.071	8065
801.214	8092
801.356	7906
801.499	7902
801.641	7837
801.783	7811
801.926	8012
802.068	7974
802.211	7963
802.353	7974
802.496	7826
802.638	7925
802.78	7917
802.923	7928
803.065	7890
803.208	7917
803.35	7951
803.492	8126
803.635	8183
803.777	8027
803.919	8149
804.061	8427
804.204	8123
804.346	8092
804.488	7947
804.63	8168
804.773	8073
804.915	8126
805.057	8259
805.199	8221
805.341	8229
805.483	8271
805.626	8191
805.768	8107
805.91	8256
806.052	8248
806.194	8069
806.336	8336
806.478	8111
806.62	8107
806.762	8073
806.904	8279
807.046	8469
807.188	8305
807.33	8358
807.472	8290
807.614	8161
807.756	8172
807.898	7982
808.04	7932
808.182	7875
808.324	7883
808.465	7928
808.607	8024
808.749	8065
808.891	8191
809.033	8347
809.174	8161
809.316	8039
809.458	8031
809.6	7978
809.741	8046
809.883	8058
810.025	8077
810.166	8062
810.308	7982
810.45	8020
810.591	7909
810.733	7738
810.875	7689
811.016	7537
811.158	7525
811.299	7544
811.441	7746
811.582	7685
811.724	7563
811.865	7533
812.007	7563
812.148	7552
812.29	7620
812.431	7689
812.573	7826
812.714	7963
812.855	8073
812.997	8240
813.138	8351
813.279	8221
813.421	8046
813.562	8088
813.703	7864
813.845	7818
813.986	7510
814.127	7327
814.268	7274
814.41	7202
814.551	7126
814.692	7110
814.833	7065
814.974	7069
815.115	7156
815.256	7012
815.397	6947
815.539	6951
815.68	6818
815.821	6814
815.962	6928
816.103	6867
816.244	6772
816.385	6688
816.526	6673
816.666	6532
816.807	6350
816.948	6376
817.089	6506
817.23	6414
817.371	6369
817.512	6429
817.653	6429
817.793	6372
817.934	6384
818.075	6486
818.216	6437
818.356	6372
818.497	6220
818.638	6121
818.778	6144
818.919	6148
819.06	6114
819.2	6350
819.341	6346
819.481	6388
819.622	6559
819.762	6734
819.903	6726
820.043	6566
820.184	6658
820.324	6601
820.465	6741
820.605	6658
820.746	6639
820.886	6540
821.026	6715
821.167	6726
821.307	6856
821.447	6738
821.588	6700
821.728	6570
821.868	6479
822.008	6311
822.149	6388
822.289	6376
822.429	6201
822.569	6076
822.709	6114
822.849	5946
822.99	5844
823.13	5935
823.27	5870
823.41	5798
823.55	5794
823.69	5748
823.83	5748
823.97	5634
824.11	5539
824.25	5535
824.389	5558
824.529	5543
824.669	5505
824.809	5653
824.949	5653
825.089	5649
825.228	5543
825.368	5364
825.508	5360
825.648	5349
825.787	5406
825.927	5398
826.067	5318
826.206	5322
826.346	5410
826.485	5395
826.625	5341
826.765	5562
826.904	5467
827.044	5223
827.183	5212
827.323	5086
827.462	5261
827.601	5185
827.741	5193
827.88	5201
828.02	5124
828.159	5212
828.298	5326
828.437	5372
828.577	5299
828.716	5509
828.855	5345
828.994	5193
829.134	5185
829.273	5227
829.412	5109
829.551	5174
829.69	5162
829.829	5223
829.968	5311
830.107	5254
830.246	5296
830.385	5121
830.524	5102
830.663	5083
830.802	4968
830.941	4870
831.08	4866
831.219	5018
831.357	4972
831.496	5136
831.635	4953
831.774	4850
831.913	4870
832.051	4744
832.19	4706
832.329	4809
832.467	4672
832.606	4717
832.744	4729
832.883	4733
833.022	4759
833.16	4778
833.299	4820
833.437	4805
833.576	4824
833.714	4866
833.852	4896
833.991	4927
834.129	4965
834.267	4923
834.406	4930
834.544	4984
834.682	4991
834.821	4991
834.959	5201
835.097	4980
835.235	5147
835.373	5117
835.511	5109
835.65	5010
835.788	5003
835.926	4881
836.064	4892
836.202	4904
836.34	5193
836.478	5147
836.615	5060
836.753	5170
836.891	5265
837.029	5239
837.167	5201
837.305	5155
837.443	5151
837.58	5079
837.718	5265
837.856	5181
837.993	5185
838.131	5227
838.269	5204
838.406	5250
838.544	5178
838.681	5022
838.819	4980
838.956	4953
839.094	4892
839.231	5025
839.369	5083
839.506	5410
839.643	5258
839.781	5056
839.918	5018
840.055	5033
840.193	5079
840.33	5113
840.467	5105
840.604	5181
840.742	5429
840.879	5075
841.016	5056
841.153	5151
841.29	5353
841.427	5353
841.564	5341
841.701	5307
841.838	5258
841.975	5220
842.112	5235
842.249	5128
842.385	5098
842.522	5280
842.659	5189
842.796	5143
842.933	5223
843.069	5140
843.206	5166
843.343	5284
843.479	5197
843.616	5273
843.752	5041
843.889	4980
844.025	5216
844.162	5010
844.298	5197
844.435	5064
844.571	5048
844.708	5174
844.844	5349
844.98	5349
845.117	5254
845.253	5124
845.389	5060
845.525	5201
845.661	5083
845.798	5064
845.934	5178
846.07	5029
846.206	5204
846.342	5303
846.478	5162
846.614	5060
846.75	4984
846.886	4915
847.022	5136
847.158	5029
847.294	5094
847.429	5064
847.565	5083
847.701	5322
847.837	4870
847.972	4820
848.108	4938
848.244	4980
848.379	4797
848.515	4714
848.65	4691
848.786	4793
848.921	4755
849.057	4930
849.192	4908
849.328	4809
849.463	4850
849.598	4805
849.734	4748
849.869	4691
850.004	4626
850.14	4641
850.275	4626
850.41	4550
850.545	4611
850.68	4573
850.815	4607
850.95	4645
851.085	4839
851.22	4717
851.355	4683
851.49	4630
851.625	4592
851.76	4672
851.895	4565
852.03	4554
852.165	4607
852.299	4714
852.434	4763
852.569	4759
852.703	4763
852.838	4828
852.973	4976
853.107	4870
853.242	4702
853.376	4714
853.511	4561
853.645	4634
853.78	4763
853.914	4683
854.048	4706
854.183	4653
854.317	4664
854.451	4866
854.585	4653
854.72	4611
854.854	4790
854.988	4592
855.122	4622
855.256	4459
855.39	4626
855.524	4763
855.658	4694
855.792	4717
855.926	4752
856.06	4725
856.194	4733
856.327	4630
856.461	4580
856.595	4592
856.729	4611
856.862	4717
856.996	4664
857.13	4717
857.263	4782
857.397	4790
857.53	4626
857.664	4710
857.797	4763
857.931	4752
858.064	4679
858.197	4736
858.331	4645
858.464	4645
858.597	4516
858.731	4577
858.864	4622
858.997	4611
859.13	4649
859.263	4637
859.396	4683
859.529	4558
859.662	4592
859.795	4508
859.928	4519
860.061	4702
860.194	4793
860.327	4611
860.46	4569
860.592	4668
860.725	4725
860.858	4694
860.99	4569
861.123	4462
861.256	4462
861.388	4569
861.521	5220
861.653	4462
861.786	4417
861.918	4459
862.05	4478
862.183	4558
862.315	4584
862.447	4626
862.58	4554
862.712	4367
862.844	4295
862.976	4478
863.108	4466
863.24	4729
863.372	4318
863.504	4386
863.636	4432
863.768	4462
863.9	4470
864.032	4341
864.164	4417
864.296	4455
864.428	4558
864.559	4527
864.691	4512
864.823	4538
864.954	4470
865.086	4481
865.217	4462
865.349	4375
865.48	4462
865.612	4531
865.743	4649
865.875	4474
866.006	4375
866.137	4493
866.269	4405
866.4	4440
866.531	4398
866.662	4386
866.793	4440
866.924	4421
867.055	4451
867.186	4443
867.317	4447
867.448	4371
867.579	4421
867.71	4440
867.841	4310
867.972	4436
868.103	4493
868.233	4436
868.364	4459
868.495	4466
868.625	4672
868.756	4748
868.886	4523
869.017	4634
869.147	4774
869.278	4809
869.408	4641
869.539	4668
869.669	4691
869.799	4649
869.929	4733
870.06	4748
870.19	4968
870.32	4866
870.45	4900
870.58	5022
870.71	5060
870.84	5075
870.97	4908
871.1	4892
871.23	5128
871.36	5132
871.489	4991
871.619	5067
871.749	5045
871.879	5090
872.008	5208
872.138	5041
872.267	4953
872.397	4828
872.526	4812
872.656	4679
872.785	4828
872.915	4927
873.044	5041
873.173	4976
873.303	4980
873.432	4976
873.561	4927
873.69	4904
873.819	4801
873.948	4866
874.077	4843
874.206	4744
874.335	4778
874.464	4980
874.593	5025
874.722	4949
874.851	5071
874.979	5025
875.108	5060
875.237	4850
875.365	4816
875.494	4877
875.623	4972
875.751	4854
875.88	4877
876.008	4987
876.136	5025
876.265	5193
876.393	5345
876.521	5174
876.65	5201
876.778	5071
876.906	5048
877.034	5003
877.162	5037
877.29	5014
877.418	5037
877.546	5037
877.674	5003
877.802	4995
877.93	5010
878.058	4957
878.185	4812
878.313	4930
878.441	4942
878.568	4778
878.696	4812
878.824	4919
878.951	4976
879.079	5102
879.206	5265
879.333	5041
879.461	4980
879.588	5010
879.715	5105
879.842	5181
879.97	4976
880.097	4786
880.224	4729
880.351	4790
880.478	4782
880.605	4812
880.732	4782
880.859	5083
880.986	4873
881.112	4896
881.239	4755
881.366	4637
881.493	4599
881.619	4584
881.746	4611
881.872	4641
881.999	4645
882.125	4679
882.252	4736
882.378	4801
882.505	4957
882.631	4767
882.757	4668
882.883	4702
883.01	4714
883.136	4649
883.262	4561
883.388	4584
883.514	4801
883.64	4835
883.766	4778
883.892	4618
884.018	4733
884.143	4904
884.269	4965
884.395	4710
884.52	4637
884.646	4645
884.772	4573
884.897	4523
885.023	4626
885.148	4801
885.274	4847
885.399	4805
885.524	4774
885.65	4702
885.775	4763
885.9	4683
886.025	4824
886.15	4790
886.275	4698
886.4	4615
886.525	4736
886.65	4664
886.775	4656
886.9	4927
887.025	4999
887.149	4801
887.274	4653
887.399	4584
887.523	4558
887.648	4588
887.773	4596
887.897	4714
888.021	4824
888.146	4679
888.27	4767
888.395	4904
888.519	4748
888.643	4831
888.767	4809
888.891	4660
889.015	4573
889.139	4645
889.263	4558
889.387	4729
889.511	4850
889.635	4778
889.759	4630
889.883	4626
890.006	4736
890.13	4790
890.254	4641
890.377	4668
890.501	4527
890.624	4546
890.748	4588
890.871	4481
890.995	4413
891.118	4379
891.241	4531
891.364	4516
891.488	4611
891.611	4478
891.734	4508
891.857	4580
891.98	4546
892.103	4653
892.226	4584
892.349	4508
892.471	4417
892.594	4558
892.717	4618
892.839	4577
892.962	4611
893.085	4691
893.207	4565
893.33	4481
893.452	4497
893.575	4634
893.697	4527
893.819	4847
893.941	4805
894.064	4786
894.186	4569
894.308	4546
894.43	4752
894.552	4801
894.674	4748
894.796	4573
894.918	4573
895.04	4550
895.161	4687
895.283	4630
895.405	4607
895.526	4615
895.648	4675
895.769	4656
895.891	4714
896.012	4736
896.134	4714
896.255	4573
896.376	4599
896.498	4645
896.619	4687
896.74	4611
896.861	4634
896.982	4885
897.103	5121
897.224	4820
897.345	4763
897.466	4698
897.587	4729
897.708	4881
897.828	4790
897.949	4691
898.07	4573
898.19	4637
898.311	4820
898.431	4660
898.552	4706
898.672	4786
898.792	4774
898.913	4733
899.033	4637
899.153	4466
899.273	4394
899.393	4519
899.513	4538
899.633	4508
899.753	4535
899.873	4485
899.993	4580
900.113	4504
900.232	4592
900.352	4500
900.472	4497
900.591	4341
900.711	4481
900.83	4440
900.95	4558
901.069	4691
901.189	4523
901.308	4329
901.427	4299
901.546	4352
901.665	4432
901.784	4523
901.904	4386
902.023	4318
902.141	4150
902.26	4162
902.379	4322
902.498	4238
902.617	4185
902.735	4363
902.854	4386
902.973	4333
903.091	4185
903.21	4238
903.328	4310
903.446	4238
903.565	4238
903.683	4318
903.801	4299
903.919	4432
904.038	4443
904.156	4329
904.274	4424
904.392	4398
904.51	4459
904.627	4504
904.745	4599
904.863	4683
904.981	4398
905.098	4318
905.216	4379
905.334	4421
905.451	4470
905.569	4402
905.686	4558
905.803	4546
905.921	4409
906.038	4554
906.155	4485
906.272	4447
906.389	4428
906.506	4325
906.623	4337
906.74	4398
906.857	4299
906.974	4375
907.091	4580
907.208	4618
907.324	4660
907.441	4485
907.557	4344
907.674	4329
907.79	4280
907.907	4402
908.023	4440
908.139	4462
908.256	4440
908.372	4489
908.488	4409
908.604	4329
908.72	4306
908.836	4367
908.952	4363
909.068	4424
909.184	4588
909.3	4466
909.415	4550
909.531	4558
909.647	4356
909.762	4367
909.878	4318
909.993	4447
910.108	4371
910.224	4363
910.339	4466
910.454	4402
910.57	4348
910.685	4333
910.8	4618
910.915	4580
911.03	4508
911.145	4299
911.259	4261
911.374	4363
911.489	4310
911.604	4249
911.718	4158
911.833	4200
911.947	4044
912.062	4021
912.176	4246
912.291	4211
912.405	4196
912.519	4474
912.633	4485
912.748	4371
912.862	4325
912.976	4215
913.09	4086
913.204	4169
913.318	4242
913.431	4383
913.545	4432
913.659	4451
913.772	4417
913.886	4253
914	4192
914.113	4379
914.226	4421
914.34	4394
914.453	4238
914.566	4405
914.68	4284
914.793	4272
914.906	4162
915.019	4139
915.132	4040
915.245	4188
915.358	4169
915.47	4181
915.583	4276
915.696	4284
915.809	4341
915.921	4421
916.034	4265
916.146	4261
916.259	4211
916.371	4337
916.483	4383
916.595	4272
916.708	4352
916.82	4344
916.932	4325
917.044	4322
917.156	4295
917.268	4284
917.38	4295
917.491	4280
917.603	4306
917.715	4398
917.826	4394
917.938	4325
918.049	4234
918.161	4360
918.272	4542
918.384	4558
918.495	4443
918.606	4287
918.717	4200
918.828	4299
918.939	4348
919.05	4276
919.161	4310
919.272	4135
919.383	4215
919.494	4462
919.604	4626
919.715	4451
919.826	4299
919.936	4383
920.047	4531
920.157	4474
920.267	4702
920.378	4512
920.488	4493
920.598	4744
920.708	4900
920.818	4793
920.928	4733
921.038	4896
921.148	4911
921.258	4626
921.368	4523
921.477	4527
921.587	4447
921.697	4348
921.806	4504
921.916	4428
922.025	4295
922.134	4284
922.244	4196
922.353	4299
922.462	4185
922.571	4173
922.68	4017
922.789	3953
922.898	4040
923.007	3972
923.116	4051
923.224	4040
923.333	4063
923.442	4021
923.55	3998
923.659	4010
923.767	4078
923.876	4032
923.984	4120
924.092	3991
924.201	4021
924.309	4135
924.417	4143
924.525	4036
924.633	4109
924.741	4847
924.849	3922
924.956	4097
925.064	3945
925.172	3861
925.279	3949
925.387	4055
925.494	4010
925.602	4188
925.709	4188
925.816	4044
925.924	4105
926.031	4234
926.138	4135
926.245	4207
926.352	4021
926.459	4215
926.566	4261
926.673	4124
926.779	4093
926.886	4051
926.993	3998
927.099	3949
927.206	3915
927.312	3949
927.419	4025
927.525	3983
927.631	4078
927.737	3983
927.843	3876
927.95	3827
928.056	3964
928.162	3975
928.267	4055
928.373	4538
928.479	4086
928.585	3857
928.69	4013
928.796	4082
928.901	3968
929.007	3861
929.112	4002
929.218	3937
929.323	3918
929.428	3915
929.533	4105
929.638	3899
929.743	3918
929.848	4017
929.953	4010
930.058	3854
930.163	3759
930.267	3812
930.372	3956
930.477	3797
930.581	4063
930.685	3930
930.79	3816
930.894	3880
930.998	3827
931.103	4010
931.207	3751
931.311	3663
931.415	3644
931.519	3473
931.623	3500
