Data from test_V78500241_622.txt Node
Date: Fri Mar 25 16:53:19 CST 2022
User: usil
Spectrometer: V785-0024
Trigger mode: 0
Integration Time (sec): 4.000000E-1
Scans to average: 1
Nonlinearity correction enabled: false
Boxcar width: 0
Storing dark spectrum: false
XAxis mode: Wavelengths
Number of Pixels in Spectrum: 1024
>>>>>Begin Spectral Data<<<<<
801.071	8062
801.214	8088
801.356	7947
801.499	7860
801.641	7803
801.783	7830
801.926	7989
802.068	7936
802.211	8062
802.353	8054
802.496	7803
802.638	7940
802.78	7944
802.923	7978
803.065	7898
803.208	7822
803.35	7936
803.492	8073
803.635	8130
803.777	8001
803.919	8123
804.061	8412
804.204	8081
804.346	7959
804.488	8008
804.63	8065
804.773	8016
804.915	8020
805.057	8282
805.199	8149
805.341	8233
805.483	8263
805.626	8271
805.768	8119
805.91	8279
806.052	8145
806.194	8092
806.336	8248
806.478	8123
806.62	8073
806.762	8145
806.904	8221
807.046	8484
807.188	8324
807.33	8294
807.472	8366
807.614	8168
807.756	8115
807.898	7989
808.04	7826
808.182	7879
808.324	7856
808.465	7852
808.607	8115
808.749	8126
808.891	8252
809.033	8252
809.174	8183
809.316	8058
809.458	7986
809.6	7989
809.741	8027
809.883	7967
810.025	8103
810.166	8012
810.308	8016
810.45	8020
810.591	7940
810.733	7742
810.875	7704
811.016	7537
811.158	7514
811.299	7590
811.441	7792
811.582	7696
811.724	7559
811.865	7510
812.007	7594
812.148	7567
812.29	7559
812.431	7742
812.573	7860
812.714	7936
812.855	8115
812.997	8244
813.138	8282
813.279	8191
813.421	8134
813.562	8039
813.703	7928
813.845	7837
813.986	7514
814.127	7331
814.268	7240
814.41	7266
814.551	7149
814.692	7145
814.833	7008
814.974	7137
815.115	7171
815.256	6966
815.397	6935
815.539	6935
815.68	6890
815.821	6802
815.962	6913
816.103	6833
816.244	6715
816.385	6688
816.526	6597
816.666	6490
816.807	6273
816.948	6357
817.089	6475
817.23	6456
817.371	6315
817.512	6399
817.653	6395
817.793	6350
817.934	6399
818.075	6513
818.216	6490
818.356	6441
818.497	6232
818.638	6091
818.778	6194
818.919	6106
819.06	6125
819.2	6331
819.341	6311
819.481	6338
819.622	6448
819.762	6696
819.903	6684
820.043	6578
820.184	6589
820.324	6593
820.465	6669
820.605	6631
820.746	6604
820.886	6456
821.026	6627
821.167	6665
821.307	6791
821.447	6738
821.588	6627
821.728	6547
821.868	6410
822.008	6247
822.149	6308
822.289	6334
822.429	6171
822.569	6060
822.709	6125
822.849	5901
822.99	5859
823.13	5950
823.27	5821
823.41	5794
823.55	5748
823.69	5718
823.83	5718
823.97	5672
824.11	5528
824.25	5528
824.389	5516
824.529	5615
824.669	5562
824.809	5657
824.949	5649
825.089	5646
825.228	5615
825.368	5425
825.508	5330
825.648	5349
825.787	5368
825.927	5391
826.067	5296
826.206	5296
826.346	5410
826.485	5501
826.625	5402
826.765	5554
826.904	5505
827.044	5296
827.183	5201
827.323	5136
827.462	5250
827.601	5208
827.741	5208
827.88	5254
828.02	5170
828.159	5303
828.298	5345
828.437	5391
828.577	5303
828.716	5467
828.855	5334
828.994	5170
829.134	5170
829.273	5155
829.412	5147
829.551	5227
829.69	5201
829.829	5318
829.968	5353
830.107	5273
830.246	5311
830.385	5208
830.524	5185
830.663	5117
830.802	5025
830.941	4919
831.08	4870
831.219	5025
831.357	4987
831.496	5254
831.635	4984
831.774	4911
831.913	4870
832.051	4782
832.19	4752
832.329	4858
832.467	4717
832.606	4714
832.744	4740
832.883	4733
833.022	4763
833.16	4801
833.299	4839
833.437	4854
833.576	4873
833.714	4877
833.852	4911
833.991	4942
834.129	5003
834.267	4984
834.406	4949
834.544	5056
834.682	4980
834.821	4991
834.959	5204
835.097	4980
835.235	5204
835.373	5124
835.511	5147
835.65	5045
835.788	5067
835.926	4953
836.064	4934
836.202	4896
836.34	5193
836.478	5265
836.615	5162
836.753	5265
836.891	5322
837.029	5254
837.167	5246
837.305	5178
837.443	5201
837.58	5090
837.718	5239
837.856	5242
837.993	5132
838.131	5220
838.269	5197
838.406	5246
838.544	5208
838.681	5086
838.819	5102
838.956	4953
839.094	4938
839.231	4991
839.369	5075
839.506	5425
839.643	5246
839.781	5071
839.918	5045
840.055	5124
840.193	5098
840.33	5185
840.467	5170
840.604	5250
840.742	5497
840.879	5140
841.016	5132
841.153	5185
841.29	5398
841.427	5372
841.564	5353
841.701	5357
841.838	5307
841.975	5254
842.112	5258
842.249	5132
842.385	5151
842.522	5341
842.659	5185
842.796	5185
842.933	5265
843.069	5159
843.206	5181
843.343	5341
843.479	5258
843.616	5299
843.752	5060
843.889	4999
844.025	5280
844.162	5045
844.298	5242
844.435	5151
844.571	5083
844.708	5235
844.844	5372
844.98	5360
845.117	5296
845.253	5250
845.389	5124
845.525	5147
845.661	5159
845.798	5079
845.934	5166
846.07	5102
846.206	5212
846.342	5258
846.478	5201
846.614	5064
846.75	4999
846.886	4991
847.022	5098
847.158	5033
847.294	5132
847.429	5143
847.565	5124
847.701	5311
847.837	4847
847.972	4873
848.108	5033
848.244	4987
848.379	4831
848.515	4729
848.65	4774
848.786	4748
848.921	4816
849.057	4915
849.192	4946
849.328	4858
849.463	4854
849.598	4850
849.734	4778
849.869	4733
850.004	4725
850.14	4702
850.275	4603
850.41	4580
850.545	4618
850.68	4641
850.815	4649
850.95	4691
851.085	4930
851.22	4816
851.355	4660
851.49	4630
851.625	4656
851.76	4645
851.895	4569
852.03	4577
852.165	4668
852.299	4752
852.434	4786
852.569	4736
852.703	4801
852.838	4900
852.973	4923
853.107	4938
853.242	4793
853.376	4683
853.511	4615
853.645	4641
853.78	4790
853.914	4763
854.048	4725
854.183	4675
854.317	4771
854.451	4896
854.585	4702
854.72	4653
854.854	4816
854.988	4649
855.122	4687
855.256	4569
855.39	4725
855.524	4850
855.658	4763
855.792	4687
855.926	4744
856.06	4782
856.194	4839
856.327	4717
856.461	4622
856.595	4656
856.729	4645
856.862	4809
856.996	4687
857.13	4759
857.263	4752
857.397	4858
857.53	4691
857.664	4752
857.797	4778
857.931	4782
858.064	4702
858.197	4763
858.331	4706
858.464	4641
858.597	4588
858.731	4656
858.864	4687
858.997	4634
859.13	4706
859.263	4675
859.396	4725
859.529	4603
859.662	4611
859.795	4516
859.928	4645
860.061	4805
860.194	4824
860.327	4668
860.46	4580
860.592	4717
860.725	4736
860.858	4786
860.99	4615
861.123	4516
861.256	4554
861.388	4645
861.521	5364
861.653	4504
861.786	4485
861.918	4516
862.05	4527
862.183	4565
862.315	4577
862.447	4664
862.58	4588
862.712	4470
862.844	4325
862.976	4474
863.108	4462
863.24	4847
863.372	4386
863.504	4440
863.636	4421
863.768	4474
863.9	4455
864.032	4417
864.164	4421
864.296	4474
864.428	4565
864.559	4592
864.691	4569
864.823	4596
864.954	4478
865.086	4558
865.217	4489
865.349	4455
865.48	4478
865.612	4599
865.743	4645
865.875	4550
866.006	4440
866.137	4462
866.269	4470
866.4	4462
866.531	4451
866.662	4424
866.793	4432
866.924	4428
867.055	4516
867.186	4466
867.317	4451
867.448	4379
867.579	4383
867.71	4428
867.841	4379
867.972	4451
868.103	4508
868.233	4459
868.364	4481
868.495	4504
868.625	4668
868.756	4793
868.886	4596
869.017	4740
869.147	4828
869.278	4843
869.408	4656
869.539	4660
869.669	4714
869.799	4706
869.929	4793
870.06	4740
870.19	5003
870.32	4953
870.45	4923
870.58	5067
870.71	5105
870.84	5102
870.97	5006
871.1	4927
871.23	5193
871.36	5216
871.489	5033
871.619	5113
871.749	5113
871.879	5117
872.008	5201
872.138	5109
872.267	5010
872.397	4854
872.526	4843
872.656	4759
872.785	4805
872.915	4949
873.044	5033
873.173	4953
873.303	4980
873.432	4976
873.561	5003
873.69	4930
873.819	4881
873.948	4915
874.077	4763
874.206	4786
874.335	4793
874.464	4946
874.593	5090
874.722	4991
874.851	5113
874.979	5098
875.108	5037
875.237	4870
875.365	4885
875.494	4915
875.623	4953
875.751	4839
875.88	4949
876.008	4976
876.136	5041
876.265	5231
876.393	5372
876.521	5250
876.65	5223
876.778	5231
876.906	5086
877.034	5056
877.162	5037
877.29	5010
877.418	5056
877.546	5090
877.674	5056
877.802	5052
877.93	5025
878.058	5010
878.185	4892
878.313	4984
878.441	4965
878.568	4816
878.696	4839
878.824	4984
878.951	4991
879.079	5067
879.206	5353
879.333	5124
879.461	5033
879.588	5048
879.715	5121
879.842	5246
879.97	4984
880.097	4793
880.224	4820
880.351	4839
880.478	4843
880.605	4873
880.732	4812
880.859	5117
880.986	4927
881.112	4927
881.239	4759
881.366	4698
881.493	4615
881.619	4641
881.746	4653
881.872	4630
881.999	4649
882.125	4656
882.252	4809
882.378	4850
882.505	4976
882.631	4797
882.757	4710
882.883	4759
883.01	4714
883.136	4694
883.262	4626
883.388	4656
883.514	4858
883.64	4919
883.766	4850
883.892	4611
884.018	4767
884.143	4896
884.269	5010
884.395	4733
884.52	4641
884.646	4744
884.772	4596
884.897	4546
885.023	4679
885.148	4782
885.274	4866
885.399	4850
885.524	4725
885.65	4710
885.775	4759
885.9	4748
886.025	4908
886.15	4793
886.275	4748
886.4	4675
886.525	4767
886.65	4733
886.775	4740
886.9	4915
887.025	5086
887.149	4850
887.274	4702
887.399	4554
887.523	4580
887.648	4599
887.773	4592
887.897	4740
888.021	4831
888.146	4710
888.27	4854
888.395	4870
888.519	4793
888.643	4812
888.767	4793
888.891	4691
889.015	4611
889.139	4698
889.263	4618
889.387	4797
889.511	4850
889.635	4839
889.759	4672
889.883	4714
890.006	4691
890.13	4881
890.254	4668
890.377	4687
890.501	4565
890.624	4588
890.748	4660
890.871	4546
890.995	4428
891.118	4451
891.241	4516
891.364	4588
891.488	4679
891.611	4447
891.734	4558
891.857	4611
891.98	4535
892.103	4664
892.226	4599
892.349	4531
892.471	4424
892.594	4546
892.717	4607
892.839	4558
892.962	4565
893.085	4656
893.207	4637
893.33	4470
893.452	4561
893.575	4714
893.697	4577
893.819	4824
893.941	4847
894.064	4767
894.186	4599
894.308	4584
894.43	4752
894.552	4816
894.674	4748
894.796	4535
894.918	4649
895.04	4554
895.161	4736
895.283	4694
895.405	4618
895.526	4637
895.648	4710
895.769	4694
895.891	4733
896.012	4694
896.134	4774
896.255	4656
896.376	4694
896.498	4611
896.619	4706
896.74	4656
896.861	4679
896.982	4942
897.103	5064
897.224	4873
897.345	4733
897.466	4717
897.587	4736
897.708	4839
897.828	4801
897.949	4725
898.07	4554
898.19	4683
898.311	4854
898.431	4664
898.552	4774
898.672	4809
898.792	4831
898.913	4771
899.033	4637
899.153	4512
899.273	4417
899.393	4500
899.513	4546
899.633	4554
899.753	4531
899.873	4519
899.993	4626
900.113	4550
900.232	4584
900.352	4550
900.472	4470
900.591	4375
900.711	4516
900.83	4462
900.95	4615
901.069	4748
901.189	4527
901.308	4360
901.427	4348
901.546	4375
901.665	4538
901.784	4535
901.904	4436
902.023	4299
902.141	4227
902.26	4158
902.379	4276
902.498	4253
902.617	4249
902.735	4360
902.854	4371
902.973	4352
903.091	4192
903.21	4230
903.328	4329
903.446	4276
903.565	4249
903.683	4375
903.801	4318
903.919	4428
904.038	4447
904.156	4306
904.274	4405
904.392	4383
904.51	4405
904.627	4459
904.745	4607
904.863	4660
904.981	4363
905.098	4284
905.216	4363
905.334	4402
905.451	4443
905.569	4417
905.686	4561
905.803	4599
905.921	4466
906.038	4554
906.155	4489
906.272	4432
906.389	4455
906.506	4329
906.623	4333
906.74	4405
906.857	4341
906.974	4348
907.091	4630
907.208	4706
907.324	4558
907.441	4500
907.557	4360
907.674	4402
907.79	4344
907.907	4356
908.023	4470
908.139	4481
908.256	4440
908.372	4470
908.488	4481
908.604	4371
908.72	4303
908.836	4413
908.952	4375
909.068	4413
909.184	4615
909.3	4508
909.415	4535
909.531	4565
909.647	4325
909.762	4394
909.878	4356
909.993	4451
910.108	4443
910.224	4421
910.339	4542
910.454	4447
910.57	4352
910.685	4329
910.8	4664
910.915	4603
911.03	4500
911.145	4310
911.259	4295
911.374	4413
911.489	4314
911.604	4276
911.718	4173
911.833	4211
911.947	4128
912.062	4051
912.176	4249
912.291	4303
912.405	4265
912.519	4451
912.633	4519
912.748	4375
912.862	4333
912.976	4261
913.09	4105
913.204	4185
913.318	4204
913.431	4371
913.545	4341
913.659	4443
913.772	4371
913.886	4276
914	4249
914.113	4413
914.226	4451
914.34	4432
914.453	4223
914.566	4424
914.68	4341
914.793	4333
914.906	4177
915.019	4128
915.132	4105
915.245	4169
915.358	4234
915.47	4242
915.583	4287
915.696	4322
915.809	4402
915.921	4417
916.034	4223
916.146	4230
916.259	4188
916.371	4383
916.483	4394
916.595	4276
916.708	4348
916.82	4303
916.932	4318
917.044	4341
917.156	4329
917.268	4242
917.38	4337
917.491	4246
917.603	4306
917.715	4462
917.826	4428
917.938	4356
918.049	4249
918.161	4379
918.272	4550
918.384	4569
918.495	4481
918.606	4280
918.717	4238
918.828	4344
918.939	4352
919.05	4284
919.161	4386
919.272	4101
919.383	4268
919.494	4436
919.604	4634
919.715	4432
919.826	4367
919.936	4386
920.047	4508
920.157	4485
920.267	4679
920.378	4535
920.488	4554
920.598	4691
920.708	4877
920.818	4733
920.928	4786
921.038	4942
921.148	4927
921.258	4611
921.368	4550
921.477	4497
921.587	4455
921.697	4417
921.806	4599
921.916	4455
922.025	4291
922.134	4284
922.244	4242
922.353	4325
922.462	4177
922.571	4158
922.68	4013
922.789	3991
922.898	3983
923.007	4048
923.116	4086
923.224	4040
923.333	4086
923.442	4017
923.55	3979
923.659	4044
923.767	4131
923.876	4025
923.984	4158
924.092	3960
924.201	4082
924.309	4090
924.417	4116
924.525	4063
924.633	4162
924.741	5067
924.849	3972
924.956	4143
925.064	3956
925.172	3899
925.279	4010
925.387	4097
925.494	4032
925.602	4204
925.709	4196
925.816	4071
925.924	4124
926.031	4234
926.138	4173
926.245	4223
926.352	4101
926.459	4238
926.566	4356
926.673	4158
926.779	4109
926.886	4048
926.993	3983
927.099	3964
927.206	3911
927.312	3937
927.419	4067
927.525	4021
927.631	4116
927.737	3953
927.843	3983
927.95	3842
928.056	3945
928.162	4048
928.267	4025
928.373	4683
928.479	4169
928.585	3842
928.69	4055
928.796	4120
928.901	3972
929.007	3781
929.112	4017
929.218	3926
929.323	3934
929.428	3937
929.533	4105
929.638	3911
929.743	3998
929.848	4029
929.953	3987
930.058	3964
930.163	3774
930.267	3816
930.372	3956
930.477	3812
930.581	4059
930.685	3968
930.79	3808
930.894	3899
930.998	3854
931.103	4071
931.207	3713
931.311	3686
931.415	3675
931.519	3549
931.623	3523
