Data from test_V78500241_2602.txt Node
Date: Fri Mar 25 17:07:05 CST 2022
User: usil
Spectrometer: V785-0024
Trigger mode: 0
Integration Time (sec): 4.000000E-1
Scans to average: 1
Nonlinearity correction enabled: false
Boxcar width: 0
Storing dark spectrum: false
XAxis mode: Wavelengths
Number of Pixels in Spectrum: 1024
>>>>>Begin Spectral Data<<<<<
801.071	8054
801.214	7993
801.356	7898
801.499	7849
801.641	7818
801.783	7871
801.926	7959
802.068	7947
802.211	8005
802.353	8016
802.496	7883
802.638	7879
802.78	7917
802.923	7970
803.065	7906
803.208	7837
803.35	7986
803.492	8062
803.635	8172
803.777	8054
803.919	8096
804.061	8400
804.204	8100
804.346	8073
804.488	7963
804.63	8115
804.773	8039
804.915	8115
805.057	8259
805.199	8100
805.341	8161
805.483	8237
805.626	8317
805.768	8237
805.91	8206
806.052	8237
806.194	8168
806.336	8271
806.478	8100
806.62	8100
806.762	8134
806.904	8248
807.046	8492
807.188	8385
807.33	8301
807.472	8366
807.614	8237
807.756	8271
807.898	8039
808.04	7860
808.182	7875
808.324	7883
808.465	7913
808.607	8084
808.749	8172
808.891	8225
809.033	8320
809.174	8237
809.316	8081
809.458	8024
809.6	8054
809.741	8024
809.883	7970
810.025	8031
810.166	8092
810.308	8001
810.45	8001
810.591	7898
810.733	7811
810.875	7666
811.016	7430
811.158	7468
811.299	7586
811.441	7674
811.582	7700
811.724	7582
811.865	7609
812.007	7616
812.148	7616
812.29	7575
812.431	7746
812.573	7909
812.714	7967
812.855	8157
812.997	8229
813.138	8286
813.279	8130
813.421	8107
813.562	8005
813.703	7928
813.845	7750
813.986	7453
814.127	7213
814.268	7175
814.41	7251
814.551	7175
814.692	7263
814.833	7122
814.974	7107
815.115	7110
815.256	6947
815.397	6958
815.539	6935
815.68	6890
815.821	6711
815.962	6882
816.103	6875
816.244	6749
816.385	6646
816.526	6673
816.666	6540
816.807	6334
816.948	6456
817.089	6464
817.23	6407
817.371	6441
817.512	6422
817.653	6380
817.793	6395
817.934	6426
818.075	6433
818.216	6384
818.356	6388
818.497	6311
818.638	6121
818.778	6186
818.919	6140
819.06	6205
819.2	6334
819.341	6372
819.481	6399
819.622	6563
819.762	6730
819.903	6715
820.043	6566
820.184	6597
820.324	6612
820.465	6738
820.605	6662
820.746	6662
820.886	6551
821.026	6654
821.167	6760
821.307	6806
821.447	6806
821.588	6662
821.728	6658
821.868	6490
822.008	6331
822.149	6391
822.289	6353
822.429	6155
822.569	6091
822.709	6125
822.849	5973
822.99	5897
823.13	5950
823.27	5958
823.41	5745
823.55	5783
823.69	5764
823.83	5764
823.97	5665
824.11	5528
824.25	5490
824.389	5649
824.529	5512
824.669	5493
824.809	5589
824.949	5630
825.089	5634
825.228	5570
825.368	5433
825.508	5303
825.648	5318
825.787	5391
825.927	5406
826.067	5345
826.206	5311
826.346	5364
826.485	5353
826.625	5391
826.765	5596
826.904	5471
827.044	5280
827.183	5197
827.323	5136
827.462	5261
827.601	5220
827.741	5166
827.88	5242
828.02	5155
828.159	5273
828.298	5277
828.437	5376
828.577	5220
828.716	5433
828.855	5326
828.994	5170
829.134	5166
829.273	5212
829.412	5132
829.551	5159
829.69	5208
829.829	5254
829.968	5395
830.107	5265
830.246	5250
830.385	5227
830.524	5124
830.663	5064
830.802	4942
830.941	4927
831.08	4873
831.219	5067
831.357	4968
831.496	5140
831.635	4946
831.774	4892
831.913	4847
832.051	4721
832.19	4782
832.329	4862
832.467	4698
832.606	4660
832.744	4725
832.883	4733
833.022	4744
833.16	4778
833.299	4820
833.437	4866
833.576	4854
833.714	4820
833.852	4889
833.991	4873
834.129	4942
834.267	4904
834.406	4896
834.544	4995
834.682	4938
834.821	4968
834.959	5140
835.097	4968
835.235	5132
835.373	5067
835.511	5132
835.65	5041
835.788	5060
835.926	4862
836.064	4877
836.202	4942
836.34	5193
836.478	5208
836.615	5132
836.753	5250
836.891	5277
837.029	5231
837.167	5239
837.305	5105
837.443	5132
837.58	5083
837.718	5246
837.856	5178
837.993	5151
838.131	5197
838.269	5208
838.406	5181
838.544	5181
838.681	5037
838.819	4991
838.956	4877
839.094	4900
839.231	4980
839.369	5124
839.506	5421
839.643	5284
839.781	5052
839.918	4999
840.055	5083
840.193	5094
840.33	5094
840.467	5117
840.604	5204
840.742	5398
840.879	5109
841.016	5098
841.153	5132
841.29	5387
841.427	5326
841.564	5307
841.701	5402
841.838	5288
841.975	5216
842.112	5261
842.249	5143
842.385	5079
842.522	5353
842.659	5128
842.796	5128
842.933	5185
843.069	5143
843.206	5121
843.343	5307
843.479	5223
843.616	5265
843.752	5018
843.889	4999
844.025	5235
844.162	5064
844.298	5265
844.435	5052
844.571	5090
844.708	5197
844.844	5322
844.98	5292
845.117	5292
845.253	5079
845.389	5075
845.525	5121
845.661	5113
845.798	5014
845.934	5105
846.07	5025
846.206	5170
846.342	5299
846.478	5162
846.614	5018
846.75	4987
846.886	4949
847.022	5174
847.158	5033
847.294	5083
847.429	5086
847.565	5090
847.701	5353
847.837	4896
847.972	4809
848.108	4942
848.244	4965
848.379	4831
848.515	4733
848.65	4793
848.786	4733
848.921	4816
849.057	4835
849.192	4858
849.328	4835
849.463	4835
849.598	4793
849.734	4752
849.869	4717
850.004	4615
850.14	4702
850.275	4607
850.41	4538
850.545	4538
850.68	4634
850.815	4675
850.95	4641
851.085	4805
851.22	4733
851.355	4702
851.49	4622
851.625	4653
851.76	4561
851.895	4554
852.03	4607
852.165	4649
852.299	4714
852.434	4839
852.569	4790
852.703	4748
852.838	4866
852.973	4938
853.107	4919
853.242	4733
853.376	4683
853.511	4577
853.645	4615
853.78	4782
853.914	4694
854.048	4687
854.183	4694
854.317	4706
854.451	4763
854.585	4664
854.72	4668
854.854	4782
854.988	4558
855.122	4668
855.256	4516
855.39	4664
855.524	4778
855.658	4725
855.792	4706
855.926	4698
856.06	4805
856.194	4740
856.327	4672
856.461	4603
856.595	4637
856.729	4611
856.862	4786
856.996	4679
857.13	4660
857.263	4717
857.397	4801
857.53	4656
857.664	4736
857.797	4748
857.931	4744
858.064	4694
858.197	4729
858.331	4691
858.464	4607
858.597	4493
858.731	4687
858.864	4626
858.997	4580
859.13	4691
859.263	4679
859.396	4694
859.529	4649
859.662	4546
859.795	4550
859.928	4615
860.061	4755
860.194	4774
860.327	4561
860.46	4558
860.592	4717
860.725	4714
860.858	4744
860.99	4596
861.123	4516
861.256	4519
861.388	4618
861.521	5372
861.653	4459
861.786	4470
861.918	4470
862.05	4535
862.183	4519
862.315	4622
862.447	4660
862.58	4558
862.712	4428
862.844	4325
862.976	4455
863.108	4500
863.24	4797
863.372	4325
863.504	4390
863.636	4390
863.768	4462
863.9	4466
864.032	4352
864.164	4383
864.296	4512
864.428	4500
864.559	4573
864.691	4592
864.823	4497
864.954	4497
865.086	4561
865.217	4481
865.349	4371
865.48	4459
865.612	4497
865.743	4637
865.875	4459
866.006	4470
866.137	4466
866.269	4443
866.4	4436
866.531	4428
866.662	4421
866.793	4394
866.924	4443
867.055	4508
867.186	4440
867.317	4402
867.448	4405
867.579	4417
867.71	4447
867.841	4394
867.972	4455
868.103	4466
868.233	4478
868.364	4436
868.495	4497
868.625	4668
868.756	4767
868.886	4577
869.017	4637
869.147	4778
869.278	4759
869.408	4596
869.539	4599
869.669	4736
869.799	4668
869.929	4752
870.06	4694
870.19	4953
870.32	4961
870.45	4976
870.58	4987
870.71	5109
870.84	5098
870.97	4949
871.1	4934
871.23	5143
871.36	5121
871.489	5025
871.619	5094
871.749	5071
871.879	5128
872.008	5193
872.138	5079
872.267	4949
872.397	4816
872.526	4835
872.656	4717
872.785	4786
872.915	5022
873.044	5033
873.173	4942
873.303	4968
873.432	4946
873.561	4949
873.69	4873
873.819	4889
873.948	4961
874.077	4809
874.206	4767
874.335	4790
874.464	4862
874.593	5090
874.722	4972
874.851	5132
874.979	5060
875.108	5052
875.237	4927
875.365	4881
875.494	4870
875.623	4949
875.751	4858
875.88	4877
876.008	4938
876.136	5037
876.265	5185
876.393	5345
876.521	5299
876.65	5242
876.778	5204
876.906	5052
877.034	5029
877.162	5041
877.29	4995
877.418	5071
877.546	5102
877.674	5048
877.802	5056
877.93	5014
878.058	4949
878.185	4873
878.313	4885
878.441	4946
878.568	4828
878.696	4900
878.824	4957
878.951	4942
879.079	5143
879.206	5246
879.333	5090
879.461	5018
879.588	4995
879.715	5124
879.842	5246
879.97	4949
880.097	4809
880.224	4725
880.351	4771
880.478	4839
880.605	4854
880.732	4744
880.859	5121
880.986	4877
881.112	4877
881.239	4774
881.366	4710
881.493	4588
881.619	4554
881.746	4649
881.872	4679
881.999	4653
882.125	4698
882.252	4816
882.378	4831
882.505	4942
882.631	4778
882.757	4656
882.883	4679
883.01	4771
883.136	4660
883.262	4626
883.388	4622
883.514	4835
883.64	4809
883.766	4782
883.892	4656
884.018	4736
884.143	4862
884.269	4980
884.395	4664
884.52	4630
884.646	4637
884.772	4592
884.897	4622
885.023	4698
885.148	4824
885.274	4881
885.399	4759
885.524	4733
885.65	4687
885.775	4714
885.9	4710
886.025	4824
886.15	4782
886.275	4740
886.4	4645
886.525	4748
886.65	4649
886.775	4675
886.9	4946
887.025	5041
887.149	4843
887.274	4691
887.399	4588
887.523	4615
887.648	4573
887.773	4592
887.897	4744
888.021	4729
888.146	4641
888.27	4828
888.395	4896
888.519	4801
888.643	4824
888.767	4778
888.891	4679
889.015	4622
889.139	4634
889.263	4599
889.387	4725
889.511	4900
889.635	4812
889.759	4626
889.883	4660
890.006	4706
890.13	4862
890.254	4634
890.377	4721
890.501	4542
890.624	4523
890.748	4626
890.871	4512
890.995	4405
891.118	4375
891.241	4519
891.364	4550
891.488	4599
891.611	4527
891.734	4546
891.857	4615
891.98	4508
892.103	4649
892.226	4584
892.349	4523
892.471	4383
892.594	4565
892.717	4607
892.839	4550
892.962	4550
893.085	4675
893.207	4603
893.33	4470
893.452	4565
893.575	4622
893.697	4584
893.819	4831
893.941	4858
894.064	4767
894.186	4561
894.308	4554
894.43	4748
894.552	4847
894.674	4782
894.796	4592
894.918	4573
895.04	4580
895.161	4714
895.283	4691
895.405	4607
895.526	4599
895.648	4694
895.769	4717
895.891	4706
896.012	4755
896.134	4683
896.255	4668
896.376	4611
896.498	4592
896.619	4702
896.74	4577
896.861	4683
896.982	4896
897.103	5143
897.224	4828
897.345	4733
897.466	4683
897.587	4763
897.708	4843
897.828	4801
897.949	4698
898.07	4523
898.19	4641
898.311	4797
898.431	4683
898.552	4744
898.672	4786
898.792	4744
898.913	4744
899.033	4630
899.153	4512
899.273	4436
899.393	4531
899.513	4493
899.633	4577
899.753	4516
899.873	4542
899.993	4523
900.113	4535
900.232	4626
900.352	4527
900.472	4516
900.591	4413
900.711	4504
900.83	4470
900.95	4596
901.069	4717
901.189	4504
901.308	4375
901.427	4306
901.546	4413
901.665	4432
901.784	4500
901.904	4413
902.023	4295
902.141	4207
902.26	4177
902.379	4272
902.498	4299
902.617	4215
902.735	4356
902.854	4405
902.973	4367
903.091	4192
903.21	4253
903.328	4265
903.446	4261
903.565	4272
903.683	4360
903.801	4272
903.919	4371
904.038	4413
904.156	4371
904.274	4432
904.392	4417
904.51	4440
904.627	4470
904.745	4565
904.863	4634
904.981	4451
905.098	4291
905.216	4344
905.334	4417
905.451	4409
905.569	4344
905.686	4542
905.803	4592
905.921	4379
906.038	4561
906.155	4462
906.272	4413
906.389	4462
906.506	4356
906.623	4402
906.74	4417
906.857	4303
906.974	4409
907.091	4584
907.208	4637
907.324	4573
907.441	4489
907.557	4352
907.674	4291
907.79	4352
907.907	4352
908.023	4485
908.139	4451
908.256	4413
908.372	4481
908.488	4459
908.604	4379
908.72	4325
908.836	4402
908.952	4398
909.068	4443
909.184	4569
909.3	4440
909.415	4550
909.531	4542
909.647	4375
909.762	4356
909.878	4344
909.993	4443
910.108	4398
910.224	4402
910.339	4493
910.454	4421
910.57	4360
910.685	4318
910.8	4641
910.915	4554
911.03	4470
911.145	4318
911.259	4337
911.374	4379
911.489	4314
911.604	4238
911.718	4185
911.833	4188
911.947	4082
912.062	4040
912.176	4162
912.291	4200
912.405	4192
912.519	4470
912.633	4535
912.748	4348
912.862	4265
912.976	4215
913.09	4074
913.204	4177
913.318	4223
913.431	4379
913.545	4295
913.659	4440
913.772	4344
913.886	4249
914	4192
914.113	4383
914.226	4417
914.34	4417
914.453	4219
914.566	4402
914.68	4295
914.793	4276
914.906	4196
915.019	4097
915.132	4067
915.245	4131
915.358	4223
915.47	4219
915.583	4242
915.696	4310
915.809	4394
915.921	4413
916.034	4242
916.146	4272
916.259	4242
916.371	4443
916.483	4356
916.595	4261
916.708	4352
916.82	4295
916.932	4306
917.044	4257
917.156	4310
917.268	4253
917.38	4249
917.491	4314
917.603	4295
917.715	4398
917.826	4443
917.938	4356
918.049	4207
918.161	4402
918.272	4527
918.384	4500
918.495	4443
918.606	4344
918.717	4253
918.828	4310
918.939	4390
919.05	4242
919.161	4363
919.272	4116
919.383	4268
919.494	4436
919.604	4660
919.715	4424
919.826	4314
919.936	4440
920.047	4523
920.157	4474
920.267	4687
920.378	4519
920.488	4485
920.598	4698
920.708	4923
920.818	4755
920.928	4774
921.038	4957
921.148	4934
921.258	4615
921.368	4618
921.477	4500
921.587	4500
921.697	4333
921.806	4584
921.916	4424
922.025	4265
922.134	4230
922.244	4211
922.353	4329
922.462	4177
922.571	4147
922.68	4021
922.789	4002
922.898	4051
923.007	3998
923.116	4124
923.224	4071
923.333	4086
923.442	4010
923.55	3953
923.659	4036
923.767	4093
923.876	3964
923.984	4105
924.092	3983
924.201	4048
924.309	4128
924.417	4086
924.525	4029
924.633	4090
924.741	5045
924.849	3922
924.956	4135
925.064	3975
925.172	3899
925.279	3975
925.387	4025
925.494	4002
925.602	4188
925.709	4166
925.816	4071
925.924	4120
926.031	4249
926.138	4200
926.245	4223
926.352	4067
926.459	4219
926.566	4306
926.673	4169
926.779	4078
926.886	4036
926.993	3968
927.099	3972
927.206	3960
927.312	3983
927.419	4021
927.525	4044
927.631	4074
927.737	3994
927.843	3937
927.95	3842
928.056	3949
928.162	3956
928.267	4063
928.373	4596
928.479	4131
928.585	3865
928.69	4040
928.796	4093
928.901	3934
929.007	3797
929.112	4025
929.218	3956
929.323	3941
929.428	3949
929.533	4128
929.638	3922
929.743	3930
929.848	4086
929.953	3968
930.058	3918
930.163	3751
930.267	3823
930.372	3949
930.477	3819
930.581	4063
930.685	3994
930.79	3831
930.894	3888
930.998	3854
931.103	4002
931.207	3736
931.311	3641
931.415	3698
931.519	3511
931.623	3584
