Data from test_V78500241_2834.txt Node
Date: Fri Mar 25 17:08:42 CST 2022
User: usil
Spectrometer: V785-0024
Trigger mode: 0
Integration Time (sec): 4.000000E-1
Scans to average: 1
Nonlinearity correction enabled: false
Boxcar width: 0
Storing dark spectrum: false
XAxis mode: Wavelengths
Number of Pixels in Spectrum: 1024
>>>>>Begin Spectral Data<<<<<
801.071	8001
801.214	8012
801.356	7837
801.499	7909
801.641	7795
801.783	7822
801.926	8012
802.068	7947
802.211	8005
802.353	8024
802.496	7909
802.638	7868
802.78	7932
802.923	7947
803.065	7868
803.208	7921
803.35	7963
803.492	8088
803.635	8180
803.777	8035
803.919	8164
804.061	8484
804.204	8168
804.346	8039
804.488	7955
804.63	8111
804.773	7993
804.915	8100
805.057	8298
805.199	8202
805.341	8218
805.483	8286
805.626	8183
805.768	8123
805.91	8244
806.052	8252
806.194	8176
806.336	8320
806.478	8107
806.62	8027
806.762	8062
806.904	8214
807.046	8408
807.188	8389
807.33	8339
807.472	8301
807.614	8206
807.756	8134
807.898	8088
808.04	7913
808.182	7940
808.324	7868
808.465	7890
808.607	8035
808.749	8176
808.891	8187
809.033	8328
809.174	8256
809.316	8103
809.458	7997
809.6	7974
809.741	8046
809.883	8088
810.025	8107
810.166	8077
810.308	8005
810.45	8016
810.591	7879
810.733	7780
810.875	7727
811.016	7605
811.158	7537
811.299	7578
811.441	7807
811.582	7700
811.724	7647
811.865	7556
812.007	7632
812.148	7594
812.29	7662
812.431	7803
812.573	7868
812.714	8020
812.855	8164
812.997	8256
813.138	8343
813.279	8161
813.421	8142
813.562	8081
813.703	7887
813.845	7811
813.986	7422
814.127	7278
814.268	7236
814.41	7137
814.551	7179
814.692	7213
814.833	7145
814.974	7076
815.115	7069
815.256	6951
815.397	6905
815.539	6939
815.68	6837
815.821	6798
815.962	6924
816.103	6829
816.244	6696
816.385	6620
816.526	6650
816.666	6506
816.807	6319
816.948	6483
817.089	6483
817.23	6467
817.371	6376
817.512	6327
817.653	6361
817.793	6334
817.934	6441
818.075	6448
818.216	6490
818.356	6414
818.497	6254
818.638	6117
818.778	6216
818.919	6133
819.06	6159
819.2	6304
819.341	6353
819.481	6403
819.622	6536
819.762	6760
819.903	6669
820.043	6623
820.184	6597
820.324	6604
820.465	6745
820.605	6700
820.746	6642
820.886	6563
821.026	6650
821.167	6726
821.307	6886
821.447	6711
821.588	6707
821.728	6616
821.868	6475
822.008	6346
822.149	6403
822.289	6338
822.429	6194
822.569	6106
822.709	6125
822.849	5965
822.99	5916
823.13	5939
823.27	5908
823.41	5798
823.55	5794
823.69	5745
823.83	5783
823.97	5676
824.11	5467
824.25	5501
824.389	5516
824.529	5604
824.669	5547
824.809	5642
824.949	5684
825.089	5608
825.228	5585
825.368	5463
825.508	5318
825.648	5337
825.787	5398
825.927	5379
826.067	5349
826.206	5288
826.346	5379
826.485	5417
826.625	5429
826.765	5539
826.904	5463
827.044	5265
827.183	5181
827.323	5181
827.462	5223
827.601	5162
827.741	5140
827.88	5242
828.02	5094
828.159	5273
828.298	5334
828.437	5337
828.577	5265
828.716	5490
828.855	5303
828.994	5227
829.134	5159
829.273	5132
829.412	5121
829.551	5117
829.69	5162
829.829	5216
829.968	5337
830.107	5246
830.246	5246
830.385	5185
830.524	5143
830.663	5071
830.802	4965
830.941	4889
831.08	4892
831.219	4976
831.357	4991
831.496	5121
831.635	4908
831.774	4854
831.913	4866
832.051	4736
832.19	4767
832.329	4843
832.467	4702
832.606	4626
832.744	4729
832.883	4717
833.022	4706
833.16	4771
833.299	4831
833.437	4820
833.576	4839
833.714	4835
833.852	4843
833.991	4934
834.129	4930
834.267	4968
834.406	4915
834.544	4930
834.682	5006
834.821	4949
834.959	5212
835.097	4976
835.235	5193
835.373	5056
835.511	5071
835.65	5033
835.788	4999
835.926	4866
836.064	4847
836.202	4923
836.34	5155
836.478	5231
836.615	5124
836.753	5201
836.891	5231
837.029	5208
837.167	5193
837.305	5143
837.443	5166
837.58	5048
837.718	5265
837.856	5193
837.993	5102
838.131	5166
838.269	5220
838.406	5193
838.544	5174
838.681	5060
838.819	4957
838.956	4904
839.094	4881
839.231	4965
839.369	5090
839.506	5376
839.643	5284
839.781	5064
839.918	4984
840.055	5094
840.193	5056
840.33	5140
840.467	5151
840.604	5162
840.742	5410
840.879	5041
841.016	5083
841.153	5147
841.29	5326
841.427	5322
841.564	5345
841.701	5322
841.838	5231
841.975	5223
842.112	5284
842.249	5113
842.385	5121
842.522	5284
842.659	5124
842.796	5086
842.933	5181
843.069	5151
843.206	5166
843.343	5288
843.479	5231
843.616	5204
843.752	5048
843.889	5025
844.025	5220
844.162	4995
844.298	5216
844.435	5056
844.571	5067
844.708	5223
844.844	5311
844.98	5303
845.117	5239
845.253	5124
845.389	5071
845.525	5113
845.661	5090
845.798	5014
845.934	5083
846.07	5056
846.206	5174
846.342	5254
846.478	5166
846.614	4968
846.75	4991
846.886	4942
847.022	5094
847.158	5052
847.294	5098
847.429	5162
847.565	5071
847.701	5277
847.837	4816
847.972	4782
848.108	4953
848.244	4938
848.379	4752
848.515	4729
848.65	4679
848.786	4744
848.921	4733
849.057	4870
849.192	4896
849.328	4805
849.463	4850
849.598	4805
849.734	4752
849.869	4683
850.004	4618
850.14	4618
850.275	4622
850.41	4512
850.545	4550
850.68	4596
850.815	4622
850.95	4611
851.085	4831
851.22	4778
851.355	4675
851.49	4634
851.625	4630
851.76	4656
851.895	4615
852.03	4561
852.165	4664
852.299	4656
852.434	4839
852.569	4767
852.703	4782
852.838	4809
852.973	4892
853.107	4961
853.242	4729
853.376	4668
853.511	4516
853.645	4580
853.78	4771
853.914	4687
854.048	4630
854.183	4634
854.317	4721
854.451	4870
854.585	4607
854.72	4622
854.854	4729
854.988	4596
855.122	4588
855.256	4474
855.39	4664
855.524	4786
855.658	4771
855.792	4637
855.926	4759
856.06	4782
856.194	4816
856.327	4698
856.461	4596
856.595	4607
856.729	4588
856.862	4778
856.996	4683
857.13	4793
857.263	4736
857.397	4824
857.53	4630
857.664	4706
857.797	4752
857.931	4763
858.064	4668
858.197	4733
858.331	4618
858.464	4656
858.597	4523
858.731	4596
858.864	4637
858.997	4577
859.13	4683
859.263	4694
859.396	4698
859.529	4622
859.662	4573
859.795	4523
859.928	4645
860.061	4771
860.194	4786
860.327	4630
860.46	4538
860.592	4694
860.725	4740
860.858	4721
860.99	4603
861.123	4538
861.256	4538
861.388	4577
861.521	5284
861.653	4478
861.786	4447
861.918	4413
862.05	4577
862.183	4565
862.315	4573
862.447	4634
862.58	4538
862.712	4394
862.844	4322
862.976	4478
863.108	4455
863.24	4793
863.372	4344
863.504	4394
863.636	4440
863.768	4512
863.9	4436
864.032	4398
864.164	4390
864.296	4485
864.428	4569
864.559	4565
864.691	4550
864.823	4538
864.954	4470
865.086	4527
865.217	4500
865.349	4443
865.48	4493
865.612	4538
865.743	4660
865.875	4432
866.006	4424
866.137	4485
866.269	4462
866.4	4478
866.531	4409
866.662	4405
866.793	4402
866.924	4386
867.055	4500
867.186	4455
867.317	4413
867.448	4352
867.579	4352
867.71	4344
867.841	4337
867.972	4497
868.103	4470
868.233	4497
868.364	4436
868.495	4535
868.625	4649
868.756	4729
868.886	4512
869.017	4607
869.147	4835
869.278	4786
869.408	4653
869.539	4641
869.669	4683
869.799	4706
869.929	4763
870.06	4763
870.19	5014
870.32	4953
870.45	4923
870.58	5067
870.71	5136
870.84	5147
870.97	4984
871.1	4889
871.23	5143
871.36	5140
871.489	5014
871.619	5105
871.749	5079
871.879	5105
872.008	5117
872.138	5064
872.267	4957
872.397	4854
872.526	4812
872.656	4744
872.785	4809
872.915	4972
873.044	5037
873.173	4919
873.303	4915
873.432	4938
873.561	4984
873.69	4885
873.819	4820
873.948	4908
874.077	4805
874.206	4790
874.335	4767
874.464	4946
874.593	5022
874.722	4946
874.851	5090
874.979	5079
875.108	5029
875.237	4908
875.365	4854
875.494	4866
875.623	5018
875.751	4797
875.88	4854
876.008	4927
876.136	5025
876.265	5239
876.393	5376
876.521	5212
876.65	5220
876.778	5159
876.906	5109
877.034	5064
877.162	5048
877.29	4980
877.418	5041
877.546	5067
877.674	5045
877.802	5025
877.93	5037
878.058	4965
878.185	4915
878.313	4949
878.441	4953
878.568	4835
878.696	4896
878.824	5006
878.951	5029
879.079	5132
879.206	5299
879.333	5090
879.461	4946
879.588	4987
879.715	5109
879.842	5197
879.97	5029
880.097	4843
880.224	4763
880.351	4793
880.478	4820
880.605	4809
880.732	4767
880.859	5052
880.986	4870
881.112	4908
881.239	4748
881.366	4694
881.493	4588
881.619	4596
881.746	4634
881.872	4656
881.999	4675
882.125	4649
882.252	4797
882.378	4793
882.505	4957
882.631	4809
882.757	4675
882.883	4748
883.01	4714
883.136	4649
883.262	4630
883.388	4687
883.514	4809
883.64	4847
883.766	4824
883.892	4683
884.018	4710
884.143	4900
884.269	5022
884.395	4637
884.52	4634
884.646	4611
884.772	4573
884.897	4512
885.023	4653
885.148	4809
885.274	4828
885.399	4801
885.524	4710
885.65	4702
885.775	4721
885.9	4748
886.025	4892
886.15	4767
886.275	4759
886.4	4637
886.525	4714
886.65	4694
886.775	4683
886.9	4873
887.025	5052
887.149	4782
887.274	4634
887.399	4599
887.523	4618
887.648	4618
887.773	4573
887.897	4767
888.021	4790
888.146	4729
888.27	4759
888.395	4908
888.519	4820
888.643	4767
888.767	4835
888.891	4710
889.015	4588
889.139	4668
889.263	4645
889.387	4759
889.511	4900
889.635	4812
889.759	4672
889.883	4656
890.006	4725
890.13	4847
890.254	4645
890.377	4702
890.501	4519
890.624	4561
890.748	4687
890.871	4558
890.995	4424
891.118	4363
891.241	4497
891.364	4584
891.488	4637
891.611	4497
891.734	4535
891.857	4630
891.98	4558
892.103	4675
892.226	4573
892.349	4535
892.471	4436
892.594	4542
892.717	4550
892.839	4577
892.962	4592
893.085	4702
893.207	4561
893.33	4451
893.452	4519
893.575	4702
893.697	4599
893.819	4793
893.941	4820
894.064	4733
894.186	4588
894.308	4561
894.43	4694
894.552	4824
894.674	4771
894.796	4558
894.918	4626
895.04	4561
895.161	4717
895.283	4691
895.405	4550
895.526	4607
895.648	4656
895.769	4668
895.891	4694
896.012	4763
896.134	4759
896.255	4664
896.376	4615
896.498	4637
896.619	4649
896.74	4668
896.861	4611
896.982	4889
897.103	5109
897.224	4854
897.345	4683
897.466	4694
897.587	4755
897.708	4858
897.828	4809
897.949	4626
898.07	4542
898.19	4649
898.311	4816
898.431	4618
898.552	4767
898.672	4820
898.792	4767
898.913	4736
899.033	4645
899.153	4550
899.273	4470
899.393	4493
899.513	4497
899.633	4493
899.753	4535
899.873	4542
899.993	4573
900.113	4546
900.232	4573
900.352	4504
900.472	4489
900.591	4424
900.711	4451
900.83	4440
900.95	4641
901.069	4687
901.189	4504
901.308	4363
901.427	4303
901.546	4379
901.665	4470
901.784	4546
901.904	4413
902.023	4276
902.141	4181
902.26	4166
902.379	4352
902.498	4238
902.617	4246
902.735	4379
902.854	4341
902.973	4375
903.091	4196
903.21	4219
903.328	4322
903.446	4272
903.565	4280
903.683	4325
903.801	4284
903.919	4375
904.038	4462
904.156	4299
904.274	4394
904.392	4405
904.51	4417
904.627	4470
904.745	4558
904.863	4569
904.981	4424
905.098	4299
905.216	4344
905.334	4413
905.451	4371
905.569	4436
905.686	4554
905.803	4565
905.921	4466
906.038	4580
906.155	4455
906.272	4455
906.389	4512
906.506	4333
906.623	4394
906.74	4356
906.857	4356
906.974	4348
907.091	4554
907.208	4714
907.324	4558
907.441	4512
907.557	4356
907.674	4363
907.79	4280
907.907	4402
908.023	4440
908.139	4474
908.256	4447
908.372	4504
908.488	4459
908.604	4356
908.72	4337
908.836	4325
908.952	4322
909.068	4432
909.184	4577
909.3	4500
909.415	4573
909.531	4512
909.647	4348
909.762	4394
909.878	4291
909.993	4421
910.108	4462
910.224	4402
910.339	4462
910.454	4409
910.57	4352
910.685	4329
910.8	4588
910.915	4542
911.03	4508
911.145	4306
911.259	4303
911.374	4356
911.489	4299
911.604	4276
911.718	4204
911.833	4177
911.947	4040
912.062	4017
912.176	4177
912.291	4238
912.405	4291
912.519	4451
912.633	4527
912.748	4386
912.862	4310
912.976	4162
913.09	4150
913.204	4143
913.318	4253
913.431	4371
913.545	4360
913.659	4383
913.772	4367
913.886	4246
914	4242
914.113	4421
914.226	4470
914.34	4402
914.453	4238
914.566	4474
914.68	4318
914.793	4337
914.906	4162
915.019	4112
915.132	4082
915.245	4223
915.358	4181
915.47	4219
915.583	4268
915.696	4276
915.809	4428
915.921	4455
916.034	4261
916.146	4265
916.259	4196
916.371	4341
916.483	4413
916.595	4257
916.708	4348
916.82	4322
916.932	4310
917.044	4287
917.156	4360
917.268	4249
917.38	4287
917.491	4276
917.603	4367
917.715	4413
917.826	4424
917.938	4329
918.049	4234
918.161	4394
918.272	4531
918.384	4516
918.495	4504
918.606	4310
918.717	4246
918.828	4325
918.939	4375
919.05	4223
919.161	4314
919.272	4131
919.383	4276
919.494	4493
919.604	4660
919.715	4493
919.826	4371
919.936	4398
920.047	4542
920.157	4527
920.267	4710
920.378	4516
920.488	4478
920.598	4721
920.708	4915
920.818	4767
920.928	4767
921.038	4972
921.148	4961
921.258	4653
921.368	4546
921.477	4512
921.587	4508
921.697	4329
921.806	4519
921.916	4447
922.025	4238
922.134	4246
922.244	4253
922.353	4314
922.462	4135
922.571	4059
922.68	3972
922.789	4010
922.898	4044
923.007	4025
923.116	4090
923.224	4055
923.333	4055
923.442	4048
923.55	3991
923.659	4029
923.767	4090
923.876	4036
923.984	4112
924.092	4002
924.201	4097
924.309	4021
924.417	4101
924.525	4048
924.633	4112
924.741	4877
924.849	3873
924.956	4135
925.064	3964
925.172	3861
925.279	3983
925.387	4032
925.494	4071
925.602	4238
925.709	4219
925.816	4006
925.924	4109
926.031	4261
926.138	4139
926.245	4227
926.352	4090
926.459	4261
926.566	4268
926.673	4173
926.779	4055
926.886	4063
926.993	3949
927.099	3975
927.206	3945
927.312	3956
927.419	4067
927.525	4025
927.631	4112
927.737	3987
927.843	3941
927.95	3854
928.056	3953
928.162	3991
928.267	4082
928.373	4599
928.479	4116
928.585	3850
928.69	4002
928.796	4078
928.901	3975
929.007	3770
929.112	3991
929.218	3979
929.323	3956
929.428	3972
929.533	4090
929.638	3937
929.743	3991
929.848	4025
929.953	3987
930.058	3968
930.163	3774
930.267	3831
930.372	3979
930.477	3785
930.581	4109
930.685	3941
930.79	3823
930.894	3873
930.998	3865
931.103	4040
931.207	3675
931.311	3720
931.415	3660
931.519	3534
931.623	3564
