Data from test_V78500241_531.txt Node
Date: Fri Mar 25 16:52:41 CST 2022
User: usil
Spectrometer: V785-0024
Trigger mode: 0
Integration Time (sec): 4.000000E-1
Scans to average: 1
Nonlinearity correction enabled: false
Boxcar width: 0
Storing dark spectrum: false
XAxis mode: Wavelengths
Number of Pixels in Spectrum: 1024
>>>>>Begin Spectral Data<<<<<
801.071	8020
801.214	7940
801.356	7818
801.499	7765
801.641	7784
801.783	7830
801.926	7993
802.068	7997
802.211	8001
802.353	7959
802.496	7887
802.638	7868
802.78	7902
802.923	7917
803.065	7906
803.208	7818
803.35	7826
803.492	8027
803.635	8092
803.777	8031
803.919	8088
804.061	8351
804.204	8126
804.346	7959
804.488	7909
804.63	8050
804.773	7894
804.915	8096
805.057	8221
805.199	8180
805.341	8142
805.483	8221
805.626	8153
805.768	7986
805.91	8157
806.052	8191
806.194	8001
806.336	8305
806.478	8073
806.62	8024
806.762	8153
806.904	8214
807.046	8385
807.188	8195
807.33	8229
807.472	8233
807.614	8119
807.756	8130
807.898	7959
808.04	7875
808.182	7940
808.324	7890
808.465	7807
808.607	8035
808.749	8119
808.891	8164
809.033	8237
809.174	8134
809.316	7970
809.458	8065
809.6	7959
809.741	7936
809.883	8016
810.025	8065
810.166	8012
810.308	8027
810.45	7955
810.591	7879
810.733	7776
810.875	7605
811.016	7601
811.158	7426
811.299	7620
811.441	7753
811.582	7655
811.724	7563
811.865	7518
812.007	7590
812.148	7624
812.29	7674
812.431	7772
812.573	7894
812.714	8001
812.855	8157
812.997	8275
813.138	8343
813.279	8248
813.421	8191
813.562	8035
813.703	7963
813.845	7826
813.986	7620
814.127	7373
814.268	7305
814.41	7285
814.551	7209
814.692	7217
814.833	7088
814.974	7156
815.115	7061
815.256	7038
815.397	6894
815.539	6928
815.68	6844
815.821	6848
815.962	6947
816.103	6779
816.244	6730
816.385	6665
816.526	6703
816.666	6578
816.807	6308
816.948	6426
817.089	6544
817.23	6483
817.371	6403
817.512	6410
817.653	6464
817.793	6365
817.934	6467
818.075	6506
818.216	6422
818.356	6441
818.497	6216
818.638	6114
818.778	6190
818.919	6167
819.06	6163
819.2	6369
819.341	6369
819.481	6369
819.622	6528
819.762	6703
819.903	6734
820.043	6616
820.184	6547
820.324	6555
820.465	6703
820.605	6639
820.746	6601
820.886	6536
821.026	6658
821.167	6650
821.307	6871
821.447	6722
821.588	6681
821.728	6585
821.868	6448
822.008	6350
822.149	6334
822.289	6372
822.429	6186
822.569	6087
822.709	6155
822.849	5920
822.99	5935
823.13	5965
823.27	5965
823.41	5813
823.55	5828
823.69	5779
823.83	5737
823.97	5684
824.11	5532
824.25	5528
824.389	5608
824.529	5608
824.669	5539
824.809	5627
824.949	5668
825.089	5615
825.228	5619
825.368	5425
825.508	5406
825.648	5341
825.787	5360
825.927	5402
826.067	5353
826.206	5322
826.346	5425
826.485	5433
826.625	5433
826.765	5539
826.904	5520
827.044	5299
827.183	5235
827.323	5086
827.462	5239
827.601	5178
827.741	5220
827.88	5216
828.02	5136
828.159	5261
828.298	5284
828.437	5341
828.577	5250
828.716	5524
828.855	5322
828.994	5231
829.134	5204
829.273	5151
829.412	5140
829.551	5197
829.69	5235
829.829	5250
829.968	5391
830.107	5265
830.246	5318
830.385	5174
830.524	5159
830.663	5071
830.802	4984
830.941	4927
831.08	4915
831.219	5025
831.357	5014
831.496	5151
831.635	4972
831.774	4858
831.913	4885
832.051	4793
832.19	4763
832.329	4820
832.467	4748
832.606	4656
832.744	4759
832.883	4755
833.022	4729
833.16	4797
833.299	4828
833.437	4774
833.576	4881
833.714	4835
833.852	4870
833.991	4908
834.129	4980
834.267	4976
834.406	4976
834.544	4976
834.682	4972
834.821	5037
834.959	5151
835.097	5018
835.235	5216
835.373	5079
835.511	5128
835.65	5041
835.788	5041
835.926	4957
836.064	4900
836.202	4980
836.34	5212
836.478	5235
836.615	5124
836.753	5220
836.891	5288
837.029	5216
837.167	5178
837.305	5204
837.443	5174
837.58	5151
837.718	5330
837.856	5201
837.993	5113
838.131	5261
838.269	5204
838.406	5178
838.544	5181
838.681	5071
838.819	5067
838.956	4946
839.094	4961
839.231	5060
839.369	5083
839.506	5429
839.643	5288
839.781	5094
839.918	5060
840.055	5143
840.193	5155
840.33	5109
840.467	5204
840.604	5223
840.742	5402
840.879	5071
841.016	5113
841.153	5185
841.29	5425
841.427	5391
841.564	5307
841.701	5425
841.838	5280
841.975	5258
842.112	5296
842.249	5143
842.385	5083
842.522	5345
842.659	5223
842.796	5178
842.933	5201
843.069	5151
843.206	5265
843.343	5349
843.479	5258
843.616	5280
843.752	5113
843.889	5056
844.025	5242
844.162	5067
844.298	5265
844.435	5121
844.571	5083
844.708	5231
844.844	5296
844.98	5311
845.117	5299
845.253	5147
845.389	5098
845.525	5147
845.661	5159
845.798	5064
845.934	5136
846.07	5075
846.206	5208
846.342	5379
846.478	5235
846.614	5064
846.75	5014
846.886	4980
847.022	5155
847.158	5033
847.294	5098
847.429	5155
847.565	5086
847.701	5345
847.837	4877
847.972	4858
848.108	5006
848.244	4953
848.379	4809
848.515	4736
848.65	4759
848.786	4740
848.921	4820
849.057	4862
849.192	4885
849.328	4870
849.463	4915
849.598	4774
849.734	4763
849.869	4714
850.004	4645
850.14	4664
850.275	4641
850.41	4542
850.545	4535
850.68	4626
850.815	4649
850.95	4653
851.085	4790
851.22	4729
851.355	4706
851.49	4622
851.625	4675
851.76	4645
851.895	4573
852.03	4512
852.165	4615
852.299	4740
852.434	4812
852.569	4763
852.703	4797
852.838	4885
852.973	4919
853.107	4892
853.242	4774
853.376	4668
853.511	4596
853.645	4645
853.78	4854
853.914	4687
854.048	4714
854.183	4660
854.317	4694
854.451	4896
854.585	4679
854.72	4599
854.854	4801
854.988	4637
855.122	4622
855.256	4535
855.39	4683
855.524	4793
855.658	4767
855.792	4759
855.926	4694
856.06	4763
856.194	4831
856.327	4721
856.461	4672
856.595	4615
856.729	4683
856.862	4812
856.996	4744
857.13	4759
857.263	4714
857.397	4816
857.53	4672
857.664	4778
857.797	4801
857.931	4767
858.064	4672
858.197	4767
858.331	4660
858.464	4626
858.597	4535
858.731	4634
858.864	4683
858.997	4615
859.13	4683
859.263	4710
859.396	4759
859.529	4592
859.662	4565
859.795	4573
859.928	4691
860.061	4774
860.194	4782
860.327	4637
860.46	4630
860.592	4721
860.725	4763
860.858	4771
860.99	4596
861.123	4531
861.256	4523
861.388	4596
861.521	5455
861.653	4512
861.786	4462
861.918	4462
862.05	4550
862.183	4599
862.315	4660
862.447	4679
862.58	4592
862.712	4443
862.844	4390
862.976	4478
863.108	4474
863.24	4862
863.372	4344
863.504	4421
863.636	4424
863.768	4500
863.9	4443
864.032	4352
864.164	4409
864.296	4474
864.428	4584
864.559	4554
864.691	4538
864.823	4538
864.954	4500
865.086	4550
865.217	4443
865.349	4470
865.48	4436
865.612	4493
865.743	4626
865.875	4527
866.006	4451
866.137	4504
866.269	4459
866.4	4466
866.531	4424
866.662	4390
866.793	4421
866.924	4462
867.055	4535
867.186	4489
867.317	4424
867.448	4379
867.579	4405
867.71	4417
867.841	4314
867.972	4455
868.103	4523
868.233	4440
868.364	4481
868.495	4531
868.625	4664
868.756	4782
868.886	4588
869.017	4626
869.147	4748
869.278	4771
869.408	4702
869.539	4679
869.669	4736
869.799	4679
869.929	4755
870.06	4679
870.19	4961
870.32	4953
870.45	4980
870.58	5018
870.71	5140
870.84	5140
870.97	4961
871.1	4934
871.23	5147
871.36	5181
871.489	5060
871.619	5132
871.749	5124
871.879	5143
872.008	5273
872.138	5075
872.267	4976
872.397	4858
872.526	4831
872.656	4721
872.785	4854
872.915	4949
873.044	5056
873.173	4976
873.303	4957
873.432	4980
873.561	5025
873.69	4908
873.819	4881
873.948	4946
874.077	4847
874.206	4793
874.335	4812
874.464	4984
874.593	5071
874.722	5003
874.851	5136
874.979	5121
875.108	5071
875.237	4934
875.365	4881
875.494	4930
875.623	5041
875.751	4881
875.88	4881
876.008	5033
876.136	4984
876.265	5201
876.393	5326
876.521	5265
876.65	5250
876.778	5140
876.906	5071
877.034	5060
877.162	5052
877.29	4991
877.418	5010
877.546	5029
877.674	5056
877.802	5071
877.93	5048
878.058	4934
878.185	4919
878.313	4980
878.441	5014
878.568	4824
878.696	4911
878.824	5025
878.951	5014
879.079	5105
879.206	5334
879.333	5174
879.461	5079
879.588	5022
879.715	5151
879.842	5235
879.97	5052
880.097	4835
880.224	4839
880.351	4835
880.478	4854
880.605	4873
880.732	4889
880.859	5155
880.986	4908
881.112	4987
881.239	4805
881.366	4683
881.493	4626
881.619	4607
881.746	4683
881.872	4710
881.999	4664
882.125	4714
882.252	4816
882.378	4854
882.505	4953
882.631	4854
882.757	4774
882.883	4767
883.01	4820
883.136	4698
883.262	4679
883.388	4649
883.514	4839
883.64	4877
883.766	4824
883.892	4733
884.018	4755
884.143	4900
884.269	5060
884.395	4615
884.52	4615
884.646	4679
884.772	4645
884.897	4672
885.023	4683
885.148	4824
885.274	4885
885.399	4873
885.524	4752
885.65	4706
885.775	4759
885.9	4767
886.025	4915
886.15	4824
886.275	4801
886.4	4634
886.525	4759
886.65	4740
886.775	4763
886.9	4984
887.025	5075
887.149	4801
887.274	4698
887.399	4637
887.523	4664
887.648	4664
887.773	4603
887.897	4809
888.021	4809
888.146	4714
888.27	4892
888.395	4953
888.519	4847
888.643	4873
888.767	4885
888.891	4729
889.015	4660
889.139	4714
889.263	4664
889.387	4782
889.511	4938
889.635	4828
889.759	4679
889.883	4714
890.006	4774
890.13	4858
890.254	4691
890.377	4706
890.501	4546
890.624	4538
890.748	4710
890.871	4538
890.995	4466
891.118	4481
891.241	4558
891.364	4592
891.488	4637
891.611	4561
891.734	4558
891.857	4637
891.98	4615
892.103	4672
892.226	4622
892.349	4565
892.471	4470
892.594	4592
892.717	4611
892.839	4618
892.962	4641
893.085	4729
893.207	4645
893.33	4497
893.452	4519
893.575	4694
893.697	4626
893.819	4835
893.941	4904
894.064	4759
894.186	4645
894.308	4618
894.43	4797
894.552	4881
894.674	4771
894.796	4596
894.918	4649
895.04	4630
895.161	4694
895.283	4649
895.405	4611
895.526	4679
895.648	4771
895.769	4668
895.891	4740
896.012	4812
896.134	4759
896.255	4729
896.376	4691
896.498	4653
896.619	4721
896.74	4599
896.861	4672
896.982	4946
897.103	5132
897.224	4873
897.345	4790
897.466	4694
897.587	4812
897.708	4911
897.828	4873
897.949	4763
898.07	4603
898.19	4664
898.311	4892
898.431	4698
898.552	4755
898.672	4847
898.792	4915
898.913	4812
899.033	4675
899.153	4519
899.273	4478
899.393	4527
899.513	4558
899.633	4573
899.753	4550
899.873	4512
899.993	4630
900.113	4554
900.232	4634
900.352	4519
900.472	4519
900.591	4398
900.711	4565
900.83	4481
900.95	4634
901.069	4698
901.189	4596
901.308	4432
901.427	4337
901.546	4424
901.665	4455
901.784	4531
901.904	4428
902.023	4363
902.141	4249
902.26	4204
902.379	4352
902.498	4276
902.617	4246
902.735	4402
902.854	4383
902.973	4402
903.091	4230
903.21	4272
903.328	4310
903.446	4291
903.565	4318
903.683	4421
903.801	4295
903.919	4470
904.038	4466
904.156	4329
904.274	4462
904.392	4398
904.51	4466
904.627	4558
904.745	4622
904.863	4668
904.981	4443
905.098	4318
905.216	4390
905.334	4474
905.451	4485
905.569	4474
905.686	4546
905.803	4637
905.921	4443
906.038	4580
906.155	4493
906.272	4447
906.389	4500
906.506	4375
906.623	4356
906.74	4417
906.857	4303
906.974	4436
907.091	4611
907.208	4706
907.324	4653
907.441	4512
907.557	4329
907.674	4363
907.79	4360
907.907	4379
908.023	4474
908.139	4497
908.256	4519
908.372	4489
908.488	4485
908.604	4383
908.72	4371
908.836	4417
908.952	4417
909.068	4432
909.184	4558
909.3	4516
909.415	4622
909.531	4584
909.647	4413
909.762	4394
909.878	4379
909.993	4466
910.108	4447
910.224	4478
910.339	4489
910.454	4432
910.57	4462
910.685	4329
910.8	4710
910.915	4634
911.03	4516
911.145	4424
911.259	4398
911.374	4421
911.489	4310
911.604	4280
911.718	4173
911.833	4246
911.947	4131
912.062	4067
912.176	4230
912.291	4257
912.405	4306
912.519	4451
912.633	4489
912.748	4424
912.862	4360
912.976	4200
913.09	4109
913.204	4207
913.318	4303
913.431	4424
913.545	4371
913.659	4489
913.772	4390
913.886	4249
914	4200
914.113	4421
914.226	4402
914.34	4383
914.453	4261
914.566	4470
914.68	4276
914.793	4356
914.906	4238
915.019	4188
915.132	4131
915.245	4200
915.358	4215
915.47	4268
915.583	4272
915.696	4314
915.809	4432
915.921	4413
916.034	4291
916.146	4280
916.259	4257
916.371	4402
916.483	4379
916.595	4303
916.708	4341
916.82	4405
916.932	4352
917.044	4341
917.156	4371
917.268	4280
917.38	4306
917.491	4303
917.603	4356
917.715	4436
917.826	4421
917.938	4383
918.049	4272
918.161	4459
918.272	4565
918.384	4569
918.495	4481
918.606	4333
918.717	4265
918.828	4367
918.939	4386
919.05	4280
919.161	4284
919.272	4185
919.383	4223
919.494	4470
919.604	4634
919.715	4455
919.826	4379
919.936	4436
920.047	4554
920.157	4512
920.267	4706
920.378	4577
920.488	4554
920.598	4736
920.708	4904
920.818	4812
920.928	4763
921.038	4934
921.148	4934
921.258	4641
921.368	4611
921.477	4497
921.587	4447
921.697	4424
921.806	4588
921.916	4485
922.025	4295
922.134	4280
922.244	4230
922.353	4333
922.462	4230
922.571	4185
922.68	4002
922.789	3991
922.898	4059
923.007	4017
923.116	4128
923.224	4040
923.333	4093
923.442	4063
923.55	3991
923.659	4051
923.767	4173
923.876	3994
923.984	4124
924.092	4010
924.201	4128
924.309	4139
924.417	4192
924.525	4093
924.633	4147
924.741	5041
924.849	3934
924.956	4143
925.064	3953
925.172	3922
925.279	3994
925.387	4086
925.494	4063
925.602	4265
925.709	4249
925.816	4063
925.924	4147
926.031	4249
926.138	4185
926.245	4253
926.352	4086
926.459	4276
926.566	4344
926.673	4185
926.779	4090
926.886	4063
926.993	4051
927.099	3972
927.206	3937
927.312	3934
927.419	4090
927.525	4036
927.631	4109
927.737	3979
927.843	3991
927.95	3880
928.056	3983
928.162	3983
928.267	4090
928.373	4744
928.479	4177
928.585	3918
928.69	4025
928.796	4082
928.901	4013
929.007	3892
929.112	4029
929.218	4013
929.323	3945
929.428	3945
929.533	4086
929.638	3945
929.743	3975
929.848	4055
929.953	3998
930.058	3972
930.163	3823
930.267	3850
930.372	3987
930.477	3797
930.581	4143
930.685	3987
930.79	3850
930.894	3899
930.998	3896
931.103	4048
931.207	3793
931.311	3701
931.415	3720
931.519	3534
931.623	3545
