Data from test_V78500241_1991.txt Node
Date: Fri Mar 25 17:02:50 CST 2022
User: usil
Spectrometer: V785-0024
Trigger mode: 0
Integration Time (sec): 4.000000E-1
Scans to average: 1
Nonlinearity correction enabled: false
Boxcar width: 0
Storing dark spectrum: false
XAxis mode: Wavelengths
Number of Pixels in Spectrum: 1024
>>>>>Begin Spectral Data<<<<<
801.071	7989
801.214	8005
801.356	7784
801.499	7852
801.641	7746
801.783	7814
801.926	8031
802.068	7913
802.211	7959
802.353	8027
802.496	7814
802.638	7860
802.78	7932
802.923	7883
803.065	7898
803.208	7830
803.35	7947
803.492	8081
803.635	8153
803.777	7997
803.919	8157
804.061	8556
804.204	8248
804.346	8073
804.488	7944
804.63	8130
804.773	7959
804.915	8084
805.057	8351
805.199	8180
805.341	8206
805.483	8244
805.626	8248
805.768	8100
805.91	8275
806.052	8240
806.194	8111
806.336	8290
806.478	8081
806.62	8058
806.762	8149
806.904	8339
807.046	8442
807.188	8381
807.33	8305
807.472	8362
807.614	8172
807.756	8195
807.898	8043
808.04	7894
808.182	7959
808.324	7871
808.465	7871
808.607	8073
808.749	8145
808.891	8225
809.033	8279
809.174	8221
809.316	8081
809.458	8058
809.6	7974
809.741	8050
809.883	8046
810.025	8157
810.166	8069
810.308	8035
810.45	7936
810.591	7852
810.733	7833
810.875	7712
811.016	7518
811.158	7449
811.299	7632
811.441	7727
811.582	7658
811.724	7567
811.865	7537
812.007	7563
812.148	7609
812.29	7605
812.431	7738
812.573	7883
812.714	7970
812.855	8107
812.997	8172
813.138	8298
813.279	8187
813.421	8058
813.562	7963
813.703	7871
813.845	7776
813.986	7441
814.127	7278
814.268	7198
814.41	7209
814.551	7187
814.692	7247
814.833	7133
814.974	7088
815.115	7122
815.256	6989
815.397	6897
815.539	6951
815.68	6856
815.821	6776
815.962	6825
816.103	6818
816.244	6696
816.385	6631
816.526	6616
816.666	6525
816.807	6315
816.948	6475
817.089	6513
817.23	6399
817.371	6342
817.512	6418
817.653	6380
817.793	6388
817.934	6403
818.075	6433
818.216	6506
818.356	6361
818.497	6273
818.638	6106
818.778	6133
818.919	6110
819.06	6144
819.2	6331
819.341	6285
819.481	6407
819.622	6582
819.762	6791
819.903	6719
820.043	6616
820.184	6620
820.324	6566
820.465	6681
820.605	6665
820.746	6703
820.886	6486
821.026	6593
821.167	6722
821.307	6818
821.447	6741
821.588	6684
821.728	6582
821.868	6506
822.008	6289
822.149	6315
822.289	6353
822.429	6144
822.569	6129
822.709	6140
822.849	5931
822.99	5893
823.13	5942
823.27	5908
823.41	5805
823.55	5821
823.69	5718
823.83	5726
823.97	5657
824.11	5528
824.25	5528
824.389	5547
824.529	5573
824.669	5486
824.809	5592
824.949	5649
825.089	5589
825.228	5566
825.368	5433
825.508	5307
825.648	5383
825.787	5395
825.927	5349
826.067	5311
826.206	5318
826.346	5414
826.485	5395
826.625	5410
826.765	5520
826.904	5467
827.044	5250
827.183	5212
827.323	5117
827.462	5231
827.601	5181
827.741	5178
827.88	5258
828.02	5098
828.159	5299
828.298	5280
828.437	5360
828.577	5345
828.716	5516
828.855	5280
828.994	5174
829.134	5185
829.273	5212
829.412	5121
829.551	5140
829.69	5242
829.829	5212
829.968	5360
830.107	5239
830.246	5280
830.385	5170
830.524	5174
830.663	5098
830.802	4968
830.941	4892
831.08	4881
831.219	4972
831.357	4965
831.496	5136
831.635	4938
831.774	4797
831.913	4850
832.051	4729
832.19	4774
832.329	4915
832.467	4702
832.606	4656
832.744	4679
832.883	4736
833.022	4752
833.16	4763
833.299	4843
833.437	4835
833.576	4778
833.714	4793
833.852	4850
833.991	4873
834.129	4911
834.267	4949
834.406	4919
834.544	4984
834.682	4980
834.821	4942
834.959	5162
835.097	5018
835.235	5086
835.373	5045
835.511	5102
835.65	5102
835.788	5006
835.926	4949
836.064	4862
836.202	4915
836.34	5159
836.478	5265
836.615	5064
836.753	5265
836.891	5318
837.029	5223
837.167	5239
837.305	5223
837.443	5140
837.58	5060
837.718	5280
837.856	5189
837.993	5140
838.131	5227
838.269	5197
838.406	5216
838.544	5216
838.681	5045
838.819	5029
838.956	4896
839.094	4938
839.231	4976
839.369	5079
839.506	5383
839.643	5201
839.781	5075
839.918	5029
840.055	5060
840.193	5048
840.33	5162
840.467	5109
840.604	5166
840.742	5391
840.879	5033
841.016	5105
841.153	5166
841.29	5391
841.427	5345
841.564	5307
841.701	5379
841.838	5307
841.975	5204
842.112	5284
842.249	5162
842.385	5086
842.522	5349
842.659	5143
842.796	5128
842.933	5170
843.069	5155
843.206	5109
843.343	5307
843.479	5288
843.616	5212
843.752	5056
843.889	5010
844.025	5166
844.162	5006
844.298	5204
844.435	5056
844.571	5029
844.708	5178
844.844	5223
844.98	5345
845.117	5345
845.253	5166
845.389	5045
845.525	5174
845.661	5151
845.798	5025
845.934	5132
846.07	5083
846.206	5250
846.342	5288
846.478	5174
846.614	5018
846.75	4991
846.886	4923
847.022	5128
847.158	4991
847.294	5033
847.429	5083
847.565	5094
847.701	5353
847.837	4847
847.972	4809
848.108	4946
848.244	4881
848.379	4778
848.515	4763
848.65	4687
848.786	4801
848.921	4774
849.057	4873
849.192	4923
849.328	4824
849.463	4889
849.598	4733
849.734	4714
849.869	4698
850.004	4630
850.14	4706
850.275	4637
850.41	4527
850.545	4615
850.68	4607
850.815	4641
850.95	4675
851.085	4843
851.22	4694
851.355	4672
851.49	4653
851.625	4611
851.76	4641
851.895	4596
852.03	4561
852.165	4672
852.299	4733
852.434	4782
852.569	4752
852.703	4782
852.838	4824
852.973	4892
853.107	4908
853.242	4721
853.376	4653
853.511	4561
853.645	4637
853.78	4793
853.914	4660
854.048	4706
854.183	4714
854.317	4702
854.451	4870
854.585	4641
854.72	4637
854.854	4752
854.988	4542
855.122	4596
855.256	4550
855.39	4660
855.524	4759
855.658	4698
855.792	4698
855.926	4725
856.06	4752
856.194	4793
856.327	4656
856.461	4622
856.595	4641
856.729	4615
856.862	4820
856.996	4698
857.13	4733
857.263	4740
857.397	4771
857.53	4611
857.664	4755
857.797	4759
857.931	4797
858.064	4687
858.197	4725
858.331	4618
858.464	4641
858.597	4588
858.731	4580
858.864	4630
858.997	4580
859.13	4668
859.263	4649
859.396	4752
859.529	4618
859.662	4596
859.795	4542
859.928	4599
860.061	4748
860.194	4774
860.327	4588
860.46	4660
860.592	4694
860.725	4714
860.858	4725
860.99	4592
861.123	4462
861.256	4523
861.388	4634
861.521	5128
861.653	4470
861.786	4478
861.918	4466
862.05	4531
862.183	4622
862.315	4592
862.447	4698
862.58	4508
862.712	4421
862.844	4325
862.976	4451
863.108	4470
863.24	4755
863.372	4325
863.504	4440
863.636	4466
863.768	4516
863.9	4443
864.032	4367
864.164	4413
864.296	4512
864.428	4516
864.559	4554
864.691	4550
864.823	4497
864.954	4462
865.086	4508
865.217	4466
865.349	4417
865.48	4497
865.612	4474
865.743	4611
865.875	4466
866.006	4436
866.137	4466
866.269	4447
866.4	4409
866.531	4405
866.662	4440
866.793	4402
866.924	4470
867.055	4481
867.186	4462
867.317	4413
867.448	4398
867.579	4402
867.71	4348
867.841	4386
867.972	4478
868.103	4424
868.233	4413
868.364	4447
868.495	4535
868.625	4615
868.756	4767
868.886	4500
869.017	4637
869.147	4801
869.278	4774
869.408	4714
869.539	4649
869.669	4717
869.799	4645
869.929	4786
870.06	4755
870.19	4965
870.32	4900
870.45	4934
870.58	5018
870.71	5075
870.84	5132
870.97	4908
871.1	4934
871.23	5151
871.36	5109
871.489	5018
871.619	5041
871.749	5094
871.879	5121
872.008	5155
872.138	5025
872.267	4984
872.397	4850
872.526	4786
872.656	4801
872.785	4790
872.915	4953
873.044	5003
873.173	4949
873.303	5022
873.432	4999
873.561	4927
873.69	4889
873.819	4839
873.948	4919
874.077	4820
874.206	4759
874.335	4790
874.464	4938
874.593	5006
874.722	4972
874.851	5056
874.979	5067
875.108	5033
875.237	4904
875.365	4892
875.494	4923
875.623	4984
875.751	4824
875.88	4866
876.008	4984
876.136	5064
876.265	5239
876.393	5330
876.521	5269
876.65	5242
876.778	5162
876.906	5117
877.034	5025
877.162	5045
877.29	4991
877.418	5056
877.546	5067
877.674	5060
877.802	5014
877.93	5025
878.058	4946
878.185	4877
878.313	4946
878.441	4946
878.568	4790
878.696	4923
878.824	4919
878.951	5052
879.079	5140
879.206	5277
879.333	5105
879.461	4984
879.588	5006
879.715	5102
879.842	5254
879.97	5018
880.097	4786
880.224	4717
880.351	4771
880.478	4873
880.605	4816
880.732	4755
880.859	5109
880.986	4900
881.112	4919
881.239	4790
881.366	4649
881.493	4592
881.619	4615
881.746	4611
881.872	4622
881.999	4683
882.125	4702
882.252	4816
882.378	4831
882.505	4957
882.631	4774
882.757	4672
882.883	4698
883.01	4725
883.136	4664
883.262	4599
883.388	4599
883.514	4782
883.64	4812
883.766	4793
883.892	4668
884.018	4683
884.143	4923
884.269	4949
884.395	4660
884.52	4584
884.646	4588
884.772	4592
884.897	4542
885.023	4649
885.148	4714
885.274	4911
885.399	4847
885.524	4721
885.65	4702
885.775	4706
885.9	4721
886.025	4866
886.15	4801
886.275	4710
886.4	4660
886.525	4664
886.65	4706
886.775	4664
886.9	4919
887.025	5048
887.149	4809
887.274	4645
887.399	4546
887.523	4584
887.648	4558
887.773	4603
887.897	4778
888.021	4790
888.146	4618
888.27	4752
888.395	4877
888.519	4797
888.643	4786
888.767	4850
888.891	4622
889.015	4588
889.139	4679
889.263	4573
889.387	4744
889.511	4805
889.635	4778
889.759	4641
889.883	4672
890.006	4736
890.13	4797
890.254	4603
890.377	4694
890.501	4550
890.624	4546
890.748	4645
890.871	4508
890.995	4432
891.118	4360
891.241	4531
891.364	4546
891.488	4664
891.611	4474
891.734	4527
891.857	4637
891.98	4508
892.103	4626
892.226	4641
892.349	4527
892.471	4481
892.594	4577
892.717	4569
892.839	4565
892.962	4622
893.085	4691
893.207	4615
893.33	4455
893.452	4500
893.575	4649
893.697	4569
893.819	4805
893.941	4828
894.064	4812
894.186	4584
894.308	4542
894.43	4740
894.552	4824
894.674	4717
894.796	4546
894.918	4607
895.04	4584
895.161	4733
895.283	4588
895.405	4622
895.526	4641
895.648	4660
895.769	4679
895.891	4694
896.012	4744
896.134	4763
896.255	4706
896.376	4637
896.498	4599
896.619	4668
896.74	4618
896.861	4645
896.982	4889
897.103	5117
897.224	4824
897.345	4706
897.466	4672
897.587	4721
897.708	4835
897.828	4782
897.949	4660
898.07	4531
898.19	4649
898.311	4824
898.431	4691
898.552	4721
898.672	4782
898.792	4831
898.913	4759
899.033	4630
899.153	4455
899.273	4436
899.393	4500
899.513	4531
899.633	4508
899.753	4584
899.873	4489
899.993	4561
900.113	4519
900.232	4573
900.352	4500
900.472	4481
900.591	4421
900.711	4470
900.83	4421
900.95	4577
901.069	4622
901.189	4554
901.308	4337
901.427	4344
901.546	4337
901.665	4474
901.784	4497
901.904	4394
902.023	4310
902.141	4166
902.26	4154
902.379	4306
902.498	4242
902.617	4185
902.735	4318
902.854	4383
902.973	4379
903.091	4234
903.21	4207
903.328	4291
903.446	4261
903.565	4261
903.683	4344
903.801	4272
903.919	4417
904.038	4455
904.156	4306
904.274	4455
904.392	4383
904.51	4504
904.627	4451
904.745	4592
904.863	4592
904.981	4383
905.098	4333
905.216	4432
905.334	4447
905.451	4428
905.569	4421
905.686	4603
905.803	4603
905.921	4371
906.038	4561
906.155	4432
906.272	4455
906.389	4440
906.506	4306
906.623	4379
906.74	4360
906.857	4360
906.974	4379
907.091	4531
907.208	4698
907.324	4550
907.441	4489
907.557	4348
907.674	4367
907.79	4299
907.907	4390
908.023	4516
908.139	4466
908.256	4383
908.372	4447
908.488	4451
908.604	4371
908.72	4318
908.836	4333
908.952	4295
909.068	4436
909.184	4577
909.3	4481
909.415	4535
909.531	4577
909.647	4367
909.762	4367
909.878	4375
909.993	4459
910.108	4409
910.224	4394
910.339	4493
910.454	4409
910.57	4344
910.685	4314
910.8	4675
910.915	4599
911.03	4462
911.145	4322
911.259	4344
911.374	4371
911.489	4295
911.604	4303
911.718	4154
911.833	4196
911.947	4071
912.062	4002
912.176	4207
912.291	4207
912.405	4223
912.519	4459
912.633	4558
912.748	4360
912.862	4299
912.976	4169
913.09	4116
913.204	4207
913.318	4276
913.431	4360
913.545	4333
913.659	4443
913.772	4363
913.886	4238
914	4227
914.113	4363
914.226	4466
914.34	4413
914.453	4246
914.566	4440
914.68	4280
914.793	4329
914.906	4177
915.019	4101
915.132	4093
915.245	4173
915.358	4188
915.47	4246
915.583	4249
915.696	4299
915.809	4405
915.921	4398
916.034	4261
916.146	4234
916.259	4185
916.371	4394
916.483	4390
916.595	4268
916.708	4367
916.82	4329
916.932	4322
917.044	4337
917.156	4322
917.268	4204
917.38	4306
917.491	4276
917.603	4333
917.715	4432
917.826	4371
917.938	4337
918.049	4192
918.161	4356
918.272	4546
918.384	4523
918.495	4424
918.606	4257
918.717	4227
918.828	4306
918.939	4363
919.05	4249
919.161	4341
919.272	4154
919.383	4246
919.494	4443
919.604	4618
919.715	4417
919.826	4394
919.936	4367
920.047	4512
920.157	4462
920.267	4694
920.378	4535
920.488	4481
920.598	4683
920.708	4862
920.818	4767
920.928	4774
921.038	4938
921.148	4881
921.258	4634
921.368	4550
921.477	4489
921.587	4478
921.697	4367
921.806	4550
921.916	4440
922.025	4219
922.134	4261
922.244	4211
922.353	4352
922.462	4204
922.571	4147
922.68	3991
922.789	3964
922.898	4021
923.007	3998
923.116	4135
923.224	4086
923.333	4044
923.442	3968
923.55	3975
923.659	4036
923.767	4086
923.876	3960
923.984	4078
924.092	3956
924.201	4109
924.309	4078
924.417	4158
924.525	4082
924.633	4112
924.741	5014
924.849	3911
924.956	4105
925.064	3941
925.172	3922
925.279	3941
925.387	4029
925.494	4093
925.602	4200
925.709	4185
925.816	4048
925.924	4128
926.031	4223
926.138	4166
926.245	4215
926.352	4097
926.459	4219
926.566	4318
926.673	4139
926.779	4105
926.886	4059
926.993	3987
927.099	3972
927.206	3941
927.312	3956
927.419	4013
927.525	4010
927.631	4090
927.737	3926
927.843	3960
927.95	3850
928.056	3956
928.162	3964
928.267	4071
928.373	4569
928.479	4116
928.585	3876
928.69	3998
928.796	4025
928.901	3941
929.007	3876
929.112	4002
929.218	3998
929.323	3968
929.428	3941
929.533	4101
929.638	3896
929.743	3964
929.848	4063
929.953	4025
930.058	3907
930.163	3747
930.267	3827
930.372	4025
930.477	3804
930.581	4074
930.685	3903
930.79	3808
930.894	3873
930.998	3835
931.103	3987
931.207	3740
931.311	3720
931.415	3698
931.519	3511
931.623	3507
