Data from test_V78500241_1896.txt Node
Date: Fri Mar 25 17:02:11 CST 2022
User: usil
Spectrometer: V785-0024
Trigger mode: 0
Integration Time (sec): 4.000000E-1
Scans to average: 1
Nonlinearity correction enabled: false
Boxcar width: 0
Storing dark spectrum: false
XAxis mode: Wavelengths
Number of Pixels in Spectrum: 1024
>>>>>Begin Spectral Data<<<<<
801.071	7932
801.214	7982
801.356	7887
801.499	7871
801.641	7742
801.783	7871
801.926	7928
802.068	7936
802.211	8008
802.353	8069
802.496	7818
802.638	7883
802.78	7955
802.923	7906
803.065	7864
803.208	7902
803.35	7989
803.492	8027
803.635	8100
803.777	8005
803.919	8172
804.061	8446
804.204	8145
804.346	8054
804.488	7986
804.63	8157
804.773	7974
804.915	8107
805.057	8286
805.199	8172
805.341	8191
805.483	8279
805.626	8202
805.768	8145
805.91	8161
806.052	8210
806.194	8100
806.336	8267
806.478	8123
806.62	8027
806.762	8168
806.904	8259
807.046	8480
807.188	8450
807.33	8282
807.472	8298
807.614	8111
807.756	8164
807.898	8008
808.04	7894
808.182	7902
808.324	7890
808.465	7856
808.607	8020
808.749	8081
808.891	8195
809.033	8275
809.174	8199
809.316	8119
809.458	8103
809.6	7974
809.741	8065
809.883	8012
810.025	8081
810.166	8043
810.308	8005
810.45	7959
810.591	7871
810.733	7746
810.875	7715
811.016	7594
811.158	7476
811.299	7548
811.441	7628
811.582	7693
811.724	7548
811.865	7556
812.007	7620
812.148	7578
812.29	7632
812.431	7708
812.573	7883
812.714	7955
812.855	8176
812.997	8168
813.138	8286
813.279	8191
813.421	8027
813.562	7947
813.703	7780
813.845	7708
813.986	7537
814.127	7331
814.268	7198
814.41	7168
814.551	7209
814.692	7225
814.833	7031
814.974	7057
815.115	7137
815.256	6977
815.397	6981
815.539	6890
815.68	6856
815.821	6772
815.962	6863
816.103	6779
816.244	6730
816.385	6620
816.526	6639
816.666	6517
816.807	6311
816.948	6433
817.089	6441
817.23	6452
817.371	6365
817.512	6395
817.653	6361
817.793	6380
817.934	6426
818.075	6460
818.216	6483
818.356	6414
818.497	6273
818.638	6140
818.778	6125
818.919	6125
819.06	6129
819.2	6369
819.341	6346
819.481	6331
819.622	6540
819.762	6810
819.903	6696
820.043	6559
820.184	6540
820.324	6544
820.465	6700
820.605	6665
820.746	6642
820.886	6521
821.026	6707
821.167	6745
821.307	6738
821.447	6795
821.588	6692
821.728	6528
821.868	6479
822.008	6315
822.149	6380
822.289	6350
822.429	6125
822.569	6102
822.709	6117
822.849	5958
822.99	5954
823.13	5980
823.27	5927
823.41	5794
823.55	5786
823.69	5764
823.83	5756
823.97	5688
824.11	5493
824.25	5520
824.389	5581
824.529	5589
824.669	5444
824.809	5623
824.949	5623
825.089	5646
825.228	5558
825.368	5417
825.508	5284
825.648	5337
825.787	5364
825.927	5368
826.067	5288
826.206	5322
826.346	5372
826.485	5429
826.625	5376
826.765	5558
826.904	5486
827.044	5250
827.183	5162
827.323	5147
827.462	5239
827.601	5166
827.741	5159
827.88	5162
828.02	5121
828.159	5193
828.298	5345
828.437	5299
828.577	5299
828.716	5512
828.855	5292
828.994	5193
829.134	5151
829.273	5201
829.412	5155
829.551	5132
829.69	5201
829.829	5246
829.968	5337
830.107	5227
830.246	5254
830.385	5197
830.524	5105
830.663	5124
830.802	4953
830.941	4923
831.08	4885
831.219	4984
831.357	4968
831.496	5136
831.635	4953
831.774	4870
831.913	4862
832.051	4767
832.19	4759
832.329	4828
832.467	4733
832.606	4687
832.744	4687
832.883	4725
833.022	4710
833.16	4763
833.299	4801
833.437	4801
833.576	4824
833.714	4870
833.852	4873
833.991	4866
834.129	4984
834.267	4927
834.406	4866
834.544	5018
834.682	4915
834.821	4968
834.959	5151
835.097	4976
835.235	5128
835.373	5056
835.511	5128
835.65	5033
835.788	5018
835.926	4900
836.064	4904
836.202	4930
836.34	5185
836.478	5239
836.615	5105
836.753	5235
836.891	5280
837.029	5216
837.167	5189
837.305	5189
837.443	5136
837.58	5067
837.718	5216
837.856	5181
837.993	5109
838.131	5178
838.269	5204
838.406	5178
838.544	5181
838.681	5018
838.819	4980
838.956	4915
839.094	4923
839.231	4976
839.369	5083
839.506	5391
839.643	5296
839.781	5025
839.918	4995
840.055	5067
840.193	5048
840.33	5075
840.467	5151
840.604	5174
840.742	5395
840.879	5071
841.016	5109
841.153	5128
841.29	5360
841.427	5315
841.564	5341
841.701	5345
841.838	5284
841.975	5265
842.112	5212
842.249	5109
842.385	5128
842.522	5326
842.659	5193
842.796	5094
842.933	5254
843.069	5147
843.206	5143
843.343	5292
843.479	5197
843.616	5261
843.752	4984
843.889	5025
844.025	5193
844.162	5056
844.298	5189
844.435	5071
844.571	5041
844.708	5147
844.844	5292
844.98	5296
845.117	5265
845.253	5109
845.389	5067
845.525	5174
845.661	5124
845.798	5052
845.934	5121
846.07	5003
846.206	5250
846.342	5292
846.478	5227
846.614	4968
846.75	4900
846.886	4911
847.022	5109
847.158	5006
847.294	5048
847.429	5105
847.565	5048
847.701	5292
847.837	4824
847.972	4801
848.108	4972
848.244	4953
848.379	4752
848.515	4740
848.65	4748
848.786	4778
848.921	4786
849.057	4866
849.192	4885
849.328	4782
849.463	4850
849.598	4778
849.734	4725
849.869	4698
850.004	4622
850.14	4672
850.275	4584
850.41	4535
850.545	4637
850.68	4656
850.815	4584
850.95	4584
851.085	4793
851.22	4752
851.355	4675
851.49	4653
851.625	4634
851.76	4626
851.895	4550
852.03	4516
852.165	4649
852.299	4687
852.434	4774
852.569	4767
852.703	4839
852.838	4831
852.973	4923
853.107	4919
853.242	4725
853.376	4672
853.511	4500
853.645	4622
853.78	4748
853.914	4660
854.048	4653
854.183	4641
854.317	4622
854.451	4870
854.585	4653
854.72	4656
854.854	4740
854.988	4592
855.122	4637
855.256	4519
855.39	4687
855.524	4809
855.658	4721
855.792	4774
855.926	4710
856.06	4702
856.194	4809
856.327	4672
856.461	4599
856.595	4630
856.729	4641
856.862	4767
856.996	4672
857.13	4816
857.263	4748
857.397	4778
857.53	4698
857.664	4691
857.797	4786
857.931	4771
858.064	4630
858.197	4740
858.331	4626
858.464	4580
858.597	4512
858.731	4592
858.864	4653
858.997	4611
859.13	4626
859.263	4656
859.396	4675
859.529	4584
859.662	4577
859.795	4535
859.928	4630
860.061	4740
860.194	4733
860.327	4607
860.46	4558
860.592	4740
860.725	4729
860.858	4729
860.99	4607
861.123	4500
861.256	4554
861.388	4603
861.521	5368
861.653	4470
861.786	4390
861.918	4474
862.05	4538
862.183	4538
862.315	4565
862.447	4645
862.58	4519
862.712	4394
862.844	4322
862.976	4462
863.108	4443
863.24	4862
863.372	4325
863.504	4417
863.636	4409
863.768	4440
863.9	4390
864.032	4348
864.164	4352
864.296	4481
864.428	4527
864.559	4516
864.691	4485
864.823	4504
864.954	4493
865.086	4497
865.217	4485
865.349	4386
865.48	4409
865.612	4519
865.743	4603
865.875	4459
866.006	4421
866.137	4478
866.269	4440
866.4	4417
866.531	4455
866.662	4398
866.793	4383
866.924	4409
867.055	4481
867.186	4459
867.317	4405
867.448	4329
867.579	4375
867.71	4367
867.841	4379
867.972	4447
868.103	4432
868.233	4447
868.364	4462
868.495	4489
868.625	4698
868.756	4744
868.886	4565
869.017	4618
869.147	4755
869.278	4824
869.408	4675
869.539	4634
869.669	4702
869.799	4645
869.929	4786
870.06	4748
870.19	4908
870.32	4946
870.45	4987
870.58	5052
870.71	5140
870.84	5056
870.97	4900
871.1	4877
871.23	5117
871.36	5064
871.489	5025
871.619	5094
871.749	5109
871.879	5083
872.008	5121
872.138	5071
872.267	4953
872.397	4843
872.526	4812
872.656	4774
872.785	4809
872.915	4911
873.044	5064
873.173	4923
873.303	4930
873.432	4949
873.561	4968
873.69	4858
873.819	4858
873.948	4927
874.077	4755
874.206	4774
874.335	4786
874.464	4911
874.593	5056
874.722	4968
874.851	5098
874.979	5025
875.108	5029
875.237	4854
875.365	4892
875.494	4881
875.623	4972
875.751	4847
875.88	4892
876.008	4968
876.136	5014
876.265	5159
876.393	5345
876.521	5231
876.65	5235
876.778	5174
876.906	5075
877.034	5006
877.162	5041
877.29	5045
877.418	5064
877.546	5037
877.674	5018
877.802	5033
877.93	5006
878.058	4972
878.185	4930
878.313	4965
878.441	4900
878.568	4843
878.696	4831
878.824	4965
878.951	4968
879.079	5136
879.206	5296
879.333	5067
879.461	4976
879.588	4976
879.715	5094
879.842	5223
879.97	4972
880.097	4778
880.224	4725
880.351	4812
880.478	4797
880.605	4793
880.732	4797
880.859	5105
880.986	4873
881.112	4896
881.239	4771
881.366	4702
881.493	4573
881.619	4558
881.746	4656
881.872	4618
881.999	4668
882.125	4672
882.252	4759
882.378	4805
882.505	4965
882.631	4824
882.757	4611
882.883	4755
883.01	4748
883.136	4649
883.262	4580
883.388	4637
883.514	4835
883.64	4881
883.766	4759
883.892	4645
884.018	4748
884.143	4930
884.269	5010
884.395	4630
884.52	4622
884.646	4668
884.772	4596
884.897	4569
885.023	4660
885.148	4786
885.274	4828
885.399	4778
885.524	4691
885.65	4672
885.775	4729
885.9	4702
886.025	4854
886.15	4725
886.275	4687
886.4	4668
886.525	4725
886.65	4683
886.775	4656
886.9	4927
887.025	5018
887.149	4786
887.274	4637
887.399	4561
887.523	4584
887.648	4588
887.773	4596
887.897	4774
888.021	4767
888.146	4687
888.27	4805
888.395	4854
888.519	4797
888.643	4820
888.767	4816
888.891	4714
889.015	4599
889.139	4622
889.263	4584
889.387	4714
889.511	4850
889.635	4835
889.759	4634
889.883	4599
890.006	4748
890.13	4816
890.254	4637
890.377	4660
890.501	4531
890.624	4527
890.748	4611
890.871	4538
890.995	4462
891.118	4390
891.241	4512
891.364	4577
891.488	4607
891.611	4508
891.734	4611
891.857	4573
891.98	4554
892.103	4656
892.226	4558
892.349	4542
892.471	4428
892.594	4538
892.717	4596
892.839	4516
892.962	4611
893.085	4641
893.207	4611
893.33	4474
893.452	4485
893.575	4710
893.697	4538
893.819	4786
893.941	4778
894.064	4759
894.186	4561
894.308	4546
894.43	4733
894.552	4839
894.674	4759
894.796	4580
894.918	4577
895.04	4592
895.161	4641
895.283	4668
895.405	4550
895.526	4592
895.648	4637
895.769	4687
895.891	4675
896.012	4694
896.134	4702
896.255	4672
896.376	4599
896.498	4573
896.619	4679
896.74	4577
896.861	4626
896.982	4915
897.103	5075
897.224	4835
897.345	4717
897.466	4725
897.587	4668
897.708	4843
897.828	4778
897.949	4679
898.07	4512
898.19	4698
898.311	4809
898.431	4675
898.552	4771
898.672	4759
898.792	4812
898.913	4782
899.033	4599
899.153	4504
899.273	4402
899.393	4500
899.513	4512
899.633	4462
899.753	4592
899.873	4516
899.993	4611
900.113	4538
900.232	4592
900.352	4512
900.472	4558
900.591	4405
900.711	4508
900.83	4409
900.95	4573
901.069	4645
901.189	4542
901.308	4367
901.427	4310
901.546	4367
901.665	4470
901.784	4470
901.904	4409
902.023	4310
902.141	4196
902.26	4128
902.379	4272
902.498	4219
902.617	4215
902.735	4314
902.854	4409
902.973	4363
903.091	4192
903.21	4207
903.328	4299
903.446	4291
903.565	4253
903.683	4318
903.801	4287
903.919	4394
904.038	4436
904.156	4268
904.274	4402
904.392	4383
904.51	4436
904.627	4478
904.745	4603
904.863	4645
904.981	4360
905.098	4314
905.216	4390
905.334	4417
905.451	4440
905.569	4402
905.686	4561
905.803	4546
905.921	4424
906.038	4535
906.155	4462
906.272	4405
906.389	4409
906.506	4318
906.623	4360
906.74	4394
906.857	4287
906.974	4367
907.091	4596
907.208	4668
907.324	4569
907.441	4459
907.557	4344
907.674	4306
907.79	4314
907.907	4375
908.023	4493
908.139	4459
908.256	4455
908.372	4451
908.488	4451
908.604	4386
908.72	4318
908.836	4322
908.952	4367
909.068	4440
909.184	4573
909.3	4462
909.415	4558
909.531	4550
909.647	4375
909.762	4363
909.878	4322
909.993	4436
910.108	4367
910.224	4383
910.339	4489
910.454	4413
910.57	4356
910.685	4276
910.8	4653
910.915	4603
911.03	4478
911.145	4306
911.259	4322
911.374	4348
911.489	4287
911.604	4265
911.718	4166
911.833	4219
911.947	4093
912.062	4032
912.176	4230
912.291	4207
912.405	4223
912.519	4481
912.633	4497
912.748	4375
912.862	4295
912.976	4230
913.09	4101
913.204	4196
913.318	4238
913.431	4371
913.545	4379
913.659	4451
913.772	4402
913.886	4246
914	4192
914.113	4344
914.226	4462
914.34	4344
914.453	4257
914.566	4409
914.68	4344
914.793	4272
914.906	4101
915.019	4116
915.132	4082
915.245	4173
915.358	4253
915.47	4246
915.583	4272
915.696	4295
915.809	4371
915.921	4443
916.034	4249
916.146	4246
916.259	4196
916.371	4394
916.483	4383
916.595	4230
916.708	4360
916.82	4333
916.932	4379
917.044	4337
917.156	4306
917.268	4246
917.38	4318
917.491	4234
917.603	4299
917.715	4432
917.826	4413
917.938	4337
918.049	4287
918.161	4409
918.272	4523
918.384	4527
918.495	4421
918.606	4257
918.717	4223
918.828	4363
918.939	4402
919.05	4257
919.161	4344
919.272	4128
919.383	4265
919.494	4440
919.604	4675
919.715	4417
919.826	4352
919.936	4394
920.047	4519
920.157	4455
920.267	4714
920.378	4512
920.488	4470
920.598	4759
920.708	4873
920.818	4733
920.928	4809
921.038	4953
921.148	4839
921.258	4626
921.368	4542
921.477	4493
921.587	4489
921.697	4363
921.806	4542
921.916	4409
922.025	4272
922.134	4242
922.244	4249
922.353	4344
922.462	4158
922.571	4109
922.68	3991
922.789	4006
922.898	4010
923.007	3949
923.116	4112
923.224	4032
923.333	4097
923.442	4032
923.55	3972
923.659	4036
923.767	4124
923.876	4013
923.984	4109
924.092	4002
924.201	4082
924.309	4090
924.417	4097
924.525	4048
924.633	4143
924.741	5071
924.849	3892
924.956	4143
925.064	3964
925.172	3884
925.279	3941
925.387	4040
925.494	4029
925.602	4238
925.709	4147
925.816	4074
925.924	4120
926.031	4188
926.138	4188
926.245	4169
926.352	4044
926.459	4219
926.566	4325
926.673	4147
926.779	4044
926.886	4090
926.993	3960
927.099	3949
927.206	3979
927.312	3907
927.419	4078
927.525	4013
927.631	4078
927.737	3968
927.843	3934
927.95	3823
928.056	3926
928.162	4051
928.267	4029
928.373	4538
928.479	4124
928.585	3842
928.69	4059
928.796	4021
928.901	3956
929.007	3831
929.112	3994
929.218	4002
929.323	3896
929.428	3915
929.533	4097
929.638	3880
929.743	3915
929.848	4044
929.953	3994
930.058	3911
930.163	3698
930.267	3804
930.372	3964
930.477	3804
930.581	4109
930.685	3956
930.79	3816
930.894	3876
930.998	3854
931.103	4044
931.207	3701
931.311	3728
931.415	3675
931.519	3519
931.623	3561
