Data from test_V78500241_2026.txt Node
Date: Fri Mar 25 17:03:05 CST 2022
User: usil
Spectrometer: V785-0024
Trigger mode: 0
Integration Time (sec): 4.000000E-1
Scans to average: 1
Nonlinearity correction enabled: false
Boxcar width: 0
Storing dark spectrum: false
XAxis mode: Wavelengths
Number of Pixels in Spectrum: 1024
>>>>>Begin Spectral Data<<<<<
801.071	8016
801.214	8008
801.356	7826
801.499	7894
801.641	7795
801.783	7849
801.926	8005
802.068	7890
802.211	7989
802.353	7940
802.496	7837
802.638	7864
802.78	7879
802.923	7959
803.065	7852
803.208	7837
803.35	7890
803.492	8046
803.635	8164
803.777	8001
803.919	8084
804.061	8412
804.204	8107
804.346	8092
804.488	7947
804.63	8100
804.773	8001
804.915	8077
805.057	8320
805.199	8115
805.341	8199
805.483	8256
805.626	8229
805.768	8149
805.91	8180
806.052	8206
806.194	8107
806.336	8320
806.478	8065
806.62	8008
806.762	8130
806.904	8320
807.046	8476
807.188	8377
807.33	8355
807.472	8282
807.614	8172
807.756	8119
807.898	8027
808.04	7856
808.182	7967
808.324	7894
808.465	7860
808.607	8005
808.749	8096
808.891	8328
809.033	8320
809.174	8244
809.316	8107
809.458	8054
809.6	8046
809.741	8020
809.883	8084
810.025	8065
810.166	8054
810.308	8008
810.45	7913
810.591	7913
810.733	7742
810.875	7677
811.016	7582
811.158	7445
811.299	7601
811.441	7757
811.582	7666
811.724	7529
811.865	7582
812.007	7544
812.148	7552
812.29	7586
812.431	7769
812.573	7906
812.714	7967
812.855	8164
812.997	8221
813.138	8305
813.279	8153
813.421	8024
813.562	7955
813.703	7822
813.845	7723
813.986	7396
814.127	7209
814.268	7266
814.41	7164
814.551	7206
814.692	7213
814.833	7091
814.974	7141
815.115	7114
815.256	7027
815.397	6954
815.539	6897
815.68	6852
815.821	6768
815.962	6840
816.103	6802
816.244	6791
816.385	6620
816.526	6559
816.666	6471
816.807	6346
816.948	6426
817.089	6502
817.23	6372
817.371	6384
817.512	6414
817.653	6407
817.793	6346
817.934	6388
818.075	6464
818.216	6448
818.356	6399
818.497	6190
818.638	6133
818.778	6129
818.919	6068
819.06	6121
819.2	6300
819.341	6331
819.481	6357
819.622	6574
819.762	6711
819.903	6738
820.043	6585
820.184	6547
820.324	6593
820.465	6658
820.605	6646
820.746	6616
820.886	6536
821.026	6726
821.167	6703
821.307	6738
821.447	6772
821.588	6669
821.728	6544
821.868	6513
822.008	6338
822.149	6395
822.289	6350
822.429	6136
822.569	6064
822.709	6136
822.849	5946
822.99	5939
823.13	5923
823.27	5912
823.41	5775
823.55	5745
823.69	5733
823.83	5771
823.97	5672
824.11	5562
824.25	5482
824.389	5608
824.529	5562
824.669	5452
824.809	5661
824.949	5688
825.089	5668
825.228	5539
825.368	5402
825.508	5330
825.648	5398
825.787	5360
825.927	5398
826.067	5311
826.206	5318
826.346	5410
826.485	5383
826.625	5360
826.765	5573
826.904	5433
827.044	5197
827.183	5231
827.323	5105
827.462	5284
827.601	5181
827.741	5204
827.88	5220
828.02	5162
828.159	5254
828.298	5246
828.437	5322
828.577	5280
828.716	5429
828.855	5326
828.994	5140
829.134	5136
829.273	5174
829.412	5155
829.551	5102
829.69	5170
829.829	5318
829.968	5444
830.107	5231
830.246	5239
830.385	5170
830.524	5113
830.663	5128
830.802	4949
830.941	4919
831.08	4908
831.219	4968
831.357	4927
831.496	5151
831.635	4911
831.774	4854
831.913	4885
832.051	4694
832.19	4736
832.329	4820
832.467	4668
832.606	4535
832.744	4733
832.883	4729
833.022	4698
833.16	4790
833.299	4831
833.437	4847
833.576	4763
833.714	4850
833.852	4877
833.991	4870
834.129	4957
834.267	4938
834.406	4858
834.544	4919
834.682	4965
834.821	4991
834.959	5189
835.097	5018
835.235	5189
835.373	5083
835.511	5102
835.65	5006
835.788	5006
835.926	4942
836.064	4835
836.202	4889
836.34	5143
836.478	5212
836.615	5079
836.753	5155
836.891	5250
837.029	5239
837.167	5159
837.305	5117
837.443	5136
837.58	5094
837.718	5239
837.856	5155
837.993	5140
838.131	5235
838.269	5193
838.406	5166
838.544	5178
838.681	5006
838.819	5014
838.956	4843
839.094	4900
839.231	4953
839.369	5124
839.506	5421
839.643	5261
839.781	5060
839.918	4995
840.055	5033
840.193	5083
840.33	5045
840.467	5174
840.604	5227
840.742	5452
840.879	5056
841.016	5064
841.153	5140
841.29	5360
841.427	5337
841.564	5269
841.701	5376
841.838	5254
841.975	5223
842.112	5258
842.249	5124
842.385	5094
842.522	5387
842.659	5147
842.796	5185
842.933	5185
843.069	5128
843.206	5212
843.343	5311
843.479	5261
843.616	5269
843.752	5029
843.889	4995
844.025	5239
844.162	5022
844.298	5128
844.435	4991
844.571	5037
844.708	5227
844.844	5277
844.98	5360
845.117	5311
845.253	5155
845.389	5071
845.525	5136
845.661	5147
845.798	5060
845.934	5102
846.07	5064
846.206	5204
846.342	5265
846.478	5166
846.614	4972
846.75	4938
846.886	4961
847.022	5143
847.158	5052
847.294	5048
847.429	5109
847.565	5052
847.701	5292
847.837	4870
847.972	4774
848.108	4976
848.244	4892
848.379	4771
848.515	4733
848.65	4698
848.786	4767
848.921	4824
849.057	4820
849.192	4877
849.328	4793
849.463	4862
849.598	4805
849.734	4752
849.869	4653
850.004	4592
850.14	4656
850.275	4596
850.41	4527
850.545	4554
850.68	4569
850.815	4580
850.95	4592
851.085	4854
851.22	4755
851.355	4645
851.49	4630
851.625	4618
851.76	4622
851.895	4569
852.03	4542
852.165	4660
852.299	4729
852.434	4759
852.569	4740
852.703	4786
852.838	4812
852.973	4942
853.107	4949
853.242	4744
853.376	4634
853.511	4561
853.645	4634
853.78	4763
853.914	4698
854.048	4664
854.183	4626
854.317	4649
854.451	4801
854.585	4668
854.72	4698
854.854	4736
854.988	4634
855.122	4660
855.256	4538
855.39	4721
855.524	4748
855.658	4675
855.792	4660
855.926	4710
856.06	4774
856.194	4835
856.327	4736
856.461	4577
856.595	4599
856.729	4634
856.862	4721
856.996	4698
857.13	4729
857.263	4744
857.397	4828
857.53	4660
857.664	4717
857.797	4725
857.931	4759
858.064	4702
858.197	4698
858.331	4630
858.464	4607
858.597	4535
858.731	4603
858.864	4656
858.997	4531
859.13	4641
859.263	4622
859.396	4706
859.529	4577
859.662	4535
859.795	4508
859.928	4679
860.061	4702
860.194	4755
860.327	4630
860.46	4573
860.592	4694
860.725	4717
860.858	4702
860.99	4580
861.123	4527
861.256	4497
861.388	4542
861.521	5292
861.653	4478
861.786	4440
861.918	4447
862.05	4535
862.183	4558
862.315	4630
862.447	4679
862.58	4516
862.712	4360
862.844	4337
862.976	4459
863.108	4451
863.24	4752
863.372	4329
863.504	4421
863.636	4371
863.768	4462
863.9	4379
864.032	4318
864.164	4421
864.296	4466
864.428	4546
864.559	4546
864.691	4550
864.823	4531
864.954	4459
865.086	4451
865.217	4478
865.349	4421
865.48	4409
865.612	4451
865.743	4641
865.875	4447
866.006	4443
866.137	4462
866.269	4443
866.4	4424
866.531	4398
866.662	4383
866.793	4409
866.924	4390
867.055	4432
867.186	4405
867.317	4409
867.448	4356
867.579	4344
867.71	4356
867.841	4417
867.972	4478
868.103	4421
868.233	4432
868.364	4462
868.495	4474
868.625	4656
868.756	4790
868.886	4569
869.017	4592
869.147	4767
869.278	4740
869.408	4656
869.539	4622
869.669	4672
869.799	4664
869.929	4759
870.06	4763
870.19	4870
870.32	4858
870.45	4934
870.58	5022
870.71	5109
870.84	5067
870.97	4972
871.1	4911
871.23	5098
871.36	5071
871.489	5014
871.619	5064
871.749	5113
871.879	5109
872.008	5193
872.138	5003
872.267	4972
872.397	4885
872.526	4866
872.656	4691
872.785	4828
872.915	4957
873.044	4999
873.173	4972
873.303	4961
873.432	4946
873.561	5006
873.69	4850
873.819	4957
873.948	4915
874.077	4782
874.206	4790
874.335	4873
874.464	4942
874.593	5075
874.722	4957
874.851	5105
874.979	5105
875.108	5037
875.237	4908
875.365	4870
875.494	4915
875.623	4995
875.751	4892
875.88	4923
876.008	5003
876.136	5109
876.265	5231
876.393	5357
876.521	5280
876.65	5273
876.778	5231
876.906	5067
877.034	5045
877.162	5147
877.29	5067
877.418	5086
877.546	5083
877.674	5102
877.802	5045
877.93	5067
878.058	4984
878.185	4889
878.313	4987
878.441	4938
878.568	4824
878.696	4877
878.824	5003
878.951	5033
879.079	5143
879.206	5334
879.333	5181
879.461	4991
879.588	5064
879.715	5185
879.842	5246
879.97	5064
880.097	4839
880.224	4805
880.351	4835
880.478	4873
880.605	4782
880.732	4793
880.859	5155
880.986	4938
881.112	4923
881.239	4858
881.366	4733
881.493	4611
881.619	4618
881.746	4672
881.872	4706
881.999	4710
882.125	4717
882.252	4824
882.378	4923
882.505	4942
882.631	4850
882.757	4710
882.883	4771
883.01	4759
883.136	4698
883.262	4641
883.388	4618
883.514	4870
883.64	4900
883.766	4854
883.892	4691
884.018	4774
884.143	4930
884.269	5064
884.395	4729
884.52	4679
884.646	4702
884.772	4637
884.897	4580
885.023	4691
885.148	4744
885.274	4877
885.399	4854
885.524	4702
885.65	4702
885.775	4778
885.9	4687
886.025	4889
886.15	4835
886.275	4778
886.4	4702
886.525	4778
886.65	4698
886.775	4717
886.9	4892
887.025	5060
887.149	4850
887.274	4675
887.399	4611
887.523	4599
887.648	4607
887.773	4607
887.897	4797
888.021	4820
888.146	4714
888.27	4858
888.395	4976
888.519	4858
888.643	4771
888.767	4862
888.891	4702
889.015	4641
889.139	4679
889.263	4626
889.387	4782
889.511	4866
889.635	4786
889.759	4668
889.883	4645
890.006	4767
890.13	4885
890.254	4660
890.377	4725
890.501	4561
890.624	4550
890.748	4634
890.871	4535
890.995	4432
891.118	4394
891.241	4519
891.364	4565
891.488	4683
891.611	4519
891.734	4546
891.857	4668
891.98	4580
892.103	4672
892.226	4550
892.349	4596
892.471	4485
892.594	4538
892.717	4615
892.839	4569
892.962	4615
893.085	4641
893.207	4596
893.33	4474
893.452	4592
893.575	4683
893.697	4611
893.819	4816
893.941	4866
894.064	4774
894.186	4634
894.308	4596
894.43	4714
894.552	4881
894.674	4809
894.796	4603
894.918	4580
895.04	4596
895.161	4733
895.283	4630
895.405	4561
895.526	4683
895.648	4694
895.769	4755
895.891	4767
896.012	4755
896.134	4755
896.255	4717
896.376	4683
896.498	4660
896.619	4691
896.74	4683
896.861	4664
896.982	4942
897.103	5067
897.224	4850
897.345	4771
897.466	4717
897.587	4759
897.708	4854
897.828	4790
897.949	4729
898.07	4615
898.19	4645
898.311	4839
898.431	4672
898.552	4721
898.672	4820
898.792	4854
898.913	4797
899.033	4656
899.153	4531
899.273	4428
899.393	4497
899.513	4592
899.633	4569
899.753	4569
899.873	4512
899.993	4584
900.113	4573
900.232	4596
900.352	4599
900.472	4531
900.591	4421
900.711	4531
900.83	4478
900.95	4668
901.069	4706
901.189	4516
901.308	4417
901.427	4390
901.546	4440
901.665	4462
901.784	4542
901.904	4409
902.023	4383
902.141	4265
902.26	4196
902.379	4356
902.498	4303
902.617	4238
902.735	4405
902.854	4451
902.973	4459
903.091	4234
903.21	4227
903.328	4337
903.446	4329
903.565	4314
903.683	4348
903.801	4287
903.919	4440
904.038	4455
904.156	4337
904.274	4398
904.392	4455
904.51	4485
904.627	4447
904.745	4565
904.863	4656
904.981	4405
905.098	4363
905.216	4398
905.334	4440
905.451	4474
905.569	4440
905.686	4592
905.803	4592
905.921	4451
906.038	4561
906.155	4523
906.272	4436
906.389	4443
906.506	4379
906.623	4383
906.74	4474
906.857	4322
906.974	4443
907.091	4626
907.208	4668
907.324	4618
907.441	4516
907.557	4363
907.674	4398
907.79	4367
907.907	4413
908.023	4478
908.139	4535
908.256	4440
908.372	4481
908.488	4485
908.604	4352
908.72	4322
908.836	4375
908.952	4383
909.068	4417
909.184	4592
909.3	4493
909.415	4565
909.531	4531
909.647	4371
909.762	4455
909.878	4383
909.993	4451
910.108	4428
910.224	4432
910.339	4455
910.454	4375
910.57	4443
910.685	4291
910.8	4668
910.915	4584
911.03	4527
911.145	4360
911.259	4329
911.374	4379
911.489	4325
911.604	4310
911.718	4230
911.833	4234
911.947	4112
912.062	4067
912.176	4211
912.291	4234
912.405	4272
912.519	4466
912.633	4497
912.748	4379
912.862	4318
912.976	4234
913.09	4154
913.204	4185
913.318	4284
913.431	4367
913.545	4390
913.659	4474
913.772	4360
913.886	4242
914	4227
914.113	4443
914.226	4455
914.34	4398
914.453	4276
914.566	4466
914.68	4329
914.793	4344
914.906	4169
915.019	4200
915.132	4131
915.245	4188
915.358	4234
915.47	4261
915.583	4234
915.696	4310
915.809	4409
915.921	4451
916.034	4295
916.146	4322
916.259	4249
916.371	4451
916.483	4363
916.595	4242
916.708	4333
916.82	4337
916.932	4325
917.044	4356
917.156	4379
917.268	4268
917.38	4314
917.491	4322
917.603	4352
917.715	4447
917.826	4493
917.938	4390
918.049	4207
918.161	4413
918.272	4580
918.384	4561
918.495	4451
918.606	4310
918.717	4234
918.828	4394
918.939	4390
919.05	4284
919.161	4306
919.272	4185
919.383	4253
919.494	4462
919.604	4672
919.715	4470
919.826	4390
919.936	4436
920.047	4512
920.157	4489
920.267	4710
920.378	4558
920.488	4504
920.598	4748
920.708	4938
920.818	4793
920.928	4797
921.038	4972
921.148	4919
921.258	4675
921.368	4584
921.477	4474
921.587	4432
921.697	4363
921.806	4538
921.916	4428
922.025	4337
922.134	4310
922.244	4272
922.353	4295
922.462	4166
922.571	4158
922.68	4002
922.789	4013
922.898	4036
923.007	3998
923.116	4105
923.224	4086
923.333	4105
923.442	3998
923.55	4002
923.659	4036
923.767	4128
923.876	3968
923.984	4112
924.092	3983
924.201	4120
924.309	4154
924.417	4124
924.525	4048
924.633	4063
924.741	5064
924.849	3899
924.956	4143
925.064	3983
925.172	3926
925.279	4010
925.387	4036
925.494	4048
925.602	4227
925.709	4223
925.816	4032
925.924	4192
926.031	4253
926.138	4215
926.245	4204
926.352	4093
926.459	4246
926.566	4291
926.673	4150
926.779	4059
926.886	4101
926.993	3983
927.099	3968
927.206	3975
927.312	3983
927.419	4055
927.525	4051
927.631	4112
927.737	3960
927.843	3922
927.95	3861
928.056	3994
928.162	4036
928.267	4059
928.373	4599
928.479	4116
928.585	3884
928.69	4029
928.796	4097
928.901	4017
929.007	3892
929.112	4025
929.218	4002
929.323	3991
929.428	3937
929.533	4139
929.638	3903
929.743	3972
929.848	4051
929.953	4013
930.058	3922
930.163	3793
930.267	3842
930.372	3991
930.477	3838
930.581	4116
930.685	3960
930.79	3804
930.894	3846
930.998	3903
931.103	4021
931.207	3724
931.311	3701
931.415	3713
931.519	3545
931.623	3557
