Data from test_V78500241_2134.txt Node
Date: Fri Mar 25 17:03:50 CST 2022
User: usil
Spectrometer: V785-0024
Trigger mode: 0
Integration Time (sec): 4.000000E-1
Scans to average: 1
Nonlinearity correction enabled: false
Boxcar width: 0
Storing dark spectrum: false
XAxis mode: Wavelengths
Number of Pixels in Spectrum: 1024
>>>>>Begin Spectral Data<<<<<
801.071	8081
801.214	7978
801.356	7879
801.499	7780
801.641	7845
801.783	7826
801.926	7959
802.068	7864
802.211	7970
802.353	8046
802.496	7860
802.638	7925
802.78	7883
802.923	7959
803.065	7830
803.208	7849
803.35	7970
803.492	8065
803.635	8210
803.777	8031
803.919	8084
804.061	8473
804.204	8126
804.346	8077
804.488	7932
804.63	8134
804.773	7978
804.915	8073
805.057	8233
805.199	8172
805.341	8123
805.483	8309
805.626	8157
805.768	8168
805.91	8225
806.052	8233
806.194	8138
806.336	8347
806.478	8149
806.62	8065
806.762	8111
806.904	8279
807.046	8457
807.188	8374
807.33	8396
807.472	8320
807.614	8153
807.756	8149
807.898	7955
808.04	7909
808.182	7860
808.324	7883
808.465	7932
808.607	8020
808.749	8115
808.891	8259
809.033	8328
809.174	8248
809.316	8081
809.458	8050
809.6	7928
809.741	8111
809.883	8035
810.025	8069
810.166	8016
810.308	7997
810.45	8016
810.591	7856
810.733	7727
810.875	7647
811.016	7525
811.158	7430
811.299	7537
811.441	7639
811.582	7658
811.724	7571
811.865	7540
812.007	7548
812.148	7571
812.29	7605
812.431	7742
812.573	7868
812.714	7993
812.855	8123
812.997	8134
813.138	8221
813.279	8191
813.421	7997
813.562	7906
813.703	7788
813.845	7738
813.986	7384
814.127	7236
814.268	7206
814.41	7137
814.551	7122
814.692	7198
814.833	7122
814.974	7072
815.115	7072
815.256	6920
815.397	6958
815.539	6962
815.68	6757
815.821	6764
815.962	6909
816.103	6795
816.244	6646
816.385	6604
816.526	6627
816.666	6441
816.807	6292
816.948	6384
817.089	6403
817.23	6414
817.371	6331
817.512	6395
817.653	6380
817.793	6357
817.934	6338
818.075	6437
818.216	6407
818.356	6361
818.497	6205
818.638	6110
818.778	6144
818.919	6144
819.06	6121
819.2	6369
819.341	6262
819.481	6388
819.622	6509
819.762	6681
819.903	6642
820.043	6521
820.184	6547
820.324	6570
820.465	6684
820.605	6593
820.746	6631
820.886	6513
821.026	6604
821.167	6730
821.307	6795
821.447	6814
821.588	6650
821.728	6502
821.868	6467
822.008	6331
822.149	6350
822.289	6372
822.429	6194
822.569	6053
822.709	6140
822.849	5923
822.99	5874
823.13	5927
823.27	5946
823.41	5794
823.55	5802
823.69	5771
823.83	5783
823.97	5688
824.11	5562
824.25	5528
824.389	5535
824.529	5619
824.669	5512
824.809	5657
824.949	5657
825.089	5646
825.228	5577
825.368	5421
825.508	5383
825.648	5410
825.787	5429
825.927	5387
826.067	5372
826.206	5322
826.346	5417
826.485	5425
826.625	5433
826.765	5581
826.904	5497
827.044	5296
827.183	5273
827.323	5185
827.462	5296
827.601	5197
827.741	5155
827.88	5269
828.02	5121
828.159	5303
828.298	5292
828.437	5402
828.577	5303
828.716	5520
828.855	5368
828.994	5231
829.134	5162
829.273	5223
829.412	5181
829.551	5174
829.69	5155
829.829	5334
829.968	5368
830.107	5280
830.246	5318
830.385	5235
830.524	5155
830.663	5143
830.802	5029
830.941	4949
831.08	4870
831.219	4972
831.357	5041
831.496	5204
831.635	4987
831.774	4892
831.913	4892
832.051	4759
832.19	4771
832.329	4850
832.467	4725
832.606	4672
832.744	4675
832.883	4782
833.022	4759
833.16	4809
833.299	4835
833.437	4824
833.576	4885
833.714	4889
833.852	4930
833.991	4938
834.129	5033
834.267	4980
834.406	4953
834.544	5022
834.682	5037
834.821	5006
834.959	5185
835.097	5033
835.235	5193
835.373	5090
835.511	5151
835.65	5083
835.788	5048
835.926	4927
836.064	4957
836.202	4961
836.34	5216
836.478	5220
836.615	5159
836.753	5258
836.891	5330
837.029	5269
837.167	5220
837.305	5227
837.443	5140
837.58	5136
837.718	5292
837.856	5231
837.993	5162
838.131	5239
838.269	5254
838.406	5265
838.544	5212
838.681	5086
838.819	5067
838.956	4908
839.094	4991
839.231	4995
839.369	5121
839.506	5459
839.643	5326
839.781	5109
839.918	5060
840.055	5124
840.193	5140
840.33	5132
840.467	5159
840.604	5250
840.742	5482
840.879	5121
841.016	5052
841.153	5143
841.29	5436
841.427	5395
841.564	5307
841.701	5368
841.838	5303
841.975	5242
842.112	5307
842.249	5193
842.385	5090
842.522	5372
842.659	5178
842.796	5178
842.933	5246
843.069	5143
843.206	5162
843.343	5379
843.479	5254
843.616	5280
843.752	5022
843.889	5071
844.025	5303
844.162	5086
844.298	5212
844.435	5083
844.571	5098
844.708	5231
844.844	5307
844.98	5299
845.117	5288
845.253	5155
845.389	5147
845.525	5212
845.661	5204
845.798	5109
845.934	5117
846.07	5014
846.206	5151
846.342	5334
846.478	5189
846.614	5067
846.75	5060
846.886	5006
847.022	5159
847.158	5037
847.294	5105
847.429	5147
847.565	5086
847.701	5372
847.837	4873
847.972	4782
848.108	4991
848.244	4999
848.379	4854
848.515	4771
848.65	4717
848.786	4767
848.921	4831
849.057	4927
849.192	4915
849.328	4839
849.463	4873
849.598	4809
849.734	4759
849.869	4664
850.004	4630
850.14	4721
850.275	4615
850.41	4603
850.545	4626
850.68	4641
850.815	4645
850.95	4664
851.085	4858
851.22	4805
851.355	4668
851.49	4664
851.625	4656
851.76	4656
851.895	4626
852.03	4565
852.165	4694
852.299	4786
852.434	4831
852.569	4752
852.703	4786
852.838	4843
852.973	4957
853.107	4980
853.242	4774
853.376	4691
853.511	4588
853.645	4645
853.78	4809
853.914	4721
854.048	4702
854.183	4641
854.317	4683
854.451	4919
854.585	4736
854.72	4675
854.854	4816
854.988	4645
855.122	4649
855.256	4538
855.39	4649
855.524	4820
855.658	4748
855.792	4721
855.926	4797
856.06	4774
856.194	4812
856.327	4740
856.461	4630
856.595	4637
856.729	4653
856.862	4774
856.996	4714
857.13	4736
857.263	4752
857.397	4805
857.53	4717
857.664	4755
857.797	4839
857.931	4812
858.064	4752
858.197	4759
858.331	4675
858.464	4618
858.597	4584
858.731	4664
858.864	4656
858.997	4618
859.13	4694
859.263	4672
859.396	4702
859.529	4649
859.662	4588
859.795	4527
859.928	4637
860.061	4812
860.194	4748
860.327	4626
860.46	4584
860.592	4744
860.725	4714
860.858	4721
860.99	4668
861.123	4538
861.256	4565
861.388	4664
861.521	5429
861.653	4542
861.786	4497
861.918	4470
862.05	4558
862.183	4577
862.315	4641
862.447	4668
862.58	4615
862.712	4398
862.844	4322
862.976	4493
863.108	4497
863.24	4801
863.372	4383
863.504	4432
863.636	4478
863.768	4466
863.9	4440
864.032	4386
864.164	4409
864.296	4504
864.428	4584
864.559	4565
864.691	4516
864.823	4538
864.954	4481
865.086	4500
865.217	4508
865.349	4481
865.48	4481
865.612	4531
865.743	4675
865.875	4447
866.006	4485
866.137	4500
866.269	4478
866.4	4432
866.531	4497
866.662	4356
866.793	4436
866.924	4451
867.055	4485
867.186	4417
867.317	4481
867.448	4371
867.579	4428
867.71	4440
867.841	4394
867.972	4447
868.103	4481
868.233	4481
868.364	4447
868.495	4500
868.625	4698
868.756	4759
868.886	4611
869.017	4645
869.147	4812
869.278	4816
869.408	4702
869.539	4653
869.669	4694
869.799	4672
869.929	4793
870.06	4755
870.19	4976
870.32	4908
870.45	4946
870.58	4995
870.71	5067
870.84	5113
870.97	4980
871.1	4911
871.23	5147
871.36	5147
871.489	5064
871.619	5064
871.749	5086
871.879	5143
872.008	5235
872.138	5094
872.267	4972
872.397	4854
872.526	4805
872.656	4733
872.785	4854
872.915	4976
873.044	5003
873.173	4980
873.303	5041
873.432	4999
873.561	4942
873.69	4900
873.819	4896
873.948	4911
874.077	4850
874.206	4793
874.335	4809
874.464	4908
874.593	5098
874.722	4953
874.851	5079
874.979	5033
875.108	5071
875.237	4949
875.365	4911
875.494	4896
875.623	5025
875.751	4839
875.88	4873
876.008	5033
876.136	5079
876.265	5197
876.393	5360
876.521	5292
876.65	5258
876.778	5159
876.906	5071
877.034	5014
877.162	5071
877.29	4976
877.418	5071
877.546	5006
877.674	5048
877.802	5067
877.93	5014
878.058	4938
878.185	4896
878.313	5025
878.441	5010
878.568	4820
878.696	4889
878.824	4976
878.951	4991
879.079	5121
879.206	5322
879.333	5109
879.461	5003
879.588	5029
879.715	5155
879.842	5212
879.97	4995
880.097	4771
880.224	4847
880.351	4752
880.478	4812
880.605	4793
880.732	4839
880.859	5132
880.986	4915
881.112	4984
881.239	4862
881.366	4710
881.493	4645
881.619	4611
881.746	4630
881.872	4656
881.999	4679
882.125	4721
882.252	4797
882.378	4839
882.505	4987
882.631	4809
882.757	4717
882.883	4721
883.01	4755
883.136	4660
883.262	4615
883.388	4618
883.514	4820
883.64	4896
883.766	4828
883.892	4683
884.018	4748
884.143	4892
884.269	5052
884.395	4691
884.52	4630
884.646	4641
884.772	4618
884.897	4550
885.023	4660
885.148	4816
885.274	4892
885.399	4790
885.524	4721
885.65	4706
885.775	4767
885.9	4736
886.025	4877
886.15	4778
886.275	4710
886.4	4656
886.525	4755
886.65	4744
886.775	4733
886.9	4908
887.025	5056
887.149	4782
887.274	4664
887.399	4649
887.523	4599
887.648	4584
887.773	4611
887.897	4710
888.021	4797
888.146	4660
888.27	4885
888.395	4896
888.519	4786
888.643	4854
888.767	4831
888.891	4653
889.015	4580
889.139	4694
889.263	4634
889.387	4774
889.511	4877
889.635	4812
889.759	4683
889.883	4618
890.006	4755
890.13	4873
890.254	4592
890.377	4698
890.501	4569
890.624	4519
890.748	4645
890.871	4531
890.995	4440
891.118	4421
891.241	4527
891.364	4558
891.488	4660
891.611	4459
891.734	4485
891.857	4599
891.98	4569
892.103	4672
892.226	4618
892.349	4550
892.471	4413
892.594	4592
892.717	4615
892.839	4569
892.962	4622
893.085	4733
893.207	4599
893.33	4459
893.452	4584
893.575	4672
893.697	4558
893.819	4854
893.941	4885
894.064	4805
894.186	4607
894.308	4588
894.43	4740
894.552	4828
894.674	4752
894.796	4565
894.918	4561
895.04	4565
895.161	4717
895.283	4653
895.405	4573
895.526	4641
895.648	4615
895.769	4683
895.891	4714
896.012	4733
896.134	4759
896.255	4702
896.376	4664
896.498	4645
896.619	4660
896.74	4653
896.861	4679
896.982	4908
897.103	5060
897.224	4809
897.345	4752
897.466	4675
897.587	4778
897.708	4892
897.828	4767
897.949	4687
898.07	4630
898.19	4660
898.311	4793
898.431	4672
898.552	4763
898.672	4820
898.792	4782
898.913	4748
899.033	4675
899.153	4569
899.273	4462
899.393	4474
899.513	4538
899.633	4538
899.753	4592
899.873	4508
899.993	4615
900.113	4565
900.232	4607
900.352	4573
900.472	4443
900.591	4390
900.711	4546
900.83	4508
900.95	4626
901.069	4698
901.189	4569
901.308	4287
901.427	4341
901.546	4402
901.665	4489
901.784	4542
901.904	4405
902.023	4337
902.141	4188
902.26	4192
902.379	4306
902.498	4249
902.617	4227
902.735	4371
902.854	4386
902.973	4325
903.091	4211
903.21	4234
903.328	4306
903.446	4284
903.565	4227
903.683	4360
903.801	4280
903.919	4379
904.038	4432
904.156	4299
904.274	4478
904.392	4443
904.51	4436
904.627	4493
904.745	4588
904.863	4660
904.981	4398
905.098	4356
905.216	4386
905.334	4466
905.451	4459
905.569	4489
905.686	4531
905.803	4527
905.921	4428
906.038	4580
906.155	4485
906.272	4398
906.389	4497
906.506	4375
906.623	4363
906.74	4394
906.857	4299
906.974	4405
907.091	4519
907.208	4660
907.324	4592
907.441	4455
907.557	4333
907.674	4341
907.79	4303
907.907	4409
908.023	4497
908.139	4470
908.256	4432
908.372	4447
908.488	4474
908.604	4375
908.72	4360
908.836	4375
908.952	4402
909.068	4462
909.184	4550
909.3	4550
909.415	4565
909.531	4618
909.647	4306
909.762	4356
909.878	4352
909.993	4432
910.108	4394
910.224	4421
910.339	4462
910.454	4424
910.57	4352
910.685	4280
910.8	4637
910.915	4622
911.03	4523
911.145	4356
911.259	4325
911.374	4360
911.489	4333
911.604	4265
911.718	4173
911.833	4188
911.947	4109
912.062	4021
912.176	4230
912.291	4207
912.405	4249
912.519	4497
912.633	4519
912.748	4405
912.862	4333
912.976	4257
913.09	4112
913.204	4158
913.318	4249
913.431	4394
913.545	4367
913.659	4432
913.772	4318
913.886	4242
914	4234
914.113	4386
914.226	4428
914.34	4413
914.453	4261
914.566	4424
914.68	4280
914.793	4295
914.906	4143
915.019	4112
915.132	4105
915.245	4185
915.358	4211
915.47	4268
915.583	4276
915.696	4295
915.809	4379
915.921	4451
916.034	4234
916.146	4276
916.259	4234
916.371	4421
916.483	4383
916.595	4276
916.708	4360
916.82	4329
916.932	4318
917.044	4344
917.156	4341
917.268	4253
917.38	4318
917.491	4253
917.603	4348
917.715	4455
917.826	4394
917.938	4375
918.049	4215
918.161	4390
918.272	4580
918.384	4565
918.495	4523
918.606	4276
918.717	4234
918.828	4352
918.939	4383
919.05	4215
919.161	4295
919.272	4147
919.383	4223
919.494	4432
919.604	4664
919.715	4424
919.826	4356
919.936	4428
920.047	4519
920.157	4519
920.267	4694
920.378	4489
920.488	4546
920.598	4733
920.708	4896
920.818	4786
920.928	4782
921.038	4942
921.148	4889
921.258	4656
921.368	4592
921.477	4535
921.587	4466
921.697	4341
921.806	4607
921.916	4432
922.025	4276
922.134	4291
922.244	4207
922.353	4280
922.462	4173
922.571	4150
922.68	4002
922.789	3975
922.898	4032
923.007	3998
923.116	4116
923.224	4086
923.333	4036
923.442	4010
923.55	3991
923.659	4002
923.767	4067
923.876	3972
923.984	4204
924.092	3975
924.201	4074
924.309	4097
924.417	4097
924.525	4044
924.633	4112
924.741	5018
924.849	3915
924.956	4150
925.064	3960
925.172	3911
925.279	3949
925.387	4097
925.494	4044
925.602	4227
925.709	4181
925.816	4021
925.924	4147
926.031	4196
926.138	4181
926.245	4223
926.352	4082
926.459	4314
926.566	4291
926.673	4139
926.779	4074
926.886	4059
926.993	4021
927.099	3937
927.206	3915
927.312	3956
927.419	4013
927.525	4021
927.631	4112
927.737	3953
927.843	3949
927.95	3838
928.056	3964
928.162	4002
928.267	4074
928.373	4577
928.479	4139
928.585	3884
928.69	4029
928.796	4063
928.901	3968
929.007	3869
929.112	4017
929.218	3949
929.323	3960
929.428	3941
929.533	4090
929.638	3915
929.743	3964
929.848	4063
929.953	4040
930.058	3888
930.163	3774
930.267	3842
930.372	3972
930.477	3827
930.581	4071
930.685	3899
930.79	3827
930.894	3876
930.998	3869
931.103	4006
931.207	3747
931.311	3671
931.415	3667
931.519	3538
931.623	3561
