Data from test_V78500241_217.txt Node
Date: Fri Mar 25 16:50:30 CST 2022
User: usil
Spectrometer: V785-0024
Trigger mode: 0
Integration Time (sec): 4.000000E-1
Scans to average: 1
Nonlinearity correction enabled: false
Boxcar width: 0
Storing dark spectrum: false
XAxis mode: Wavelengths
Number of Pixels in Spectrum: 1024
>>>>>Begin Spectral Data<<<<<
801.071	8035
801.214	8046
801.356	7890
801.499	7803
801.641	7761
801.783	7772
801.926	7951
802.068	7959
802.211	7947
802.353	8008
802.496	7845
802.638	7890
802.78	7913
802.923	7902
803.065	7833
803.208	7849
803.35	7955
803.492	8050
803.635	8126
803.777	8016
803.919	8069
804.061	8415
804.204	8115
804.346	7997
804.488	7986
804.63	8073
804.773	8012
804.915	8058
805.057	8305
805.199	8107
805.341	8161
805.483	8237
805.626	8199
805.768	8088
805.91	8161
806.052	8263
806.194	8027
806.336	8244
806.478	8138
806.62	8077
806.762	8043
806.904	8142
807.046	8381
807.188	8305
807.33	8286
807.472	8214
807.614	8103
807.756	8031
807.898	7993
808.04	7841
808.182	7909
808.324	7906
808.465	7906
808.607	8043
808.749	8039
808.891	8202
809.033	8313
809.174	8111
809.316	8043
809.458	8024
809.6	7967
809.741	8001
809.883	7928
810.025	8031
810.166	8012
810.308	8027
810.45	7982
810.591	7833
810.733	7712
810.875	7719
811.016	7499
811.158	7426
811.299	7609
811.441	7731
811.582	7693
811.724	7548
811.865	7544
812.007	7613
812.148	7559
812.29	7639
812.431	7780
812.573	7894
812.714	7978
812.855	8142
812.997	8252
813.138	8324
813.279	8206
813.421	8031
813.562	7993
813.703	7849
813.845	7757
813.986	7430
814.127	7266
814.268	7240
814.41	7206
814.551	7164
814.692	7259
814.833	7122
814.974	7114
815.115	7107
815.256	6981
815.397	6993
815.539	6970
815.68	6821
815.821	6818
815.962	6928
816.103	6894
816.244	6738
816.385	6635
816.526	6646
816.666	6566
816.807	6365
816.948	6509
817.089	6467
817.23	6448
817.371	6369
817.512	6467
817.653	6410
817.793	6448
817.934	6414
818.075	6445
818.216	6494
818.356	6445
818.497	6270
818.638	6152
818.778	6133
818.919	6133
819.06	6125
819.2	6376
819.341	6369
819.481	6395
819.622	6521
819.762	6745
819.903	6703
820.043	6642
820.184	6570
820.324	6589
820.465	6745
820.605	6601
820.746	6604
820.886	6555
821.026	6669
821.167	6700
821.307	6856
821.447	6821
821.588	6684
821.728	6585
821.868	6547
822.008	6391
822.149	6388
822.289	6422
822.429	6224
822.569	6068
822.709	6178
822.849	5923
822.99	5923
823.13	5931
823.27	5923
823.41	5748
823.55	5809
823.69	5790
823.83	5847
823.97	5764
824.11	5539
824.25	5577
824.389	5619
824.529	5649
824.669	5551
824.809	5634
824.949	5699
825.089	5623
825.228	5570
825.368	5440
825.508	5357
825.648	5341
825.787	5444
825.927	5406
826.067	5330
826.206	5357
826.346	5429
826.485	5474
826.625	5455
826.765	5589
826.904	5497
827.044	5273
827.183	5273
827.323	5185
827.462	5307
827.601	5174
827.741	5208
827.88	5246
828.02	5128
828.159	5269
828.298	5292
828.437	5410
828.577	5357
828.716	5478
828.855	5357
828.994	5231
829.134	5220
829.273	5242
829.412	5170
829.551	5140
829.69	5151
829.829	5254
829.968	5379
830.107	5318
830.246	5334
830.385	5174
830.524	5159
830.663	5098
830.802	5014
830.941	4904
831.08	4896
831.219	5037
831.357	4972
831.496	5212
831.635	4923
831.774	4915
831.913	4870
832.051	4744
832.19	4801
832.329	4854
832.467	4759
832.606	4645
832.744	4733
832.883	4786
833.022	4736
833.16	4854
833.299	4839
833.437	4843
833.576	4881
833.714	4889
833.852	4866
833.991	4908
834.129	4972
834.267	4961
834.406	4911
834.544	5045
834.682	4961
834.821	4980
834.959	5178
835.097	4999
835.235	5162
835.373	5121
835.511	5155
835.65	5025
835.788	5045
835.926	4919
836.064	4949
836.202	4908
836.34	5159
836.478	5201
836.615	5208
836.753	5242
836.891	5326
837.029	5280
837.167	5280
837.305	5216
837.443	5147
837.58	5086
837.718	5303
837.856	5242
837.993	5193
838.131	5261
838.269	5273
838.406	5185
838.544	5231
838.681	5045
838.819	5060
838.956	4911
839.094	4927
839.231	4999
839.369	5140
839.506	5467
839.643	5288
839.781	5067
839.918	5037
840.055	5079
840.193	5071
840.33	5105
840.467	5170
840.604	5208
840.742	5482
840.879	5113
841.016	5147
841.153	5197
841.29	5387
841.427	5368
841.564	5318
841.701	5387
841.838	5288
841.975	5242
842.112	5326
842.249	5155
842.385	5121
842.522	5345
842.659	5227
842.796	5162
842.933	5242
843.069	5212
843.206	5216
843.343	5315
843.479	5235
843.616	5280
843.752	5083
843.889	4991
844.025	5223
844.162	5064
844.298	5223
844.435	5109
844.571	5003
844.708	5227
844.844	5322
844.98	5387
845.117	5265
845.253	5189
845.389	5067
845.525	5170
845.661	5166
845.798	5056
845.934	5109
846.07	5094
846.206	5208
846.342	5288
846.478	5227
846.614	5025
846.75	4972
846.886	4995
847.022	5181
847.158	5045
847.294	5105
847.429	5132
847.565	5098
847.701	5326
847.837	4946
847.972	4892
848.108	4991
848.244	4942
848.379	4786
848.515	4759
848.65	4733
848.786	4774
848.921	4831
849.057	4885
849.192	4965
849.328	4854
849.463	4885
849.598	4812
849.734	4767
849.869	4706
850.004	4645
850.14	4721
850.275	4641
850.41	4577
850.545	4611
850.68	4611
850.815	4668
850.95	4664
851.085	4862
851.22	4748
851.355	4694
851.49	4641
851.625	4641
851.76	4626
851.895	4634
852.03	4565
852.165	4649
852.299	4748
852.434	4805
852.569	4797
852.703	4809
852.838	4847
852.973	4953
853.107	4984
853.242	4733
853.376	4721
853.511	4618
853.645	4641
853.78	4824
853.914	4706
854.048	4683
854.183	4683
854.317	4702
854.451	4923
854.585	4702
854.72	4664
854.854	4778
854.988	4615
855.122	4714
855.256	4577
855.39	4706
855.524	4805
855.658	4774
855.792	4736
855.926	4771
856.06	4824
856.194	4858
856.327	4721
856.461	4656
856.595	4664
856.729	4694
856.862	4752
856.996	4786
857.13	4752
857.263	4752
857.397	4850
857.53	4683
857.664	4797
857.797	4778
857.931	4763
858.064	4721
858.197	4782
858.331	4637
858.464	4679
858.597	4561
858.731	4592
858.864	4698
858.997	4573
859.13	4698
859.263	4694
859.396	4736
859.529	4618
859.662	4584
859.795	4596
859.928	4626
860.061	4790
860.194	4816
860.327	4653
860.46	4584
860.592	4717
860.725	4744
860.858	4755
860.99	4626
861.123	4577
861.256	4523
861.388	4630
861.521	5303
861.653	4535
861.786	4459
861.918	4493
862.05	4558
862.183	4538
862.315	4675
862.447	4653
862.58	4558
862.712	4421
862.844	4390
862.976	4462
863.108	4447
863.24	4892
863.372	4356
863.504	4478
863.636	4390
863.768	4493
863.9	4417
864.032	4383
864.164	4409
864.296	4451
864.428	4573
864.559	4580
864.691	4573
864.823	4592
864.954	4546
865.086	4531
865.217	4519
865.349	4455
865.48	4489
865.612	4554
865.743	4599
865.875	4489
866.006	4424
866.137	4512
866.269	4466
866.4	4466
866.531	4466
866.662	4424
866.793	4436
866.924	4447
867.055	4455
867.186	4478
867.317	4436
867.448	4421
867.579	4459
867.71	4440
867.841	4394
867.972	4500
868.103	4466
868.233	4459
868.364	4436
868.495	4519
868.625	4702
868.756	4771
868.886	4588
869.017	4584
869.147	4790
869.278	4816
869.408	4656
869.539	4668
869.669	4721
869.799	4714
869.929	4736
870.06	4759
870.19	4946
870.32	4934
870.45	4949
870.58	5075
870.71	5090
870.84	5132
870.97	4976
871.1	4930
871.23	5132
871.36	5189
871.489	5064
871.619	5098
871.749	5124
871.879	5124
872.008	5208
872.138	5060
872.267	5018
872.397	4850
872.526	4866
872.656	4702
872.785	4850
872.915	4957
873.044	5056
873.173	4972
873.303	4972
873.432	4980
873.561	5018
873.69	4885
873.819	4881
873.948	4938
874.077	4820
874.206	4812
874.335	4873
874.464	4942
874.593	5071
874.722	4984
874.851	5117
874.979	5086
875.108	5064
875.237	4968
875.365	4889
875.494	4915
875.623	4976
875.751	4847
875.88	4908
876.008	5014
876.136	5075
876.265	5185
876.393	5318
876.521	5292
876.65	5223
876.778	5166
876.906	5067
877.034	5006
877.162	5064
877.29	4995
877.418	5041
877.546	5041
877.674	5064
877.802	5041
877.93	5075
878.058	4980
878.185	4847
878.313	4946
878.441	4942
878.568	4896
878.696	4885
878.824	4965
878.951	5025
879.079	5174
879.206	5315
879.333	5113
879.461	5064
879.588	4991
879.715	5147
879.842	5235
879.97	5048
880.097	4763
880.224	4805
880.351	4839
880.478	4843
880.605	4870
880.732	4801
880.859	5060
880.986	4915
881.112	4930
881.239	4774
881.366	4706
881.493	4618
881.619	4592
881.746	4691
881.872	4672
881.999	4675
882.125	4687
882.252	4835
882.378	4885
882.505	4999
882.631	4843
882.757	4672
882.883	4782
883.01	4748
883.136	4687
883.262	4660
883.388	4607
883.514	4812
883.64	4927
883.766	4816
883.892	4710
884.018	4752
884.143	4923
884.269	5025
884.395	4694
884.52	4645
884.646	4649
884.772	4592
884.897	4569
885.023	4656
885.148	4847
885.274	4881
885.399	4801
885.524	4702
885.65	4679
885.775	4812
885.9	4767
886.025	4892
886.15	4812
886.275	4767
886.4	4634
886.525	4698
886.65	4706
886.775	4698
886.9	4949
887.025	5033
887.149	4820
887.274	4664
887.399	4607
887.523	4603
887.648	4592
887.773	4641
887.897	4820
888.021	4771
888.146	4679
888.27	4824
888.395	4923
888.519	4809
888.643	4816
888.767	4839
888.891	4710
889.015	4656
889.139	4710
889.263	4634
889.387	4816
889.511	4854
889.635	4805
889.759	4626
889.883	4653
890.006	4767
890.13	4854
890.254	4615
890.377	4717
890.501	4592
890.624	4546
890.748	4649
890.871	4538
890.995	4432
891.118	4405
891.241	4554
891.364	4531
891.488	4630
891.611	4558
891.734	4535
891.857	4634
891.98	4607
892.103	4645
892.226	4607
892.349	4535
892.471	4417
892.594	4588
892.717	4580
892.839	4615
892.962	4603
893.085	4679
893.207	4599
893.33	4485
893.452	4504
893.575	4672
893.697	4611
893.819	4774
893.941	4828
894.064	4816
894.186	4599
894.308	4588
894.43	4733
894.552	4839
894.674	4820
894.796	4588
894.918	4603
895.04	4573
895.161	4706
895.283	4672
895.405	4561
895.526	4656
895.648	4683
895.769	4675
895.891	4763
896.012	4744
896.134	4763
896.255	4698
896.376	4656
896.498	4653
896.619	4698
896.74	4626
896.861	4626
896.982	4885
897.103	5113
897.224	4847
897.345	4820
897.466	4649
897.587	4740
897.708	4889
897.828	4820
897.949	4706
898.07	4584
898.19	4653
898.311	4847
898.431	4664
898.552	4725
898.672	4828
898.792	4831
898.913	4774
899.033	4603
899.153	4535
899.273	4470
899.393	4493
899.513	4561
899.633	4554
899.753	4554
899.873	4519
899.993	4611
900.113	4531
900.232	4641
900.352	4558
900.472	4493
900.591	4440
900.711	4474
900.83	4462
900.95	4622
901.069	4656
901.189	4535
901.308	4363
901.427	4352
901.546	4405
901.665	4451
901.784	4470
901.904	4360
902.023	4329
902.141	4204
902.26	4188
902.379	4318
902.498	4280
902.617	4253
902.735	4409
902.854	4417
902.973	4363
903.091	4204
903.21	4200
903.328	4303
903.446	4272
903.565	4272
903.683	4360
903.801	4299
903.919	4424
904.038	4447
904.156	4322
904.274	4451
904.392	4417
904.51	4443
904.627	4459
904.745	4596
904.863	4645
904.981	4451
905.098	4306
905.216	4390
905.334	4455
905.451	4470
905.569	4436
905.686	4531
905.803	4596
905.921	4428
906.038	4580
906.155	4523
906.272	4390
906.389	4462
906.506	4371
906.623	4379
906.74	4428
906.857	4318
906.974	4367
907.091	4531
907.208	4771
907.324	4565
907.441	4497
907.557	4379
907.674	4352
907.79	4299
907.907	4432
908.023	4512
908.139	4508
908.256	4428
908.372	4497
908.488	4474
908.604	4367
908.72	4314
908.836	4367
908.952	4413
909.068	4459
909.184	4618
909.3	4478
909.415	4573
909.531	4584
909.647	4367
909.762	4409
909.878	4367
909.993	4447
910.108	4394
910.224	4409
910.339	4519
910.454	4432
910.57	4379
910.685	4314
910.8	4668
910.915	4592
911.03	4508
911.145	4337
911.259	4329
911.374	4402
911.489	4287
911.604	4280
911.718	4166
911.833	4192
911.947	4090
912.062	4017
912.176	4211
912.291	4253
912.405	4249
912.519	4481
912.633	4500
912.748	4375
912.862	4367
912.976	4234
913.09	4128
913.204	4158
913.318	4249
913.431	4337
913.545	4379
913.659	4428
913.772	4356
913.886	4280
914	4249
914.113	4352
914.226	4462
914.34	4398
914.453	4261
914.566	4405
914.68	4344
914.793	4299
914.906	4204
915.019	4135
915.132	4071
915.245	4185
915.358	4223
915.47	4276
915.583	4306
915.696	4363
915.809	4405
915.921	4432
916.034	4287
916.146	4246
916.259	4223
916.371	4348
916.483	4379
916.595	4306
916.708	4329
916.82	4322
916.932	4322
917.044	4322
917.156	4333
917.268	4272
917.38	4329
917.491	4287
917.603	4329
917.715	4402
917.826	4462
917.938	4352
918.049	4261
918.161	4390
918.272	4584
918.384	4558
918.495	4531
918.606	4306
918.717	4223
918.828	4318
918.939	4394
919.05	4272
919.161	4310
919.272	4131
919.383	4227
919.494	4497
919.604	4637
919.715	4432
919.826	4310
919.936	4356
920.047	4561
920.157	4516
920.267	4729
920.378	4565
920.488	4577
920.598	4759
920.708	4896
920.818	4748
920.928	4782
921.038	4965
921.148	4911
921.258	4679
921.368	4580
921.477	4504
921.587	4481
921.697	4447
921.806	4580
921.916	4447
922.025	4287
922.134	4284
922.244	4268
922.353	4322
922.462	4185
922.571	4177
922.68	4025
922.789	3994
922.898	4086
923.007	4002
923.116	4090
923.224	4067
923.333	4128
923.442	4029
923.55	3983
923.659	4017
923.767	4093
923.876	4017
923.984	4143
924.092	3975
924.201	4055
924.309	4101
924.417	4128
924.525	4059
924.633	4124
924.741	5094
924.849	3930
924.956	4143
925.064	3960
925.172	3953
925.279	3998
925.387	4093
925.494	4131
925.602	4177
925.709	4219
925.816	4051
925.924	4143
926.031	4223
926.138	4196
926.245	4261
926.352	4120
926.459	4272
926.566	4337
926.673	4120
926.779	4112
926.886	4116
926.993	3991
927.099	3945
927.206	3953
927.312	3930
927.419	4067
927.525	4040
927.631	4101
927.737	4017
927.843	3945
927.95	3873
928.056	3983
928.162	4010
928.267	4067
928.373	4721
928.479	4124
928.585	3861
928.69	4010
928.796	4086
928.901	3994
929.007	3857
929.112	3991
929.218	3991
929.323	3964
929.428	3994
929.533	4116
929.638	3945
929.743	3998
929.848	4025
929.953	3968
930.058	3945
930.163	3774
930.267	3831
930.372	3994
930.477	3835
930.581	4044
930.685	3991
930.79	3831
930.894	3941
930.998	3861
931.103	4048
931.207	3728
931.311	3736
931.415	3686
931.519	3534
931.623	3542
