Data from test_V78500241_1616.txt Node
Date: Fri Mar 25 17:00:14 CST 2022
User: usil
Spectrometer: V785-0024
Trigger mode: 0
Integration Time (sec): 4.000000E-1
Scans to average: 1
Nonlinearity correction enabled: false
Boxcar width: 0
Storing dark spectrum: false
XAxis mode: Wavelengths
Number of Pixels in Spectrum: 1024
>>>>>Begin Spectral Data<<<<<
801.071	8069
801.214	7997
801.356	7913
801.499	7833
801.641	7883
801.783	7856
801.926	8024
802.068	8027
802.211	7970
802.353	8020
802.496	7849
802.638	7845
802.78	7887
802.923	7978
803.065	7955
803.208	7871
803.35	8027
803.492	8142
803.635	8240
803.777	8001
803.919	8149
804.061	8495
804.204	8244
804.346	8119
804.488	7921
804.63	8107
804.773	8005
804.915	8138
805.057	8309
805.199	8214
805.341	8210
805.483	8305
805.626	8195
805.768	8149
805.91	8233
806.052	8221
806.194	8149
806.336	8305
806.478	8077
806.62	8062
806.762	8050
806.904	8305
807.046	8495
807.188	8370
807.33	8294
807.472	8317
807.614	8138
807.756	8168
807.898	7955
808.04	7864
808.182	7947
808.324	7902
808.465	7826
808.607	8046
808.749	8157
808.891	8153
809.033	8343
809.174	8233
809.316	8069
809.458	8138
809.6	7970
809.741	8088
809.883	8058
810.025	8065
810.166	8069
810.308	8043
810.45	8031
810.591	7902
810.733	7655
810.875	7662
811.016	7575
811.158	7529
811.299	7636
811.441	7674
811.582	7734
811.724	7525
811.865	7567
812.007	7575
812.148	7571
812.29	7693
812.431	7772
812.573	7940
812.714	7986
812.855	8134
812.997	8248
813.138	8298
813.279	8240
813.421	8100
813.562	8005
813.703	7780
813.845	7704
813.986	7495
814.127	7244
814.268	7255
814.41	7228
814.551	7221
814.692	7251
814.833	7088
814.974	7091
815.115	7095
815.256	6954
815.397	7023
815.539	6916
815.68	6882
815.821	6821
815.962	6890
816.103	6837
816.244	6730
816.385	6585
816.526	6612
816.666	6566
816.807	6410
816.948	6441
817.089	6467
817.23	6437
817.371	6380
817.512	6388
817.653	6376
817.793	6369
817.934	6422
818.075	6448
818.216	6490
818.356	6403
818.497	6281
818.638	6155
818.778	6133
818.919	6152
819.06	6159
819.2	6315
819.341	6422
819.481	6384
819.622	6540
819.762	6703
819.903	6730
820.043	6642
820.184	6623
820.324	6559
820.465	6665
820.605	6719
820.746	6677
820.886	6536
821.026	6688
821.167	6715
821.307	6730
821.447	6757
821.588	6665
821.728	6574
821.868	6559
822.008	6308
822.149	6376
822.289	6407
822.429	6163
822.569	6125
822.709	6133
822.849	5931
822.99	5923
823.13	5912
823.27	5885
823.41	5832
823.55	5824
823.69	5798
823.83	5767
823.97	5604
824.11	5516
824.25	5512
824.389	5566
824.529	5573
824.669	5535
824.809	5668
824.949	5707
825.089	5589
825.228	5543
825.368	5398
825.508	5334
825.648	5326
825.787	5387
825.927	5398
826.067	5296
826.206	5269
826.346	5391
826.485	5414
826.625	5376
826.765	5554
826.904	5474
827.044	5299
827.183	5178
827.323	5121
827.462	5235
827.601	5193
827.741	5204
827.88	5197
828.02	5128
828.159	5204
828.298	5357
828.437	5364
828.577	5311
828.716	5509
828.855	5292
828.994	5151
829.134	5155
829.273	5159
829.412	5140
829.551	5132
829.69	5155
829.829	5250
829.968	5391
830.107	5296
830.246	5296
830.385	5189
830.524	5140
830.663	5117
830.802	4919
830.941	4900
831.08	4942
831.219	4991
831.357	4961
831.496	5159
831.635	4930
831.774	4850
831.913	4862
832.051	4759
832.19	4767
832.329	4850
832.467	4660
832.606	4634
832.744	4729
832.883	4740
833.022	4717
833.16	4771
833.299	4793
833.437	4809
833.576	4797
833.714	4858
833.852	4835
833.991	4923
834.129	5006
834.267	4942
834.406	4885
834.544	4976
834.682	4965
834.821	4965
834.959	5159
835.097	4999
835.235	5086
835.373	5121
835.511	5121
835.65	5022
835.788	5037
835.926	4949
836.064	4873
836.202	4927
836.34	5174
836.478	5246
836.615	5121
836.753	5231
836.891	5322
837.029	5261
837.167	5162
837.305	5162
837.443	5193
837.58	5098
837.718	5296
837.856	5204
837.993	5102
838.131	5208
838.269	5197
838.406	5166
838.544	5109
838.681	5003
838.819	4965
838.956	4904
839.094	4892
839.231	5037
839.369	5033
839.506	5444
839.643	5220
839.781	5025
839.918	4999
840.055	5083
840.193	5113
840.33	5117
840.467	5155
840.604	5140
840.742	5444
840.879	5094
841.016	5102
841.153	5174
841.29	5379
841.427	5353
841.564	5337
841.701	5299
841.838	5258
841.975	5193
842.112	5239
842.249	5170
842.385	5124
842.522	5349
842.659	5155
842.796	5143
842.933	5189
843.069	5124
843.206	5159
843.343	5296
843.479	5231
843.616	5299
843.752	5014
843.889	5033
844.025	5258
844.162	5045
844.298	5174
844.435	5098
844.571	5067
844.708	5178
844.844	5307
844.98	5360
845.117	5284
845.253	5159
845.389	5079
845.525	5128
845.661	5128
845.798	5037
845.934	5075
846.07	5056
846.206	5204
846.342	5284
846.478	5151
846.614	5037
846.75	4972
846.886	4915
847.022	5136
847.158	5010
847.294	5086
847.429	5124
847.565	5064
847.701	5360
847.837	4889
847.972	4862
848.108	4957
848.244	4896
848.379	4782
848.515	4694
848.65	4694
848.786	4755
848.921	4831
849.057	4858
849.192	4908
849.328	4790
849.463	4828
849.598	4778
849.734	4721
849.869	4706
850.004	4645
850.14	4645
850.275	4592
850.41	4542
850.545	4577
850.68	4603
850.815	4698
850.95	4622
851.085	4812
851.22	4786
851.355	4668
851.49	4565
851.625	4588
851.76	4675
851.895	4546
852.03	4504
852.165	4691
852.299	4729
852.434	4805
852.569	4733
852.703	4793
852.838	4873
852.973	4923
853.107	4919
853.242	4744
853.376	4634
853.511	4527
853.645	4637
853.78	4801
853.914	4672
854.048	4649
854.183	4634
854.317	4698
854.451	4862
854.585	4672
854.72	4607
854.854	4759
854.988	4569
855.122	4645
855.256	4527
855.39	4603
855.524	4809
855.658	4717
855.792	4687
855.926	4736
856.06	4725
856.194	4809
856.327	4679
856.461	4603
856.595	4573
856.729	4641
856.862	4797
856.996	4698
857.13	4721
857.263	4759
857.397	4805
857.53	4626
857.664	4725
857.797	4725
857.931	4790
858.064	4664
858.197	4736
858.331	4694
858.464	4550
858.597	4546
858.731	4679
858.864	4626
858.997	4607
859.13	4626
859.263	4664
859.396	4675
859.529	4641
859.662	4592
859.795	4542
859.928	4630
860.061	4736
860.194	4805
860.327	4550
860.46	4531
860.592	4710
860.725	4729
860.858	4744
860.99	4538
861.123	4512
861.256	4538
861.388	4618
861.521	5185
861.653	4466
861.786	4500
861.918	4440
862.05	4493
862.183	4561
862.315	4641
862.447	4656
862.58	4489
862.712	4413
862.844	4371
862.976	4459
863.108	4447
863.24	4782
863.372	4314
863.504	4424
863.636	4383
863.768	4417
863.9	4394
864.032	4363
864.164	4428
864.296	4470
864.428	4523
864.559	4592
864.691	4569
864.823	4535
864.954	4516
865.086	4512
865.217	4440
865.349	4451
865.48	4428
865.612	4538
865.743	4603
865.875	4478
866.006	4470
866.137	4455
866.269	4405
866.4	4402
866.531	4451
866.662	4424
866.793	4417
866.924	4451
867.055	4489
867.186	4443
867.317	4436
867.448	4337
867.579	4367
867.71	4390
867.841	4356
867.972	4436
868.103	4440
868.233	4440
868.364	4417
868.495	4462
868.625	4656
868.756	4767
868.886	4508
869.017	4603
869.147	4778
869.278	4721
869.408	4622
869.539	4649
869.669	4675
869.799	4691
869.929	4774
870.06	4702
870.19	4942
870.32	4938
870.45	4946
870.58	5060
870.71	5124
870.84	5086
870.97	4976
871.1	4911
871.23	5128
871.36	5094
871.489	5052
871.619	5102
871.749	5113
871.879	5117
872.008	5147
872.138	5022
872.267	4961
872.397	4843
872.526	4831
872.656	4714
872.785	4786
872.915	4889
873.044	5003
873.173	4965
873.303	4949
873.432	4953
873.561	4949
873.69	4862
873.819	4820
873.948	4934
874.077	4824
874.206	4790
874.335	4793
874.464	4953
874.593	5094
874.722	4949
874.851	5086
874.979	5014
875.108	5064
875.237	4885
875.365	4854
875.494	4885
875.623	4957
875.751	4782
875.88	4873
876.008	4946
876.136	5048
876.265	5174
876.393	5330
876.521	5246
876.65	5212
876.778	5147
876.906	5064
877.034	5033
877.162	5029
877.29	4976
877.418	5079
877.546	5064
877.674	5033
877.802	5060
877.93	4991
878.058	4877
878.185	4850
878.313	4957
878.441	4938
878.568	4839
878.696	4900
878.824	4927
878.951	4999
879.079	5086
879.206	5273
879.333	5079
879.461	4968
879.588	5010
879.715	5132
879.842	5208
879.97	4995
880.097	4752
880.224	4774
880.351	4763
880.478	4805
880.605	4809
880.732	4790
880.859	5121
880.986	4889
881.112	4858
881.239	4809
881.366	4675
881.493	4626
881.619	4561
881.746	4592
881.872	4634
881.999	4645
882.125	4714
882.252	4782
882.378	4786
882.505	4976
882.631	4767
882.757	4660
882.883	4710
883.01	4698
883.136	4698
883.262	4599
883.388	4584
883.514	4786
883.64	4854
883.766	4828
883.892	4683
884.018	4714
884.143	4938
884.269	5022
884.395	4649
884.52	4637
884.646	4626
884.772	4592
884.897	4573
885.023	4694
885.148	4774
885.274	4866
885.399	4828
885.524	4721
885.65	4653
885.775	4771
885.9	4767
886.025	4858
886.15	4820
886.275	4675
886.4	4706
886.525	4752
886.65	4664
886.775	4687
886.9	4873
887.025	5048
887.149	4793
887.274	4649
887.399	4588
887.523	4641
887.648	4561
887.773	4599
887.897	4793
888.021	4812
888.146	4672
888.27	4790
888.395	4919
888.519	4767
888.643	4744
888.767	4801
888.891	4672
889.015	4565
889.139	4615
889.263	4615
889.387	4733
889.511	4911
889.635	4812
889.759	4630
889.883	4618
890.006	4740
890.13	4870
890.254	4622
890.377	4679
890.501	4569
890.624	4550
890.748	4630
890.871	4478
890.995	4428
891.118	4383
891.241	4519
891.364	4538
891.488	4607
891.611	4504
891.734	4516
891.857	4577
891.98	4569
892.103	4611
892.226	4550
892.349	4584
892.471	4440
892.594	4561
892.717	4599
892.839	4596
892.962	4622
893.085	4660
893.207	4668
893.33	4481
893.452	4554
893.575	4622
893.697	4603
893.819	4767
893.941	4866
894.064	4744
894.186	4550
894.308	4523
894.43	4736
894.552	4839
894.674	4778
894.796	4546
894.918	4550
895.04	4565
895.161	4702
895.283	4622
895.405	4577
895.526	4634
895.648	4721
895.769	4706
895.891	4706
896.012	4733
896.134	4691
896.255	4668
896.376	4622
896.498	4630
896.619	4664
896.74	4645
896.861	4687
896.982	4942
897.103	5090
897.224	4862
897.345	4740
897.466	4618
897.587	4710
897.708	4831
897.828	4809
897.949	4675
898.07	4565
898.19	4660
898.311	4839
898.431	4641
898.552	4763
898.672	4774
898.792	4729
898.913	4710
899.033	4649
899.153	4497
899.273	4394
899.393	4489
899.513	4588
899.633	4527
899.753	4573
899.873	4493
899.993	4573
900.113	4493
900.232	4531
900.352	4527
900.472	4466
900.591	4402
900.711	4474
900.83	4428
900.95	4615
901.069	4733
901.189	4607
901.308	4379
901.427	4295
901.546	4348
901.665	4428
901.784	4500
901.904	4428
902.023	4299
902.141	4181
902.26	4128
902.379	4303
902.498	4246
902.617	4265
902.735	4356
902.854	4379
902.973	4390
903.091	4227
903.21	4211
903.328	4333
903.446	4322
903.565	4284
903.683	4303
903.801	4306
903.919	4344
904.038	4519
904.156	4333
904.274	4405
904.392	4363
904.51	4417
904.627	4504
904.745	4565
904.863	4645
904.981	4424
905.098	4325
905.216	4383
905.334	4421
905.451	4421
905.569	4436
905.686	4527
905.803	4569
905.921	4451
906.038	4516
906.155	4466
906.272	4394
906.389	4424
906.506	4394
906.623	4363
906.74	4409
906.857	4287
906.974	4379
907.091	4538
907.208	4691
907.324	4584
907.441	4466
907.557	4318
907.674	4352
907.79	4344
907.907	4386
908.023	4508
908.139	4516
908.256	4451
908.372	4497
908.488	4462
908.604	4371
908.72	4310
908.836	4386
908.952	4367
909.068	4455
909.184	4558
909.3	4455
909.415	4615
909.531	4607
909.647	4352
909.762	4371
909.878	4310
909.993	4409
910.108	4424
910.224	4386
910.339	4485
910.454	4405
910.57	4394
910.685	4314
910.8	4626
910.915	4607
911.03	4508
911.145	4333
911.259	4344
911.374	4371
911.489	4272
911.604	4257
911.718	4207
911.833	4196
911.947	4040
912.062	4029
912.176	4188
912.291	4207
912.405	4227
912.519	4493
912.633	4485
912.748	4329
912.862	4287
912.976	4223
913.09	4044
913.204	4234
913.318	4303
913.431	4360
913.545	4356
913.659	4417
913.772	4344
913.886	4238
914	4204
914.113	4386
914.226	4402
914.34	4371
914.453	4257
914.566	4421
914.68	4291
914.793	4318
914.906	4169
915.019	4120
915.132	4105
915.245	4185
915.358	4177
915.47	4211
915.583	4227
915.696	4276
915.809	4405
915.921	4405
916.034	4261
916.146	4230
916.259	4268
916.371	4371
916.483	4390
916.595	4238
916.708	4280
916.82	4299
916.932	4348
917.044	4348
917.156	4367
917.268	4166
917.38	4280
917.491	4265
917.603	4249
917.715	4443
917.826	4394
917.938	4337
918.049	4234
918.161	4352
918.272	4535
918.384	4504
918.495	4440
918.606	4318
918.717	4249
918.828	4291
918.939	4337
919.05	4306
919.161	4322
919.272	4166
919.383	4230
919.494	4436
919.604	4622
919.715	4428
919.826	4337
919.936	4390
920.047	4546
920.157	4500
920.267	4653
920.378	4508
920.488	4485
920.598	4698
920.708	4892
920.818	4710
920.928	4763
921.038	4908
921.148	4911
921.258	4618
921.368	4538
921.477	4470
921.587	4485
921.697	4405
921.806	4500
921.916	4432
922.025	4280
922.134	4280
922.244	4173
922.353	4306
922.462	4139
922.571	4166
922.68	4006
922.789	3953
922.898	4051
923.007	3994
923.116	4074
923.224	4063
923.333	4059
923.442	3937
923.55	3956
923.659	3983
923.767	4082
923.876	3964
923.984	4105
924.092	4006
924.201	4063
924.309	4097
924.417	4131
924.525	4082
924.633	4078
924.741	4873
924.849	3911
924.956	4147
925.064	3956
925.172	3918
925.279	3975
925.387	4051
925.494	4101
925.602	4249
925.709	4192
925.816	4048
925.924	4105
926.031	4204
926.138	4158
926.245	4185
926.352	4082
926.459	4280
926.566	4287
926.673	4154
926.779	4120
926.886	4051
926.993	3953
927.099	3934
927.206	3911
927.312	3907
927.419	4025
927.525	3998
927.631	4086
927.737	3979
927.843	3953
927.95	3831
928.056	3945
928.162	4010
928.267	4032
928.373	4580
928.479	4105
928.585	3876
928.69	3991
928.796	4067
928.901	3975
929.007	3842
929.112	4002
929.218	3998
929.323	3911
929.428	3983
929.533	4097
929.638	3930
929.743	3998
929.848	4078
929.953	3949
930.058	3930
930.163	3800
930.267	3850
930.372	4006
930.477	3762
930.581	4086
930.685	3968
930.79	3850
930.894	3884
930.998	3876
931.103	4006
931.207	3698
931.311	3667
931.415	3690
931.519	3526
931.623	3523
