Data from test_V78500241_1904.txt Node
Date: Fri Mar 25 17:02:14 CST 2022
User: usil
Spectrometer: V785-0024
Trigger mode: 0
Integration Time (sec): 4.000000E-1
Scans to average: 1
Nonlinearity correction enabled: false
Boxcar width: 0
Storing dark spectrum: false
XAxis mode: Wavelengths
Number of Pixels in Spectrum: 1024
>>>>>Begin Spectral Data<<<<<
801.071	7993
801.214	8046
801.356	7864
801.499	7849
801.641	7845
801.783	7845
801.926	7993
802.068	7925
802.211	7982
802.353	8031
802.496	7875
802.638	7902
802.78	7925
802.923	7978
803.065	7898
803.208	7871
803.35	7997
803.492	8046
803.635	8233
803.777	7974
803.919	8115
804.061	8396
804.204	8172
804.346	8111
804.488	7982
804.63	8100
804.773	8100
804.915	8020
805.057	8358
805.199	8225
805.341	8229
805.483	8259
805.626	8225
805.768	8103
805.91	8301
806.052	8275
806.194	8164
806.336	8301
806.478	8138
806.62	8065
806.762	8115
806.904	8286
807.046	8499
807.188	8351
807.33	8358
807.472	8393
807.614	8206
807.756	8164
807.898	8024
808.04	7890
808.182	7921
808.324	7967
808.465	7921
808.607	8088
808.749	8107
808.891	8199
809.033	8279
809.174	8199
809.316	8065
809.458	8115
809.6	8020
809.741	8084
809.883	8065
810.025	8043
810.166	8077
810.308	8084
810.45	8024
810.591	7894
810.733	7734
810.875	7662
811.016	7502
811.158	7502
811.299	7590
811.441	7723
811.582	7605
811.724	7601
811.865	7567
812.007	7605
812.148	7636
812.29	7605
812.431	7761
812.573	7940
812.714	8058
812.855	8149
812.997	8183
813.138	8313
813.279	8206
813.421	8180
813.562	7951
813.703	7822
813.845	7723
813.986	7445
814.127	7236
814.268	7285
814.41	7149
814.551	7149
814.692	7282
814.833	7122
814.974	7114
815.115	7149
815.256	6970
815.397	7019
815.539	6989
815.68	6810
815.821	6772
815.962	6909
816.103	6901
816.244	6715
816.385	6631
816.526	6677
816.666	6563
816.807	6338
816.948	6448
817.089	6532
817.23	6445
817.371	6361
817.512	6365
817.653	6399
817.793	6334
817.934	6414
818.075	6471
818.216	6486
818.356	6437
818.497	6292
818.638	6182
818.778	6152
818.919	6140
819.06	6235
819.2	6414
819.341	6395
819.481	6342
819.622	6597
819.762	6741
819.903	6711
820.043	6635
820.184	6612
820.324	6585
820.465	6730
820.605	6673
820.746	6677
820.886	6517
821.026	6597
821.167	6722
821.307	6814
821.447	6802
821.588	6719
821.728	6612
821.868	6502
822.008	6350
822.149	6410
822.289	6384
822.429	6159
822.569	6133
822.709	6133
822.849	5946
822.99	5885
823.13	5904
823.27	5863
823.41	5836
823.55	5786
823.69	5771
823.83	5798
823.97	5672
824.11	5509
824.25	5539
824.389	5554
824.529	5573
824.669	5535
824.809	5634
824.949	5661
825.089	5627
825.228	5554
825.368	5429
825.508	5296
825.648	5357
825.787	5357
825.927	5398
826.067	5303
826.206	5296
826.346	5402
826.485	5421
826.625	5417
826.765	5589
826.904	5497
827.044	5261
827.183	5220
827.323	5162
827.462	5212
827.601	5162
827.741	5227
827.88	5254
828.02	5147
828.159	5216
828.298	5315
828.437	5368
828.577	5318
828.716	5497
828.855	5345
828.994	5197
829.134	5193
829.273	5193
829.412	5166
829.551	5113
829.69	5216
829.829	5258
829.968	5383
830.107	5284
830.246	5273
830.385	5174
830.524	5105
830.663	5090
830.802	4999
830.941	4889
831.08	4877
831.219	5018
831.357	4938
831.496	5151
831.635	4911
831.774	4835
831.913	4889
832.051	4748
832.19	4786
832.329	4847
832.467	4729
832.606	4649
832.744	4694
832.883	4736
833.022	4771
833.16	4793
833.299	4835
833.437	4831
833.576	4820
833.714	4828
833.852	4877
833.991	4885
834.129	4953
834.267	4961
834.406	4934
834.544	4991
834.682	5022
834.821	4934
834.959	5143
835.097	5045
835.235	5181
835.373	5086
835.511	5109
835.65	5010
835.788	5037
835.926	4889
836.064	4881
836.202	4949
836.34	5162
836.478	5250
836.615	5132
836.753	5204
836.891	5273
837.029	5258
837.167	5220
837.305	5155
837.443	5174
837.58	5140
837.718	5261
837.856	5197
837.993	5178
838.131	5239
838.269	5193
838.406	5193
838.544	5204
838.681	5048
838.819	5041
838.956	4843
839.094	4923
839.231	5010
839.369	5060
839.506	5414
839.643	5250
839.781	5033
839.918	5006
840.055	5162
840.193	5159
840.33	5147
840.467	5128
840.604	5201
840.742	5425
840.879	5083
841.016	5098
841.153	5197
841.29	5341
841.427	5364
841.564	5330
841.701	5368
841.838	5269
841.975	5231
842.112	5235
842.249	5109
842.385	5128
842.522	5353
842.659	5216
842.796	5147
842.933	5189
843.069	5132
843.206	5155
843.343	5353
843.479	5231
843.616	5239
843.752	5056
843.889	4991
844.025	5204
844.162	4995
844.298	5204
844.435	5121
844.571	5048
844.708	5170
844.844	5337
844.98	5372
845.117	5284
845.253	5166
845.389	5109
845.525	5216
845.661	5162
845.798	5083
845.934	5162
846.07	5052
846.206	5185
846.342	5299
846.478	5212
846.614	4999
846.75	5010
846.886	4938
847.022	5155
847.158	5022
847.294	5033
847.429	5109
847.565	5041
847.701	5330
847.837	4866
847.972	4812
848.108	4987
848.244	4915
848.379	4790
848.515	4729
848.65	4721
848.786	4725
848.921	4786
849.057	4915
849.192	4923
849.328	4793
849.463	4885
849.598	4824
849.734	4733
849.869	4717
850.004	4637
850.14	4687
850.275	4599
850.41	4535
850.545	4588
850.68	4634
850.815	4637
850.95	4649
851.085	4862
851.22	4774
851.355	4683
851.49	4618
851.625	4618
851.76	4664
851.895	4577
852.03	4538
852.165	4637
852.299	4725
852.434	4809
852.569	4828
852.703	4786
852.838	4847
852.973	4934
853.107	4896
853.242	4748
853.376	4660
853.511	4577
853.645	4615
853.78	4824
853.914	4702
854.048	4664
854.183	4706
854.317	4706
854.451	4816
854.585	4702
854.72	4645
854.854	4733
854.988	4607
855.122	4599
855.256	4550
855.39	4622
855.524	4809
855.658	4714
855.792	4679
855.926	4710
856.06	4797
856.194	4816
856.327	4694
856.461	4626
856.595	4611
856.729	4664
856.862	4778
856.996	4721
857.13	4755
857.263	4812
857.397	4729
857.53	4641
857.664	4702
857.797	4725
857.931	4782
858.064	4710
858.197	4733
858.331	4706
858.464	4634
858.597	4527
858.731	4656
858.864	4615
858.997	4588
859.13	4687
859.263	4637
859.396	4698
859.529	4615
859.662	4603
859.795	4535
859.928	4599
860.061	4786
860.194	4744
860.327	4634
860.46	4607
860.592	4733
860.725	4706
860.858	4725
860.99	4577
861.123	4550
861.256	4489
861.388	4664
861.521	5284
861.653	4485
861.786	4478
861.918	4436
862.05	4565
862.183	4535
862.315	4618
862.447	4637
862.58	4538
862.712	4398
862.844	4284
862.976	4497
863.108	4451
863.24	4748
863.372	4371
863.504	4405
863.636	4405
863.768	4470
863.9	4470
864.032	4386
864.164	4440
864.296	4432
864.428	4512
864.559	4497
864.691	4535
864.823	4527
864.954	4489
865.086	4459
865.217	4497
865.349	4440
865.48	4504
865.612	4455
865.743	4622
865.875	4424
866.006	4432
866.137	4436
866.269	4478
866.4	4436
866.531	4432
866.662	4428
866.793	4440
866.924	4440
867.055	4538
867.186	4485
867.317	4390
867.448	4379
867.579	4367
867.71	4318
867.841	4360
867.972	4500
868.103	4466
868.233	4428
868.364	4436
868.495	4474
868.625	4645
868.756	4755
868.886	4577
869.017	4622
869.147	4748
869.278	4759
869.408	4714
869.539	4660
869.669	4683
869.799	4660
869.929	4797
870.06	4755
870.19	4949
870.32	4938
870.45	4919
870.58	5052
870.71	5109
870.84	5064
870.97	4942
871.1	4934
871.23	5174
871.36	5128
871.489	5045
871.619	5113
871.749	5079
871.879	5113
872.008	5155
872.138	5006
872.267	4927
872.397	4816
872.526	4831
872.656	4763
872.785	4820
872.915	4991
873.044	5014
873.173	4976
873.303	4976
873.432	4946
873.561	4999
873.69	4892
873.819	4828
873.948	4923
874.077	4847
874.206	4786
874.335	4812
874.464	4900
874.593	5071
874.722	4930
874.851	5094
874.979	5117
875.108	5045
875.237	4991
875.365	4885
875.494	4923
875.623	4968
875.751	4839
875.88	4847
876.008	4995
876.136	5056
876.265	5185
876.393	5368
876.521	5288
876.65	5250
876.778	5185
876.906	5045
877.034	5041
877.162	5018
877.29	4957
877.418	5037
877.546	5010
877.674	5090
877.802	5067
877.93	5025
878.058	4934
878.185	4866
878.313	4919
878.441	4915
878.568	4801
878.696	4870
878.824	4923
878.951	5037
879.079	5124
879.206	5231
879.333	5105
879.461	4980
879.588	5003
879.715	5094
879.842	5223
879.97	5052
880.097	4771
880.224	4786
880.351	4839
880.478	4812
880.605	4767
880.732	4816
880.859	5098
880.986	4873
881.112	4877
881.239	4786
881.366	4702
881.493	4649
881.619	4588
881.746	4611
881.872	4615
881.999	4622
882.125	4744
882.252	4809
882.378	4835
882.505	4930
882.631	4733
882.757	4656
882.883	4733
883.01	4763
883.136	4645
883.262	4588
883.388	4611
883.514	4824
883.64	4839
883.766	4809
883.892	4717
884.018	4698
884.143	4866
884.269	5037
884.395	4660
884.52	4592
884.646	4615
884.772	4607
884.897	4615
885.023	4725
885.148	4778
885.274	4839
885.399	4877
885.524	4714
885.65	4714
885.775	4744
885.9	4736
886.025	4850
886.15	4744
886.275	4714
886.4	4672
886.525	4706
886.65	4660
886.775	4694
886.9	4900
887.025	5022
887.149	4809
887.274	4634
887.399	4596
887.523	4558
887.648	4596
887.773	4615
887.897	4755
888.021	4778
888.146	4668
888.27	4721
888.395	4908
888.519	4854
888.643	4835
888.767	4824
888.891	4637
889.015	4554
889.139	4660
889.263	4630
889.387	4733
889.511	4866
889.635	4755
889.759	4634
889.883	4645
890.006	4675
890.13	4812
890.254	4618
890.377	4698
890.501	4542
890.624	4554
890.748	4630
890.871	4508
890.995	4402
891.118	4417
891.241	4561
891.364	4538
891.488	4592
891.611	4474
891.734	4531
891.857	4618
891.98	4565
892.103	4641
892.226	4554
892.349	4516
892.471	4424
892.594	4527
892.717	4565
892.839	4558
892.962	4592
893.085	4637
893.207	4550
893.33	4474
893.452	4500
893.575	4653
893.697	4573
893.819	4740
893.941	4862
894.064	4786
894.186	4573
894.308	4596
894.43	4706
894.552	4801
894.674	4740
894.796	4535
894.918	4599
895.04	4573
895.161	4675
895.283	4656
895.405	4611
895.526	4641
895.648	4694
895.769	4637
895.891	4736
896.012	4740
896.134	4721
896.255	4622
896.376	4607
896.498	4607
896.619	4618
896.74	4607
896.861	4656
896.982	4850
897.103	5086
897.224	4839
897.345	4740
897.466	4672
897.587	4729
897.708	4850
897.828	4793
897.949	4649
898.07	4523
898.19	4592
898.311	4786
898.431	4694
898.552	4729
898.672	4790
898.792	4790
898.913	4790
899.033	4580
899.153	4493
899.273	4421
899.393	4504
899.513	4573
899.633	4500
899.753	4554
899.873	4554
899.993	4588
900.113	4493
900.232	4554
900.352	4508
900.472	4466
900.591	4451
900.711	4455
900.83	4474
900.95	4565
901.069	4717
901.189	4542
901.308	4333
901.427	4299
901.546	4379
901.665	4512
901.784	4508
901.904	4386
902.023	4314
902.141	4227
902.26	4169
902.379	4341
902.498	4253
902.617	4215
902.735	4329
902.854	4424
902.973	4280
903.091	4169
903.21	4204
903.328	4333
903.446	4295
903.565	4253
903.683	4367
903.801	4299
903.919	4394
904.038	4443
904.156	4329
904.274	4455
904.392	4383
904.51	4390
904.627	4542
904.745	4588
904.863	4580
904.981	4405
905.098	4325
905.216	4322
905.334	4432
905.451	4417
905.569	4424
905.686	4546
905.803	4527
905.921	4363
906.038	4500
906.155	4489
906.272	4379
906.389	4466
906.506	4325
906.623	4383
906.74	4405
906.857	4295
906.974	4375
907.091	4569
907.208	4694
907.324	4584
907.441	4481
907.557	4314
907.674	4318
907.79	4280
907.907	4390
908.023	4466
908.139	4531
908.256	4405
908.372	4481
908.488	4440
908.604	4322
908.72	4284
908.836	4360
908.952	4337
909.068	4402
909.184	4584
909.3	4462
909.415	4599
909.531	4523
909.647	4318
909.762	4398
909.878	4322
909.993	4478
910.108	4413
910.224	4440
910.339	4504
910.454	4405
910.57	4356
910.685	4322
910.8	4702
910.915	4580
911.03	4500
911.145	4333
911.259	4318
911.374	4383
911.489	4284
911.604	4253
911.718	4139
911.833	4207
911.947	4078
912.062	4036
912.176	4185
912.291	4238
912.405	4246
912.519	4474
912.633	4497
912.748	4375
912.862	4306
912.976	4223
913.09	4086
913.204	4196
913.318	4196
913.431	4421
913.545	4318
913.659	4462
913.772	4356
913.886	4246
914	4234
914.113	4341
914.226	4428
914.34	4436
914.453	4188
914.566	4436
914.68	4284
914.793	4303
914.906	4154
915.019	4154
915.132	4082
915.245	4143
915.358	4230
915.47	4215
915.583	4238
915.696	4234
915.809	4333
915.921	4390
916.034	4215
916.146	4253
916.259	4139
916.371	4398
916.483	4383
916.595	4181
916.708	4314
916.82	4322
916.932	4329
917.044	4295
917.156	4306
917.268	4242
917.38	4306
917.491	4268
917.603	4341
917.715	4398
917.826	4470
917.938	4348
918.049	4211
918.161	4398
918.272	4493
918.384	4558
918.495	4386
918.606	4291
918.717	4223
918.828	4329
918.939	4363
919.05	4246
919.161	4344
919.272	4074
919.383	4215
919.494	4432
919.604	4596
919.715	4432
919.826	4303
919.936	4402
920.047	4500
920.157	4466
920.267	4691
920.378	4538
920.488	4504
920.598	4721
920.708	4862
920.818	4748
920.928	4771
921.038	4957
921.148	4942
921.258	4580
921.368	4573
921.477	4489
921.587	4462
921.697	4303
921.806	4531
921.916	4428
922.025	4227
922.134	4287
922.244	4192
922.353	4303
922.462	4154
922.571	4128
922.68	4036
922.789	4029
922.898	4032
923.007	4010
923.116	4105
923.224	4025
923.333	4040
923.442	3998
923.55	3975
923.659	4021
923.767	4063
923.876	3991
923.984	4109
924.092	3956
924.201	4074
924.309	4059
924.417	4128
924.525	4048
924.633	4071
924.741	5003
924.849	3907
924.956	4101
925.064	3994
925.172	3903
925.279	3953
925.387	4063
925.494	4051
925.602	4227
925.709	4188
925.816	4025
925.924	4112
926.031	4188
926.138	4181
926.245	4192
926.352	4055
926.459	4200
926.566	4265
926.673	4166
926.779	4128
926.886	4086
926.993	3975
927.099	3975
927.206	3907
927.312	3934
927.419	4006
927.525	4025
927.631	4093
927.737	3922
927.843	3949
927.95	3846
928.056	3937
928.162	4021
928.267	4101
928.373	4607
928.479	4131
928.585	3922
928.69	4025
928.796	4074
928.901	3934
929.007	3861
929.112	3987
929.218	3979
929.323	3998
929.428	3941
929.533	4029
929.638	3880
929.743	3922
929.848	4010
929.953	3972
930.058	3899
930.163	3781
930.267	3831
930.372	3972
930.477	3800
930.581	4048
930.685	3918
930.79	3808
930.894	3850
930.998	3865
931.103	4036
931.207	3720
931.311	3686
931.415	3663
931.519	3504
931.623	3504
