Data from test_V78500241_7.txt Node
Date: Fri Mar 25 16:49:03 CST 2022
User: usil
Spectrometer: V785-0024
Trigger mode: 0
Integration Time (sec): 4.000000E-1
Scans to average: 1
Nonlinearity correction enabled: false
Boxcar width: 0
Storing dark spectrum: false
XAxis mode: Wavelengths
Number of Pixels in Spectrum: 1024
>>>>>Begin Spectral Data<<<<<
801.071	8111
801.214	8077
801.356	8001
801.499	7909
801.641	7833
801.783	7902
801.926	8020
802.068	8031
802.211	8012
802.353	8073
802.496	7970
802.638	7925
802.78	8005
802.923	8001
803.065	7917
803.208	7944
803.35	8069
803.492	8134
803.635	8168
803.777	7997
803.919	8172
804.061	8484
804.204	8229
804.346	8119
804.488	8020
804.63	8111
804.773	8043
804.915	8126
805.057	8290
805.199	8202
805.341	8271
805.483	8294
805.626	8225
805.768	8259
805.91	8237
806.052	8267
806.194	8119
806.336	8286
806.478	8142
806.62	8142
806.762	8240
806.904	8351
807.046	8461
807.188	8431
807.33	8343
807.472	8374
807.614	8240
807.756	8123
807.898	8069
808.04	7951
808.182	8001
808.324	7970
808.465	7974
808.607	8062
808.749	8153
808.891	8176
809.033	8271
809.174	8225
809.316	8005
809.458	8115
809.6	8031
809.741	8107
809.883	8054
810.025	8119
810.166	8130
810.308	8119
810.45	8058
810.591	7947
810.733	7727
810.875	7719
811.016	7544
811.158	7559
811.299	7681
811.441	7803
811.582	7719
811.724	7628
811.865	7594
812.007	7666
812.148	7609
812.29	7719
812.431	7772
812.573	7894
812.714	8050
812.855	8138
812.997	8237
813.138	8298
813.279	8267
813.421	8153
813.562	8092
813.703	7993
813.845	7822
813.986	7499
814.127	7354
814.268	7247
814.41	7343
814.551	7168
814.692	7236
814.833	7084
814.974	7149
815.115	7137
815.256	6993
815.397	6951
815.539	6928
815.68	6772
815.821	6810
815.962	6966
816.103	6913
816.244	6829
816.385	6726
816.526	6677
816.666	6521
816.807	6376
816.948	6429
817.089	6502
817.23	6498
817.371	6399
817.512	6365
817.653	6399
817.793	6403
817.934	6433
818.075	6448
818.216	6486
818.356	6437
818.497	6281
818.638	6144
818.778	6201
818.919	6182
819.06	6266
819.2	6410
819.341	6338
819.481	6395
819.622	6555
819.762	6837
819.903	6772
820.043	6684
820.184	6654
820.324	6673
820.465	6768
820.605	6715
820.746	6730
820.886	6574
821.026	6749
821.167	6741
821.307	6882
821.447	6833
821.588	6719
821.728	6658
821.868	6528
822.008	6410
822.149	6433
822.289	6448
822.429	6235
822.569	6190
822.709	6155
822.849	6015
822.99	5969
823.13	6041
823.27	5980
823.41	5821
823.55	5851
823.69	5840
823.83	5836
823.97	5745
824.11	5672
824.25	5589
824.389	5615
824.529	5688
824.669	5649
824.809	5665
824.949	5729
825.089	5718
825.228	5691
825.368	5532
825.508	5410
825.648	5452
825.787	5493
825.927	5505
826.067	5440
826.206	5353
826.346	5524
826.485	5459
826.625	5528
826.765	5634
826.904	5520
827.044	5311
827.183	5292
827.323	5254
827.462	5353
827.601	5273
827.741	5296
827.88	5337
828.02	5208
828.159	5246
828.298	5368
828.437	5452
828.577	5455
828.716	5623
828.855	5421
828.994	5258
829.134	5261
829.273	5330
829.412	5250
829.551	5208
829.69	5246
829.829	5372
829.968	5429
830.107	5410
830.246	5318
830.385	5280
830.524	5197
830.663	5143
830.802	5037
830.941	4957
831.08	4961
831.219	5075
831.357	5056
831.496	5258
831.635	5041
831.774	4904
831.913	4942
832.051	4774
832.19	4793
832.329	4942
832.467	4774
832.606	4691
832.744	4816
832.883	4850
833.022	4797
833.16	4809
833.299	4900
833.437	4930
833.576	4930
833.714	4984
833.852	4900
833.991	4957
834.129	5056
834.267	4987
834.406	5025
834.544	5060
834.682	5083
834.821	5056
834.959	5239
835.097	5067
835.235	5231
835.373	5174
835.511	5216
835.65	5113
835.788	5117
835.926	4938
836.064	4953
836.202	5056
836.34	5280
836.478	5261
836.615	5189
836.753	5288
836.891	5368
837.029	5277
837.167	5231
837.305	5239
837.443	5201
837.58	5162
837.718	5341
837.856	5235
837.993	5258
838.131	5360
838.269	5269
838.406	5326
838.544	5261
838.681	5090
838.819	5079
838.956	4987
839.094	4999
839.231	5067
839.369	5147
839.506	5490
839.643	5337
839.781	5166
839.918	5067
840.055	5185
840.193	5140
840.33	5193
840.467	5181
840.604	5299
840.742	5520
840.879	5181
841.016	5170
841.153	5220
841.29	5474
841.427	5455
841.564	5379
841.701	5395
841.838	5341
841.975	5296
842.112	5353
842.249	5265
842.385	5178
842.522	5417
842.659	5258
842.796	5216
842.933	5273
843.069	5250
843.206	5223
843.343	5349
843.479	5307
843.616	5372
843.752	5113
843.889	5124
844.025	5322
844.162	5117
844.298	5296
844.435	5208
844.571	5102
844.708	5254
844.844	5372
844.98	5398
845.117	5395
845.253	5216
845.389	5204
845.525	5189
845.661	5307
845.798	5117
845.934	5201
846.07	5155
846.206	5277
846.342	5376
846.478	5315
846.614	5132
846.75	5010
846.886	5029
847.022	5170
847.158	5147
847.294	5143
847.429	5220
847.565	5105
847.701	5398
847.837	4957
847.972	4820
848.108	5083
848.244	5045
848.379	4820
848.515	4801
848.65	4843
848.786	4839
848.921	4786
849.057	4927
849.192	4927
849.328	4847
849.463	4896
849.598	4873
849.734	4835
849.869	4805
850.004	4679
850.14	4733
850.275	4656
850.41	4603
850.545	4626
850.68	4702
850.815	4736
850.95	4675
851.085	4889
851.22	4820
851.355	4721
851.49	4740
851.625	4702
851.76	4664
851.895	4641
852.03	4603
852.165	4721
852.299	4748
852.434	4870
852.569	4820
852.703	4896
852.838	4934
852.973	5014
853.107	4972
853.242	4854
853.376	4786
853.511	4626
853.645	4694
853.78	4862
853.914	4767
854.048	4733
854.183	4733
854.317	4759
854.451	4885
854.585	4778
854.72	4717
854.854	4805
854.988	4672
855.122	4691
855.256	4542
855.39	4721
855.524	4885
855.658	4793
855.792	4793
855.926	4771
856.06	4816
856.194	4858
856.327	4752
856.461	4664
856.595	4702
856.729	4672
856.862	4831
856.996	4828
857.13	4824
857.263	4809
857.397	4850
857.53	4744
857.664	4797
857.797	4759
857.931	4790
858.064	4736
858.197	4824
858.331	4691
858.464	4714
858.597	4569
858.731	4691
858.864	4714
858.997	4637
859.13	4740
859.263	4736
859.396	4763
859.529	4630
859.662	4675
859.795	4599
859.928	4641
860.061	4801
860.194	4866
860.327	4664
860.46	4656
860.592	4809
860.725	4812
860.858	4831
860.99	4687
861.123	4569
861.256	4596
861.388	4717
861.521	5516
861.653	4569
861.786	4538
861.918	4531
862.05	4622
862.183	4577
862.315	4656
862.447	4721
862.58	4584
862.712	4474
862.844	4379
862.976	4546
863.108	4558
863.24	4984
863.372	4432
863.504	4512
863.636	4443
863.768	4577
863.9	4478
864.032	4451
864.164	4489
864.296	4554
864.428	4668
864.559	4588
864.691	4580
864.823	4649
864.954	4569
865.086	4561
865.217	4527
865.349	4462
865.48	4504
865.612	4550
865.743	4660
865.875	4538
866.006	4531
866.137	4531
866.269	4527
866.4	4535
866.531	4504
866.662	4455
866.793	4455
866.924	4489
867.055	4535
867.186	4500
867.317	4478
867.448	4462
867.579	4470
867.71	4462
867.841	4478
867.972	4531
868.103	4550
868.233	4481
868.364	4523
868.495	4531
868.625	4752
868.756	4828
868.886	4611
869.017	4698
869.147	4866
869.278	4858
869.408	4691
869.539	4710
869.669	4771
869.799	4717
869.929	4831
870.06	4812
870.19	5018
870.32	4927
870.45	5006
870.58	5105
870.71	5193
870.84	5113
870.97	5006
871.1	5025
871.23	5239
871.36	5212
871.489	5105
871.619	5079
871.749	5201
871.879	5201
872.008	5261
872.138	5170
872.267	5060
872.397	4896
872.526	4847
872.656	4778
872.785	4877
872.915	5006
873.044	5124
873.173	5029
873.303	5094
873.432	5029
873.561	5056
873.69	4904
873.819	4930
873.948	4987
874.077	4892
874.206	4812
874.335	4812
874.464	4991
874.593	5090
874.722	4987
874.851	5170
874.979	5197
875.108	5155
875.237	4968
875.365	4900
875.494	4930
875.623	5041
875.751	4949
875.88	4892
876.008	5090
876.136	5159
876.265	5242
876.393	5425
876.521	5376
876.65	5303
876.778	5223
876.906	5166
877.034	5098
877.162	5048
877.29	5067
877.418	5124
877.546	5090
877.674	5124
877.802	5132
877.93	5075
878.058	5041
878.185	4946
878.313	5033
878.441	5041
878.568	4854
878.696	4896
878.824	5025
878.951	5022
879.079	5170
879.206	5337
879.333	5185
879.461	5060
879.588	5098
879.715	5178
879.842	5296
879.97	5098
880.097	4850
880.224	4786
880.351	4862
880.478	4904
880.605	4850
880.732	4850
880.859	5151
880.986	4957
881.112	4995
881.239	4930
881.366	4778
881.493	4691
881.619	4637
881.746	4740
881.872	4793
881.999	4736
882.125	4786
882.252	4831
882.378	4904
882.505	5056
882.631	4850
882.757	4759
882.883	4786
883.01	4748
883.136	4733
883.262	4702
883.388	4702
883.514	4892
883.64	4927
883.766	4904
883.892	4767
884.018	4824
884.143	4987
884.269	5083
884.395	4755
884.52	4653
884.646	4702
884.772	4660
884.897	4607
885.023	4694
885.148	4831
885.274	4949
885.399	4835
885.524	4793
885.65	4790
885.775	4793
885.9	4774
886.025	4923
886.15	4885
886.275	4782
886.4	4668
886.525	4816
886.65	4831
886.775	4774
886.9	5018
887.025	5083
887.149	4934
887.274	4740
887.399	4641
887.523	4672
887.648	4679
887.773	4603
887.897	4809
888.021	4801
888.146	4714
888.27	4877
888.395	5014
888.519	4850
888.643	4877
888.767	4870
888.891	4744
889.015	4698
889.139	4729
889.263	4691
889.387	4831
889.511	4995
889.635	4843
889.759	4729
889.883	4721
890.006	4759
890.13	4930
890.254	4668
890.377	4714
890.501	4611
890.624	4622
890.748	4687
890.871	4538
890.995	4493
891.118	4421
891.241	4580
891.364	4634
891.488	4679
891.611	4542
891.734	4577
891.857	4672
891.98	4588
892.103	4763
892.226	4615
892.349	4538
892.471	4443
892.594	4607
892.717	4687
892.839	4634
892.962	4634
893.085	4717
893.207	4649
893.33	4531
893.452	4596
893.575	4721
893.697	4672
893.819	4889
893.941	4862
894.064	4831
894.186	4618
894.308	4603
894.43	4854
894.552	4904
894.674	4820
894.796	4615
894.918	4626
895.04	4622
895.161	4786
895.283	4733
895.405	4641
895.526	4691
895.648	4748
895.769	4744
895.891	4820
896.012	4820
896.134	4820
896.255	4801
896.376	4702
896.498	4668
896.619	4778
896.74	4706
896.861	4729
896.982	5018
897.103	5121
897.224	4900
897.345	4854
897.466	4729
897.587	4835
897.708	4877
897.828	4816
897.949	4748
898.07	4672
898.19	4664
898.311	4870
898.431	4763
898.552	4797
898.672	4862
898.792	4858
898.913	4839
899.033	4687
899.153	4584
899.273	4451
899.393	4538
899.513	4565
899.633	4546
899.753	4580
899.873	4565
899.993	4664
900.113	4561
900.232	4668
900.352	4634
900.472	4542
900.591	4440
900.711	4504
900.83	4459
900.95	4698
901.069	4721
901.189	4573
901.308	4447
901.427	4371
901.546	4428
901.665	4573
901.784	4599
901.904	4466
902.023	4375
902.141	4268
902.26	4219
902.379	4310
902.498	4257
902.617	4223
902.735	4451
902.854	4508
902.973	4447
903.091	4325
903.21	4276
903.328	4348
903.446	4360
903.565	4318
903.683	4383
903.801	4303
903.919	4462
904.038	4554
904.156	4402
904.274	4451
904.392	4474
904.51	4516
904.627	4550
904.745	4630
904.863	4694
904.981	4481
905.098	4398
905.216	4409
905.334	4512
905.451	4523
905.569	4436
905.686	4618
905.803	4634
905.921	4481
906.038	4596
906.155	4550
906.272	4466
906.389	4512
906.506	4481
906.623	4402
906.74	4466
906.857	4371
906.974	4436
907.091	4592
907.208	4721
907.324	4656
907.441	4527
907.557	4402
907.674	4371
907.79	4367
907.907	4447
908.023	4550
908.139	4512
908.256	4474
908.372	4546
908.488	4512
908.604	4436
908.72	4417
908.836	4459
908.952	4436
909.068	4508
909.184	4618
909.3	4512
909.415	4630
909.531	4603
909.647	4424
909.762	4386
909.878	4383
909.993	4489
910.108	4451
910.224	4493
910.339	4519
910.454	4470
910.57	4379
910.685	4363
910.8	4694
910.915	4660
911.03	4565
911.145	4394
911.259	4337
911.374	4363
911.489	4348
911.604	4329
911.718	4227
911.833	4238
911.947	4128
912.062	4082
912.176	4310
912.291	4287
912.405	4318
912.519	4508
912.633	4504
912.748	4436
912.862	4352
912.976	4268
913.09	4147
913.204	4204
913.318	4352
913.431	4440
913.545	4478
913.659	4512
913.772	4394
913.886	4306
914	4276
914.113	4421
914.226	4500
914.34	4474
914.453	4268
914.566	4523
914.68	4398
914.793	4375
914.906	4196
915.019	4169
915.132	4109
915.245	4249
915.358	4322
915.47	4310
915.583	4280
915.696	4367
915.809	4470
915.921	4455
916.034	4341
916.146	4242
916.259	4276
916.371	4451
916.483	4409
916.595	4371
916.708	4413
916.82	4360
916.932	4394
917.044	4421
917.156	4371
917.268	4322
917.38	4314
917.491	4295
917.603	4413
917.715	4440
917.826	4519
917.938	4421
918.049	4280
918.161	4470
918.272	4607
918.384	4565
918.495	4470
918.606	4371
918.717	4291
918.828	4402
918.939	4379
919.05	4284
919.161	4421
919.272	4188
919.383	4314
919.494	4519
919.604	4664
919.715	4485
919.826	4405
919.936	4485
920.047	4573
920.157	4554
920.267	4805
920.378	4611
920.488	4592
920.598	4774
920.708	4892
920.818	4759
920.928	4824
921.038	5022
921.148	4972
921.258	4672
921.368	4603
921.477	4508
921.587	4558
921.697	4447
921.806	4558
921.916	4493
922.025	4390
922.134	4299
922.244	4310
922.353	4352
922.462	4238
922.571	4150
922.68	4029
922.789	4059
922.898	4040
923.007	4029
923.116	4082
923.224	4067
923.333	4116
923.442	4040
923.55	4025
923.659	4071
923.767	4223
923.876	4044
923.984	4158
924.092	4013
924.201	4150
924.309	4120
924.417	4173
924.525	4112
924.633	4139
924.741	5083
924.849	3941
924.956	4192
925.064	4059
925.172	3949
925.279	3972
925.387	4090
925.494	4097
925.602	4249
925.709	4246
925.816	4051
925.924	4230
926.031	4322
926.138	4211
926.245	4242
926.352	4112
926.459	4276
926.566	4322
926.673	4200
926.779	4101
926.886	4139
926.993	3983
927.099	4021
927.206	4010
927.312	3998
927.419	4128
927.525	4074
927.631	4185
927.737	3998
927.843	3960
927.95	3903
928.056	3998
928.162	4025
928.267	4105
928.373	4778
928.479	4090
928.585	3930
928.69	4067
928.796	4162
928.901	4006
929.007	3869
929.112	4055
929.218	4017
929.323	3983
929.428	3983
929.533	4150
929.638	4002
929.743	3975
929.848	4109
929.953	4044
930.058	3960
930.163	3819
930.267	3884
930.372	4010
930.477	3854
930.581	4128
930.685	4010
930.79	3873
930.894	3899
930.998	3892
931.103	4078
931.207	3766
931.311	3698
931.415	3682
931.519	3568
931.623	3557
