Data from test_V78500241_728.txt Node
Date: Fri Mar 25 16:54:03 CST 2022
User: usil
Spectrometer: V785-0024
Trigger mode: 0
Integration Time (sec): 4.000000E-1
Scans to average: 1
Nonlinearity correction enabled: false
Boxcar width: 0
Storing dark spectrum: false
XAxis mode: Wavelengths
Number of Pixels in Spectrum: 1024
>>>>>Begin Spectral Data<<<<<
801.071	8005
801.214	7978
801.356	7837
801.499	7830
801.641	7750
801.783	7833
801.926	7967
802.068	8001
802.211	7982
802.353	8058
802.496	7909
802.638	7925
802.78	7940
802.923	7887
803.065	7822
803.208	7852
803.35	8008
803.492	8142
803.635	8168
803.777	8020
803.919	8065
804.061	8385
804.204	8134
804.346	8024
804.488	7967
804.63	8088
804.773	8050
804.915	8172
805.057	8229
805.199	8138
805.341	8172
805.483	8210
805.626	8267
805.768	8130
805.91	8187
806.052	8233
806.194	8126
806.336	8298
806.478	8081
806.62	8103
806.762	8142
806.904	8282
807.046	8526
807.188	8362
807.33	8332
807.472	8275
807.614	8176
807.756	8103
807.898	7982
808.04	7811
808.182	7928
808.324	7890
808.465	7913
808.607	8103
808.749	8123
808.891	8240
809.033	8301
809.174	8256
809.316	8176
809.458	8035
809.6	8027
809.741	8020
809.883	8046
810.025	8138
810.166	8077
810.308	8103
810.45	8046
810.591	7871
810.733	7761
810.875	7731
811.016	7571
811.158	7601
811.299	7533
811.441	7788
811.582	7712
811.724	7605
811.865	7529
812.007	7628
812.148	7590
812.29	7636
812.431	7761
812.573	7852
812.714	7940
812.855	8202
812.997	8210
813.138	8336
813.279	8229
813.421	8119
813.562	8065
813.703	7883
813.845	7807
813.986	7480
814.127	7316
814.268	7274
814.41	7247
814.551	7171
814.692	7183
814.833	7057
814.974	7076
815.115	7080
815.256	6977
815.397	7023
815.539	6977
815.68	6837
815.821	6814
815.962	6913
816.103	6810
816.244	6684
816.385	6700
816.526	6627
816.666	6570
816.807	6323
816.948	6448
817.089	6471
817.23	6479
817.371	6433
817.512	6426
817.653	6407
817.793	6365
817.934	6414
818.075	6544
818.216	6418
818.356	6441
818.497	6270
818.638	6106
818.778	6205
818.919	6125
819.06	6239
819.2	6270
819.341	6331
819.481	6311
819.622	6540
819.762	6745
819.903	6715
820.043	6627
820.184	6536
820.324	6601
820.465	6707
820.605	6608
820.746	6635
820.886	6536
821.026	6677
821.167	6654
821.307	6791
821.447	6757
821.588	6700
821.728	6654
821.868	6483
822.008	6338
822.149	6338
822.289	6353
822.429	6152
822.569	6079
822.709	6152
822.849	5961
822.99	5931
823.13	5885
823.27	5912
823.41	5824
823.55	5786
823.69	5733
823.83	5805
823.97	5668
824.11	5573
824.25	5509
824.389	5547
824.529	5619
824.669	5516
824.809	5665
824.949	5672
825.089	5619
825.228	5566
825.368	5406
825.508	5360
825.648	5372
825.787	5334
825.927	5345
826.067	5311
826.206	5311
826.346	5372
826.485	5402
826.625	5379
826.765	5589
826.904	5570
827.044	5231
827.183	5193
827.323	5132
827.462	5269
827.601	5166
827.741	5204
827.88	5166
828.02	5136
828.159	5246
828.298	5303
828.437	5376
828.577	5303
828.716	5452
828.855	5398
828.994	5220
829.134	5132
829.273	5246
829.412	5178
829.551	5124
829.69	5193
829.829	5273
829.968	5387
830.107	5269
830.246	5307
830.385	5155
830.524	5151
830.663	5083
830.802	4984
830.941	4892
831.08	4892
831.219	4961
831.357	4980
831.496	5124
831.635	4938
831.774	4900
831.913	4892
832.051	4740
832.19	4763
832.329	4877
832.467	4710
832.606	4698
832.744	4740
832.883	4710
833.022	4755
833.16	4759
833.299	4809
833.437	4889
833.576	4820
833.714	4908
833.852	4881
833.991	4858
834.129	4919
834.267	4927
834.406	4930
834.544	5006
834.682	4957
834.821	4953
834.959	5204
835.097	4999
835.235	5166
835.373	5136
835.511	5132
835.65	5067
835.788	5083
835.926	4946
836.064	4900
836.202	4930
836.34	5204
836.478	5242
836.615	5170
836.753	5223
836.891	5303
837.029	5261
837.167	5147
837.305	5155
837.443	5162
837.58	5105
837.718	5178
837.856	5216
837.993	5204
838.131	5292
838.269	5223
838.406	5265
838.544	5181
838.681	5029
838.819	5014
838.956	4908
839.094	4987
839.231	4968
839.369	5117
839.506	5417
839.643	5311
839.781	5045
839.918	5010
840.055	5075
840.193	5094
840.33	5136
840.467	5174
840.604	5223
840.742	5497
840.879	5094
841.016	5052
841.153	5128
841.29	5376
841.427	5337
841.564	5391
841.701	5410
841.838	5250
841.975	5246
842.112	5265
842.249	5170
842.385	5140
842.522	5345
842.659	5208
842.796	5140
842.933	5193
843.069	5189
843.206	5159
843.343	5303
843.479	5201
843.616	5288
843.752	5041
843.889	5060
844.025	5231
844.162	4984
844.298	5284
844.435	5086
844.571	5075
844.708	5208
844.844	5364
844.98	5334
845.117	5311
845.253	5105
845.389	5136
845.525	5159
845.661	5151
845.798	5048
845.934	5227
846.07	5098
846.206	5212
846.342	5280
846.478	5189
846.614	5067
846.75	4968
846.886	4904
847.022	5155
847.158	5003
847.294	5075
847.429	5121
847.565	5056
847.701	5345
847.837	4866
847.972	4801
848.108	4957
848.244	4892
848.379	4790
848.515	4725
848.65	4740
848.786	4767
848.921	4801
849.057	4923
849.192	4991
849.328	4835
849.463	4843
849.598	4771
849.734	4778
849.869	4706
850.004	4622
850.14	4698
850.275	4611
850.41	4546
850.545	4573
850.68	4599
850.815	4637
850.95	4660
851.085	4870
851.22	4812
851.355	4675
851.49	4618
851.625	4668
851.76	4637
851.895	4519
852.03	4554
852.165	4634
852.299	4752
852.434	4771
852.569	4733
852.703	4763
852.838	4839
852.973	4889
853.107	4938
853.242	4706
853.376	4698
853.511	4592
853.645	4615
853.78	4771
853.914	4637
854.048	4656
854.183	4615
854.317	4702
854.451	4889
854.585	4702
854.72	4660
854.854	4820
854.988	4603
855.122	4607
855.256	4512
855.39	4653
855.524	4809
855.658	4755
855.792	4744
855.926	4736
856.06	4717
856.194	4805
856.327	4710
856.461	4596
856.595	4630
856.729	4660
856.862	4767
856.996	4717
857.13	4755
857.263	4782
857.397	4771
857.53	4668
857.664	4736
857.797	4824
857.931	4812
858.064	4717
858.197	4759
858.331	4664
858.464	4630
858.597	4550
858.731	4596
858.864	4596
858.997	4630
859.13	4664
859.263	4668
859.396	4672
859.529	4592
859.662	4554
859.795	4558
859.928	4611
860.061	4759
860.194	4805
860.327	4599
860.46	4596
860.592	4702
860.725	4786
860.858	4748
860.99	4588
861.123	4516
861.256	4497
861.388	4607
861.521	5429
861.653	4485
861.786	4428
861.918	4466
862.05	4527
862.183	4573
862.315	4580
862.447	4660
862.58	4550
862.712	4405
862.844	4375
862.976	4508
863.108	4470
863.24	4866
863.372	4367
863.504	4413
863.636	4360
863.768	4470
863.9	4455
864.032	4363
864.164	4436
864.296	4443
864.428	4527
864.559	4596
864.691	4546
864.823	4588
864.954	4538
865.086	4470
865.217	4462
865.349	4451
865.48	4440
865.612	4462
865.743	4649
865.875	4440
866.006	4421
866.137	4466
866.269	4417
866.4	4466
866.531	4417
866.662	4436
866.793	4398
866.924	4394
867.055	4504
867.186	4478
867.317	4436
867.448	4348
867.579	4413
867.71	4383
867.841	4417
867.972	4459
868.103	4478
868.233	4428
868.364	4428
868.495	4489
868.625	4687
868.756	4797
868.886	4554
869.017	4592
869.147	4744
869.278	4820
869.408	4691
869.539	4615
869.669	4691
869.799	4694
869.929	4748
870.06	4771
870.19	4965
870.32	4957
870.45	4885
870.58	5022
870.71	5086
870.84	5086
870.97	4946
871.1	4915
871.23	5162
871.36	5132
871.489	5022
871.619	5105
871.749	5083
871.879	5147
872.008	5174
872.138	5079
872.267	4957
872.397	4873
872.526	4809
872.656	4702
872.785	4843
872.915	4911
873.044	5041
873.173	4881
873.303	4984
873.432	4961
873.561	4942
873.69	4889
873.819	4862
873.948	4930
874.077	4858
874.206	4790
874.335	4831
874.464	4942
874.593	5014
874.722	4980
874.851	5124
874.979	5064
875.108	5048
875.237	4892
875.365	4892
875.494	4919
875.623	5025
875.751	4824
875.88	4923
876.008	4968
876.136	5048
876.265	5208
876.393	5353
876.521	5220
876.65	5250
876.778	5208
876.906	5056
877.034	5018
877.162	5041
877.29	4965
877.418	5018
877.546	5048
877.674	5045
877.802	5037
877.93	5018
878.058	4942
878.185	4904
878.313	4927
878.441	4904
878.568	4782
878.696	4877
878.824	4919
878.951	5022
879.079	5178
879.206	5303
879.333	5105
879.461	5033
879.588	5006
879.715	5117
879.842	5261
879.97	5014
880.097	4790
880.224	4755
880.351	4824
880.478	4866
880.605	4824
880.732	4793
880.859	5109
880.986	4923
881.112	4999
881.239	4793
881.366	4664
881.493	4626
881.619	4630
881.746	4645
881.872	4630
881.999	4645
882.125	4706
882.252	4824
882.378	4839
882.505	5006
882.631	4793
882.757	4725
882.883	4714
883.01	4725
883.136	4675
883.262	4664
883.388	4634
883.514	4820
883.64	4896
883.766	4850
883.892	4672
884.018	4729
884.143	4915
884.269	5014
884.395	4748
884.52	4702
884.646	4733
884.772	4626
884.897	4584
885.023	4694
885.148	4839
885.274	4904
885.399	4847
885.524	4774
885.65	4694
885.775	4771
885.9	4736
886.025	4873
886.15	4835
886.275	4790
886.4	4691
886.525	4736
886.65	4778
886.775	4744
886.9	4927
887.025	5052
887.149	4828
887.274	4694
887.399	4618
887.523	4702
887.648	4637
887.773	4630
887.897	4790
888.021	4900
888.146	4729
888.27	4858
888.395	4957
888.519	4812
888.643	4862
888.767	4870
888.891	4752
889.015	4626
889.139	4725
889.263	4668
889.387	4755
889.511	4908
889.635	4854
889.759	4660
889.883	4656
890.006	4831
890.13	4797
890.254	4653
890.377	4733
890.501	4546
890.624	4561
890.748	4668
890.871	4596
890.995	4466
891.118	4421
891.241	4538
891.364	4599
891.488	4645
891.611	4512
891.734	4573
891.857	4649
891.98	4584
892.103	4679
892.226	4618
892.349	4599
892.471	4459
892.594	4607
892.717	4649
892.839	4588
892.962	4592
893.085	4702
893.207	4645
893.33	4508
893.452	4607
893.575	4706
893.697	4637
893.819	4866
893.941	4908
894.064	4797
894.186	4637
894.308	4626
894.43	4778
894.552	4847
894.674	4771
894.796	4584
894.918	4588
895.04	4592
895.161	4782
895.283	4714
895.405	4630
895.526	4637
895.648	4725
895.769	4763
895.891	4767
896.012	4755
896.134	4759
896.255	4706
896.376	4717
896.498	4645
896.619	4698
896.74	4634
896.861	4634
896.982	4919
897.103	5117
897.224	4835
897.345	4786
897.466	4740
897.587	4744
897.708	4866
897.828	4812
897.949	4729
898.07	4645
898.19	4706
898.311	4919
898.431	4683
898.552	4820
898.672	4889
898.792	4877
898.913	4744
899.033	4679
899.153	4584
899.273	4443
899.393	4561
899.513	4531
899.633	4569
899.753	4542
899.873	4527
899.993	4615
900.113	4550
900.232	4580
900.352	4550
900.472	4546
900.591	4432
900.711	4561
900.83	4493
900.95	4626
901.069	4725
901.189	4588
901.308	4421
901.427	4352
901.546	4409
901.665	4462
901.784	4558
901.904	4417
902.023	4322
902.141	4257
902.26	4207
902.379	4329
902.498	4303
902.617	4257
902.735	4489
902.854	4428
902.973	4360
903.091	4249
903.21	4291
903.328	4291
903.446	4276
903.565	4291
903.683	4405
903.801	4287
903.919	4470
904.038	4474
904.156	4386
904.274	4481
904.392	4443
904.51	4459
904.627	4459
904.745	4592
904.863	4660
904.981	4436
905.098	4337
905.216	4394
905.334	4481
905.451	4504
905.569	4455
905.686	4584
905.803	4542
905.921	4459
906.038	4599
906.155	4531
906.272	4379
906.389	4512
906.506	4421
906.623	4417
906.74	4432
906.857	4291
906.974	4386
907.091	4565
907.208	4721
907.324	4603
907.441	4538
907.557	4402
907.674	4402
907.79	4363
907.907	4413
908.023	4531
908.139	4485
908.256	4398
908.372	4466
908.488	4409
908.604	4398
908.72	4348
908.836	4459
908.952	4383
909.068	4424
909.184	4618
909.3	4466
909.415	4584
909.531	4569
909.647	4348
909.762	4436
909.878	4398
909.993	4409
910.108	4405
910.224	4432
910.339	4455
910.454	4413
910.57	4405
910.685	4356
910.8	4706
910.915	4637
911.03	4500
911.145	4379
911.259	4386
911.374	4402
911.489	4329
911.604	4276
911.718	4219
911.833	4253
911.947	4139
912.062	4048
912.176	4238
912.291	4246
912.405	4238
912.519	4516
912.633	4573
912.748	4394
912.862	4295
912.976	4215
913.09	4101
913.204	4192
913.318	4261
913.431	4394
913.545	4409
913.659	4443
913.772	4413
913.886	4265
914	4219
914.113	4409
914.226	4455
914.34	4447
914.453	4272
914.566	4470
914.68	4341
914.793	4367
914.906	4192
915.019	4211
915.132	4124
915.245	4227
915.358	4261
915.47	4268
915.583	4295
915.696	4318
915.809	4417
915.921	4428
916.034	4291
916.146	4295
916.259	4246
916.371	4405
916.483	4390
916.595	4272
916.708	4318
916.82	4310
916.932	4341
917.044	4348
917.156	4318
917.268	4280
917.38	4329
917.491	4310
917.603	4341
917.715	4394
917.826	4474
917.938	4352
918.049	4257
918.161	4390
918.272	4550
918.384	4554
918.495	4508
918.606	4287
918.717	4295
918.828	4322
918.939	4363
919.05	4242
919.161	4402
919.272	4147
919.383	4238
919.494	4523
919.604	4641
919.715	4436
919.826	4375
919.936	4447
920.047	4565
920.157	4504
920.267	4729
920.378	4580
920.488	4485
920.598	4721
920.708	4896
920.818	4786
920.928	4816
921.038	4984
921.148	4953
921.258	4656
921.368	4573
921.477	4527
921.587	4481
921.697	4417
921.806	4592
921.916	4451
922.025	4291
922.134	4257
922.244	4207
922.353	4363
922.462	4204
922.571	4147
922.68	4017
922.789	3983
922.898	4059
923.007	3991
923.116	4162
923.224	4082
923.333	4078
923.442	4006
923.55	4021
923.659	4025
923.767	4177
923.876	4029
923.984	4188
924.092	4025
924.201	4051
924.309	4135
924.417	4124
924.525	4071
924.633	4158
924.741	4904
924.849	3941
924.956	4112
925.064	3983
925.172	3899
925.279	3991
925.387	4082
925.494	4074
925.602	4246
925.709	4257
925.816	4059
925.924	4116
926.031	4219
926.138	4215
926.245	4238
926.352	4112
926.459	4299
926.566	4333
926.673	4196
926.779	4128
926.886	4112
926.993	3991
927.099	3979
927.206	3972
927.312	3956
927.419	4048
927.525	4032
927.631	4109
927.737	3998
927.843	3991
927.95	3876
928.056	4010
928.162	4021
928.267	4097
928.373	4706
928.479	4074
928.585	3884
928.69	4021
928.796	4086
928.901	4006
929.007	3835
929.112	4025
929.218	4010
929.323	3941
929.428	3998
929.533	4120
929.638	3937
929.743	3998
929.848	4074
929.953	4006
930.058	3953
930.163	3732
930.267	3846
930.372	4021
930.477	3831
930.581	4063
930.685	3994
930.79	3850
930.894	3922
930.998	3861
931.103	4048
931.207	3778
931.311	3713
931.415	3663
931.519	3545
931.623	3542
