Data from test_V78500241_260.txt Node
Date: Fri Mar 25 16:50:48 CST 2022
User: usil
Spectrometer: V785-0024
Trigger mode: 0
Integration Time (sec): 4.000000E-1
Scans to average: 1
Nonlinearity correction enabled: false
Boxcar width: 0
Storing dark spectrum: false
XAxis mode: Wavelengths
Number of Pixels in Spectrum: 1024
>>>>>Begin Spectral Data<<<<<
801.071	7997
801.214	8111
801.356	7906
801.499	7913
801.641	7864
801.783	7837
801.926	7963
802.068	7982
802.211	8046
802.353	8027
802.496	7898
802.638	7989
802.78	7906
802.923	7989
803.065	7864
803.208	7837
803.35	7925
803.492	8065
803.635	8199
803.777	8050
803.919	8145
804.061	8393
804.204	8149
804.346	8027
804.488	7967
804.63	8199
804.773	8103
804.915	8039
805.057	8290
805.199	8187
805.341	8149
805.483	8263
805.626	8168
805.768	8084
805.91	8210
806.052	8244
806.194	8096
806.336	8320
806.478	8126
806.62	8096
806.762	8149
806.904	8294
807.046	8465
807.188	8317
807.33	8286
807.472	8343
807.614	8065
807.756	8119
807.898	7959
808.04	7902
808.182	7921
808.324	7955
808.465	7982
808.607	8084
808.749	8115
808.891	8199
809.033	8332
809.174	8202
809.316	8039
809.458	8058
809.6	8024
809.741	8008
809.883	8024
810.025	8084
810.166	8073
810.308	7989
810.45	8039
810.591	7875
810.733	7818
810.875	7655
811.016	7575
811.158	7544
811.299	7643
811.441	7772
811.582	7685
811.724	7521
811.865	7590
812.007	7567
812.148	7537
812.29	7632
812.431	7799
812.573	7909
812.714	7959
812.855	8161
812.997	8225
813.138	8286
813.279	8172
813.421	8035
813.562	8008
813.703	7871
813.845	7769
813.986	7441
814.127	7266
814.268	7190
814.41	7305
814.551	7206
814.692	7149
814.833	7107
814.974	7107
815.115	7095
815.256	6939
815.397	6909
815.539	6977
815.68	6833
815.821	6757
815.962	6810
816.103	6806
816.244	6726
816.385	6635
816.526	6631
816.666	6502
816.807	6334
816.948	6429
817.089	6445
817.23	6388
817.371	6327
817.512	6437
817.653	6357
817.793	6365
817.934	6414
818.075	6456
818.216	6414
818.356	6410
818.497	6228
818.638	6095
818.778	6136
818.919	6148
819.06	6129
819.2	6277
819.341	6350
819.481	6319
819.622	6517
819.762	6700
819.903	6673
820.043	6631
820.184	6597
820.324	6551
820.465	6703
820.605	6631
820.746	6604
820.886	6479
821.026	6662
821.167	6734
821.307	6753
821.447	6776
821.588	6684
821.728	6555
821.868	6544
822.008	6304
822.149	6319
822.289	6414
822.429	6121
822.569	6129
822.709	6110
822.849	5954
822.99	5980
823.13	5958
823.27	5939
823.41	5775
823.55	5786
823.69	5817
823.83	5760
823.97	5680
824.11	5592
824.25	5543
824.389	5566
824.529	5615
824.669	5516
824.809	5672
824.949	5649
825.089	5589
825.228	5611
825.368	5425
825.508	5345
825.648	5383
825.787	5398
825.927	5410
826.067	5311
826.206	5334
826.346	5360
826.485	5387
826.625	5433
826.765	5512
826.904	5505
827.044	5254
827.183	5231
827.323	5204
827.462	5265
827.601	5204
827.741	5204
827.88	5254
828.02	5136
828.159	5235
828.298	5292
828.437	5436
828.577	5280
828.716	5509
828.855	5303
828.994	5239
829.134	5151
829.273	5212
829.412	5128
829.551	5159
829.69	5189
829.829	5246
829.968	5417
830.107	5258
830.246	5265
830.385	5189
830.524	5170
830.663	5128
830.802	4984
830.941	4930
831.08	4858
831.219	5033
831.357	5006
831.496	5143
831.635	4904
831.774	4790
831.913	4835
832.051	4748
832.19	4755
832.329	4839
832.467	4717
832.606	4675
832.744	4717
832.883	4683
833.022	4675
833.16	4816
833.299	4831
833.437	4862
833.576	4915
833.714	4892
833.852	4877
833.991	4873
834.129	4968
834.267	4934
834.406	4938
834.544	4984
834.682	4980
834.821	4980
834.959	5178
835.097	5029
835.235	5151
835.373	5159
835.511	5132
835.65	4999
835.788	5067
835.926	4900
836.064	4908
836.202	4949
836.34	5124
836.478	5193
836.615	5174
836.753	5227
836.891	5292
837.029	5277
837.167	5178
837.305	5193
837.443	5185
837.58	5075
837.718	5235
837.856	5170
837.993	5162
838.131	5265
838.269	5288
838.406	5277
838.544	5220
838.681	5083
838.819	5018
838.956	4862
839.094	4953
839.231	4991
839.369	5102
839.506	5429
839.643	5307
839.781	5075
839.918	5025
840.055	5140
840.193	5067
840.33	5086
840.467	5140
840.604	5204
840.742	5459
840.879	5117
841.016	5094
841.153	5143
841.29	5360
841.427	5349
841.564	5288
841.701	5372
841.838	5318
841.975	5280
842.112	5265
842.249	5189
842.385	5124
842.522	5334
842.659	5155
842.796	5162
842.933	5223
843.069	5151
843.206	5178
843.343	5326
843.479	5250
843.616	5288
843.752	4961
843.889	5006
844.025	5174
844.162	5018
844.298	5208
844.435	5102
844.571	5064
844.708	5223
844.844	5284
844.98	5353
845.117	5284
845.253	5136
845.389	5132
845.525	5140
845.661	5132
845.798	5045
845.934	5143
846.07	5083
846.206	5201
846.342	5273
846.478	5239
846.614	5052
846.75	4953
846.886	4934
847.022	5185
847.158	5003
847.294	5086
847.429	5094
847.565	5067
847.701	5353
847.837	4854
847.972	4790
848.108	4930
848.244	4930
848.379	4778
848.515	4694
848.65	4759
848.786	4771
848.921	4793
849.057	4873
849.192	4889
849.328	4858
849.463	4881
849.598	4748
849.734	4774
849.869	4702
850.004	4603
850.14	4649
850.275	4653
850.41	4569
850.545	4546
850.68	4656
850.815	4637
850.95	4626
851.085	4835
851.22	4706
851.355	4634
851.49	4554
851.625	4611
851.76	4668
851.895	4554
852.03	4561
852.165	4649
852.299	4733
852.434	4812
852.569	4736
852.703	4820
852.838	4828
852.973	4919
853.107	4885
853.242	4767
853.376	4683
853.511	4535
853.645	4599
853.78	4812
853.914	4683
854.048	4698
854.183	4694
854.317	4729
854.451	4870
854.585	4668
854.72	4683
854.854	4786
854.988	4634
855.122	4603
855.256	4538
855.39	4649
855.524	4782
855.658	4740
855.792	4702
855.926	4736
856.06	4691
856.194	4744
856.327	4710
856.461	4630
856.595	4615
856.729	4603
856.862	4736
856.996	4687
857.13	4755
857.263	4778
857.397	4797
857.53	4683
857.664	4691
857.797	4752
857.931	4786
858.064	4691
858.197	4725
858.331	4649
858.464	4641
858.597	4546
858.731	4664
858.864	4634
858.997	4592
859.13	4687
859.263	4668
859.396	4702
859.529	4588
859.662	4603
859.795	4535
859.928	4615
860.061	4752
860.194	4771
860.327	4622
860.46	4607
860.592	4736
860.725	4714
860.858	4660
860.99	4588
861.123	4542
861.256	4523
861.388	4637
861.521	5417
861.653	4516
861.786	4478
861.918	4512
862.05	4508
862.183	4558
862.315	4561
862.447	4706
862.58	4561
862.712	4443
862.844	4314
862.976	4455
863.108	4466
863.24	4877
863.372	4341
863.504	4451
863.636	4424
863.768	4504
863.9	4428
864.032	4402
864.164	4443
864.296	4470
864.428	4519
864.559	4611
864.691	4550
864.823	4512
864.954	4523
865.086	4485
865.217	4504
865.349	4443
865.48	4455
865.612	4512
865.743	4618
865.875	4466
866.006	4413
866.137	4462
866.269	4481
866.4	4436
866.531	4447
866.662	4417
866.793	4386
866.924	4424
867.055	4512
867.186	4462
867.317	4440
867.448	4371
867.579	4409
867.71	4360
867.841	4348
867.972	4447
868.103	4462
868.233	4512
868.364	4428
868.495	4447
868.625	4649
868.756	4729
868.886	4538
869.017	4637
869.147	4793
869.278	4759
869.408	4653
869.539	4679
869.669	4744
869.799	4626
869.929	4774
870.06	4714
870.19	4965
870.32	4911
870.45	4923
870.58	5048
870.71	5094
870.84	5086
870.97	4946
871.1	4934
871.23	5159
871.36	5151
871.489	5048
871.619	5094
871.749	5071
871.879	5162
872.008	5201
872.138	5102
872.267	4976
872.397	4915
872.526	4828
872.656	4721
872.785	4790
872.915	4957
873.044	5045
873.173	4972
873.303	4961
873.432	4896
873.561	4965
873.69	4847
873.819	4839
873.948	4923
874.077	4839
874.206	4782
874.335	4835
874.464	4938
874.593	5025
874.722	4984
874.851	5086
874.979	5025
875.108	5056
875.237	4980
875.365	4877
875.494	4892
875.623	4915
875.751	4828
875.88	4915
876.008	4961
876.136	5041
876.265	5220
876.393	5341
876.521	5231
876.65	5250
876.778	5128
876.906	5064
877.034	5045
877.162	5037
877.29	4999
877.418	5025
877.546	5037
877.674	5025
877.802	4995
877.93	5018
878.058	4957
878.185	4877
878.313	4957
878.441	4961
878.568	4797
878.696	4896
878.824	4957
878.951	5006
879.079	5124
879.206	5296
879.333	5079
879.461	4961
879.588	5018
879.715	5094
879.842	5212
879.97	4999
880.097	4820
880.224	4767
880.351	4782
880.478	4812
880.605	4896
880.732	4847
880.859	5083
880.986	4873
881.112	4938
881.239	4828
881.366	4645
881.493	4626
881.619	4607
881.746	4668
881.872	4683
881.999	4645
882.125	4668
882.252	4778
882.378	4801
882.505	4961
882.631	4816
882.757	4717
882.883	4694
883.01	4729
883.136	4691
883.262	4580
883.388	4653
883.514	4831
883.64	4919
883.766	4778
883.892	4660
884.018	4774
884.143	4930
884.269	5041
884.395	4675
884.52	4622
884.646	4683
884.772	4592
884.897	4580
885.023	4672
885.148	4790
885.274	4873
885.399	4847
885.524	4744
885.65	4706
885.775	4736
885.9	4740
886.025	4858
886.15	4786
886.275	4714
886.4	4664
886.525	4702
886.65	4714
886.775	4687
886.9	4858
887.025	5041
887.149	4801
887.274	4706
887.399	4588
887.523	4599
887.648	4565
887.773	4588
887.897	4763
888.021	4771
888.146	4687
888.27	4797
888.395	4892
888.519	4839
888.643	4805
888.767	4843
888.891	4710
889.015	4626
889.139	4683
889.263	4592
889.387	4767
889.511	4889
889.635	4809
889.759	4649
889.883	4645
890.006	4729
890.13	4885
890.254	4615
890.377	4687
890.501	4554
890.624	4500
890.748	4672
890.871	4493
890.995	4500
891.118	4428
891.241	4512
891.364	4554
891.488	4641
891.611	4516
891.734	4546
891.857	4599
891.98	4508
892.103	4634
892.226	4588
892.349	4538
892.471	4421
892.594	4584
892.717	4672
892.839	4561
892.962	4622
893.085	4698
893.207	4577
893.33	4512
893.452	4546
893.575	4664
893.697	4588
893.819	4790
893.941	4828
894.064	4755
894.186	4584
894.308	4554
894.43	4744
894.552	4820
894.674	4774
894.796	4565
894.918	4607
895.04	4592
895.161	4687
895.283	4641
895.405	4561
895.526	4596
895.648	4691
895.769	4672
895.891	4729
896.012	4736
896.134	4691
896.255	4675
896.376	4641
896.498	4588
896.619	4660
896.74	4649
896.861	4618
896.982	4953
897.103	5045
897.224	4801
897.345	4752
897.466	4672
897.587	4744
897.708	4854
897.828	4748
897.949	4714
898.07	4599
898.19	4607
898.311	4809
898.431	4717
898.552	4729
898.672	4767
898.792	4763
898.913	4744
899.033	4599
899.153	4550
899.273	4436
899.393	4447
899.513	4546
899.633	4508
899.753	4561
899.873	4489
899.993	4599
900.113	4485
900.232	4637
900.352	4546
900.472	4542
900.591	4394
900.711	4500
900.83	4440
900.95	4626
901.069	4691
901.189	4546
901.308	4360
901.427	4348
901.546	4379
901.665	4523
901.784	4538
901.904	4390
902.023	4348
902.141	4177
902.26	4162
902.379	4314
902.498	4177
902.617	4223
902.735	4390
902.854	4386
902.973	4318
903.091	4276
903.21	4192
903.328	4322
903.446	4287
903.565	4276
903.683	4390
903.801	4322
903.919	4417
904.038	4478
904.156	4310
904.274	4447
904.392	4367
904.51	4443
904.627	4474
904.745	4607
904.863	4622
904.981	4398
905.098	4303
905.216	4344
905.334	4421
905.451	4375
905.569	4402
905.686	4573
905.803	4588
905.921	4462
906.038	4535
906.155	4447
906.272	4405
906.389	4455
906.506	4379
906.623	4375
906.74	4371
906.857	4337
906.974	4375
907.091	4542
907.208	4683
907.324	4596
907.441	4497
907.557	4344
907.674	4318
907.79	4386
907.907	4371
908.023	4443
908.139	4497
908.256	4504
908.372	4481
908.488	4413
908.604	4371
908.72	4318
908.836	4360
908.952	4386
909.068	4451
909.184	4611
909.3	4485
909.415	4599
909.531	4588
909.647	4344
909.762	4394
909.878	4360
909.993	4443
910.108	4398
910.224	4436
910.339	4470
910.454	4394
910.57	4386
910.685	4325
910.8	4653
910.915	4558
911.03	4542
911.145	4360
911.259	4318
911.374	4379
911.489	4280
911.604	4329
911.718	4196
911.833	4166
911.947	4101
912.062	4055
912.176	4166
912.291	4280
912.405	4295
912.519	4451
912.633	4481
912.748	4375
912.862	4333
912.976	4223
913.09	4101
913.204	4154
913.318	4333
913.431	4398
913.545	4386
913.659	4493
913.772	4390
913.886	4268
914	4257
914.113	4398
914.226	4428
914.34	4440
914.453	4249
914.566	4432
914.68	4344
914.793	4363
914.906	4158
915.019	4143
915.132	4112
915.245	4185
915.358	4227
915.47	4234
915.583	4268
915.696	4314
915.809	4405
915.921	4424
916.034	4246
916.146	4291
916.259	4238
916.371	4371
916.483	4337
916.595	4249
916.708	4352
916.82	4310
916.932	4303
917.044	4367
917.156	4325
917.268	4249
917.38	4287
917.491	4253
917.603	4333
917.715	4436
917.826	4459
917.938	4371
918.049	4238
918.161	4421
918.272	4535
918.384	4535
918.495	4485
918.606	4284
918.717	4272
918.828	4360
918.939	4337
919.05	4348
919.161	4344
919.272	4162
919.383	4219
919.494	4413
919.604	4641
919.715	4432
919.826	4371
919.936	4379
920.047	4523
920.157	4409
920.267	4733
920.378	4519
920.488	4478
920.598	4710
920.708	4873
920.818	4710
920.928	4729
921.038	4953
921.148	4972
921.258	4653
921.368	4611
921.477	4500
921.587	4417
921.697	4386
921.806	4531
921.916	4455
922.025	4238
922.134	4291
922.244	4246
922.353	4390
922.462	4139
922.571	4139
922.68	3998
922.789	3991
922.898	4059
923.007	4010
923.116	4131
923.224	4036
923.333	4071
923.442	4013
923.55	3998
923.659	4017
923.767	4105
923.876	4021
923.984	4147
924.092	4002
924.201	4116
924.309	4124
924.417	4105
924.525	4078
924.633	4116
924.741	5064
924.849	3892
924.956	4150
925.064	3960
925.172	3907
925.279	3994
925.387	4067
925.494	4032
925.602	4192
925.709	4227
925.816	4082
925.924	4135
926.031	4230
926.138	4147
926.245	4211
926.352	4086
926.459	4306
926.566	4295
926.673	4139
926.779	4131
926.886	4097
926.993	3972
927.099	3953
927.206	3941
927.312	3934
927.419	4021
927.525	4040
927.631	4135
927.737	3941
927.843	3960
927.95	3835
928.056	3937
928.162	3960
928.267	4086
928.373	4554
928.479	4131
928.585	3876
928.69	4002
928.796	4112
928.901	4017
929.007	3838
929.112	4036
929.218	3979
929.323	3945
929.428	3956
929.533	4109
929.638	3903
929.743	3930
929.848	4082
929.953	4002
930.058	3945
930.163	3785
930.267	3857
930.372	4017
930.477	3831
930.581	4093
930.685	3964
930.79	3835
930.894	3857
930.998	3850
931.103	4078
931.207	3717
931.311	3720
931.415	3690
931.519	3530
931.623	3526
