Data from test_V78500241_543.txt Node
Date: Fri Mar 25 16:52:46 CST 2022
User: usil
Spectrometer: V785-0024
Trigger mode: 0
Integration Time (sec): 4.000000E-1
Scans to average: 1
Nonlinearity correction enabled: false
Boxcar width: 0
Storing dark spectrum: false
XAxis mode: Wavelengths
Number of Pixels in Spectrum: 1024
>>>>>Begin Spectral Data<<<<<
801.071	8005
801.214	7947
801.356	7841
801.499	7799
801.641	7799
801.783	7887
801.926	8001
802.068	7993
802.211	7974
802.353	8043
802.496	7833
802.638	7947
802.78	7993
802.923	7890
803.065	7852
803.208	7833
803.35	7947
803.492	8081
803.635	8100
803.777	8046
803.919	8149
804.061	8423
804.204	8134
804.346	7986
804.488	7989
804.63	8065
804.773	7982
804.915	8081
805.057	8279
805.199	8176
805.341	8237
805.483	8301
805.626	8252
805.768	8138
805.91	8199
806.052	8145
806.194	8065
806.336	8271
806.478	8077
806.62	8073
806.762	8115
806.904	8240
807.046	8427
807.188	8301
807.33	8256
807.472	8271
807.614	8195
807.756	8092
807.898	7982
808.04	7837
808.182	7898
808.324	7894
808.465	7887
808.607	7986
808.749	8111
808.891	8199
809.033	8309
809.174	8164
809.316	8024
809.458	8069
809.6	8008
809.741	8020
809.883	8020
810.025	8035
810.166	7963
810.308	8088
810.45	7928
810.591	7871
810.733	7746
810.875	7670
811.016	7590
811.158	7518
811.299	7605
811.441	7738
811.582	7712
811.724	7556
811.865	7586
812.007	7605
812.148	7616
812.29	7616
812.431	7753
812.573	7837
812.714	8039
812.855	8183
812.997	8221
813.138	8328
813.279	8218
813.421	8149
813.562	8035
813.703	7860
813.845	7879
813.986	7548
814.127	7339
814.268	7373
814.41	7183
814.551	7156
814.692	7164
814.833	7053
814.974	7065
815.115	7160
815.256	6886
815.397	6928
815.539	6928
815.68	6844
815.821	6882
815.962	6909
816.103	6837
816.244	6730
816.385	6665
816.526	6578
816.666	6513
816.807	6311
816.948	6441
817.089	6471
817.23	6452
817.371	6346
817.512	6388
817.653	6407
817.793	6407
817.934	6426
818.075	6483
818.216	6350
818.356	6441
818.497	6266
818.638	6098
818.778	6136
818.919	6121
819.06	6201
819.2	6311
819.341	6327
819.481	6311
819.622	6536
819.762	6734
819.903	6711
820.043	6555
820.184	6551
820.324	6555
820.465	6631
820.605	6654
820.746	6608
820.886	6498
821.026	6677
821.167	6681
821.307	6764
821.447	6741
821.588	6608
821.728	6578
821.868	6475
822.008	6254
822.149	6308
822.289	6350
822.429	6163
822.569	6091
822.709	6129
822.849	5897
822.99	5836
823.13	5939
823.27	5904
823.41	5745
823.55	5779
823.69	5752
823.83	5752
823.97	5668
824.11	5539
824.25	5501
824.389	5566
824.529	5592
824.669	5589
824.809	5699
824.949	5642
825.089	5623
825.228	5585
825.368	5372
825.508	5372
825.648	5364
825.787	5376
825.927	5406
826.067	5311
826.206	5315
826.346	5421
826.485	5433
826.625	5372
826.765	5570
826.904	5440
827.044	5353
827.183	5235
827.323	5166
827.462	5303
827.601	5159
827.741	5181
827.88	5235
828.02	5159
828.159	5254
828.298	5303
828.437	5372
828.577	5284
828.716	5474
828.855	5330
828.994	5216
829.134	5193
829.273	5269
829.412	5174
829.551	5185
829.69	5250
829.829	5330
829.968	5376
830.107	5330
830.246	5269
830.385	5250
830.524	5162
830.663	5121
830.802	4980
830.941	4923
831.08	4862
831.219	5014
831.357	4980
831.496	5201
831.635	5018
831.774	4923
831.913	4881
832.051	4797
832.19	4790
832.329	4870
832.467	4729
832.606	4672
832.744	4748
832.883	4725
833.022	4744
833.16	4767
833.299	4850
833.437	4866
833.576	4896
833.714	4968
833.852	4949
833.991	4919
834.129	5006
834.267	4987
834.406	4938
834.544	5006
834.682	5029
834.821	4995
834.959	5216
835.097	5052
835.235	5159
835.373	5147
835.511	5178
835.65	5056
835.788	5037
835.926	4965
836.064	4870
836.202	4946
836.34	5197
836.478	5280
836.615	5147
836.753	5231
836.891	5299
837.029	5246
837.167	5227
837.305	5159
837.443	5170
837.58	5128
837.718	5261
837.856	5223
837.993	5162
838.131	5269
838.269	5231
838.406	5258
838.544	5265
838.681	5056
838.819	5014
838.956	4881
839.094	4980
839.231	5029
839.369	5105
839.506	5459
839.643	5311
839.781	5098
839.918	5018
840.055	5105
840.193	5159
840.33	5147
840.467	5189
840.604	5250
840.742	5459
840.879	5132
841.016	5121
841.153	5220
841.29	5440
841.427	5337
841.564	5357
841.701	5433
841.838	5341
841.975	5288
842.112	5269
842.249	5162
842.385	5170
842.522	5322
842.659	5231
842.796	5204
842.933	5223
843.069	5193
843.206	5181
843.343	5349
843.479	5235
843.616	5280
843.752	5022
843.889	5006
844.025	5235
844.162	5067
844.298	5220
844.435	5117
844.571	5102
844.708	5239
844.844	5353
844.98	5360
845.117	5345
845.253	5201
845.389	5136
845.525	5174
845.661	5185
845.798	5033
845.934	5193
846.07	5083
846.206	5193
846.342	5292
846.478	5189
846.614	5075
846.75	4995
846.886	4987
847.022	5159
847.158	5064
847.294	5071
847.429	5189
847.565	5086
847.701	5326
847.837	4889
847.972	4786
848.108	4984
848.244	4980
848.379	4816
848.515	4763
848.65	4805
848.786	4752
848.921	4850
849.057	4946
849.192	4904
849.328	4854
849.463	4889
849.598	4858
849.734	4786
849.869	4752
850.004	4725
850.14	4691
850.275	4679
850.41	4588
850.545	4596
850.68	4653
850.815	4630
850.95	4641
851.085	4862
851.22	4778
851.355	4721
851.49	4649
851.625	4679
851.76	4622
851.895	4550
852.03	4615
852.165	4653
852.299	4767
852.434	4771
852.569	4744
852.703	4763
852.838	4900
852.973	4968
853.107	4934
853.242	4778
853.376	4763
853.511	4622
853.645	4649
853.78	4896
853.914	4736
854.048	4759
854.183	4653
854.317	4683
854.451	4892
854.585	4668
854.72	4626
854.854	4752
854.988	4588
855.122	4683
855.256	4535
855.39	4698
855.524	4835
855.658	4774
855.792	4706
855.926	4717
856.06	4778
856.194	4866
856.327	4725
856.461	4683
856.595	4637
856.729	4653
856.862	4771
856.996	4778
857.13	4774
857.263	4801
857.397	4843
857.53	4683
857.664	4740
857.797	4797
857.931	4843
858.064	4706
858.197	4755
858.331	4634
858.464	4618
858.597	4580
858.731	4679
858.864	4660
858.997	4679
859.13	4694
859.263	4710
859.396	4774
859.529	4668
859.662	4592
859.795	4569
859.928	4634
860.061	4797
860.194	4812
860.327	4641
860.46	4653
860.592	4710
860.725	4771
860.858	4812
860.99	4611
861.123	4527
861.256	4554
861.388	4660
861.521	5459
861.653	4512
861.786	4485
861.918	4489
862.05	4546
862.183	4626
862.315	4645
862.447	4645
862.58	4611
862.712	4455
862.844	4386
862.976	4447
863.108	4459
863.24	4923
863.372	4329
863.504	4421
863.636	4470
863.768	4531
863.9	4459
864.032	4348
864.164	4398
864.296	4527
864.428	4542
864.559	4630
864.691	4535
864.823	4538
864.954	4554
865.086	4508
865.217	4485
865.349	4440
865.48	4481
865.612	4527
865.743	4679
865.875	4493
866.006	4470
866.137	4485
866.269	4451
866.4	4432
866.531	4455
866.662	4390
866.793	4402
866.924	4428
867.055	4512
867.186	4512
867.317	4462
867.448	4386
867.579	4447
867.71	4421
867.841	4394
867.972	4489
868.103	4485
868.233	4478
868.364	4421
868.495	4558
868.625	4660
868.756	4820
868.886	4599
869.017	4660
869.147	4828
869.278	4774
869.408	4687
869.539	4668
869.669	4725
869.799	4618
869.929	4824
870.06	4755
870.19	4908
870.32	4949
870.45	4934
870.58	5045
870.71	5159
870.84	5151
870.97	4946
871.1	4889
871.23	5174
871.36	5121
871.489	5029
871.619	5086
871.749	5075
871.879	5147
872.008	5170
872.138	5083
872.267	4965
872.397	4862
872.526	4839
872.656	4740
872.785	4820
872.915	4987
873.044	5037
873.173	5014
873.303	4976
873.432	4987
873.561	4972
873.69	4923
873.819	4892
873.948	4919
874.077	4820
874.206	4782
874.335	4809
874.464	5003
874.593	5052
874.722	4953
874.851	5143
874.979	5083
875.108	5018
875.237	4938
875.365	4927
875.494	4877
875.623	4999
875.751	4847
875.88	4870
876.008	4999
876.136	5029
876.265	5216
876.393	5307
876.521	5311
876.65	5246
876.778	5178
876.906	5048
877.034	5022
877.162	5037
877.29	5014
877.418	5090
877.546	5033
877.674	5033
877.802	5006
877.93	5014
878.058	4908
878.185	4953
878.313	4953
878.441	4908
878.568	4843
878.696	4866
878.824	4976
878.951	4999
879.079	5086
879.206	5322
879.333	5121
879.461	5006
879.588	5102
879.715	5147
879.842	5246
879.97	5006
880.097	4816
880.224	4839
880.351	4824
880.478	4850
880.605	4828
880.732	4801
880.859	5094
880.986	4942
881.112	4976
881.239	4824
881.366	4687
881.493	4656
881.619	4630
881.746	4634
881.872	4660
881.999	4683
882.125	4721
882.252	4816
882.378	4847
882.505	5022
882.631	4881
882.757	4683
882.883	4774
883.01	4774
883.136	4664
883.262	4599
883.388	4649
883.514	4816
883.64	4881
883.766	4831
883.892	4694
884.018	4736
884.143	4904
884.269	5033
884.395	4714
884.52	4615
884.646	4706
884.772	4554
884.897	4569
885.023	4706
885.148	4839
885.274	4908
885.399	4809
885.524	4687
885.65	4729
885.775	4767
885.9	4702
886.025	4870
886.15	4809
886.275	4740
886.4	4706
886.525	4759
886.65	4649
886.775	4675
886.9	4908
887.025	5041
887.149	4782
887.274	4653
887.399	4630
887.523	4622
887.648	4611
887.773	4603
887.897	4782
888.021	4850
888.146	4672
888.27	4831
888.395	4972
888.519	4828
888.643	4820
888.767	4854
888.891	4706
889.015	4558
889.139	4599
889.263	4577
889.387	4816
889.511	4862
889.635	4824
889.759	4683
889.883	4710
890.006	4736
890.13	4850
890.254	4691
890.377	4710
890.501	4603
890.624	4531
890.748	4645
890.871	4538
890.995	4436
891.118	4417
891.241	4535
891.364	4558
891.488	4664
891.611	4531
891.734	4588
891.857	4618
891.98	4558
892.103	4664
892.226	4596
892.349	4550
892.471	4470
892.594	4565
892.717	4584
892.839	4550
892.962	4615
893.085	4683
893.207	4668
893.33	4443
893.452	4554
893.575	4717
893.697	4615
893.819	4812
893.941	4843
894.064	4736
894.186	4596
894.308	4592
894.43	4736
894.552	4820
894.674	4816
894.796	4569
894.918	4615
895.04	4558
895.161	4733
895.283	4702
895.405	4641
895.526	4683
895.648	4755
895.769	4714
895.891	4694
896.012	4759
896.134	4714
896.255	4668
896.376	4641
896.498	4653
896.619	4698
896.74	4615
896.861	4672
896.982	4942
897.103	5105
897.224	4809
897.345	4706
897.466	4706
897.587	4729
897.708	4873
897.828	4820
897.949	4672
898.07	4561
898.19	4660
898.311	4839
898.431	4714
898.552	4786
898.672	4786
898.792	4858
898.913	4801
899.033	4611
899.153	4516
899.273	4432
899.393	4535
899.513	4577
899.633	4516
899.753	4577
899.873	4584
899.993	4607
900.113	4512
900.232	4622
900.352	4538
900.472	4508
900.591	4424
900.711	4573
900.83	4478
900.95	4634
901.069	4679
901.189	4531
901.308	4432
901.427	4348
901.546	4344
901.665	4504
901.784	4493
901.904	4409
902.023	4371
902.141	4200
902.26	4234
902.379	4341
902.498	4223
902.617	4230
902.735	4352
902.854	4405
902.973	4322
903.091	4196
903.21	4272
903.328	4352
903.446	4287
903.565	4291
903.683	4337
903.801	4337
903.919	4443
904.038	4432
904.156	4337
904.274	4443
904.392	4402
904.51	4447
904.627	4512
904.745	4596
904.863	4653
904.981	4379
905.098	4303
905.216	4447
905.334	4455
905.451	4485
905.569	4489
905.686	4531
905.803	4634
905.921	4421
906.038	4542
906.155	4500
906.272	4402
906.389	4428
906.506	4337
906.623	4386
906.74	4413
906.857	4337
906.974	4436
907.091	4558
907.208	4702
907.324	4611
907.441	4535
907.557	4379
907.674	4363
907.79	4356
907.907	4386
908.023	4474
908.139	4489
908.256	4402
908.372	4500
908.488	4455
908.604	4367
908.72	4344
908.836	4379
908.952	4356
909.068	4394
909.184	4584
909.3	4478
909.415	4569
909.531	4588
909.647	4405
909.762	4379
909.878	4356
909.993	4386
910.108	4421
910.224	4344
910.339	4470
910.454	4390
910.57	4367
910.685	4299
910.8	4649
910.915	4592
911.03	4500
911.145	4341
911.259	4360
911.374	4398
911.489	4303
911.604	4299
911.718	4188
911.833	4215
911.947	4067
912.062	4055
912.176	4196
912.291	4223
912.405	4284
912.519	4462
912.633	4519
912.748	4329
912.862	4295
912.976	4207
913.09	4105
913.204	4204
913.318	4272
913.431	4394
913.545	4310
913.659	4417
913.772	4386
913.886	4230
914	4284
914.113	4371
914.226	4451
914.34	4417
914.453	4196
914.566	4462
914.68	4337
914.793	4299
914.906	4200
915.019	4143
915.132	4044
915.245	4181
915.358	4276
915.47	4238
915.583	4276
915.696	4333
915.809	4405
915.921	4428
916.034	4257
916.146	4272
916.259	4230
916.371	4367
916.483	4428
916.595	4272
916.708	4322
916.82	4333
916.932	4314
917.044	4344
917.156	4356
917.268	4261
917.38	4318
917.491	4280
917.603	4363
917.715	4466
917.826	4402
917.938	4360
918.049	4268
918.161	4402
918.272	4554
918.384	4550
918.495	4474
918.606	4287
918.717	4227
918.828	4367
918.939	4402
919.05	4276
919.161	4314
919.272	4124
919.383	4234
919.494	4451
919.604	4637
919.715	4436
919.826	4367
919.936	4421
920.047	4535
920.157	4493
920.267	4740
920.378	4580
920.488	4512
920.598	4740
920.708	4904
920.818	4752
920.928	4744
921.038	4919
921.148	4930
921.258	4611
921.368	4626
921.477	4500
921.587	4455
921.697	4356
921.806	4523
921.916	4462
922.025	4325
922.134	4295
922.244	4215
922.353	4322
922.462	4131
922.571	4150
922.68	3960
922.789	3987
922.898	4082
923.007	3983
923.116	4101
923.224	4040
923.333	4090
923.442	3994
923.55	4025
923.659	4055
923.767	4093
923.876	3987
923.984	4131
924.092	3960
924.201	4086
924.309	4120
924.417	4158
924.525	4071
924.633	4128
924.741	5071
924.849	3953
924.956	4124
925.064	3953
925.172	3941
925.279	3945
925.387	4051
925.494	4040
925.602	4230
925.709	4211
925.816	4067
925.924	4150
926.031	4246
926.138	4158
926.245	4234
926.352	4074
926.459	4280
926.566	4276
926.673	4192
926.779	4082
926.886	4116
926.993	3968
927.099	3960
927.206	3941
927.312	3892
927.419	4116
927.525	4036
927.631	4124
927.737	3930
927.843	3922
927.95	3854
928.056	3975
928.162	4002
928.267	4032
928.373	4717
928.479	4090
928.585	3892
928.69	4021
928.796	4086
928.901	3953
929.007	3819
929.112	4040
929.218	4013
929.323	3915
929.428	3964
929.533	4097
929.638	3937
929.743	3991
929.848	4017
929.953	4010
930.058	3968
930.163	3804
930.267	3819
930.372	3983
930.477	3793
930.581	4078
930.685	3937
930.79	3819
930.894	3899
930.998	3880
931.103	4071
931.207	3701
931.311	3705
931.415	3682
931.519	3584
931.623	3526
