Data from test_V78500241_2247.txt Node
Date: Fri Mar 25 17:04:37 CST 2022
User: usil
Spectrometer: V785-0024
Trigger mode: 0
Integration Time (sec): 4.000000E-1
Scans to average: 1
Nonlinearity correction enabled: false
Boxcar width: 0
Storing dark spectrum: false
XAxis mode: Wavelengths
Number of Pixels in Spectrum: 1024
>>>>>Begin Spectral Data<<<<<
801.071	8035
801.214	8039
801.356	7887
801.499	7845
801.641	7792
801.783	7898
801.926	7932
802.068	7925
802.211	8043
802.353	7989
802.496	7906
802.638	7822
802.78	7845
802.923	7936
803.065	7841
803.208	7830
803.35	7940
803.492	8050
803.635	8187
803.777	8005
803.919	8172
804.061	8465
804.204	8153
804.346	8134
804.488	7993
804.63	8100
804.773	7982
804.915	8084
805.057	8271
805.199	8157
805.341	8180
805.483	8263
805.626	8240
805.768	8107
805.91	8263
806.052	8229
806.194	8161
806.336	8240
806.478	8130
806.62	8062
806.762	8149
806.904	8218
807.046	8457
807.188	8320
807.33	8324
807.472	8332
807.614	8180
807.756	8172
807.898	7997
808.04	7906
808.182	7875
808.324	7875
808.465	7883
808.607	8081
808.749	8073
808.891	8244
809.033	8244
809.174	8180
809.316	8069
809.458	8145
809.6	7951
809.741	8050
809.883	8077
810.025	8043
810.166	7970
810.308	7963
810.45	7967
810.591	7837
810.733	7753
810.875	7636
811.016	7438
811.158	7403
811.299	7544
811.441	7715
811.582	7609
811.724	7586
811.865	7518
812.007	7578
812.148	7563
812.29	7624
812.431	7757
812.573	7917
812.714	7963
812.855	8123
812.997	8164
813.138	8339
813.279	8195
813.421	8073
813.562	7940
813.703	7795
813.845	7769
813.986	7468
814.127	7225
814.268	7179
814.41	7183
814.551	7179
814.692	7247
814.833	7095
814.974	7129
815.115	7114
815.256	7019
815.397	6859
815.539	6928
815.68	6852
815.821	6753
815.962	6867
816.103	6863
816.244	6719
816.385	6608
816.526	6623
816.666	6460
816.807	6350
816.948	6448
817.089	6506
817.23	6448
817.371	6376
817.512	6426
817.653	6342
817.793	6380
817.934	6380
818.075	6426
818.216	6384
818.356	6380
818.497	6300
818.638	6045
818.778	6175
818.919	6171
819.06	6159
819.2	6350
819.341	6372
819.481	6334
819.622	6555
819.762	6734
819.903	6703
820.043	6502
820.184	6616
820.324	6604
820.465	6700
820.605	6707
820.746	6681
820.886	6563
821.026	6616
821.167	6715
821.307	6818
821.447	6745
821.588	6654
821.728	6585
821.868	6490
822.008	6365
822.149	6346
822.289	6357
822.429	6159
822.569	6053
822.709	6152
822.849	5927
822.99	5889
823.13	5939
823.27	5893
823.41	5802
823.55	5794
823.69	5805
823.83	5840
823.97	5691
824.11	5512
824.25	5490
824.389	5608
824.529	5539
824.669	5558
824.809	5623
824.949	5699
825.089	5642
825.228	5596
825.368	5444
825.508	5391
825.648	5357
825.787	5414
825.927	5337
826.067	5334
826.206	5292
826.346	5395
826.485	5357
826.625	5414
826.765	5566
826.904	5512
827.044	5250
827.183	5204
827.323	5159
827.462	5250
827.601	5178
827.741	5159
827.88	5246
828.02	5102
828.159	5227
828.298	5322
828.437	5360
828.577	5258
828.716	5524
828.855	5322
828.994	5151
829.134	5113
829.273	5178
829.412	5098
829.551	5185
829.69	5204
829.829	5261
829.968	5387
830.107	5296
830.246	5269
830.385	5235
830.524	5109
830.663	5045
830.802	4972
830.941	4870
831.08	4862
831.219	4946
831.357	4942
831.496	5113
831.635	4938
831.774	4877
831.913	4877
832.051	4710
832.19	4752
832.329	4835
832.467	4744
832.606	4615
832.744	4725
832.883	4687
833.022	4702
833.16	4782
833.299	4828
833.437	4831
833.576	4801
833.714	4824
833.852	4847
833.991	4938
834.129	4968
834.267	4965
834.406	4908
834.544	4972
834.682	4972
834.821	4908
834.959	5136
835.097	4999
835.235	5090
835.373	5071
835.511	5124
835.65	5003
835.788	5086
835.926	4839
836.064	4831
836.202	4915
836.34	5128
836.478	5246
836.615	5121
836.753	5254
836.891	5261
837.029	5208
837.167	5201
837.305	5185
837.443	5208
837.58	5113
837.718	5258
837.856	5174
837.993	5193
838.131	5261
838.269	5208
838.406	5178
838.544	5151
838.681	5041
838.819	4976
838.956	4885
839.094	4908
839.231	4934
839.369	5090
839.506	5463
839.643	5288
839.781	5067
839.918	5003
840.055	5124
840.193	5083
840.33	5159
840.467	5128
840.604	5147
840.742	5387
840.879	5117
841.016	5064
841.153	5090
841.29	5379
841.427	5299
841.564	5330
841.701	5315
841.838	5265
841.975	5212
842.112	5277
842.249	5136
842.385	5075
842.522	5318
842.659	5147
842.796	5094
842.933	5197
843.069	5136
843.206	5075
843.343	5303
843.479	5273
843.616	5273
843.752	5018
843.889	5045
844.025	5197
844.162	4984
844.298	5208
844.435	5064
844.571	5064
844.708	5181
844.844	5303
844.98	5330
845.117	5349
845.253	5117
845.389	5105
845.525	5174
845.661	5201
845.798	4987
845.934	5113
846.07	5033
846.206	5162
846.342	5277
846.478	5117
846.614	4995
846.75	5022
846.886	4938
847.022	5121
847.158	4984
847.294	5041
847.429	5128
847.565	5014
847.701	5318
847.837	4824
847.972	4774
848.108	4961
848.244	4965
848.379	4790
848.515	4763
848.65	4672
848.786	4767
848.921	4793
849.057	4881
849.192	4858
849.328	4771
849.463	4839
849.598	4752
849.734	4744
849.869	4683
850.004	4645
850.14	4645
850.275	4596
850.41	4542
850.545	4611
850.68	4615
850.815	4634
850.95	4653
851.085	4828
851.22	4797
851.355	4683
851.49	4592
851.625	4637
851.76	4626
851.895	4584
852.03	4546
852.165	4630
852.299	4752
852.434	4763
852.569	4759
852.703	4725
852.838	4881
852.973	4987
853.107	4908
853.242	4710
853.376	4645
853.511	4538
853.645	4630
853.78	4820
853.914	4687
854.048	4687
854.183	4645
854.317	4714
854.451	4843
854.585	4664
854.72	4634
854.854	4767
854.988	4565
855.122	4622
855.256	4504
855.39	4634
855.524	4774
855.658	4679
855.792	4706
855.926	4752
856.06	4782
856.194	4767
856.327	4744
856.461	4588
856.595	4607
856.729	4558
856.862	4721
856.996	4599
857.13	4725
857.263	4763
857.397	4801
857.53	4694
857.664	4653
857.797	4786
857.931	4763
858.064	4645
858.197	4687
858.331	4603
858.464	4542
858.597	4493
858.731	4630
858.864	4626
858.997	4622
859.13	4660
859.263	4675
859.396	4679
859.529	4489
859.662	4542
859.795	4508
859.928	4615
860.061	4721
860.194	4767
860.327	4580
860.46	4573
860.592	4729
860.725	4714
860.858	4748
860.99	4565
861.123	4558
861.256	4493
861.388	4592
861.521	5296
861.653	4531
861.786	4421
861.918	4451
862.05	4519
862.183	4573
862.315	4584
862.447	4630
862.58	4558
862.712	4409
862.844	4310
862.976	4447
863.108	4436
863.24	4847
863.372	4322
863.504	4409
863.636	4421
863.768	4424
863.9	4443
864.032	4375
864.164	4398
864.296	4478
864.428	4535
864.559	4561
864.691	4516
864.823	4561
864.954	4500
865.086	4519
865.217	4421
865.349	4447
865.48	4432
865.612	4497
865.743	4611
865.875	4428
866.006	4379
866.137	4428
866.269	4497
866.4	4474
866.531	4474
866.662	4390
866.793	4409
866.924	4394
867.055	4493
867.186	4447
867.317	4371
867.448	4405
867.579	4405
867.71	4398
867.841	4367
867.972	4497
868.103	4455
868.233	4447
868.364	4493
868.495	4478
868.625	4649
868.756	4721
868.886	4584
869.017	4618
869.147	4759
869.278	4748
869.408	4683
869.539	4641
869.669	4714
869.799	4675
869.929	4771
870.06	4736
870.19	4949
870.32	4862
870.45	4957
870.58	4961
870.71	5067
870.84	5105
870.97	4896
871.1	4885
871.23	5105
871.36	5117
871.489	5037
871.619	5075
871.749	5045
871.879	5098
872.008	5208
872.138	5056
872.267	4904
872.397	4839
872.526	4839
872.656	4767
872.785	4801
872.915	4919
873.044	5010
873.173	4915
873.303	4949
873.432	4991
873.561	4946
873.69	4877
873.819	4885
873.948	4873
874.077	4786
874.206	4748
874.335	4797
874.464	4915
874.593	5041
874.722	4980
874.851	5083
874.979	5113
875.108	5018
875.237	4904
875.365	4900
875.494	4854
875.623	4949
875.751	4831
875.88	4862
876.008	4965
876.136	5056
876.265	5201
876.393	5349
876.521	5250
876.65	5220
876.778	5159
876.906	5117
877.034	5014
877.162	5041
877.29	5041
877.418	5064
877.546	5033
877.674	5045
877.802	5022
877.93	5048
878.058	4942
878.185	4839
878.313	4904
878.441	4904
878.568	4793
878.696	4847
878.824	4946
878.951	5014
879.079	5113
879.206	5277
879.333	5083
879.461	5022
879.588	5010
879.715	5140
879.842	5212
879.97	5041
880.097	4809
880.224	4748
880.351	4828
880.478	4752
880.605	4809
880.732	4816
880.859	5102
880.986	4873
881.112	4892
881.239	4755
881.366	4618
881.493	4615
881.619	4569
881.746	4702
881.872	4656
881.999	4618
882.125	4672
882.252	4828
882.378	4835
882.505	4976
882.631	4824
882.757	4683
882.883	4698
883.01	4717
883.136	4668
883.262	4584
883.388	4630
883.514	4786
883.64	4892
883.766	4782
883.892	4580
884.018	4687
884.143	4915
884.269	4999
884.395	4687
884.52	4615
884.646	4607
884.772	4531
884.897	4573
885.023	4630
885.148	4801
885.274	4858
885.399	4790
885.524	4714
885.65	4664
885.775	4706
885.9	4729
886.025	4812
886.15	4778
886.275	4706
886.4	4649
886.525	4725
886.65	4649
886.775	4683
886.9	4896
887.025	4980
887.149	4816
887.274	4660
887.399	4538
887.523	4546
887.648	4588
887.773	4565
887.897	4725
888.021	4790
888.146	4626
888.27	4786
888.395	4911
888.519	4771
888.643	4820
888.767	4812
888.891	4615
889.015	4603
889.139	4630
889.263	4603
889.387	4748
889.511	4889
889.635	4816
889.759	4584
889.883	4622
890.006	4729
890.13	4801
890.254	4569
890.377	4744
890.501	4561
890.624	4466
890.748	4618
890.871	4474
890.995	4481
891.118	4417
891.241	4478
891.364	4519
891.488	4573
891.611	4504
891.734	4565
891.857	4599
891.98	4527
892.103	4573
892.226	4596
892.349	4538
892.471	4440
892.594	4546
892.717	4546
892.839	4580
892.962	4565
893.085	4656
893.207	4523
893.33	4478
893.452	4519
893.575	4622
893.697	4569
893.819	4755
893.941	4850
894.064	4755
894.186	4554
894.308	4500
894.43	4717
894.552	4797
894.674	4698
894.796	4561
894.918	4599
895.04	4542
895.161	4744
895.283	4664
895.405	4607
895.526	4672
895.648	4694
895.769	4687
895.891	4721
896.012	4740
896.134	4710
896.255	4714
896.376	4656
896.498	4637
896.619	4660
896.74	4577
896.861	4679
896.982	4896
897.103	5037
897.224	4858
897.345	4740
897.466	4660
897.587	4725
897.708	4805
897.828	4755
897.949	4698
898.07	4538
898.19	4664
898.311	4767
898.431	4683
898.552	4694
898.672	4782
898.792	4744
898.913	4744
899.033	4607
899.153	4455
899.273	4455
899.393	4504
899.513	4497
899.633	4432
899.753	4565
899.873	4516
899.993	4565
900.113	4504
900.232	4592
900.352	4535
900.472	4500
900.591	4398
900.711	4500
900.83	4466
900.95	4550
901.069	4656
901.189	4550
901.308	4356
901.427	4341
901.546	4352
901.665	4436
901.784	4481
901.904	4360
902.023	4310
902.141	4116
902.26	4131
902.379	4276
902.498	4223
902.617	4223
902.735	4386
902.854	4402
902.973	4303
903.091	4185
903.21	4219
903.328	4295
903.446	4299
903.565	4284
903.683	4325
903.801	4268
903.919	4352
904.038	4413
904.156	4325
904.274	4402
904.392	4409
904.51	4443
904.627	4474
904.745	4607
904.863	4611
904.981	4390
905.098	4272
905.216	4348
905.334	4409
905.451	4417
905.569	4455
905.686	4577
905.803	4538
905.921	4459
906.038	4470
906.155	4516
906.272	4344
906.389	4432
906.506	4306
906.623	4402
906.74	4379
906.857	4322
906.974	4371
907.091	4535
907.208	4694
907.324	4615
907.441	4512
907.557	4344
907.674	4337
907.79	4352
907.907	4375
908.023	4440
908.139	4481
908.256	4409
908.372	4447
908.488	4421
908.604	4280
908.72	4291
908.836	4363
908.952	4371
909.068	4386
909.184	4550
909.3	4481
909.415	4565
909.531	4550
909.647	4344
909.762	4383
909.878	4371
909.993	4409
910.108	4363
910.224	4451
910.339	4497
910.454	4386
910.57	4390
910.685	4306
910.8	4653
910.915	4531
911.03	4481
911.145	4348
911.259	4287
911.374	4352
911.489	4249
911.604	4265
911.718	4200
911.833	4200
911.947	4074
912.062	4032
912.176	4177
912.291	4261
912.405	4284
912.519	4459
912.633	4462
912.748	4348
912.862	4314
912.976	4158
913.09	4101
913.204	4192
913.318	4227
913.431	4360
913.545	4325
913.659	4474
913.772	4341
913.886	4227
914	4215
914.113	4333
914.226	4383
914.34	4337
914.453	4204
914.566	4413
914.68	4253
914.793	4329
914.906	4101
915.019	4128
915.132	4090
915.245	4188
915.358	4246
915.47	4211
915.583	4268
915.696	4303
915.809	4386
915.921	4432
916.034	4207
916.146	4242
916.259	4200
916.371	4348
916.483	4325
916.595	4211
916.708	4329
916.82	4291
916.932	4310
917.044	4310
917.156	4303
917.268	4223
917.38	4276
917.491	4284
917.603	4367
917.715	4402
917.826	4436
917.938	4344
918.049	4196
918.161	4394
918.272	4538
918.384	4519
918.495	4459
918.606	4322
918.717	4204
918.828	4356
918.939	4344
919.05	4234
919.161	4303
919.272	4120
919.383	4249
919.494	4390
919.604	4630
919.715	4417
919.826	4306
919.936	4402
920.047	4519
920.157	4542
920.267	4744
920.378	4542
920.488	4519
920.598	4706
920.708	4930
920.818	4763
920.928	4778
921.038	4987
921.148	4946
921.258	4660
921.368	4554
921.477	4554
921.587	4459
921.697	4424
921.806	4542
921.916	4451
922.025	4329
922.134	4287
922.244	4261
922.353	4348
922.462	4204
922.571	4169
922.68	4063
922.789	3998
922.898	4097
923.007	4067
923.116	4131
923.224	4109
923.333	4086
923.442	4013
923.55	3975
923.659	4044
923.767	4135
923.876	4074
923.984	4173
924.092	4071
924.201	4112
924.309	4116
924.417	4185
924.525	4086
924.633	4147
924.741	5098
924.849	3956
924.956	4173
925.064	3998
925.172	3922
925.279	3998
925.387	4124
925.494	4097
925.602	4261
925.709	4227
925.816	4090
925.924	4200
926.031	4246
926.138	4234
926.245	4249
926.352	4166
926.459	4253
926.566	4318
926.673	4177
926.779	4166
926.886	4124
926.993	3994
927.099	3937
927.206	3937
927.312	3979
927.419	4105
927.525	4059
927.631	4109
927.737	4067
927.843	3941
927.95	3876
928.056	4006
928.162	4040
928.267	4097
928.373	4649
928.479	4150
928.585	3915
928.69	4101
928.796	4105
928.901	4025
929.007	3892
929.112	4029
929.218	4017
929.323	3972
929.428	3975
929.533	4116
929.638	3888
929.743	3994
929.848	4101
929.953	3975
930.058	3979
930.163	3842
930.267	3869
930.372	3983
930.477	3812
930.581	4109
930.685	3991
930.79	3876
930.894	3918
930.998	3903
931.103	4093
931.207	3709
931.311	3736
931.415	3728
931.519	3576
931.623	3572
