Data from test_V78500241_1416.txt Node
Date: Fri Mar 25 16:58:50 CST 2022
User: usil
Spectrometer: V785-0024
Trigger mode: 0
Integration Time (sec): 4.000000E-1
Scans to average: 1
Nonlinearity correction enabled: false
Boxcar width: 0
Storing dark spectrum: false
XAxis mode: Wavelengths
Number of Pixels in Spectrum: 1024
>>>>>Begin Spectral Data<<<<<
801.071	8054
801.214	8088
801.356	7902
801.499	7906
801.641	7890
801.783	7818
801.926	7917
802.068	7917
802.211	7967
802.353	8069
802.496	7852
802.638	7860
802.78	7845
802.923	7894
803.065	7826
803.208	7883
803.35	7967
803.492	8024
803.635	8199
803.777	7978
803.919	8176
804.061	8408
804.204	8183
804.346	8073
804.488	7993
804.63	8126
804.773	7989
804.915	8123
805.057	8313
805.199	8161
805.341	8187
805.483	8183
805.626	8279
805.768	8142
805.91	8225
806.052	8191
806.194	8081
806.336	8282
806.478	8065
806.62	8016
806.762	8176
806.904	8244
807.046	8473
807.188	8347
807.33	8317
807.472	8313
807.614	8187
807.756	8123
807.898	7978
808.04	7917
808.182	7856
808.324	7879
808.465	7890
808.607	8058
808.749	8115
808.891	8233
809.033	8279
809.174	8259
809.316	8050
809.458	8001
809.6	7959
809.741	7997
809.883	8065
810.025	8065
810.166	8050
810.308	8065
810.45	7982
810.591	7864
810.733	7734
810.875	7738
811.016	7563
811.158	7529
811.299	7609
811.441	7727
811.582	7712
811.724	7609
811.865	7487
812.007	7552
812.148	7582
812.29	7575
812.431	7738
812.573	7932
812.714	8039
812.855	8145
812.997	8134
813.138	8347
813.279	8214
813.421	8088
813.562	7997
813.703	7807
813.845	7738
813.986	7441
814.127	7266
814.268	7228
814.41	7171
814.551	7160
814.692	7240
814.833	7126
814.974	7072
815.115	7034
815.256	7027
815.397	7008
815.539	6962
815.68	6783
815.821	6745
815.962	6924
816.103	6878
816.244	6719
816.385	6612
816.526	6608
816.666	6479
816.807	6308
816.948	6426
817.089	6532
817.23	6410
817.371	6365
817.512	6422
817.653	6403
817.793	6403
817.934	6361
818.075	6486
818.216	6403
818.356	6422
818.497	6220
818.638	6129
818.778	6152
818.919	6171
819.06	6167
819.2	6338
819.341	6327
819.481	6407
819.622	6525
819.762	6745
819.903	6677
820.043	6578
820.184	6635
820.324	6559
820.465	6684
820.605	6707
820.746	6654
820.886	6525
821.026	6688
821.167	6650
821.307	6875
821.447	6734
821.588	6631
821.728	6612
821.868	6494
822.008	6334
822.149	6403
822.289	6414
822.429	6163
822.569	6106
822.709	6121
822.849	5977
822.99	5866
823.13	5954
823.27	5912
823.41	5813
823.55	5802
823.69	5752
823.83	5756
823.97	5676
824.11	5509
824.25	5493
824.389	5501
824.529	5562
824.669	5535
824.809	5661
824.949	5684
825.089	5577
825.228	5547
825.368	5379
825.508	5318
825.648	5322
825.787	5391
825.927	5360
826.067	5292
826.206	5284
826.346	5368
826.485	5391
826.625	5395
826.765	5562
826.904	5493
827.044	5216
827.183	5254
827.323	5102
827.462	5201
827.601	5121
827.741	5151
827.88	5227
828.02	5098
828.159	5220
828.298	5307
828.437	5372
828.577	5326
828.716	5516
828.855	5311
828.994	5102
829.134	5128
829.273	5162
829.412	5136
829.551	5155
829.69	5159
829.829	5235
829.968	5391
830.107	5204
830.246	5307
830.385	5193
830.524	5124
830.663	5056
830.802	4911
830.941	4885
831.08	4892
831.219	4965
831.357	4972
831.496	5124
831.635	4919
831.774	4824
831.913	4862
832.051	4733
832.19	4725
832.329	4828
832.467	4687
832.606	4599
832.744	4729
832.883	4740
833.022	4672
833.16	4793
833.299	4828
833.437	4835
833.576	4828
833.714	4881
833.852	4843
833.991	4862
834.129	4938
834.267	4972
834.406	4942
834.544	4999
834.682	4987
834.821	4972
834.959	5132
835.097	4968
835.235	5170
835.373	5090
835.511	5094
835.65	5025
835.788	4995
835.926	4896
836.064	4881
836.202	4930
836.34	5162
836.478	5227
836.615	5102
836.753	5212
836.891	5280
837.029	5197
837.167	5204
837.305	5155
837.443	5170
837.58	5048
837.718	5265
837.856	5223
837.993	5185
838.131	5223
838.269	5197
838.406	5220
838.544	5166
838.681	5045
838.819	4968
838.956	4889
839.094	4927
839.231	4999
839.369	5151
839.506	5433
839.643	5223
839.781	5060
839.918	5052
840.055	5025
840.193	5117
840.33	5105
840.467	5075
840.604	5140
840.742	5452
840.879	5075
841.016	5086
841.153	5124
841.29	5433
841.427	5288
841.564	5322
841.701	5349
841.838	5265
841.975	5269
842.112	5250
842.249	5143
842.385	5098
842.522	5315
842.659	5162
842.796	5166
842.933	5140
843.069	5132
843.206	5155
843.343	5341
843.479	5204
843.616	5227
843.752	5018
843.889	4980
844.025	5212
844.162	4980
844.298	5185
844.435	5090
844.571	5064
844.708	5185
844.844	5318
844.98	5360
845.117	5299
845.253	5094
845.389	5041
845.525	5155
845.661	5109
845.798	5029
845.934	5124
846.07	5022
846.206	5235
846.342	5227
846.478	5159
846.614	4991
846.75	4968
846.886	4934
847.022	5109
847.158	5010
847.294	5079
847.429	5147
847.565	5052
847.701	5326
847.837	4885
847.972	4809
848.108	4980
848.244	4946
848.379	4733
848.515	4714
848.65	4717
848.786	4744
848.921	4744
849.057	4862
849.192	4900
849.328	4824
849.463	4854
849.598	4797
849.734	4725
849.869	4660
850.004	4618
850.14	4672
850.275	4596
850.41	4546
850.545	4577
850.68	4596
850.815	4599
850.95	4630
851.085	4824
851.22	4729
851.355	4630
851.49	4603
851.625	4618
851.76	4645
851.895	4542
852.03	4573
852.165	4660
852.299	4698
852.434	4717
852.569	4740
852.703	4793
852.838	4778
852.973	4953
853.107	4919
853.242	4706
853.376	4679
853.511	4493
853.645	4599
853.78	4828
853.914	4714
854.048	4687
854.183	4675
854.317	4706
854.451	4843
854.585	4641
854.72	4641
854.854	4748
854.988	4618
855.122	4645
855.256	4550
855.39	4672
855.524	4748
855.658	4683
855.792	4710
855.926	4755
856.06	4721
856.194	4801
856.327	4672
856.461	4634
856.595	4588
856.729	4596
856.862	4721
856.996	4717
857.13	4752
857.263	4744
857.397	4835
857.53	4653
857.664	4687
857.797	4740
857.931	4782
858.064	4683
858.197	4748
858.331	4641
858.464	4592
858.597	4558
858.731	4615
858.864	4683
858.997	4653
859.13	4611
859.263	4641
859.396	4740
859.529	4611
859.662	4584
859.795	4554
859.928	4637
860.061	4740
860.194	4717
860.327	4558
860.46	4615
860.592	4725
860.725	4698
860.858	4729
860.99	4599
861.123	4550
861.256	4512
861.388	4637
861.521	5414
861.653	4500
861.786	4413
861.918	4478
862.05	4527
862.183	4535
862.315	4561
862.447	4664
862.58	4535
862.712	4371
862.844	4329
862.976	4470
863.108	4474
863.24	4881
863.372	4356
863.504	4447
863.636	4413
863.768	4459
863.9	4402
864.032	4325
864.164	4394
864.296	4451
864.428	4527
864.559	4554
864.691	4542
864.823	4508
864.954	4489
865.086	4489
865.217	4459
865.349	4402
865.48	4417
865.612	4493
865.743	4656
865.875	4459
866.006	4402
866.137	4451
866.269	4379
866.4	4451
866.531	4371
866.662	4375
866.793	4436
866.924	4417
867.055	4481
867.186	4455
867.317	4417
867.448	4363
867.579	4375
867.71	4360
867.841	4413
867.972	4462
868.103	4447
868.233	4470
868.364	4459
868.495	4504
868.625	4637
868.756	4702
868.886	4527
869.017	4596
869.147	4752
869.278	4740
869.408	4656
869.539	4660
869.669	4649
869.799	4675
869.929	4774
870.06	4721
870.19	4938
870.32	4923
870.45	4908
870.58	4976
870.71	5124
870.84	5121
870.97	4919
871.1	4908
871.23	5086
871.36	5124
871.489	5010
871.619	5075
871.749	5064
871.879	5117
872.008	5136
872.138	5033
872.267	4972
872.397	4824
872.526	4797
872.656	4691
872.785	4801
872.915	4889
873.044	4991
873.173	4976
873.303	5006
873.432	4949
873.561	4961
873.69	4828
873.819	4870
873.948	4881
874.077	4774
874.206	4725
874.335	4831
874.464	4957
874.593	5029
874.722	4953
874.851	5048
874.979	5006
875.108	5045
875.237	4965
875.365	4949
875.494	4908
875.623	5018
875.751	4835
875.88	4858
876.008	4927
876.136	5041
876.265	5155
876.393	5311
876.521	5201
876.65	5254
876.778	5162
876.906	5060
877.034	5048
877.162	5064
877.29	4980
877.418	5033
877.546	5022
877.674	5060
877.802	5048
877.93	4980
878.058	4892
878.185	4850
878.313	4930
878.441	4946
878.568	4744
878.696	4854
878.824	4908
878.951	4984
879.079	5086
879.206	5250
879.333	5075
879.461	4999
879.588	4972
879.715	5105
879.842	5254
879.97	4987
880.097	4748
880.224	4767
880.351	4801
880.478	4839
880.605	4820
880.732	4748
880.859	5109
880.986	4862
881.112	4934
881.239	4824
881.366	4618
881.493	4569
881.619	4577
881.746	4649
881.872	4668
881.999	4599
882.125	4645
882.252	4706
882.378	4824
882.505	4953
882.631	4752
882.757	4634
882.883	4698
883.01	4694
883.136	4588
883.262	4603
883.388	4622
883.514	4778
883.64	4862
883.766	4782
883.892	4672
884.018	4740
884.143	4889
884.269	5014
884.395	4710
884.52	4653
884.646	4653
884.772	4573
884.897	4561
885.023	4634
885.148	4782
885.274	4877
885.399	4782
885.524	4691
885.65	4687
885.775	4755
885.9	4740
886.025	4801
886.15	4797
886.275	4672
886.4	4668
886.525	4656
886.65	4664
886.775	4634
886.9	4900
887.025	5010
887.149	4774
887.274	4675
887.399	4599
887.523	4584
887.648	4622
887.773	4634
887.897	4740
888.021	4782
888.146	4714
888.27	4763
888.395	4938
888.519	4797
888.643	4793
888.767	4839
888.891	4645
889.015	4569
889.139	4618
889.263	4634
889.387	4797
889.511	4831
889.635	4790
889.759	4653
889.883	4603
890.006	4710
890.13	4835
890.254	4611
890.377	4664
890.501	4489
890.624	4523
890.748	4626
890.871	4493
890.995	4417
891.118	4383
891.241	4447
891.364	4538
891.488	4683
891.611	4451
891.734	4535
891.857	4592
891.98	4535
892.103	4683
892.226	4554
892.349	4462
892.471	4402
892.594	4550
892.717	4535
892.839	4535
892.962	4592
893.085	4683
893.207	4607
893.33	4466
893.452	4546
893.575	4641
893.697	4569
893.819	4771
893.941	4797
894.064	4748
894.186	4607
894.308	4596
894.43	4725
894.552	4816
894.674	4755
894.796	4569
894.918	4550
895.04	4558
895.161	4706
895.283	4630
895.405	4577
895.526	4596
895.648	4656
895.769	4683
895.891	4736
896.012	4710
896.134	4683
896.255	4664
896.376	4565
896.498	4592
896.619	4653
896.74	4664
896.861	4653
896.982	4938
897.103	5060
897.224	4809
897.345	4755
897.466	4672
897.587	4767
897.708	4854
897.828	4767
897.949	4675
898.07	4561
898.19	4622
898.311	4862
898.431	4645
898.552	4725
898.672	4793
898.792	4801
898.913	4744
899.033	4649
899.153	4504
899.273	4436
899.393	4508
899.513	4516
899.633	4466
899.753	4504
899.873	4519
899.993	4592
900.113	4542
900.232	4592
900.352	4584
900.472	4459
900.591	4409
900.711	4500
900.83	4367
900.95	4588
901.069	4656
901.189	4485
901.308	4322
901.427	4295
901.546	4379
901.665	4447
901.784	4535
901.904	4386
902.023	4329
902.141	4173
902.26	4192
902.379	4325
902.498	4219
902.617	4238
902.735	4341
902.854	4383
902.973	4318
903.091	4238
903.21	4268
903.328	4322
903.446	4230
903.565	4253
903.683	4386
903.801	4299
903.919	4386
904.038	4428
904.156	4295
904.274	4405
904.392	4398
904.51	4436
904.627	4451
904.745	4596
904.863	4637
904.981	4383
905.098	4299
905.216	4367
905.334	4428
905.451	4462
905.569	4447
905.686	4538
905.803	4561
905.921	4428
906.038	4607
906.155	4451
906.272	4352
906.389	4459
906.506	4352
906.623	4375
906.74	4394
906.857	4284
906.974	4394
907.091	4550
907.208	4630
907.324	4607
907.441	4504
907.557	4299
907.674	4352
907.79	4314
907.907	4405
908.023	4481
908.139	4466
908.256	4440
908.372	4459
908.488	4440
908.604	4394
908.72	4268
908.836	4371
908.952	4379
909.068	4443
909.184	4558
909.3	4481
909.415	4660
909.531	4565
909.647	4383
909.762	4375
909.878	4322
909.993	4413
910.108	4390
910.224	4367
910.339	4500
910.454	4390
910.57	4386
910.685	4322
910.8	4649
910.915	4542
911.03	4459
911.145	4310
911.259	4363
911.374	4390
911.489	4287
911.604	4306
911.718	4185
911.833	4219
911.947	4036
912.062	4010
912.176	4188
912.291	4234
912.405	4261
912.519	4436
912.633	4466
912.748	4352
912.862	4314
912.976	4185
913.09	4082
913.204	4116
913.318	4219
913.431	4329
913.545	4352
913.659	4443
913.772	4371
913.886	4227
914	4207
914.113	4318
914.226	4413
914.34	4375
914.453	4238
914.566	4432
914.68	4246
914.793	4299
914.906	4162
915.019	4143
915.132	4090
915.245	4101
915.358	4181
915.47	4265
915.583	4265
915.696	4310
915.809	4363
915.921	4440
916.034	4215
916.146	4242
916.259	4185
916.371	4379
916.483	4314
916.595	4253
916.708	4291
916.82	4284
916.932	4318
917.044	4325
917.156	4333
917.268	4253
917.38	4291
917.491	4287
917.603	4322
917.715	4447
917.826	4409
917.938	4310
918.049	4227
918.161	4367
918.272	4538
918.384	4531
918.495	4451
918.606	4272
918.717	4219
918.828	4341
918.939	4360
919.05	4287
919.161	4341
919.272	4173
919.383	4211
919.494	4447
919.604	4653
919.715	4440
919.826	4405
919.936	4386
920.047	4478
920.157	4459
920.267	4698
920.378	4584
920.488	4489
920.598	4755
920.708	4835
920.818	4733
920.928	4790
921.038	4938
921.148	4919
921.258	4641
921.368	4546
921.477	4443
921.587	4470
921.697	4405
921.806	4546
921.916	4417
922.025	4238
922.134	4261
922.244	4204
922.353	4314
922.462	4219
922.571	4143
922.68	3968
922.789	3941
922.898	4032
923.007	3972
923.116	4040
923.224	4055
923.333	4048
923.442	4013
923.55	3956
923.659	4006
923.767	4120
923.876	3994
923.984	4105
924.092	3991
924.201	4086
924.309	4139
924.417	4120
924.525	4078
924.633	4097
924.741	5056
924.849	3907
924.956	4158
925.064	3960
925.172	3892
925.279	3956
925.387	4059
925.494	4021
925.602	4234
925.709	4200
925.816	3987
925.924	4105
926.031	4200
926.138	4150
926.245	4177
926.352	4109
926.459	4238
926.566	4360
926.673	4131
926.779	4040
926.886	4044
926.993	4010
927.099	3956
927.206	3968
927.312	3945
927.419	4048
927.525	4029
927.631	4074
927.737	3956
927.843	3972
927.95	3861
928.056	3945
928.162	3991
928.267	4078
928.373	4577
928.479	4101
928.585	3884
928.69	4040
928.796	4059
928.901	4006
929.007	3838
929.112	3991
929.218	3964
929.323	3918
929.428	3896
929.533	4097
929.638	3934
929.743	3983
929.848	4105
929.953	3991
930.058	3899
930.163	3797
930.267	3816
930.372	3998
930.477	3819
930.581	4097
930.685	3930
930.79	3831
930.894	3846
930.998	3838
931.103	4025
931.207	3728
931.311	3679
931.415	3648
931.519	3549
931.623	3549
