Data from test_V78500241_650.txt Node
Date: Fri Mar 25 16:53:31 CST 2022
User: usil
Spectrometer: V785-0024
Trigger mode: 0
Integration Time (sec): 4.000000E-1
Scans to average: 1
Nonlinearity correction enabled: false
Boxcar width: 0
Storing dark spectrum: false
XAxis mode: Wavelengths
Number of Pixels in Spectrum: 1024
>>>>>Begin Spectral Data<<<<<
801.071	8031
801.214	7982
801.356	7932
801.499	7902
801.641	7807
801.783	7856
801.926	8058
802.068	7925
802.211	7989
802.353	8024
802.496	7898
802.638	7940
802.78	7993
802.923	7986
803.065	7826
803.208	7868
803.35	8065
803.492	8084
803.635	8210
803.777	8088
803.919	8111
804.061	8370
804.204	8107
804.346	8157
804.488	8012
804.63	8149
804.773	8065
804.915	8199
805.057	8290
805.199	8210
805.341	8237
805.483	8332
805.626	8279
805.768	8145
805.91	8267
806.052	8240
806.194	8161
806.336	8324
806.478	8134
806.62	8081
806.762	8145
806.904	8301
807.046	8473
807.188	8374
807.33	8377
807.472	8351
807.614	8126
807.756	8126
807.898	7974
808.04	7894
808.182	7944
808.324	8001
808.465	7951
808.607	8126
808.749	8172
808.891	8252
809.033	8298
809.174	8172
809.316	8035
809.458	8084
809.6	8058
809.741	7993
809.883	7989
810.025	8180
810.166	8111
810.308	8031
810.45	8031
810.591	7894
810.733	7780
810.875	7700
811.016	7537
811.158	7510
811.299	7685
811.441	7731
811.582	7734
811.724	7552
811.865	7491
812.007	7681
812.148	7685
812.29	7597
812.431	7795
812.573	7898
812.714	7974
812.855	8138
812.997	8317
813.138	8385
813.279	8240
813.421	8206
813.562	8081
813.703	7913
813.845	7807
813.986	7533
814.127	7282
814.268	7343
814.41	7228
814.551	7156
814.692	7183
814.833	7110
814.974	7122
815.115	7164
815.256	7050
815.397	6970
815.539	6932
815.68	6863
815.821	6783
815.962	6890
816.103	6814
816.244	6764
816.385	6635
816.526	6623
816.666	6528
816.807	6380
816.948	6437
817.089	6460
817.23	6509
817.371	6399
817.512	6418
817.653	6452
817.793	6426
817.934	6475
818.075	6509
818.216	6426
818.356	6399
818.497	6296
818.638	6102
818.778	6209
818.919	6136
819.06	6220
819.2	6315
819.341	6346
819.481	6342
819.622	6551
819.762	6779
819.903	6734
820.043	6639
820.184	6559
820.324	6597
820.465	6673
820.605	6681
820.746	6620
820.886	6509
821.026	6658
821.167	6700
821.307	6848
821.447	6760
821.588	6696
821.728	6551
821.868	6479
822.008	6331
822.149	6376
822.289	6372
822.429	6171
822.569	6102
822.709	6129
822.849	5969
822.99	5939
823.13	5916
823.27	5908
823.41	5790
823.55	5824
823.69	5798
823.83	5813
823.97	5703
824.11	5551
824.25	5512
824.389	5532
824.529	5611
824.669	5581
824.809	5729
824.949	5699
825.089	5634
825.228	5573
825.368	5398
825.508	5414
825.648	5414
825.787	5421
825.927	5376
826.067	5376
826.206	5315
826.346	5391
826.485	5474
826.625	5398
826.765	5577
826.904	5474
827.044	5311
827.183	5246
827.323	5151
827.462	5303
827.601	5201
827.741	5174
827.88	5246
828.02	5185
828.159	5261
828.298	5284
828.437	5322
828.577	5315
828.716	5463
828.855	5345
828.994	5151
829.134	5121
829.273	5235
829.412	5174
829.551	5159
829.69	5162
829.829	5246
829.968	5429
830.107	5231
830.246	5292
830.385	5212
830.524	5147
830.663	5079
830.802	4965
830.941	4938
831.08	4892
831.219	4984
831.357	5014
831.496	5143
831.635	4968
831.774	4949
831.913	4866
832.051	4782
832.19	4797
832.329	4866
832.467	4717
832.606	4706
832.744	4786
832.883	4733
833.022	4763
833.16	4801
833.299	4850
833.437	4816
833.576	4831
833.714	4866
833.852	4889
833.991	4858
834.129	4995
834.267	4949
834.406	4930
834.544	4987
834.682	4953
834.821	4946
834.959	5174
835.097	4976
835.235	5166
835.373	5102
835.511	5083
835.65	5090
835.788	5022
835.926	4930
836.064	4885
836.202	4911
836.34	5121
836.478	5246
836.615	5147
836.753	5231
836.891	5269
837.029	5303
837.167	5246
837.305	5185
837.443	5178
837.58	5124
837.718	5341
837.856	5201
837.993	5105
838.131	5216
838.269	5242
838.406	5185
838.544	5227
838.681	5048
838.819	5041
838.956	4904
839.094	4870
839.231	5067
839.369	5064
839.506	5452
839.643	5280
839.781	5113
839.918	5006
840.055	5086
840.193	5094
840.33	5086
840.467	5132
840.604	5151
840.742	5478
840.879	5075
841.016	5113
841.153	5185
841.29	5376
841.427	5337
841.564	5326
841.701	5391
841.838	5288
841.975	5239
842.112	5292
842.249	5185
842.385	5102
842.522	5376
842.659	5201
842.796	5189
842.933	5231
843.069	5189
843.206	5151
843.343	5311
843.479	5288
843.616	5296
843.752	5052
843.889	5079
844.025	5220
844.162	5071
844.298	5223
844.435	5102
844.571	5045
844.708	5208
844.844	5334
844.98	5318
845.117	5330
845.253	5155
845.389	5117
845.525	5143
845.661	5159
845.798	5045
845.934	5159
846.07	5128
846.206	5155
846.342	5277
846.478	5235
846.614	5056
846.75	4953
846.886	4946
847.022	5162
847.158	5048
847.294	5029
847.429	5136
847.565	5022
847.701	5341
847.837	4858
847.972	4778
848.108	4991
848.244	4900
848.379	4774
848.515	4721
848.65	4683
848.786	4744
848.921	4786
849.057	4908
849.192	4892
849.328	4843
849.463	4843
849.598	4793
849.734	4793
849.869	4710
850.004	4645
850.14	4653
850.275	4679
850.41	4565
850.545	4577
850.68	4588
850.815	4596
850.95	4599
851.085	4812
851.22	4759
851.355	4649
851.49	4596
851.625	4645
851.76	4672
851.895	4565
852.03	4550
852.165	4653
852.299	4714
852.434	4786
852.569	4790
852.703	4778
852.838	4854
852.973	4904
853.107	4870
853.242	4752
853.376	4683
853.511	4546
853.645	4584
853.78	4793
853.914	4702
854.048	4660
854.183	4641
854.317	4744
854.451	4877
854.585	4698
854.72	4664
854.854	4767
854.988	4592
855.122	4645
855.256	4519
855.39	4637
855.524	4782
855.658	4755
855.792	4706
855.926	4714
856.06	4771
856.194	4790
856.327	4660
856.461	4691
856.595	4637
856.729	4599
856.862	4763
856.996	4687
857.13	4752
857.263	4767
857.397	4812
857.53	4672
857.664	4729
857.797	4816
857.931	4782
858.064	4729
858.197	4759
858.331	4683
858.464	4672
858.597	4542
858.731	4603
858.864	4656
858.997	4645
859.13	4683
859.263	4691
859.396	4721
859.529	4596
859.662	4584
859.795	4550
859.928	4599
860.061	4801
860.194	4793
860.327	4588
860.46	4546
860.592	4740
860.725	4816
860.858	4752
860.99	4630
861.123	4554
861.256	4573
861.388	4588
861.521	5334
861.653	4523
861.786	4466
861.918	4470
862.05	4508
862.183	4588
862.315	4607
862.447	4630
862.58	4519
862.712	4455
862.844	4360
862.976	4462
863.108	4462
863.24	4839
863.372	4356
863.504	4443
863.636	4428
863.768	4516
863.9	4443
864.032	4379
864.164	4375
864.296	4516
864.428	4550
864.559	4573
864.691	4527
864.823	4538
864.954	4485
865.086	4523
865.217	4455
865.349	4379
865.48	4432
865.612	4500
865.743	4634
865.875	4462
866.006	4478
866.137	4485
866.269	4466
866.4	4474
866.531	4436
866.662	4421
866.793	4447
866.924	4470
867.055	4504
867.186	4470
867.317	4428
867.448	4375
867.579	4394
867.71	4367
867.841	4383
867.972	4474
868.103	4481
868.233	4436
868.364	4470
868.495	4478
868.625	4675
868.756	4801
868.886	4588
869.017	4618
869.147	4729
869.278	4767
869.408	4702
869.539	4660
869.669	4645
869.799	4675
869.929	4759
870.06	4748
870.19	4938
870.32	4919
870.45	4942
870.58	5048
870.71	5124
870.84	5056
870.97	4961
871.1	4892
871.23	5166
871.36	5140
871.489	4961
871.619	5105
871.749	5075
871.879	5094
872.008	5223
872.138	5048
872.267	5029
872.397	4858
872.526	4778
872.656	4714
872.785	4812
872.915	4968
873.044	5113
873.173	4953
873.303	4942
873.432	4946
873.561	4984
873.69	4873
873.819	4847
873.948	4927
874.077	4843
874.206	4790
874.335	4778
874.464	4927
874.593	5033
874.722	4961
874.851	5140
874.979	5041
875.108	5060
875.237	4953
875.365	4877
875.494	4892
875.623	4949
875.751	4862
875.88	4900
876.008	4972
876.136	4995
876.265	5178
876.393	5395
876.521	5273
876.65	5273
876.778	5178
876.906	5060
877.034	5052
877.162	5025
877.29	4961
877.418	5086
877.546	5029
877.674	5075
877.802	5052
877.93	5010
878.058	4957
878.185	4911
878.313	4934
878.441	4957
878.568	4801
878.696	4911
878.824	4957
878.951	4953
879.079	5178
879.206	5315
879.333	5128
879.461	4995
879.588	5029
879.715	5124
879.842	5220
879.97	5033
880.097	4809
880.224	4771
880.351	4771
880.478	4816
880.605	4805
880.732	4759
880.859	5128
880.986	4889
881.112	4885
881.239	4774
881.366	4691
881.493	4637
881.619	4569
881.746	4683
881.872	4679
881.999	4672
882.125	4672
882.252	4816
882.378	4828
882.505	5003
882.631	4793
882.757	4664
882.883	4759
883.01	4736
883.136	4634
883.262	4622
883.388	4622
883.514	4805
883.64	4866
883.766	4786
883.892	4675
884.018	4767
884.143	4885
884.269	5010
884.395	4675
884.52	4626
884.646	4691
884.772	4569
884.897	4546
885.023	4664
885.148	4816
885.274	4889
885.399	4820
885.524	4687
885.65	4679
885.775	4759
885.9	4702
886.025	4866
886.15	4850
886.275	4698
886.4	4668
886.525	4755
886.65	4679
886.775	4717
886.9	4923
887.025	5060
887.149	4839
887.274	4611
887.399	4611
887.523	4618
887.648	4569
887.773	4615
887.897	4733
888.021	4805
888.146	4626
888.27	4873
888.395	4870
888.519	4805
888.643	4778
888.767	4885
888.891	4656
889.015	4611
889.139	4630
889.263	4615
889.387	4733
889.511	4866
889.635	4793
889.759	4637
889.883	4622
890.006	4721
890.13	4824
890.254	4626
890.377	4664
890.501	4580
890.624	4493
890.748	4649
890.871	4500
890.995	4436
891.118	4413
891.241	4493
891.364	4512
891.488	4660
891.611	4493
891.734	4500
891.857	4569
891.98	4550
892.103	4607
892.226	4599
892.349	4504
892.471	4390
892.594	4523
892.717	4561
892.839	4558
892.962	4596
893.085	4641
893.207	4618
893.33	4440
893.452	4569
893.575	4634
893.697	4607
893.819	4831
893.941	4835
894.064	4729
894.186	4546
894.308	4512
894.43	4729
894.552	4831
894.674	4767
894.796	4542
894.918	4580
895.04	4538
895.161	4721
895.283	4683
895.405	4550
895.526	4653
895.648	4660
895.769	4725
895.891	4687
896.012	4740
896.134	4687
896.255	4664
896.376	4649
896.498	4596
896.619	4626
896.74	4637
896.861	4637
896.982	4968
897.103	5079
897.224	4835
897.345	4733
897.466	4691
897.587	4748
897.708	4870
897.828	4771
897.949	4683
898.07	4535
898.19	4626
898.311	4835
898.431	4710
898.552	4702
898.672	4767
898.792	4774
898.913	4714
899.033	4580
899.153	4531
899.273	4451
899.393	4493
899.513	4485
899.633	4516
899.753	4527
899.873	4542
899.993	4577
900.113	4516
900.232	4558
900.352	4546
900.472	4523
900.591	4367
900.711	4500
900.83	4478
900.95	4630
901.069	4740
901.189	4504
901.308	4379
901.427	4337
901.546	4356
901.665	4466
901.784	4523
901.904	4383
902.023	4329
902.141	4131
902.26	4200
902.379	4314
902.498	4287
902.617	4227
902.735	4386
902.854	4402
902.973	4333
903.091	4192
903.21	4238
903.328	4325
903.446	4257
903.565	4230
903.683	4367
903.801	4257
903.919	4413
904.038	4405
904.156	4303
904.274	4367
904.392	4371
904.51	4466
904.627	4489
904.745	4618
904.863	4618
904.981	4440
905.098	4325
905.216	4356
905.334	4371
905.451	4424
905.569	4379
905.686	4584
905.803	4561
905.921	4386
906.038	4538
906.155	4504
906.272	4394
906.389	4447
906.506	4295
906.623	4394
906.74	4390
906.857	4303
906.974	4371
907.091	4565
907.208	4679
907.324	4588
907.441	4523
907.557	4295
907.674	4352
907.79	4295
907.907	4402
908.023	4459
908.139	4516
908.256	4398
908.372	4462
908.488	4451
908.604	4398
908.72	4356
908.836	4367
908.952	4371
909.068	4421
909.184	4523
909.3	4462
909.415	4569
909.531	4565
909.647	4371
909.762	4341
909.878	4344
909.993	4402
910.108	4398
910.224	4375
910.339	4447
910.454	4413
910.57	4322
910.685	4287
910.8	4653
910.915	4577
911.03	4447
911.145	4325
911.259	4306
911.374	4344
911.489	4333
911.604	4268
911.718	4177
911.833	4200
911.947	4063
912.062	4017
912.176	4215
912.291	4238
912.405	4211
912.519	4455
912.633	4481
912.748	4348
912.862	4287
912.976	4181
913.09	4116
913.204	4181
913.318	4299
913.431	4375
913.545	4424
913.659	4424
913.772	4386
913.886	4265
914	4196
914.113	4417
914.226	4478
914.34	4371
914.453	4249
914.566	4413
914.68	4253
914.793	4306
914.906	4169
915.019	4128
915.132	4093
915.245	4211
915.358	4196
915.47	4227
915.583	4261
915.696	4333
915.809	4405
915.921	4455
916.034	4211
916.146	4280
916.259	4219
916.371	4379
916.483	4360
916.595	4257
916.708	4325
916.82	4325
916.932	4291
917.044	4318
917.156	4337
917.268	4242
917.38	4303
917.491	4314
917.603	4325
917.715	4371
917.826	4432
917.938	4352
918.049	4272
918.161	4379
918.272	4535
918.384	4474
918.495	4455
918.606	4276
918.717	4215
918.828	4329
918.939	4363
919.05	4238
919.161	4318
919.272	4101
919.383	4249
919.494	4443
919.604	4596
919.715	4470
919.826	4367
919.936	4390
920.047	4523
920.157	4485
920.267	4744
920.378	4523
920.488	4516
920.598	4767
920.708	4885
920.818	4725
920.928	4759
921.038	4953
921.148	4881
921.258	4626
921.368	4577
921.477	4512
921.587	4447
921.697	4371
921.806	4531
921.916	4421
922.025	4238
922.134	4306
922.244	4246
922.353	4318
922.462	4162
922.571	4154
922.68	3979
922.789	3953
922.898	4063
923.007	3975
923.116	4135
923.224	4036
923.333	4086
923.442	3960
923.55	3930
923.659	4013
923.767	4086
923.876	4013
923.984	4128
924.092	3964
924.201	4093
924.309	4078
924.417	4120
924.525	4067
924.633	4124
924.741	5010
924.849	3918
924.956	4109
925.064	3991
925.172	3892
925.279	3991
925.387	4059
925.494	4063
925.602	4200
925.709	4158
925.816	4071
925.924	4120
926.031	4246
926.138	4169
926.245	4181
926.352	4124
926.459	4261
926.566	4295
926.673	4128
926.779	4074
926.886	4067
926.993	3960
927.099	3968
927.206	3934
927.312	3960
927.419	4048
927.525	4017
927.631	4139
927.737	3964
927.843	3983
927.95	3838
928.056	3941
928.162	4010
928.267	4051
928.373	4672
928.479	4135
928.585	3884
928.69	4006
928.796	4097
928.901	3964
929.007	3869
929.112	4017
929.218	3953
929.323	3926
929.428	3926
929.533	4120
929.638	3884
929.743	3953
929.848	3979
929.953	4013
930.058	3903
930.163	3728
930.267	3838
930.372	3937
930.477	3823
930.581	4093
930.685	3915
930.79	3831
930.894	3896
930.998	3816
931.103	4040
931.207	3740
931.311	3736
931.415	3682
931.519	3568
931.623	3538
