Data from test_V78500241_2789.txt Node
Date: Fri Mar 25 17:08:23 CST 2022
User: usil
Spectrometer: V785-0024
Trigger mode: 0
Integration Time (sec): 4.000000E-1
Scans to average: 1
Nonlinearity correction enabled: false
Boxcar width: 0
Storing dark spectrum: false
XAxis mode: Wavelengths
Number of Pixels in Spectrum: 1024
>>>>>Begin Spectral Data<<<<<
801.071	7986
801.214	8035
801.356	7830
801.499	7826
801.641	7879
801.783	7814
801.926	8062
802.068	7894
802.211	8001
802.353	8016
802.496	7837
802.638	7883
802.78	7944
802.923	7921
803.065	7795
803.208	7883
803.35	7959
803.492	8084
803.635	8126
803.777	8031
803.919	8126
804.061	8446
804.204	8187
804.346	8062
804.488	7951
804.63	8107
804.773	8062
804.915	8138
805.057	8332
805.199	8107
805.341	8233
805.483	8301
805.626	8313
805.768	8164
805.91	8176
806.052	8202
806.194	8092
806.336	8324
806.478	8176
806.62	8012
806.762	8149
806.904	8229
807.046	8431
807.188	8389
807.33	8313
807.472	8358
807.614	8096
807.756	8153
807.898	8016
808.04	7898
808.182	7864
808.324	7944
808.465	7963
808.607	8084
808.749	8138
808.891	8271
809.033	8282
809.174	8187
809.316	8062
809.458	8073
809.6	7974
809.741	8005
809.883	8130
810.025	8153
810.166	8092
810.308	8031
810.45	7940
810.591	7845
810.733	7704
810.875	7693
811.016	7571
811.158	7483
811.299	7647
811.441	7738
811.582	7719
811.724	7605
811.865	7590
812.007	7597
812.148	7670
812.29	7651
812.431	7715
812.573	7807
812.714	8020
812.855	8183
812.997	8206
813.138	8339
813.279	8119
813.421	8062
813.562	8043
813.703	7932
813.845	7822
813.986	7502
814.127	7274
814.268	7278
814.41	7209
814.551	7129
814.692	7160
814.833	7122
814.974	7057
815.115	7122
815.256	6947
815.397	6890
815.539	6973
815.68	6764
815.821	6795
815.962	6901
816.103	6875
816.244	6722
816.385	6711
816.526	6642
816.666	6536
816.807	6311
816.948	6479
817.089	6448
817.23	6467
817.371	6342
817.512	6361
817.653	6331
817.793	6342
817.934	6433
818.075	6467
818.216	6445
818.356	6384
818.497	6277
818.638	6167
818.778	6178
818.919	6140
819.06	6083
819.2	6304
819.341	6331
819.481	6296
819.622	6555
819.762	6764
819.903	6745
820.043	6597
820.184	6582
820.324	6620
820.465	6692
820.605	6646
820.746	6700
820.886	6544
821.026	6620
821.167	6707
821.307	6760
821.447	6715
821.588	6696
821.728	6673
821.868	6456
822.008	6334
822.149	6338
822.289	6331
822.429	6159
822.569	6129
822.709	6095
822.849	5927
822.99	5942
823.13	5958
823.27	5950
823.41	5805
823.55	5779
823.69	5832
823.83	5790
823.97	5680
824.11	5543
824.25	5501
824.389	5604
824.529	5623
824.669	5524
824.809	5668
824.949	5676
825.089	5623
825.228	5554
825.368	5433
825.508	5296
825.648	5353
825.787	5376
825.927	5448
826.067	5292
826.206	5235
826.346	5334
826.485	5402
826.625	5395
826.765	5501
826.904	5558
827.044	5239
827.183	5178
827.323	5140
827.462	5235
827.601	5189
827.741	5159
827.88	5220
828.02	5128
828.159	5235
828.298	5315
828.437	5337
828.577	5288
828.716	5490
828.855	5303
828.994	5098
829.134	5140
829.273	5189
829.412	5136
829.551	5162
829.69	5170
829.829	5250
829.968	5398
830.107	5261
830.246	5269
830.385	5170
830.524	5117
830.663	5117
830.802	4984
830.941	4961
831.08	4889
831.219	4949
831.357	4953
831.496	5102
831.635	4953
831.774	4843
831.913	4889
832.051	4691
832.19	4725
832.329	4862
832.467	4694
832.606	4592
832.744	4748
832.883	4668
833.022	4740
833.16	4736
833.299	4793
833.437	4790
833.576	4854
833.714	4889
833.852	4866
833.991	4919
834.129	4961
834.267	4961
834.406	4896
834.544	4908
834.682	4991
834.821	4957
834.959	5185
835.097	4980
835.235	5128
835.373	5079
835.511	5109
835.65	5037
835.788	5045
835.926	4896
836.064	4904
836.202	4889
836.34	5086
836.478	5208
836.615	5143
836.753	5246
836.891	5296
837.029	5258
837.167	5223
837.305	5166
837.443	5121
837.58	5056
837.718	5292
837.856	5208
837.993	5170
838.131	5208
838.269	5204
838.406	5162
838.544	5181
838.681	5014
838.819	5022
838.956	4843
839.094	4934
839.231	4987
839.369	5041
839.506	5406
839.643	5265
839.781	5029
839.918	4976
840.055	5117
840.193	5075
840.33	5079
840.467	5181
840.604	5143
840.742	5459
840.879	5121
841.016	5102
841.153	5128
841.29	5364
841.427	5345
841.564	5318
841.701	5353
841.838	5318
841.975	5220
842.112	5220
842.249	5132
842.385	5079
842.522	5292
842.659	5181
842.796	5124
842.933	5162
843.069	5143
843.206	5151
843.343	5299
843.479	5273
843.616	5239
843.752	5067
843.889	5010
844.025	5277
844.162	5025
844.298	5178
844.435	5098
844.571	5025
844.708	5178
844.844	5311
844.98	5307
845.117	5292
845.253	5155
845.389	5109
845.525	5140
845.661	5064
845.798	5056
845.934	5132
846.07	5045
846.206	5159
846.342	5227
846.478	5193
846.614	5048
846.75	4987
846.886	4968
847.022	5162
847.158	4949
847.294	5083
847.429	5041
847.565	5045
847.701	5322
847.837	4870
847.972	4790
848.108	4984
848.244	4957
848.379	4767
848.515	4729
848.65	4740
848.786	4714
848.921	4774
849.057	4831
849.192	4870
849.328	4797
849.463	4839
849.598	4801
849.734	4748
849.869	4725
850.004	4622
850.14	4656
850.275	4607
850.41	4481
850.545	4558
850.68	4603
850.815	4653
850.95	4618
851.085	4843
851.22	4706
851.355	4679
851.49	4622
851.625	4634
851.76	4679
851.895	4527
852.03	4561
852.165	4683
852.299	4755
852.434	4801
852.569	4714
852.703	4786
852.838	4873
852.973	4942
853.107	4858
853.242	4710
853.376	4634
853.511	4531
853.645	4634
853.78	4801
853.914	4668
854.048	4714
854.183	4660
854.317	4694
854.451	4904
854.585	4675
854.72	4596
854.854	4755
854.988	4596
855.122	4672
855.256	4527
855.39	4706
855.524	4793
855.658	4660
855.792	4672
855.926	4664
856.06	4752
856.194	4805
856.327	4683
856.461	4588
856.595	4649
856.729	4645
856.862	4790
856.996	4679
857.13	4744
857.263	4767
857.397	4771
857.53	4668
857.664	4717
857.797	4771
857.931	4793
858.064	4698
858.197	4790
858.331	4687
858.464	4592
858.597	4538
858.731	4637
858.864	4641
858.997	4607
859.13	4641
859.263	4687
859.396	4672
859.529	4596
859.662	4599
859.795	4527
859.928	4592
860.061	4771
860.194	4763
860.327	4596
860.46	4538
860.592	4721
860.725	4717
860.858	4710
860.99	4550
861.123	4569
861.256	4512
861.388	4634
861.521	5307
861.653	4455
861.786	4421
861.918	4394
862.05	4535
862.183	4542
862.315	4607
862.447	4626
862.58	4516
862.712	4383
862.844	4318
862.976	4500
863.108	4462
863.24	4774
863.372	4329
863.504	4398
863.636	4455
863.768	4512
863.9	4352
864.032	4398
864.164	4383
864.296	4424
864.428	4599
864.559	4565
864.691	4519
864.823	4527
864.954	4474
865.086	4523
865.217	4424
865.349	4390
865.48	4447
865.612	4462
865.743	4660
865.875	4440
866.006	4451
866.137	4451
866.269	4459
866.4	4443
866.531	4424
866.662	4356
866.793	4436
866.924	4432
867.055	4481
867.186	4478
867.317	4394
867.448	4375
867.579	4371
867.71	4383
867.841	4405
867.972	4436
868.103	4481
868.233	4413
868.364	4451
868.495	4440
868.625	4672
868.756	4763
868.886	4596
869.017	4649
869.147	4759
869.278	4717
869.408	4710
869.539	4664
869.669	4694
869.799	4656
869.929	4733
870.06	4736
870.19	4949
870.32	4858
870.45	4968
870.58	4984
870.71	5086
870.84	5105
870.97	4961
871.1	4854
871.23	5151
871.36	5143
871.489	4995
871.619	5033
871.749	5113
871.879	5124
872.008	5235
872.138	5071
872.267	4961
872.397	4854
872.526	4774
872.656	4725
872.785	4793
872.915	4961
873.044	5048
873.173	4946
873.303	4999
873.432	4942
873.561	4949
873.69	4908
873.819	4862
873.948	4934
874.077	4816
874.206	4752
874.335	4805
874.464	4858
874.593	5029
874.722	4885
874.851	5067
874.979	5056
875.108	5018
875.237	4942
875.365	4892
875.494	4881
875.623	4900
875.751	4824
875.88	4850
876.008	4942
876.136	5037
876.265	5239
876.393	5311
876.521	5242
876.65	5197
876.778	5170
876.906	5067
877.034	5033
877.162	5029
877.29	4987
877.418	5037
877.546	5056
877.674	5029
877.802	5018
877.93	5052
878.058	4938
878.185	4854
878.313	4961
878.441	4927
878.568	4824
878.696	4812
878.824	4984
878.951	5052
879.079	5079
879.206	5288
879.333	5162
879.461	4923
879.588	5037
879.715	5071
879.842	5250
879.97	4987
880.097	4797
880.224	4790
880.351	4801
880.478	4812
880.605	4816
880.732	4816
880.859	5102
880.986	4900
881.112	4938
881.239	4755
881.366	4706
881.493	4618
881.619	4653
881.746	4653
881.872	4698
881.999	4626
882.125	4668
882.252	4786
882.378	4809
882.505	4930
882.631	4793
882.757	4679
882.883	4706
883.01	4668
883.136	4641
883.262	4634
883.388	4603
883.514	4858
883.64	4850
883.766	4774
883.892	4675
884.018	4733
884.143	4892
884.269	4991
884.395	4641
884.52	4618
884.646	4656
884.772	4558
884.897	4546
885.023	4683
885.148	4786
885.274	4866
885.399	4816
885.524	4706
885.65	4675
885.775	4793
885.9	4683
886.025	4858
886.15	4729
886.275	4714
886.4	4679
886.525	4740
886.65	4660
886.775	4691
886.9	4942
887.025	5052
887.149	4843
887.274	4668
887.399	4588
887.523	4592
887.648	4565
887.773	4603
887.897	4759
888.021	4793
888.146	4694
888.27	4820
888.395	4915
888.519	4801
888.643	4782
888.767	4843
888.891	4702
889.015	4596
889.139	4645
889.263	4615
889.387	4793
889.511	4866
889.635	4801
889.759	4607
889.883	4622
890.006	4744
890.13	4839
890.254	4577
890.377	4622
890.501	4580
890.624	4508
890.748	4618
890.871	4493
890.995	4459
891.118	4386
891.241	4554
891.364	4580
891.488	4588
891.611	4508
891.734	4554
891.857	4596
891.98	4527
892.103	4645
892.226	4565
892.349	4542
892.471	4497
892.594	4535
892.717	4615
892.839	4588
892.962	4569
893.085	4694
893.207	4569
893.33	4474
893.452	4497
893.575	4618
893.697	4580
893.819	4793
893.941	4843
894.064	4771
894.186	4546
894.308	4584
894.43	4729
894.552	4790
894.674	4721
894.796	4607
894.918	4584
895.04	4573
895.161	4698
895.283	4691
895.405	4588
895.526	4622
895.648	4664
895.769	4691
895.891	4672
896.012	4748
896.134	4736
896.255	4611
896.376	4664
896.498	4656
896.619	4656
896.74	4649
896.861	4683
896.982	4923
897.103	5037
897.224	4824
897.345	4778
897.466	4653
897.587	4687
897.708	4881
897.828	4755
897.949	4691
898.07	4542
898.19	4664
898.311	4839
898.431	4615
898.552	4755
898.672	4824
898.792	4763
898.913	4714
899.033	4645
899.153	4512
899.273	4428
899.393	4485
899.513	4485
899.633	4542
899.753	4554
899.873	4516
899.993	4592
900.113	4550
900.232	4603
900.352	4527
900.472	4462
900.591	4417
900.711	4470
900.83	4455
900.95	4611
901.069	4645
901.189	4565
901.308	4337
901.427	4272
901.546	4379
901.665	4421
901.784	4478
901.904	4386
902.023	4367
902.141	4162
902.26	4158
902.379	4303
902.498	4261
902.617	4265
902.735	4310
902.854	4405
902.973	4344
903.091	4188
903.21	4227
903.328	4306
903.446	4280
903.565	4280
903.683	4356
903.801	4291
903.919	4443
904.038	4402
904.156	4329
904.274	4424
904.392	4421
904.51	4424
904.627	4462
904.745	4538
904.863	4660
904.981	4375
905.098	4318
905.216	4383
905.334	4375
905.451	4390
905.569	4470
905.686	4592
905.803	4531
905.921	4375
906.038	4569
906.155	4451
906.272	4398
906.389	4516
906.506	4344
906.623	4356
906.74	4413
906.857	4303
906.974	4333
907.091	4512
907.208	4691
907.324	4618
907.441	4489
907.557	4383
907.674	4375
907.79	4280
907.907	4356
908.023	4455
908.139	4466
908.256	4386
908.372	4436
908.488	4451
908.604	4337
908.72	4276
908.836	4348
908.952	4379
909.068	4447
909.184	4538
909.3	4443
909.415	4561
909.531	4535
909.647	4375
909.762	4398
909.878	4390
909.993	4451
910.108	4398
910.224	4447
910.339	4531
910.454	4443
910.57	4383
910.685	4333
910.8	4615
910.915	4618
911.03	4481
911.145	4363
911.259	4363
911.374	4383
911.489	4261
911.604	4268
911.718	4147
911.833	4147
911.947	4120
912.062	4059
912.176	4211
912.291	4215
912.405	4249
912.519	4424
912.633	4443
912.748	4405
912.862	4310
912.976	4204
913.09	4093
913.204	4162
913.318	4284
913.431	4409
913.545	4352
913.659	4462
913.772	4367
913.886	4227
914	4204
914.113	4329
914.226	4455
914.34	4356
914.453	4215
914.566	4417
914.68	4295
914.793	4318
914.906	4158
915.019	4131
915.132	4071
915.245	4185
915.358	4249
915.47	4227
915.583	4276
915.696	4329
915.809	4398
915.921	4428
916.034	4268
916.146	4246
916.259	4257
916.371	4348
916.483	4421
916.595	4242
916.708	4337
916.82	4303
916.932	4352
917.044	4367
917.156	4295
917.268	4272
917.38	4291
917.491	4280
917.603	4318
917.715	4413
917.826	4428
917.938	4352
918.049	4242
918.161	4417
918.272	4554
918.384	4489
918.495	4440
918.606	4257
918.717	4253
918.828	4356
918.939	4314
919.05	4280
919.161	4295
919.272	4162
919.383	4272
919.494	4447
919.604	4634
919.715	4417
919.826	4341
919.936	4379
920.047	4535
920.157	4474
920.267	4721
920.378	4580
920.488	4523
920.598	4694
920.708	4877
920.818	4759
920.928	4759
921.038	4972
921.148	4919
921.258	4603
921.368	4603
921.477	4504
921.587	4421
921.697	4405
921.806	4516
921.916	4398
922.025	4299
922.134	4253
922.244	4268
922.353	4333
922.462	4234
922.571	4112
922.68	4021
922.789	3994
922.898	4006
923.007	3983
923.116	4086
923.224	4071
923.333	4051
923.442	4002
923.55	3934
923.659	4063
923.767	4093
923.876	4010
923.984	4131
924.092	4002
924.201	4090
924.309	4128
924.417	4120
924.525	4040
924.633	4120
924.741	4919
924.849	3911
924.956	4120
925.064	3987
925.172	3884
925.279	3930
925.387	4074
925.494	4086
925.602	4219
925.709	4207
925.816	4059
925.924	4143
926.031	4215
926.138	4154
926.245	4169
926.352	4071
926.459	4215
926.566	4303
926.673	4143
926.779	4074
926.886	4131
926.993	3972
927.099	3972
927.206	3926
927.312	3941
927.419	4090
927.525	4040
927.631	4147
927.737	3975
927.843	3953
927.95	3854
928.056	3918
928.162	3994
928.267	4067
928.373	4694
928.479	4124
928.585	3865
928.69	4021
928.796	4036
928.901	3994
929.007	3865
929.112	3994
929.218	3968
929.323	3949
929.428	3941
929.533	4135
929.638	3918
929.743	3972
929.848	4002
929.953	4017
930.058	3922
930.163	3770
930.267	3873
930.372	3937
930.477	3793
930.581	4105
930.685	3956
930.79	3804
930.894	3896
930.998	3854
931.103	4059
931.207	3679
931.311	3701
931.415	3694
931.519	3507
931.623	3526
