Data from test_V78500241_749.txt Node
Date: Fri Mar 25 16:54:12 CST 2022
User: usil
Spectrometer: V785-0024
Trigger mode: 0
Integration Time (sec): 4.000000E-1
Scans to average: 1
Nonlinearity correction enabled: false
Boxcar width: 0
Storing dark spectrum: false
XAxis mode: Wavelengths
Number of Pixels in Spectrum: 1024
>>>>>Begin Spectral Data<<<<<
801.071	8043
801.214	7974
801.356	7875
801.499	7902
801.641	7715
801.783	7780
801.926	8001
802.068	7928
802.211	7982
802.353	7978
802.496	7856
802.638	7822
802.78	7959
802.923	7871
803.065	7860
803.208	7978
803.35	8035
803.492	8111
803.635	8180
803.777	8008
803.919	8065
804.061	8381
804.204	8039
804.346	8046
804.488	7970
804.63	8096
804.773	8039
804.915	8084
805.057	8320
805.199	8107
805.341	8191
805.483	8218
805.626	8176
805.768	8153
805.91	8134
806.052	8244
806.194	8054
806.336	8237
806.478	8130
806.62	8043
806.762	8138
806.904	8145
807.046	8427
807.188	8370
807.33	8149
807.472	8355
807.614	8168
807.756	8050
807.898	7932
808.04	7837
808.182	7974
808.324	7837
808.465	7856
808.607	8046
808.749	8073
808.891	8176
809.033	8301
809.174	8145
809.316	8054
809.458	8100
809.6	8012
809.741	8035
809.883	7974
810.025	7989
810.166	8054
810.308	8050
810.45	8016
810.591	7906
810.733	7696
810.875	7734
811.016	7487
811.158	7430
811.299	7540
811.441	7761
811.582	7674
811.724	7548
811.865	7506
812.007	7590
812.148	7548
812.29	7544
812.431	7670
812.573	7792
812.714	7944
812.855	8123
812.997	8187
813.138	8286
813.279	8149
813.421	8073
813.562	7993
813.703	7776
813.845	7731
813.986	7430
814.127	7228
814.268	7266
814.41	7168
814.551	7145
814.692	7103
814.833	7019
814.974	7065
815.115	7114
815.256	6989
815.397	6928
815.539	6947
815.68	6802
815.821	6806
815.962	6848
816.103	6802
816.244	6726
816.385	6604
816.526	6582
816.666	6528
816.807	6311
816.948	6399
817.089	6464
817.23	6426
817.371	6376
817.512	6395
817.653	6407
817.793	6369
817.934	6407
818.075	6380
818.216	6399
818.356	6304
818.497	6247
818.638	6079
818.778	6117
818.919	6091
819.06	6148
819.2	6281
819.341	6300
819.481	6334
819.622	6513
819.762	6711
819.903	6665
820.043	6566
820.184	6604
820.324	6521
820.465	6639
820.605	6604
820.746	6620
820.886	6532
821.026	6684
821.167	6673
821.307	6806
821.447	6753
821.588	6597
821.728	6555
821.868	6467
822.008	6281
822.149	6281
822.289	6315
822.429	6140
822.569	6106
822.709	6152
822.849	5965
822.99	5958
823.13	5882
823.27	5912
823.41	5779
823.55	5771
823.69	5729
823.83	5790
823.97	5680
824.11	5528
824.25	5459
824.389	5532
824.529	5551
824.669	5512
824.809	5642
824.949	5668
825.089	5649
825.228	5558
825.368	5376
825.508	5364
825.648	5303
825.787	5376
825.927	5337
826.067	5322
826.206	5250
826.346	5383
826.485	5410
826.625	5402
826.765	5562
826.904	5440
827.044	5258
827.183	5162
827.323	5094
827.462	5265
827.601	5166
827.741	5155
827.88	5151
828.02	5121
828.159	5201
828.298	5269
828.437	5337
828.577	5303
828.716	5452
828.855	5334
828.994	5193
829.134	5162
829.273	5189
829.412	5117
829.551	5109
829.69	5147
829.829	5231
829.968	5318
830.107	5269
830.246	5292
830.385	5102
830.524	5079
830.663	5060
830.802	4968
830.941	4850
831.08	4877
831.219	4999
831.357	4972
831.496	5113
831.635	4911
831.774	4839
831.913	4824
832.051	4710
832.19	4767
832.329	4816
832.467	4714
832.606	4645
832.744	4721
832.883	4668
833.022	4706
833.16	4790
833.299	4812
833.437	4839
833.576	4801
833.714	4820
833.852	4881
833.991	4843
834.129	4957
834.267	4957
834.406	4870
834.544	4980
834.682	5006
834.821	4934
834.959	5189
835.097	4930
835.235	5166
835.373	5029
835.511	5071
835.65	5010
835.788	4980
835.926	4900
836.064	4885
836.202	4900
836.34	5128
836.478	5159
836.615	5121
836.753	5178
836.891	5269
837.029	5242
837.167	5216
837.305	5181
837.443	5147
837.58	5064
837.718	5246
837.856	5189
837.993	5166
838.131	5246
838.269	5189
838.406	5201
838.544	5155
838.681	5014
838.819	5033
838.956	4862
839.094	4850
839.231	4984
839.369	5105
839.506	5429
839.643	5258
839.781	5079
839.918	5045
840.055	5067
840.193	5056
840.33	5102
840.467	5113
840.604	5201
840.742	5391
840.879	5086
841.016	5056
841.153	5124
841.29	5391
841.427	5326
841.564	5311
841.701	5322
841.838	5269
841.975	5212
842.112	5223
842.249	5109
842.385	5098
842.522	5303
842.659	5159
842.796	5155
842.933	5189
843.069	5159
843.206	5147
843.343	5299
843.479	5227
843.616	5239
843.752	5037
843.889	4999
844.025	5204
844.162	5033
844.298	5143
844.435	5052
844.571	5041
844.708	5124
844.844	5296
844.98	5360
845.117	5311
845.253	5094
845.389	5048
845.525	5136
845.661	5147
845.798	5033
845.934	5178
846.07	5048
846.206	5151
846.342	5189
846.478	5174
846.614	5033
846.75	4923
846.886	4930
847.022	5143
847.158	5033
847.294	5064
847.429	5151
847.565	5025
847.701	5334
847.837	4873
847.972	4782
848.108	5003
848.244	4934
848.379	4782
848.515	4725
848.65	4653
848.786	4736
848.921	4767
849.057	4881
849.192	4908
849.328	4797
849.463	4774
849.598	4767
849.734	4755
849.869	4641
850.004	4607
850.14	4622
850.275	4622
850.41	4519
850.545	4542
850.68	4603
850.815	4607
850.95	4649
851.085	4847
851.22	4694
851.355	4645
851.49	4592
851.625	4603
851.76	4626
851.895	4592
852.03	4504
852.165	4626
852.299	4714
852.434	4733
852.569	4744
852.703	4733
852.838	4828
852.973	4877
853.107	4866
853.242	4714
853.376	4672
853.511	4577
853.645	4630
853.78	4790
853.914	4675
854.048	4656
854.183	4630
854.317	4740
854.451	4759
854.585	4649
854.72	4653
854.854	4767
854.988	4618
855.122	4596
855.256	4470
855.39	4645
855.524	4771
855.658	4668
855.792	4645
855.926	4729
856.06	4706
856.194	4797
856.327	4653
856.461	4584
856.595	4565
856.729	4603
856.862	4710
856.996	4706
857.13	4710
857.263	4721
857.397	4774
857.53	4611
857.664	4755
857.797	4744
857.931	4774
858.064	4668
858.197	4698
858.331	4679
858.464	4607
858.597	4535
858.731	4584
858.864	4634
858.997	4569
859.13	4660
859.263	4706
859.396	4679
859.529	4611
859.662	4573
859.795	4500
859.928	4573
860.061	4816
860.194	4755
860.327	4641
860.46	4577
860.592	4668
860.725	4691
860.858	4729
860.99	4558
861.123	4500
861.256	4474
861.388	4630
861.521	5357
861.653	4504
861.786	4470
861.918	4466
862.05	4531
862.183	4580
862.315	4618
862.447	4691
862.58	4504
862.712	4409
862.844	4314
862.976	4497
863.108	4440
863.24	4900
863.372	4325
863.504	4443
863.636	4375
863.768	4428
863.9	4417
864.032	4360
864.164	4409
864.296	4478
864.428	4565
864.559	4546
864.691	4569
864.823	4485
864.954	4478
865.086	4481
865.217	4447
865.349	4402
865.48	4459
865.612	4455
865.743	4615
865.875	4504
866.006	4424
866.137	4489
866.269	4402
866.4	4417
866.531	4428
866.662	4405
866.793	4360
866.924	4447
867.055	4493
867.186	4470
867.317	4394
867.448	4371
867.579	4344
867.71	4383
867.841	4352
867.972	4474
868.103	4421
868.233	4478
868.364	4440
868.495	4466
868.625	4637
868.756	4767
868.886	4611
869.017	4626
869.147	4801
869.278	4740
869.408	4687
869.539	4592
869.669	4706
869.799	4656
869.929	4774
870.06	4668
870.19	4915
870.32	4904
870.45	4987
870.58	4991
870.71	5094
870.84	5105
870.97	4927
871.1	4942
871.23	5151
871.36	5143
871.489	5025
871.619	5128
871.749	5086
871.879	5140
872.008	5189
872.138	5041
872.267	4934
872.397	4805
872.526	4824
872.656	4660
872.785	4767
872.915	4946
873.044	4976
873.173	4915
873.303	4938
873.432	4930
873.561	4942
873.69	4873
873.819	4858
873.948	4942
874.077	4793
874.206	4748
874.335	4835
874.464	4911
874.593	5052
874.722	4942
874.851	5113
874.979	5048
875.108	5045
875.237	4908
875.365	4885
875.494	4858
875.623	4976
875.751	4805
875.88	4892
876.008	4942
876.136	5052
876.265	5189
876.393	5330
876.521	5208
876.65	5220
876.778	5143
876.906	5052
877.034	5033
877.162	5037
877.29	4965
877.418	4991
877.546	5006
877.674	5006
877.802	5033
877.93	4965
878.058	4995
878.185	4824
878.313	4942
878.441	4930
878.568	4786
878.696	4839
878.824	4923
878.951	4991
879.079	5109
879.206	5280
879.333	5128
879.461	5006
879.588	5025
879.715	5098
879.842	5201
879.97	5006
880.097	4793
880.224	4702
880.351	4820
880.478	4786
880.605	4801
880.732	4809
880.859	5136
880.986	4885
881.112	4908
881.239	4793
881.366	4660
881.493	4607
881.619	4584
881.746	4615
881.872	4660
881.999	4637
882.125	4660
882.252	4809
882.378	4801
882.505	4976
882.631	4774
882.757	4675
882.883	4691
883.01	4710
883.136	4664
883.262	4577
883.388	4580
883.514	4774
883.64	4835
883.766	4763
883.892	4618
884.018	4687
884.143	4862
884.269	5022
884.395	4679
884.52	4630
884.646	4675
884.772	4611
884.897	4573
885.023	4637
885.148	4797
885.274	4862
885.399	4828
885.524	4687
885.65	4691
885.775	4733
885.9	4687
886.025	4889
886.15	4793
886.275	4687
886.4	4672
886.525	4702
886.65	4645
886.775	4649
886.9	4900
887.025	5064
887.149	4824
887.274	4664
887.399	4599
887.523	4637
887.648	4558
887.773	4569
887.897	4778
888.021	4771
888.146	4698
888.27	4805
888.395	4854
888.519	4782
888.643	4850
888.767	4812
888.891	4622
889.015	4584
889.139	4656
889.263	4603
889.387	4729
889.511	4854
889.635	4790
889.759	4637
889.883	4664
890.006	4717
890.13	4881
890.254	4611
890.377	4660
890.501	4538
890.624	4538
890.748	4649
890.871	4497
890.995	4428
891.118	4394
891.241	4500
891.364	4516
891.488	4637
891.611	4504
891.734	4561
891.857	4607
891.98	4558
892.103	4664
892.226	4573
892.349	4535
892.471	4409
892.594	4512
892.717	4558
892.839	4542
892.962	4580
893.085	4679
893.207	4558
893.33	4474
893.452	4523
893.575	4672
893.697	4550
893.819	4763
893.941	4793
894.064	4805
894.186	4569
894.308	4599
894.43	4675
894.552	4809
894.674	4672
894.796	4546
894.918	4611
895.04	4538
895.161	4733
895.283	4630
895.405	4618
895.526	4599
895.648	4660
895.769	4710
895.891	4736
896.012	4767
896.134	4714
896.255	4668
896.376	4626
896.498	4535
896.619	4691
896.74	4596
896.861	4641
896.982	4900
897.103	5086
897.224	4793
897.345	4782
897.466	4683
897.587	4702
897.708	4892
897.828	4733
897.949	4679
898.07	4565
898.19	4618
898.311	4839
898.431	4664
898.552	4733
898.672	4835
898.792	4774
898.913	4736
899.033	4656
899.153	4508
899.273	4436
899.393	4459
899.513	4580
899.633	4481
899.753	4527
899.873	4474
899.993	4653
900.113	4497
900.232	4573
900.352	4554
900.472	4508
900.591	4390
900.711	4512
900.83	4436
900.95	4603
901.069	4725
901.189	4493
901.308	4333
901.427	4352
901.546	4352
901.665	4497
901.784	4500
901.904	4337
902.023	4291
902.141	4192
902.26	4192
902.379	4253
902.498	4230
902.617	4219
902.735	4363
902.854	4363
902.973	4386
903.091	4230
903.21	4219
903.328	4333
903.446	4322
903.565	4299
903.683	4344
903.801	4268
903.919	4375
904.038	4424
904.156	4306
904.274	4455
904.392	4421
904.51	4459
904.627	4455
904.745	4565
904.863	4599
904.981	4383
905.098	4329
905.216	4314
905.334	4440
905.451	4451
905.569	4440
905.686	4504
905.803	4519
905.921	4386
906.038	4546
906.155	4516
906.272	4363
906.389	4447
906.506	4394
906.623	4348
906.74	4371
906.857	4257
906.974	4383
907.091	4546
907.208	4691
907.324	4538
907.441	4485
907.557	4344
907.674	4356
907.79	4299
907.907	4409
908.023	4538
908.139	4485
908.256	4428
908.372	4485
908.488	4409
908.604	4383
908.72	4268
908.836	4337
908.952	4402
909.068	4447
909.184	4565
909.3	4466
909.415	4558
909.531	4554
909.647	4329
909.762	4367
909.878	4333
909.993	4409
910.108	4409
910.224	4386
910.339	4466
910.454	4348
910.57	4379
910.685	4287
910.8	4668
910.915	4561
911.03	4459
911.145	4310
911.259	4348
911.374	4341
911.489	4310
911.604	4272
911.718	4150
911.833	4154
911.947	4090
912.062	4048
912.176	4162
912.291	4246
912.405	4227
912.519	4455
912.633	4478
912.748	4367
912.862	4310
912.976	4238
913.09	4086
913.204	4158
913.318	4230
913.431	4337
913.545	4322
913.659	4440
913.772	4363
913.886	4291
914	4253
914.113	4379
914.226	4459
914.34	4352
914.453	4234
914.566	4428
914.68	4356
914.793	4303
914.906	4181
915.019	4135
915.132	4051
915.245	4181
915.358	4234
915.47	4249
915.583	4253
915.696	4291
915.809	4390
915.921	4413
916.034	4287
916.146	4284
916.259	4238
916.371	4322
916.483	4341
916.595	4238
916.708	4333
916.82	4325
916.932	4329
917.044	4299
917.156	4299
917.268	4181
917.38	4276
917.491	4287
917.603	4375
917.715	4363
917.826	4371
917.938	4337
918.049	4249
918.161	4394
918.272	4535
918.384	4489
918.495	4421
918.606	4322
918.717	4242
918.828	4341
918.939	4386
919.05	4287
919.161	4291
919.272	4150
919.383	4230
919.494	4363
919.604	4626
919.715	4478
919.826	4322
919.936	4409
920.047	4531
920.157	4470
920.267	4653
920.378	4538
920.488	4474
920.598	4683
920.708	4866
920.818	4759
920.928	4744
921.038	4934
921.148	4892
921.258	4615
921.368	4516
921.477	4466
921.587	4451
921.697	4348
921.806	4516
921.916	4436
922.025	4299
922.134	4265
922.244	4219
922.353	4322
922.462	4162
922.571	4150
922.68	4006
922.789	3998
922.898	4044
923.007	3994
923.116	4078
923.224	4078
923.333	4071
923.442	3964
923.55	3979
923.659	4032
923.767	4093
923.876	3972
923.984	4101
924.092	3960
924.201	4086
924.309	4090
924.417	4139
924.525	4029
924.633	4086
924.741	4892
924.849	3949
924.956	4166
925.064	3945
925.172	3857
925.279	3941
925.387	4040
925.494	4078
925.602	4230
925.709	4185
925.816	4006
925.924	4093
926.031	4196
926.138	4169
926.245	4185
926.352	4097
926.459	4230
926.566	4322
926.673	4116
926.779	4109
926.886	4055
926.993	3998
927.099	3972
927.206	3960
927.312	3956
927.419	4044
927.525	4090
927.631	4093
927.737	3979
927.843	3918
927.95	3808
928.056	3922
928.162	3987
928.267	4063
928.373	4683
928.479	4093
928.585	3876
928.69	3991
928.796	4051
928.901	3960
929.007	3838
929.112	3960
929.218	3975
929.323	3896
929.428	3903
929.533	4059
929.638	3899
929.743	3964
929.848	4032
929.953	3964
930.058	3896
930.163	3759
930.267	3808
930.372	3934
930.477	3800
930.581	4044
930.685	3918
930.79	3808
930.894	3880
930.998	3846
931.103	4048
931.207	3694
931.311	3690
931.415	3675
931.519	3500
931.623	3538
