Data from test_V78500241_2480.txt Node
Date: Fri Mar 25 17:06:14 CST 2022
User: usil
Spectrometer: V785-0024
Trigger mode: 0
Integration Time (sec): 4.000000E-1
Scans to average: 1
Nonlinearity correction enabled: false
Boxcar width: 0
Storing dark spectrum: false
XAxis mode: Wavelengths
Number of Pixels in Spectrum: 1024
>>>>>Begin Spectral Data<<<<<
801.071	8027
801.214	8016
801.356	7875
801.499	7860
801.641	7811
801.783	7814
801.926	7959
802.068	7940
802.211	7967
802.353	8001
802.496	7894
802.638	7864
802.78	7932
802.923	7986
803.065	7807
803.208	7841
803.35	7970
803.492	8100
803.635	8153
803.777	8024
803.919	8119
804.061	8446
804.204	8206
804.346	8134
804.488	7902
804.63	8088
804.773	7997
804.915	8134
805.057	8317
805.199	8138
805.341	8195
805.483	8339
805.626	8229
805.768	8115
805.91	8210
806.052	8176
806.194	8092
806.336	8267
806.478	8138
806.62	8088
806.762	8145
806.904	8225
807.046	8484
807.188	8389
807.33	8309
807.472	8351
807.614	8130
807.756	8096
807.898	7970
808.04	7883
808.182	7879
808.324	7860
808.465	7890
808.607	8058
808.749	8077
808.891	8172
809.033	8256
809.174	8218
809.316	8142
809.458	7959
809.6	7974
809.741	8054
809.883	8100
810.025	8043
810.166	8081
810.308	8027
810.45	7997
810.591	7826
810.733	7738
810.875	7590
811.016	7480
811.158	7453
811.299	7605
811.441	7658
811.582	7708
811.724	7575
811.865	7552
812.007	7636
812.148	7540
812.29	7620
812.431	7734
812.573	7837
812.714	7955
812.855	8092
812.997	8248
813.138	8355
813.279	8077
813.421	8119
813.562	7993
813.703	7814
813.845	7765
813.986	7480
814.127	7274
814.268	7206
814.41	7183
814.551	7168
814.692	7259
814.833	7076
814.974	7095
815.115	7164
815.256	6916
815.397	6958
815.539	6947
815.68	6798
815.821	6776
815.962	6871
816.103	6787
816.244	6741
816.385	6642
816.526	6658
816.666	6490
816.807	6331
816.948	6410
817.089	6460
817.23	6388
817.371	6422
817.512	6418
817.653	6395
817.793	6323
817.934	6414
818.075	6437
818.216	6410
818.356	6376
818.497	6254
818.638	6072
818.778	6171
818.919	6144
819.06	6083
819.2	6346
819.341	6350
819.481	6380
819.622	6566
819.762	6700
819.903	6696
820.043	6662
820.184	6616
820.324	6566
820.465	6700
820.605	6646
820.746	6711
820.886	6513
821.026	6719
821.167	6654
821.307	6848
821.447	6745
821.588	6665
821.728	6559
821.868	6479
822.008	6315
822.149	6369
822.289	6319
822.429	6152
822.569	6087
822.709	6098
822.849	5942
822.99	5950
823.13	5942
823.27	5885
823.41	5775
823.55	5798
823.69	5707
823.83	5726
823.97	5668
824.11	5543
824.25	5512
824.389	5570
824.529	5634
824.669	5528
824.809	5653
824.949	5619
825.089	5642
825.228	5562
825.368	5455
825.508	5303
825.648	5349
825.787	5372
825.927	5406
826.067	5273
826.206	5299
826.346	5372
826.485	5459
826.625	5395
826.765	5554
826.904	5459
827.044	5296
827.183	5235
827.323	5143
827.462	5239
827.601	5143
827.741	5201
827.88	5204
828.02	5174
828.159	5208
828.298	5311
828.437	5406
828.577	5307
828.716	5509
828.855	5341
828.994	5178
829.134	5151
829.273	5223
829.412	5201
829.551	5109
829.69	5231
829.829	5277
829.968	5395
830.107	5322
830.246	5315
830.385	5170
830.524	5178
830.663	5064
830.802	4980
830.941	4957
831.08	4904
831.219	5022
831.357	5029
831.496	5174
831.635	4938
831.774	4847
831.913	4942
832.051	4828
832.19	4774
832.329	4824
832.467	4755
832.606	4649
832.744	4782
832.883	4774
833.022	4782
833.16	4824
833.299	4854
833.437	4885
833.576	4839
833.714	4957
833.852	4904
833.991	4915
834.129	4987
834.267	5006
834.406	4946
834.544	4968
834.682	5033
834.821	5025
834.959	5193
835.097	5022
835.235	5159
835.373	5090
835.511	5075
835.65	5071
835.788	5045
835.926	4911
836.064	4885
836.202	4991
836.34	5193
836.478	5235
836.615	5132
836.753	5269
836.891	5334
837.029	5280
837.167	5216
837.305	5227
837.443	5220
837.58	5121
837.718	5284
837.856	5185
837.993	5174
838.131	5246
838.269	5254
838.406	5258
838.544	5239
838.681	5071
838.819	5045
838.956	4938
839.094	4923
839.231	4980
839.369	5132
839.506	5448
839.643	5242
839.781	5094
839.918	5033
840.055	5121
840.193	5155
840.33	5132
840.467	5166
840.604	5185
840.742	5452
840.879	5079
841.016	5140
841.153	5178
841.29	5421
841.427	5341
841.564	5379
841.701	5429
841.838	5318
841.975	5246
842.112	5334
842.249	5208
842.385	5170
842.522	5398
842.659	5204
842.796	5208
842.933	5220
843.069	5197
843.206	5166
843.343	5341
843.479	5239
843.616	5280
843.752	5045
843.889	5033
844.025	5292
844.162	5124
844.298	5284
844.435	5117
844.571	5136
844.708	5204
844.844	5337
844.98	5387
845.117	5307
845.253	5193
845.389	5128
845.525	5174
845.661	5193
845.798	5121
845.934	5140
846.07	5064
846.206	5273
846.342	5330
846.478	5223
846.614	5033
846.75	4987
846.886	4965
847.022	5216
847.158	5025
847.294	5064
847.429	5090
847.565	5090
847.701	5357
847.837	4847
847.972	4835
848.108	4995
848.244	4968
848.379	4774
848.515	4809
848.65	4767
848.786	4805
848.921	4801
849.057	4911
849.192	4946
849.328	4866
849.463	4885
849.598	4835
849.734	4782
849.869	4755
850.004	4668
850.14	4675
850.275	4653
850.41	4584
850.545	4607
850.68	4641
850.815	4622
850.95	4630
851.085	4850
851.22	4771
851.355	4694
851.49	4679
851.625	4691
851.76	4668
851.895	4599
852.03	4554
852.165	4641
852.299	4809
852.434	4771
852.569	4797
852.703	4847
852.838	4904
852.973	4953
853.107	4938
853.242	4733
853.376	4698
853.511	4573
853.645	4664
853.78	4816
853.914	4733
854.048	4687
854.183	4729
854.317	4729
854.451	4847
854.585	4710
854.72	4698
854.854	4778
854.988	4634
855.122	4679
855.256	4584
855.39	4702
855.524	4858
855.658	4748
855.792	4702
855.926	4725
856.06	4782
856.194	4782
856.327	4729
856.461	4660
856.595	4660
856.729	4649
856.862	4801
856.996	4668
857.13	4759
857.263	4828
857.397	4862
857.53	4672
857.664	4755
857.797	4786
857.931	4771
858.064	4744
858.197	4778
858.331	4725
858.464	4687
858.597	4561
858.731	4664
858.864	4645
858.997	4675
859.13	4694
859.263	4717
859.396	4752
859.529	4672
859.662	4580
859.795	4573
859.928	4672
860.061	4793
860.194	4839
860.327	4691
860.46	4558
860.592	4740
860.725	4786
860.858	4759
860.99	4611
861.123	4565
861.256	4558
861.388	4645
861.521	5223
861.653	4538
861.786	4500
861.918	4538
862.05	4538
862.183	4554
862.315	4607
862.447	4691
862.58	4535
862.712	4443
862.844	4375
862.976	4523
863.108	4497
863.24	4908
863.372	4352
863.504	4504
863.636	4489
863.768	4455
863.9	4424
864.032	4367
864.164	4424
864.296	4554
864.428	4577
864.559	4554
864.691	4554
864.823	4538
864.954	4538
865.086	4538
865.217	4436
865.349	4470
865.48	4497
865.612	4512
865.743	4626
865.875	4500
866.006	4485
866.137	4474
866.269	4459
866.4	4478
866.531	4455
866.662	4447
866.793	4443
866.924	4497
867.055	4493
867.186	4459
867.317	4466
867.448	4421
867.579	4394
867.71	4428
867.841	4386
867.972	4497
868.103	4500
868.233	4478
868.364	4485
868.495	4542
868.625	4694
868.756	4831
868.886	4588
869.017	4645
869.147	4816
869.278	4782
869.408	4729
869.539	4675
869.669	4736
869.799	4672
869.929	4824
870.06	4717
870.19	4995
870.32	4953
870.45	4976
870.58	5037
870.71	5109
870.84	5132
870.97	4961
871.1	4911
871.23	5162
871.36	5117
871.489	5029
871.619	5067
871.749	5086
871.879	5079
872.008	5193
872.138	5102
872.267	4976
872.397	4847
872.526	4870
872.656	4755
872.785	4812
872.915	5010
873.044	5033
873.173	4976
873.303	5018
873.432	4957
873.561	4991
873.69	4908
873.819	4854
873.948	4934
874.077	4812
874.206	4786
874.335	4847
874.464	4911
874.593	5102
874.722	4995
874.851	5117
874.979	5083
875.108	5048
875.237	4953
875.365	4866
875.494	4908
875.623	4991
875.751	4854
875.88	4873
876.008	5022
876.136	5060
876.265	5220
876.393	5330
876.521	5284
876.65	5258
876.778	5197
876.906	5117
877.034	4995
877.162	5052
877.29	4965
877.418	5025
877.546	5094
877.674	5079
877.802	5056
877.93	5029
878.058	4961
878.185	4908
878.313	4976
878.441	4976
878.568	4820
878.696	4850
878.824	4927
878.951	4972
879.079	5147
879.206	5337
879.333	5128
879.461	4961
879.588	4987
879.715	5193
879.842	5239
879.97	5022
880.097	4824
880.224	4755
880.351	4831
880.478	4839
880.605	4831
880.732	4873
880.859	5155
880.986	4942
881.112	4987
881.239	4816
881.366	4668
881.493	4645
881.619	4634
881.746	4618
881.872	4645
881.999	4641
882.125	4687
882.252	4820
882.378	4870
882.505	5022
882.631	4816
882.757	4675
882.883	4759
883.01	4805
883.136	4714
883.262	4607
883.388	4626
883.514	4854
883.64	4858
883.766	4790
883.892	4725
884.018	4717
884.143	4934
884.269	4991
884.395	4706
884.52	4607
884.646	4687
884.772	4580
884.897	4592
885.023	4672
885.148	4850
885.274	4873
885.399	4870
885.524	4683
885.65	4767
885.775	4771
885.9	4797
886.025	4904
886.15	4828
886.275	4763
886.4	4698
886.525	4790
886.65	4759
886.775	4721
886.9	4957
887.025	4984
887.149	4782
887.274	4645
887.399	4607
887.523	4588
887.648	4588
887.773	4637
887.897	4782
888.021	4847
888.146	4687
888.27	4828
888.395	4942
888.519	4824
888.643	4816
888.767	4843
888.891	4687
889.015	4603
889.139	4694
889.263	4626
889.387	4793
889.511	4892
889.635	4793
889.759	4694
889.883	4660
890.006	4725
890.13	4820
890.254	4698
890.377	4683
890.501	4538
890.624	4519
890.748	4607
890.871	4561
890.995	4447
891.118	4390
891.241	4550
891.364	4588
891.488	4645
891.611	4504
891.734	4554
891.857	4630
891.98	4569
892.103	4664
892.226	4611
892.349	4580
892.471	4447
892.594	4580
892.717	4611
892.839	4622
892.962	4611
893.085	4675
893.207	4599
893.33	4470
893.452	4527
893.575	4660
893.697	4584
893.819	4831
893.941	4824
894.064	4771
894.186	4584
894.308	4577
894.43	4763
894.552	4797
894.674	4801
894.796	4538
894.918	4592
895.04	4546
895.161	4714
895.283	4660
895.405	4611
895.526	4656
895.648	4714
895.769	4706
895.891	4729
896.012	4778
896.134	4759
896.255	4744
896.376	4626
896.498	4645
896.619	4706
896.74	4637
896.861	4668
896.982	4980
897.103	5071
897.224	4835
897.345	4755
897.466	4694
897.587	4797
897.708	4938
897.828	4786
897.949	4683
898.07	4580
898.19	4675
898.311	4824
898.431	4683
898.552	4755
898.672	4839
898.792	4793
898.913	4736
899.033	4596
899.153	4519
899.273	4466
899.393	4538
899.513	4550
899.633	4478
899.753	4565
899.873	4512
899.993	4550
900.113	4538
900.232	4630
900.352	4531
900.472	4500
900.591	4440
900.711	4470
900.83	4493
900.95	4649
901.069	4683
901.189	4577
901.308	4402
901.427	4333
901.546	4367
901.665	4531
901.784	4558
901.904	4386
902.023	4371
902.141	4192
902.26	4219
902.379	4329
902.498	4257
902.617	4249
902.735	4371
902.854	4402
902.973	4310
903.091	4200
903.21	4284
903.328	4314
903.446	4268
903.565	4253
903.683	4348
903.801	4306
903.919	4386
904.038	4432
904.156	4383
904.274	4485
904.392	4375
904.51	4394
904.627	4451
904.745	4550
904.863	4615
904.981	4398
905.098	4322
905.216	4344
905.334	4459
905.451	4474
905.569	4459
905.686	4577
905.803	4569
905.921	4432
906.038	4554
906.155	4447
906.272	4428
906.389	4493
906.506	4352
906.623	4413
906.74	4432
906.857	4303
906.974	4394
907.091	4542
907.208	4706
907.324	4607
907.441	4504
907.557	4371
907.674	4379
907.79	4303
907.907	4402
908.023	4516
908.139	4485
908.256	4417
908.372	4462
908.488	4478
908.604	4367
908.72	4363
908.836	4398
908.952	4356
909.068	4447
909.184	4577
909.3	4455
909.415	4584
909.531	4550
909.647	4417
909.762	4390
909.878	4344
909.993	4409
910.108	4417
910.224	4440
910.339	4459
910.454	4405
910.57	4379
910.685	4333
910.8	4649
910.915	4634
911.03	4519
911.145	4344
911.259	4360
911.374	4371
911.489	4333
911.604	4329
911.718	4181
911.833	4181
911.947	4082
912.062	4082
912.176	4207
912.291	4280
912.405	4261
912.519	4497
912.633	4466
912.748	4390
912.862	4280
912.976	4246
913.09	4131
913.204	4234
913.318	4272
913.431	4409
913.545	4356
913.659	4440
913.772	4394
913.886	4299
914	4204
914.113	4360
914.226	4405
914.34	4402
914.453	4276
914.566	4462
914.68	4310
914.793	4333
914.906	4173
915.019	4112
915.132	4067
915.245	4154
915.358	4227
915.47	4242
915.583	4284
915.696	4280
915.809	4417
915.921	4424
916.034	4280
916.146	4303
916.259	4207
916.371	4325
916.483	4344
916.595	4246
916.708	4375
916.82	4356
916.932	4314
917.044	4322
917.156	4306
917.268	4204
917.38	4329
917.491	4314
917.603	4329
917.715	4455
917.826	4466
917.938	4352
918.049	4272
918.161	4360
918.272	4569
918.384	4573
918.495	4394
918.606	4299
918.717	4261
918.828	4390
918.939	4386
919.05	4291
919.161	4318
919.272	4124
919.383	4265
919.494	4500
919.604	4656
919.715	4466
919.826	4360
919.936	4390
920.047	4565
920.157	4497
920.267	4679
920.378	4561
920.488	4538
920.598	4691
920.708	4934
920.818	4755
920.928	4790
921.038	4961
921.148	4866
921.258	4622
921.368	4565
921.477	4470
921.587	4497
921.697	4405
921.806	4580
921.916	4455
922.025	4268
922.134	4280
922.244	4196
922.353	4344
922.462	4223
922.571	4124
922.68	3987
922.789	3975
922.898	4055
923.007	4010
923.116	4097
923.224	4078
923.333	4074
923.442	3930
923.55	3964
923.659	4013
923.767	4128
923.876	3987
923.984	4074
924.092	4036
924.201	4051
924.309	4071
924.417	4177
924.525	4082
924.633	4131
924.741	4850
924.849	3964
924.956	4128
925.064	3964
925.172	3934
925.279	3960
925.387	4059
925.494	4067
925.602	4204
925.709	4185
925.816	4025
925.924	4154
926.031	4230
926.138	4219
926.245	4215
926.352	4063
926.459	4253
926.566	4303
926.673	4177
926.779	4120
926.886	4086
926.993	4029
927.099	3991
927.206	3964
927.312	3987
927.419	4044
927.525	4078
927.631	4116
927.737	3953
927.843	3899
927.95	3804
928.056	3953
928.162	3983
928.267	4086
928.373	4634
928.479	4128
928.585	3854
928.69	4078
928.796	4067
928.901	3953
929.007	3865
929.112	4006
929.218	3998
929.323	3949
929.428	3972
929.533	4105
929.638	3934
929.743	3983
929.848	4055
929.953	3991
930.058	3968
930.163	3755
930.267	3831
930.372	4017
930.477	3819
930.581	4063
930.685	3949
930.79	3846
930.894	3956
930.998	3835
931.103	4055
931.207	3717
931.311	3656
931.415	3625
931.519	3526
931.623	3568
