Data from test_V78500241_1400.txt Node
Date: Fri Mar 25 16:58:44 CST 2022
User: usil
Spectrometer: V785-0024
Trigger mode: 0
Integration Time (sec): 4.000000E-1
Scans to average: 1
Nonlinearity correction enabled: false
Boxcar width: 0
Storing dark spectrum: false
XAxis mode: Wavelengths
Number of Pixels in Spectrum: 1024
>>>>>Begin Spectral Data<<<<<
801.071	8035
801.214	8031
801.356	7860
801.499	7852
801.641	7719
801.783	7849
801.926	7864
802.068	7902
802.211	7974
802.353	7963
802.496	7761
802.638	7845
802.78	7833
802.923	7917
803.065	7890
803.208	7788
803.35	7944
803.492	8035
803.635	8043
803.777	7970
803.919	8161
804.061	8415
804.204	8187
804.346	8069
804.488	7967
804.63	8142
804.773	8008
804.915	8138
805.057	8229
805.199	8111
805.341	8183
805.483	8221
805.626	8130
805.768	8157
805.91	8256
806.052	8172
806.194	8123
806.336	8221
806.478	8016
806.62	8043
806.762	8103
806.904	8233
807.046	8457
807.188	8358
807.33	8267
807.472	8256
807.614	8138
807.756	8111
807.898	7978
808.04	7947
808.182	7909
808.324	7856
808.465	7928
808.607	8050
808.749	8077
808.891	8172
809.033	8214
809.174	8115
809.316	8050
809.458	8031
809.6	7993
809.741	8012
809.883	8020
810.025	8100
810.166	8077
810.308	7959
810.45	8012
810.591	7883
810.733	7681
810.875	7643
811.016	7506
811.158	7540
811.299	7605
811.441	7704
811.582	7605
811.724	7605
811.865	7586
812.007	7624
812.148	7597
812.29	7620
812.431	7780
812.573	7818
812.714	7963
812.855	8168
812.997	8218
813.138	8358
813.279	8218
813.421	8107
813.562	7986
813.703	7852
813.845	7799
813.986	7430
814.127	7240
814.268	7152
814.41	7228
814.551	7099
814.692	7228
814.833	7137
814.974	7069
815.115	7072
815.256	7019
815.397	6928
815.539	6943
815.68	6791
815.821	6776
815.962	6894
816.103	6764
816.244	6688
816.385	6563
816.526	6536
816.666	6517
816.807	6308
816.948	6376
817.089	6437
817.23	6395
817.371	6384
817.512	6353
817.653	6380
817.793	6365
817.934	6418
818.075	6464
818.216	6456
818.356	6353
818.497	6159
818.638	6167
818.778	6117
818.919	6140
819.06	6197
819.2	6369
819.341	6315
819.481	6323
819.622	6525
819.762	6719
819.903	6646
820.043	6578
820.184	6601
820.324	6601
820.465	6681
820.605	6623
820.746	6623
820.886	6490
821.026	6684
821.167	6635
821.307	6779
821.447	6692
821.588	6665
821.728	6528
821.868	6498
822.008	6296
822.149	6323
822.289	6319
822.429	6087
822.569	6095
822.709	6110
822.849	5855
822.99	5878
823.13	5859
823.27	5904
823.41	5729
823.55	5779
823.69	5710
823.83	5802
823.97	5630
824.11	5528
824.25	5493
824.389	5501
824.529	5535
824.669	5516
824.809	5577
824.949	5657
825.089	5573
825.228	5554
825.368	5345
825.508	5280
825.648	5318
825.787	5345
825.927	5379
826.067	5284
826.206	5239
826.346	5357
826.485	5360
826.625	5383
826.765	5532
826.904	5486
827.044	5185
827.183	5109
827.323	5109
827.462	5223
827.601	5143
827.741	5136
827.88	5155
828.02	5117
828.159	5204
828.298	5292
828.437	5341
828.577	5311
828.716	5444
828.855	5326
828.994	5147
829.134	5147
829.273	5162
829.412	5086
829.551	5143
829.69	5132
829.829	5212
829.968	5341
830.107	5269
830.246	5277
830.385	5181
830.524	5094
830.663	5083
830.802	4972
830.941	4870
831.08	4896
831.219	4972
831.357	4984
831.496	5162
831.635	4904
831.774	4854
831.913	4828
832.051	4698
832.19	4771
832.329	4839
832.467	4714
832.606	4588
832.744	4714
832.883	4721
833.022	4664
833.16	4759
833.299	4824
833.437	4786
833.576	4748
833.714	4847
833.852	4824
833.991	4896
834.129	4908
834.267	4938
834.406	4904
834.544	4965
834.682	5003
834.821	4965
834.959	5170
835.097	4987
835.235	5124
835.373	5048
835.511	5113
835.65	4991
835.788	4991
835.926	4896
836.064	4835
836.202	4843
836.34	5132
836.478	5212
836.615	5079
836.753	5216
836.891	5292
837.029	5254
837.167	5174
837.305	5204
837.443	5117
837.58	5064
837.718	5231
837.856	5197
837.993	5166
838.131	5166
838.269	5143
838.406	5170
838.544	5159
838.681	5060
838.819	5060
838.956	4896
839.094	4957
839.231	5010
839.369	5045
839.506	5383
839.643	5303
839.781	5094
839.918	5033
840.055	5105
840.193	5086
840.33	5113
840.467	5136
840.604	5155
840.742	5455
840.879	5045
841.016	5067
841.153	5124
841.29	5322
841.427	5326
841.564	5299
841.701	5337
841.838	5208
841.975	5216
842.112	5231
842.249	5086
842.385	5109
842.522	5326
842.659	5136
842.796	5147
842.933	5174
843.069	5181
843.206	5143
843.343	5261
843.479	5159
843.616	5220
843.752	5022
843.889	4953
844.025	5246
844.162	4968
844.298	5178
844.435	5052
844.571	5056
844.708	5197
844.844	5258
844.98	5307
845.117	5296
845.253	5128
845.389	5060
845.525	5170
845.661	5102
845.798	5041
845.934	5071
846.07	5018
846.206	5147
846.342	5307
846.478	5102
846.614	5025
846.75	4915
846.886	4923
847.022	5086
847.158	4972
847.294	5010
847.429	5132
847.565	5033
847.701	5280
847.837	4831
847.972	4763
848.108	4968
848.244	4946
848.379	4763
848.515	4596
848.65	4706
848.786	4683
848.921	4740
849.057	4858
849.192	4885
849.328	4809
849.463	4812
849.598	4744
849.734	4740
849.869	4698
850.004	4630
850.14	4615
850.275	4550
850.41	4512
850.545	4573
850.68	4580
850.815	4588
850.95	4626
851.085	4774
851.22	4683
851.355	4599
851.49	4599
851.625	4626
851.76	4592
851.895	4523
852.03	4500
852.165	4618
852.299	4714
852.434	4771
852.569	4752
852.703	4706
852.838	4866
852.973	4900
853.107	4927
853.242	4675
853.376	4656
853.511	4561
853.645	4588
853.78	4729
853.914	4668
854.048	4660
854.183	4573
854.317	4660
854.451	4782
854.585	4656
854.72	4603
854.854	4744
854.988	4550
855.122	4607
855.256	4538
855.39	4634
855.524	4736
855.658	4710
855.792	4672
855.926	4714
856.06	4771
856.194	4759
856.327	4675
856.461	4599
856.595	4569
856.729	4641
856.862	4748
856.996	4649
857.13	4721
857.263	4740
857.397	4816
857.53	4622
857.664	4740
857.797	4706
857.931	4782
858.064	4649
858.197	4748
858.331	4672
858.464	4611
858.597	4527
858.731	4672
858.864	4626
858.997	4641
859.13	4706
859.263	4679
859.396	4702
859.529	4641
859.662	4588
859.795	4554
859.928	4645
860.061	4778
860.194	4790
860.327	4626
860.46	4550
860.592	4771
860.725	4740
860.858	4733
860.99	4603
861.123	4531
861.256	4523
861.388	4626
861.521	5452
861.653	4542
861.786	4470
861.918	4504
862.05	4565
862.183	4611
862.315	4626
862.447	4675
862.58	4535
862.712	4455
862.844	4348
862.976	4489
863.108	4455
863.24	4862
863.372	4386
863.504	4459
863.636	4447
863.768	4546
863.9	4440
864.032	4413
864.164	4413
864.296	4474
864.428	4580
864.559	4577
864.691	4580
864.823	4580
864.954	4550
865.086	4535
865.217	4428
865.349	4432
865.48	4451
865.612	4527
865.743	4656
865.875	4535
866.006	4432
866.137	4523
866.269	4470
866.4	4470
866.531	4436
866.662	4417
866.793	4447
866.924	4440
867.055	4493
867.186	4497
867.317	4462
867.448	4405
867.579	4405
867.71	4424
867.841	4390
867.972	4500
868.103	4485
868.233	4417
868.364	4497
868.495	4474
868.625	4656
868.756	4771
868.886	4637
869.017	4649
869.147	4809
869.278	4801
869.408	4698
869.539	4607
869.669	4755
869.799	4694
869.929	4736
870.06	4710
870.19	5018
870.32	4915
870.45	4965
870.58	5006
870.71	5143
870.84	5056
870.97	4991
871.1	4946
871.23	5140
871.36	5132
871.489	5090
871.619	5136
871.749	5166
871.879	5185
872.008	5193
872.138	5083
872.267	5006
872.397	4885
872.526	4805
872.656	4767
872.785	4812
872.915	4980
873.044	5052
873.173	4965
873.303	4976
873.432	4999
873.561	4953
873.69	4949
873.819	4911
873.948	4908
874.077	4892
874.206	4805
874.335	4820
874.464	4885
874.593	5083
874.722	5041
874.851	5155
874.979	5124
875.108	5121
875.237	4915
875.365	4900
875.494	4854
875.623	4995
875.751	4896
875.88	4881
876.008	4999
876.136	5029
876.265	5246
876.393	5383
876.521	5315
876.65	5250
876.778	5208
876.906	5113
877.034	5071
877.162	5064
877.29	5006
877.418	5041
877.546	5075
877.674	5067
877.802	5022
877.93	5003
878.058	4915
878.185	4930
878.313	4946
878.441	4938
878.568	4843
878.696	4870
878.824	4987
878.951	5090
879.079	5105
879.206	5326
879.333	5086
879.461	5037
879.588	5029
879.715	5128
879.842	5204
879.97	4995
880.097	4790
880.224	4774
880.351	4793
880.478	4839
880.605	4809
880.732	4858
880.859	5090
880.986	4877
881.112	4949
881.239	4828
881.366	4641
881.493	4596
881.619	4580
881.746	4664
881.872	4645
881.999	4668
882.125	4755
882.252	4873
882.378	4839
882.505	5014
882.631	4809
882.757	4691
882.883	4801
883.01	4774
883.136	4702
883.262	4679
883.388	4664
883.514	4820
883.64	4858
883.766	4786
883.892	4710
884.018	4748
884.143	4908
884.269	5029
884.395	4733
884.52	4649
884.646	4683
884.772	4603
884.897	4592
885.023	4691
885.148	4812
885.274	4919
885.399	4843
885.524	4759
885.65	4694
885.775	4744
885.9	4733
886.025	4862
886.15	4873
886.275	4763
886.4	4687
886.525	4778
886.65	4706
886.775	4679
886.9	4866
887.025	5098
887.149	4820
887.274	4664
887.399	4573
887.523	4641
887.648	4615
887.773	4615
887.897	4744
888.021	4790
888.146	4683
888.27	4824
888.395	4919
888.519	4801
888.643	4847
888.767	4847
888.891	4675
889.015	4637
889.139	4679
889.263	4653
889.387	4790
889.511	4885
889.635	4828
889.759	4687
889.883	4645
890.006	4706
890.13	4870
890.254	4603
890.377	4656
890.501	4546
890.624	4565
890.748	4710
890.871	4516
890.995	4474
891.118	4428
891.241	4558
891.364	4558
891.488	4656
891.611	4516
891.734	4588
891.857	4653
891.98	4554
892.103	4683
892.226	4675
892.349	4580
892.471	4474
892.594	4588
892.717	4679
892.839	4622
892.962	4599
893.085	4641
893.207	4672
893.33	4527
893.452	4569
893.575	4668
893.697	4641
893.819	4755
893.941	4824
894.064	4805
894.186	4599
894.308	4569
894.43	4763
894.552	4862
894.674	4782
894.796	4573
894.918	4580
895.04	4592
895.161	4733
895.283	4656
895.405	4618
895.526	4664
895.648	4691
895.769	4755
895.891	4752
896.012	4710
896.134	4725
896.255	4759
896.376	4668
896.498	4656
896.619	4687
896.74	4645
896.861	4653
896.982	4976
897.103	5124
897.224	4839
897.345	4767
897.466	4702
897.587	4786
897.708	4946
897.828	4820
897.949	4698
898.07	4577
898.19	4634
898.311	4881
898.431	4664
898.552	4740
898.672	4820
898.792	4801
898.913	4717
899.033	4698
899.153	4554
899.273	4451
899.393	4504
899.513	4516
899.633	4607
899.753	4554
899.873	4497
899.993	4630
900.113	4561
900.232	4641
900.352	4565
900.472	4516
900.591	4428
900.711	4470
900.83	4424
900.95	4668
901.069	4679
901.189	4554
901.308	4375
901.427	4371
901.546	4394
901.665	4519
901.784	4588
901.904	4329
902.023	4329
902.141	4177
902.26	4207
902.379	4337
902.498	4261
902.617	4265
902.735	4383
902.854	4398
902.973	4360
903.091	4268
903.21	4257
903.328	4303
903.446	4268
903.565	4261
903.683	4363
903.801	4276
903.919	4424
904.038	4436
904.156	4318
904.274	4440
904.392	4398
904.51	4394
904.627	4447
904.745	4565
904.863	4653
904.981	4432
905.098	4363
905.216	4402
905.334	4455
905.451	4436
905.569	4474
905.686	4550
905.803	4588
905.921	4440
906.038	4508
906.155	4535
906.272	4405
906.389	4459
906.506	4322
906.623	4379
906.74	4363
906.857	4306
906.974	4466
907.091	4565
907.208	4702
907.324	4569
907.441	4516
907.557	4409
907.674	4363
907.79	4341
907.907	4375
908.023	4500
908.139	4485
908.256	4405
908.372	4455
908.488	4443
908.604	4413
908.72	4344
908.836	4405
908.952	4329
909.068	4405
909.184	4554
909.3	4504
909.415	4580
909.531	4542
909.647	4383
909.762	4379
909.878	4360
909.993	4462
910.108	4436
910.224	4363
910.339	4497
910.454	4447
910.57	4375
910.685	4303
910.8	4675
910.915	4626
911.03	4504
911.145	4394
911.259	4310
911.374	4394
911.489	4341
911.604	4303
911.718	4173
911.833	4219
911.947	4093
912.062	4036
912.176	4257
912.291	4234
912.405	4249
912.519	4489
912.633	4580
912.748	4394
912.862	4299
912.976	4242
913.09	4101
913.204	4223
913.318	4265
913.431	4421
913.545	4348
913.659	4478
913.772	4386
913.886	4299
914	4257
914.113	4421
914.226	4417
914.34	4390
914.453	4246
914.566	4474
914.68	4306
914.793	4360
914.906	4177
915.019	4124
915.132	4048
915.245	4169
915.358	4242
915.47	4234
915.583	4287
915.696	4303
915.809	4443
915.921	4440
916.034	4284
916.146	4257
916.259	4204
916.371	4398
916.483	4383
916.595	4272
916.708	4341
916.82	4337
916.932	4386
917.044	4379
917.156	4348
917.268	4261
917.38	4230
917.491	4291
917.603	4371
917.715	4428
917.826	4413
917.938	4348
918.049	4253
918.161	4447
918.272	4599
918.384	4508
918.495	4512
918.606	4284
918.717	4246
918.828	4310
918.939	4371
919.05	4261
919.161	4341
919.272	4158
919.383	4181
919.494	4485
919.604	4660
919.715	4424
919.826	4333
919.936	4421
920.047	4519
920.157	4493
920.267	4717
920.378	4550
920.488	4432
920.598	4729
920.708	4889
920.818	4717
920.928	4740
921.038	4942
921.148	4915
921.258	4592
921.368	4546
921.477	4531
921.587	4474
921.697	4390
921.806	4519
921.916	4409
922.025	4284
922.134	4257
922.244	4238
922.353	4318
922.462	4207
922.571	4131
922.68	4029
922.789	3960
922.898	4074
923.007	4032
923.116	4097
923.224	4078
923.333	4044
923.442	4010
923.55	4013
923.659	4021
923.767	4131
923.876	4021
923.984	4112
924.092	3964
924.201	4086
924.309	4124
924.417	4154
924.525	4067
924.633	4135
924.741	5094
924.849	3964
924.956	4166
925.064	3964
925.172	3918
925.279	4002
925.387	4055
925.494	4074
925.602	4207
925.709	4188
925.816	4048
925.924	4135
926.031	4257
926.138	4230
926.245	4234
926.352	4143
926.459	4268
926.566	4325
926.673	4181
926.779	4124
926.886	4078
926.993	4025
927.099	3983
927.206	3983
927.312	3918
927.419	4124
927.525	4071
927.631	4101
927.737	3998
927.843	3975
927.95	3899
928.056	3956
928.162	3983
928.267	4120
928.373	4733
928.479	4169
928.585	3934
928.69	4029
928.796	4143
928.901	3987
929.007	3903
929.112	4021
929.218	4002
929.323	3983
929.428	3998
929.533	4139
929.638	3899
929.743	4013
929.848	4150
929.953	3994
930.058	3964
930.163	3812
930.267	3907
930.372	4063
930.477	3880
930.581	4150
930.685	3983
930.79	3880
930.894	3888
930.998	3869
931.103	4093
931.207	3698
931.311	3770
931.415	3698
931.519	3553
931.623	3557
