Data from test_V78500241_1965.txt Node
Date: Fri Mar 25 17:02:39 CST 2022
User: usil
Spectrometer: V785-0024
Trigger mode: 0
Integration Time (sec): 4.000000E-1
Scans to average: 1
Nonlinearity correction enabled: false
Boxcar width: 0
Storing dark spectrum: false
XAxis mode: Wavelengths
Number of Pixels in Spectrum: 1024
>>>>>Begin Spectral Data<<<<<
801.071	7959
801.214	7967
801.356	7833
801.499	7849
801.641	7799
801.783	7788
801.926	7963
802.068	7925
802.211	7997
802.353	8016
802.496	7879
802.638	7883
802.78	7894
802.923	7849
803.065	7902
803.208	7887
803.35	7963
803.492	8081
803.635	8142
803.777	8039
803.919	8111
804.061	8408
804.204	8149
804.346	8107
804.488	7951
804.63	8111
804.773	8035
804.915	8187
805.057	8279
805.199	8221
805.341	8233
805.483	8286
805.626	8259
805.768	8130
805.91	8294
806.052	8290
806.194	8077
806.336	8248
806.478	8119
806.62	8103
806.762	8199
806.904	8301
807.046	8362
807.188	8393
807.33	8336
807.472	8366
807.614	8142
807.756	8180
807.898	7932
808.04	7883
808.182	7913
808.324	7837
808.465	7925
808.607	8058
808.749	8142
808.891	8195
809.033	8267
809.174	8282
809.316	8039
809.458	8065
809.6	8005
809.741	8043
809.883	8054
810.025	8058
810.166	8084
810.308	8062
810.45	7925
810.591	7841
810.733	7746
810.875	7628
811.016	7453
811.158	7502
811.299	7624
811.441	7647
811.582	7613
811.724	7586
811.865	7529
812.007	7597
812.148	7605
812.29	7609
812.431	7746
812.573	7890
812.714	8001
812.855	8130
812.997	8252
813.138	8279
813.279	8176
813.421	8168
813.562	7936
813.703	7833
813.845	7693
813.986	7407
814.127	7225
814.268	7206
814.41	7225
814.551	7126
814.692	7190
814.833	7107
814.974	7099
815.115	7129
815.256	6943
815.397	6939
815.539	6916
815.68	6821
815.821	6776
815.962	6844
816.103	6806
816.244	6734
816.385	6597
816.526	6563
816.666	6555
816.807	6323
816.948	6414
817.089	6460
817.23	6448
817.371	6369
817.512	6365
817.653	6399
817.793	6346
817.934	6369
818.075	6536
818.216	6490
818.356	6395
818.497	6266
818.638	6102
818.778	6178
818.919	6068
819.06	6152
819.2	6319
819.341	6304
819.481	6346
819.622	6475
819.762	6722
819.903	6692
820.043	6604
820.184	6547
820.324	6570
820.465	6726
820.605	6627
820.746	6593
820.886	6517
821.026	6707
821.167	6658
821.307	6787
821.447	6787
821.588	6730
821.728	6574
821.868	6483
822.008	6334
822.149	6391
822.289	6361
822.429	6178
822.569	6091
822.709	6167
822.849	5969
822.99	5958
823.13	5923
823.27	5969
823.41	5775
823.55	5813
823.69	5817
823.83	5775
823.97	5668
824.11	5570
824.25	5554
824.389	5554
824.529	5547
824.669	5535
824.809	5630
824.949	5653
825.089	5619
825.228	5520
825.368	5410
825.508	5345
825.648	5376
825.787	5402
825.927	5376
826.067	5273
826.206	5254
826.346	5353
826.485	5376
826.625	5425
826.765	5551
826.904	5463
827.044	5265
827.183	5174
827.323	5086
827.462	5239
827.601	5197
827.741	5140
827.88	5246
828.02	5086
828.159	5197
828.298	5376
828.437	5379
828.577	5258
828.716	5516
828.855	5341
828.994	5136
829.134	5159
829.273	5136
829.412	5113
829.551	5166
829.69	5197
829.829	5254
829.968	5406
830.107	5254
830.246	5315
830.385	5151
830.524	5132
830.663	5056
830.802	5003
830.941	4946
831.08	4870
831.219	4949
831.357	5025
831.496	5136
831.635	4919
831.774	4831
831.913	4831
832.051	4752
832.19	4729
832.329	4824
832.467	4687
832.606	4607
832.744	4740
832.883	4740
833.022	4717
833.16	4782
833.299	4820
833.437	4877
833.576	4805
833.714	4900
833.852	4866
833.991	4904
834.129	4942
834.267	4946
834.406	4942
834.544	4972
834.682	4965
834.821	4999
834.959	5166
835.097	4999
835.235	5151
835.373	5109
835.511	5117
835.65	5022
835.788	5010
835.926	4900
836.064	4843
836.202	4900
836.34	5132
836.478	5193
836.615	5174
836.753	5235
836.891	5303
837.029	5288
837.167	5246
837.305	5147
837.443	5151
837.58	5117
837.718	5265
837.856	5204
837.993	5185
838.131	5223
838.269	5151
838.406	5246
838.544	5189
838.681	5006
838.819	5037
838.956	4850
839.094	4877
839.231	4946
839.369	5071
839.506	5414
839.643	5269
839.781	5075
839.918	4980
840.055	5117
840.193	5083
840.33	5064
840.467	5098
840.604	5162
840.742	5414
840.879	5098
841.016	5037
841.153	5162
841.29	5345
841.427	5368
841.564	5307
841.701	5376
841.838	5284
841.975	5193
842.112	5277
842.249	5090
842.385	5132
842.522	5360
842.659	5189
842.796	5174
842.933	5223
843.069	5178
843.206	5128
843.343	5303
843.479	5208
843.616	5311
843.752	4984
843.889	4999
844.025	5269
844.162	5006
844.298	5242
844.435	5071
844.571	5025
844.708	5185
844.844	5307
844.98	5395
845.117	5246
845.253	5193
845.389	5143
845.525	5201
845.661	5151
845.798	5003
845.934	5143
846.07	5029
846.206	5201
846.342	5315
846.478	5178
846.614	5010
846.75	5003
846.886	4934
847.022	5136
847.158	4999
847.294	5037
847.429	5143
847.565	5086
847.701	5398
847.837	4831
847.972	4812
848.108	4923
848.244	4892
848.379	4748
848.515	4767
848.65	4702
848.786	4725
848.921	4782
849.057	4839
849.192	4904
849.328	4820
849.463	4805
849.598	4809
849.734	4729
849.869	4710
850.004	4611
850.14	4649
850.275	4611
850.41	4531
850.545	4519
850.68	4580
850.815	4584
850.95	4569
851.085	4839
851.22	4797
851.355	4683
851.49	4603
851.625	4618
851.76	4641
851.895	4527
852.03	4493
852.165	4668
852.299	4668
852.434	4809
852.569	4759
852.703	4717
852.838	4816
852.973	4923
853.107	4873
853.242	4725
853.376	4668
853.511	4508
853.645	4645
853.78	4786
853.914	4675
854.048	4729
854.183	4626
854.317	4714
854.451	4831
854.585	4641
854.72	4645
854.854	4763
854.988	4577
855.122	4649
855.256	4523
855.39	4691
855.524	4812
855.658	4755
855.792	4679
855.926	4759
856.06	4790
856.194	4767
856.327	4664
856.461	4584
856.595	4615
856.729	4611
856.862	4771
856.996	4733
857.13	4729
857.263	4752
857.397	4797
857.53	4653
857.664	4752
857.797	4752
857.931	4748
858.064	4698
858.197	4793
858.331	4607
858.464	4584
858.597	4500
858.731	4588
858.864	4618
858.997	4607
859.13	4656
859.263	4664
859.396	4679
859.529	4577
859.662	4561
859.795	4542
859.928	4611
860.061	4790
860.194	4805
860.327	4622
860.46	4561
860.592	4714
860.725	4656
860.858	4729
860.99	4542
861.123	4512
861.256	4546
861.388	4569
861.521	5288
861.653	4489
861.786	4402
861.918	4432
862.05	4538
862.183	4554
862.315	4577
862.447	4637
862.58	4512
862.712	4447
862.844	4367
862.976	4470
863.108	4474
863.24	4763
863.372	4348
863.504	4413
863.636	4394
863.768	4497
863.9	4375
864.032	4367
864.164	4417
864.296	4504
864.428	4531
864.559	4554
864.691	4618
864.823	4519
864.954	4432
865.086	4497
865.217	4493
865.349	4402
865.48	4428
865.612	4447
865.743	4637
865.875	4485
866.006	4356
866.137	4451
866.269	4443
866.4	4394
866.531	4462
866.662	4390
866.793	4424
866.924	4409
867.055	4531
867.186	4447
867.317	4443
867.448	4344
867.579	4394
867.71	4402
867.841	4371
867.972	4436
868.103	4474
868.233	4424
868.364	4443
868.495	4447
868.625	4694
868.756	4755
868.886	4565
869.017	4588
869.147	4759
869.278	4763
869.408	4668
869.539	4607
869.669	4706
869.799	4656
869.929	4759
870.06	4733
870.19	4946
870.32	4873
870.45	4915
870.58	4949
870.71	5086
870.84	5045
870.97	4930
871.1	4908
871.23	5155
871.36	5098
871.489	4984
871.619	5025
871.749	5083
871.879	5117
872.008	5147
872.138	5025
872.267	4942
872.397	4828
872.526	4809
872.656	4748
872.785	4816
872.915	4972
873.044	5025
873.173	4987
873.303	4923
873.432	4949
873.561	4911
873.69	4870
873.819	4835
873.948	4915
874.077	4839
874.206	4755
874.335	4793
874.464	4889
874.593	5033
874.722	4896
874.851	5090
874.979	5067
875.108	5006
875.237	4885
875.365	4908
875.494	4881
875.623	4965
875.751	4801
875.88	4862
876.008	4984
876.136	5029
876.265	5216
876.393	5345
876.521	5250
876.65	5254
876.778	5140
876.906	5056
877.034	5067
877.162	5094
877.29	5010
877.418	5010
877.546	5033
877.674	5075
877.802	5014
877.93	4991
878.058	4908
878.185	4862
878.313	4987
878.441	4923
878.568	4797
878.696	4870
878.824	4953
878.951	4980
879.079	5086
879.206	5288
879.333	5071
879.461	4991
879.588	4968
879.715	5124
879.842	5212
879.97	4976
880.097	4736
880.224	4755
880.351	4744
880.478	4812
880.605	4774
880.732	4778
880.859	5064
880.986	4930
881.112	4881
881.239	4778
881.366	4664
881.493	4622
881.619	4535
881.746	4599
881.872	4634
881.999	4653
882.125	4714
882.252	4797
882.378	4790
882.505	4961
882.631	4812
882.757	4649
882.883	4710
883.01	4717
883.136	4706
883.262	4622
883.388	4630
883.514	4862
883.64	4858
883.766	4767
883.892	4698
884.018	4740
884.143	4885
884.269	5003
884.395	4691
884.52	4653
884.646	4599
884.772	4592
884.897	4569
885.023	4668
885.148	4774
885.274	4862
885.399	4805
885.524	4725
885.65	4664
885.775	4736
885.9	4714
886.025	4835
886.15	4786
886.275	4744
886.4	4649
886.525	4694
886.65	4706
886.775	4698
886.9	4911
887.025	5048
887.149	4736
887.274	4691
887.399	4573
887.523	4599
887.648	4580
887.773	4577
887.897	4763
888.021	4782
888.146	4736
888.27	4824
888.395	4889
888.519	4805
888.643	4790
888.767	4847
888.891	4683
889.015	4637
889.139	4645
889.263	4611
889.387	4748
889.511	4870
889.635	4835
889.759	4653
889.883	4622
890.006	4733
890.13	4778
890.254	4588
890.377	4717
890.501	4535
890.624	4519
890.748	4634
890.871	4550
890.995	4451
891.118	4367
891.241	4497
891.364	4516
891.488	4626
891.611	4512
891.734	4489
891.857	4565
891.98	4577
892.103	4630
892.226	4607
892.349	4485
892.471	4459
892.594	4573
892.717	4558
892.839	4546
892.962	4607
893.085	4649
893.207	4599
893.33	4508
893.452	4535
893.575	4668
893.697	4592
893.819	4774
893.941	4854
894.064	4740
894.186	4622
894.308	4584
894.43	4714
894.552	4828
894.674	4744
894.796	4531
894.918	4573
895.04	4550
895.161	4721
895.283	4702
895.405	4611
895.526	4672
895.648	4675
895.769	4679
895.891	4733
896.012	4736
896.134	4706
896.255	4622
896.376	4672
896.498	4596
896.619	4714
896.74	4626
896.861	4607
896.982	4870
897.103	5079
897.224	4790
897.345	4721
897.466	4660
897.587	4759
897.708	4797
897.828	4748
897.949	4691
898.07	4573
898.19	4626
898.311	4839
898.431	4687
898.552	4733
898.672	4820
898.792	4793
898.913	4706
899.033	4599
899.153	4470
899.273	4424
899.393	4519
899.513	4542
899.633	4504
899.753	4542
899.873	4508
899.993	4603
900.113	4538
900.232	4561
900.352	4573
900.472	4478
900.591	4428
900.711	4500
900.83	4409
900.95	4592
901.069	4691
901.189	4554
901.308	4322
901.427	4295
901.546	4394
901.665	4466
901.784	4550
901.904	4424
902.023	4322
902.141	4196
902.26	4188
902.379	4295
902.498	4249
902.617	4234
902.735	4375
902.854	4371
902.973	4379
903.091	4219
903.21	4227
903.328	4287
903.446	4265
903.565	4291
903.683	4367
903.801	4284
903.919	4402
904.038	4455
904.156	4268
904.274	4432
904.392	4383
904.51	4405
904.627	4478
904.745	4569
904.863	4596
904.981	4489
905.098	4318
905.216	4348
905.334	4367
905.451	4383
905.569	4493
905.686	4577
905.803	4554
905.921	4379
906.038	4546
906.155	4512
906.272	4352
906.389	4493
906.506	4356
906.623	4413
906.74	4371
906.857	4352
906.974	4318
907.091	4558
907.208	4729
907.324	4588
907.441	4519
907.557	4352
907.674	4375
907.79	4329
907.907	4428
908.023	4481
908.139	4462
908.256	4394
908.372	4489
908.488	4421
908.604	4379
908.72	4333
908.836	4383
908.952	4318
909.068	4394
909.184	4580
909.3	4470
909.415	4596
909.531	4561
909.647	4360
909.762	4360
909.878	4306
909.993	4428
910.108	4413
910.224	4386
910.339	4466
910.454	4405
910.57	4356
910.685	4284
910.8	4683
910.915	4653
911.03	4493
911.145	4303
911.259	4325
911.374	4356
911.489	4348
911.604	4261
911.718	4223
911.833	4196
911.947	4105
912.062	4040
912.176	4204
912.291	4268
912.405	4299
912.519	4466
912.633	4531
912.748	4363
912.862	4306
912.976	4188
913.09	4078
913.204	4162
913.318	4230
913.431	4325
913.545	4405
913.659	4459
913.772	4398
913.886	4219
914	4268
914.113	4375
914.226	4409
914.34	4363
914.453	4223
914.566	4462
914.68	4303
914.793	4299
914.906	4196
915.019	4112
915.132	4101
915.245	4211
915.358	4249
915.47	4238
915.583	4306
915.696	4265
915.809	4394
915.921	4394
916.034	4280
916.146	4268
916.259	4242
916.371	4409
916.483	4356
916.595	4272
916.708	4276
916.82	4329
916.932	4310
917.044	4341
917.156	4341
917.268	4265
917.38	4291
917.491	4272
917.603	4348
917.715	4413
917.826	4421
917.938	4367
918.049	4181
918.161	4383
918.272	4519
918.384	4531
918.495	4474
918.606	4303
918.717	4249
918.828	4405
918.939	4352
919.05	4265
919.161	4329
919.272	4120
919.383	4234
919.494	4432
919.604	4660
919.715	4428
919.826	4375
919.936	4409
920.047	4466
920.157	4451
920.267	4679
920.378	4546
920.488	4523
920.598	4672
920.708	4957
920.818	4816
920.928	4774
921.038	4965
921.148	4870
921.258	4660
921.368	4531
921.477	4489
921.587	4470
921.697	4379
921.806	4573
921.916	4470
922.025	4295
922.134	4303
922.244	4276
922.353	4329
922.462	4192
922.571	4109
922.68	4013
922.789	3979
922.898	4017
923.007	3994
923.116	4143
923.224	4086
923.333	4044
923.442	4017
923.55	3953
923.659	4048
923.767	4021
923.876	4021
923.984	4135
924.092	4006
924.201	4067
924.309	4078
924.417	4120
924.525	4074
924.633	4093
924.741	5064
924.849	3903
924.956	4093
925.064	3979
925.172	3907
925.279	3937
925.387	4071
925.494	4055
925.602	4223
925.709	4162
925.816	4029
925.924	4124
926.031	4246
926.138	4139
926.245	4200
926.352	4124
926.459	4261
926.566	4306
926.673	4207
926.779	4029
926.886	4074
926.993	3937
927.099	3945
927.206	3953
927.312	3983
927.419	4055
927.525	4029
927.631	4044
927.737	3941
927.843	3937
927.95	3838
928.056	3953
928.162	3975
928.267	4074
928.373	4573
928.479	4093
928.585	3907
928.69	4055
928.796	4074
928.901	3987
929.007	3861
929.112	3994
929.218	3953
929.323	3941
929.428	3926
929.533	4078
929.638	3911
929.743	3945
929.848	4059
929.953	3972
930.058	3911
930.163	3770
930.267	3808
930.372	3975
930.477	3816
930.581	4097
930.685	3926
930.79	3861
930.894	3892
930.998	3842
931.103	4074
931.207	3701
931.311	3717
931.415	3663
931.519	3523
931.623	3576
