Data from test_V78500241_1825.txt Node
Date: Fri Mar 25 17:01:41 CST 2022
User: usil
Spectrometer: V785-0024
Trigger mode: 0
Integration Time (sec): 4.000000E-1
Scans to average: 1
Nonlinearity correction enabled: false
Boxcar width: 0
Storing dark spectrum: false
XAxis mode: Wavelengths
Number of Pixels in Spectrum: 1024
>>>>>Begin Spectral Data<<<<<
801.071	7989
801.214	7970
801.356	7841
801.499	7868
801.641	7772
801.783	7875
801.926	7940
802.068	7989
802.211	7986
802.353	7978
802.496	7871
802.638	7818
802.78	7856
802.923	7902
803.065	7864
803.208	7799
803.35	7925
803.492	8081
803.635	8130
803.777	7936
803.919	8107
804.061	8473
804.204	8123
804.346	8062
804.488	7940
804.63	8096
804.773	8065
804.915	8134
805.057	8305
805.199	8115
805.341	8183
805.483	8244
805.626	8252
805.768	8043
805.91	8145
806.052	8210
806.194	8103
806.336	8332
806.478	8073
806.62	8054
806.762	8210
806.904	8279
807.046	8419
807.188	8358
807.33	8263
807.472	8320
807.614	8126
807.756	8157
807.898	7982
808.04	7894
808.182	7944
808.324	7860
808.465	7845
808.607	8031
808.749	8107
808.891	8202
809.033	8248
809.174	8214
809.316	8020
809.458	8073
809.6	8077
809.741	8058
809.883	8020
810.025	8012
810.166	8031
810.308	7974
810.45	7906
810.591	7784
810.733	7715
810.875	7658
811.016	7472
811.158	7506
811.299	7582
811.441	7731
811.582	7624
811.724	7575
811.865	7487
812.007	7548
812.148	7518
812.29	7651
812.431	7731
812.573	7909
812.714	7997
812.855	8138
812.997	8195
813.138	8301
813.279	8153
813.421	8043
813.562	7959
813.703	7826
813.845	7708
813.986	7449
814.127	7259
814.268	7202
814.41	7255
814.551	7156
814.692	7236
814.833	7069
814.974	7072
815.115	7133
815.256	7008
815.397	6890
815.539	6981
815.68	6821
815.821	6787
815.962	6894
816.103	6856
816.244	6745
816.385	6570
816.526	6540
816.666	6502
816.807	6327
816.948	6342
817.089	6464
817.23	6460
817.371	6410
817.512	6380
817.653	6395
817.793	6369
817.934	6418
818.075	6441
818.216	6391
818.356	6380
818.497	6216
818.638	6098
818.778	6125
818.919	6175
819.06	6163
819.2	6327
819.341	6308
819.481	6342
819.622	6540
819.762	6772
819.903	6604
820.043	6582
820.184	6578
820.324	6574
820.465	6696
820.605	6631
820.746	6677
820.886	6525
821.026	6627
821.167	6684
821.307	6787
821.447	6787
821.588	6719
821.728	6585
821.868	6418
822.008	6296
822.149	6350
822.289	6365
822.429	6178
822.569	6057
822.709	6098
822.849	5893
822.99	5904
823.13	5920
823.27	5920
823.41	5813
823.55	5756
823.69	5805
823.83	5752
823.97	5642
824.11	5528
824.25	5459
824.389	5547
824.529	5615
824.669	5532
824.809	5573
824.949	5695
825.089	5627
825.228	5551
825.368	5402
825.508	5322
825.648	5334
825.787	5353
825.927	5379
826.067	5284
826.206	5269
826.346	5391
826.485	5387
826.625	5414
826.765	5558
826.904	5516
827.044	5254
827.183	5166
827.323	5071
827.462	5269
827.601	5159
827.741	5178
827.88	5204
828.02	5159
828.159	5166
828.298	5280
828.437	5368
828.577	5258
828.716	5486
828.855	5326
828.994	5098
829.134	5109
829.273	5178
829.412	5094
829.551	5136
829.69	5132
829.829	5239
829.968	5360
830.107	5254
830.246	5231
830.385	5189
830.524	5128
830.663	4995
830.802	4919
830.941	4870
831.08	4923
831.219	5006
831.357	4984
831.496	5136
831.635	4900
831.774	4873
831.913	4801
832.051	4736
832.19	4683
832.329	4790
832.467	4641
832.606	4611
832.744	4679
832.883	4679
833.022	4664
833.16	4748
833.299	4809
833.437	4816
833.576	4870
833.714	4816
833.852	4847
833.991	4873
834.129	4968
834.267	4934
834.406	4919
834.544	5003
834.682	4946
834.821	4946
834.959	5147
835.097	4949
835.235	5162
835.373	5067
835.511	5136
835.65	5045
835.788	5006
835.926	4896
836.064	4862
836.202	4911
836.34	5121
836.478	5220
836.615	5067
836.753	5212
836.891	5223
837.029	5197
837.167	5220
837.305	5124
837.443	5121
837.58	5117
837.718	5208
837.856	5166
837.993	5143
838.131	5277
838.269	5231
838.406	5197
838.544	5220
838.681	5052
838.819	4984
838.956	4862
839.094	4892
839.231	4968
839.369	5117
839.506	5402
839.643	5197
839.781	5056
839.918	5022
840.055	5010
840.193	5090
840.33	5147
840.467	5109
840.604	5185
840.742	5452
840.879	4995
841.016	5037
841.153	5132
841.29	5391
841.427	5307
841.564	5330
841.701	5376
841.838	5292
841.975	5227
842.112	5258
842.249	5121
842.385	5098
842.522	5330
842.659	5181
842.796	5132
842.933	5216
843.069	5181
843.206	5143
843.343	5265
843.479	5189
843.616	5231
843.752	5022
843.889	5006
844.025	5181
844.162	5060
844.298	5223
844.435	5056
844.571	5105
844.708	5170
844.844	5246
844.98	5292
845.117	5254
845.253	5102
845.389	5086
845.525	5136
845.661	5083
845.798	5018
845.934	5113
846.07	5052
846.206	5193
846.342	5311
846.478	5189
846.614	5056
846.75	4938
846.886	4953
847.022	5132
847.158	5006
847.294	5075
847.429	5033
847.565	5121
847.701	5246
847.837	4847
847.972	4725
848.108	4930
848.244	4965
848.379	4755
848.515	4748
848.65	4687
848.786	4736
848.921	4717
849.057	4816
849.192	4930
849.328	4793
849.463	4831
849.598	4736
849.734	4767
849.869	4668
850.004	4596
850.14	4660
850.275	4607
850.41	4535
850.545	4569
850.68	4558
850.815	4634
850.95	4641
851.085	4839
851.22	4725
851.355	4675
851.49	4607
851.625	4611
851.76	4626
851.895	4531
852.03	4508
852.165	4607
852.299	4698
852.434	4763
852.569	4763
852.703	4748
852.838	4816
852.973	4919
853.107	4911
853.242	4698
853.376	4679
853.511	4577
853.645	4618
853.78	4790
853.914	4691
854.048	4675
854.183	4656
854.317	4675
854.451	4828
854.585	4729
854.72	4630
854.854	4790
854.988	4599
855.122	4637
855.256	4508
855.39	4721
855.524	4748
855.658	4714
855.792	4717
855.926	4733
856.06	4729
856.194	4782
856.327	4694
856.461	4626
856.595	4592
856.729	4634
856.862	4740
856.996	4588
857.13	4729
857.263	4736
857.397	4797
857.53	4664
857.664	4698
857.797	4721
857.931	4778
858.064	4714
858.197	4763
858.331	4668
858.464	4618
858.597	4535
858.731	4599
858.864	4622
858.997	4622
859.13	4634
859.263	4687
859.396	4710
859.529	4592
859.662	4558
859.795	4527
859.928	4649
860.061	4752
860.194	4774
860.327	4577
860.46	4546
860.592	4687
860.725	4736
860.858	4752
860.99	4573
861.123	4538
861.256	4478
861.388	4603
861.521	5387
861.653	4470
861.786	4428
861.918	4436
862.05	4500
862.183	4527
862.315	4660
862.447	4649
862.58	4535
862.712	4405
862.844	4280
862.976	4462
863.108	4485
863.24	4885
863.372	4348
863.504	4413
863.636	4386
863.768	4481
863.9	4432
864.032	4344
864.164	4402
864.296	4462
864.428	4531
864.559	4538
864.691	4508
864.823	4493
864.954	4489
865.086	4504
865.217	4474
865.349	4405
865.48	4447
865.612	4493
865.743	4641
865.875	4462
866.006	4398
866.137	4478
866.269	4462
866.4	4428
866.531	4386
866.662	4413
866.793	4405
866.924	4402
867.055	4485
867.186	4497
867.317	4459
867.448	4348
867.579	4379
867.71	4363
867.841	4375
867.972	4424
868.103	4428
868.233	4470
868.364	4402
868.495	4493
868.625	4679
868.756	4702
868.886	4569
869.017	4611
869.147	4748
869.278	4790
869.408	4656
869.539	4683
869.669	4698
869.799	4649
869.929	4752
870.06	4725
870.19	4949
870.32	4908
870.45	4946
870.58	4946
870.71	5071
870.84	5064
870.97	4942
871.1	4904
871.23	5086
871.36	5105
871.489	5094
871.619	5067
871.749	5086
871.879	5147
872.008	5189
872.138	5079
872.267	4965
872.397	4797
872.526	4729
872.656	4714
872.785	4809
872.915	4968
873.044	5003
873.173	4934
873.303	4961
873.432	4892
873.561	4976
873.69	4881
873.819	4831
873.948	4896
874.077	4820
874.206	4759
874.335	4809
874.464	4984
874.593	5037
874.722	4957
874.851	5075
874.979	5052
875.108	5121
875.237	4953
875.365	4850
875.494	4862
875.623	4980
875.751	4729
875.88	4847
876.008	4949
876.136	5025
876.265	5193
876.393	5337
876.521	5258
876.65	5235
876.778	5124
876.906	5022
877.034	5014
877.162	5003
877.29	4953
877.418	5025
877.546	5029
877.674	5029
877.802	4984
877.93	5014
878.058	4896
878.185	4870
878.313	4972
878.441	4961
878.568	4790
878.696	4820
878.824	4965
878.951	4991
879.079	5113
879.206	5254
879.333	5105
879.461	4919
879.588	5029
879.715	5132
879.842	5242
879.97	5029
880.097	4774
880.224	4740
880.351	4786
880.478	4812
880.605	4805
880.732	4790
880.859	5029
880.986	4881
881.112	4927
881.239	4858
881.366	4656
881.493	4611
881.619	4592
881.746	4630
881.872	4637
881.999	4611
882.125	4675
882.252	4767
882.378	4793
882.505	4938
882.631	4782
882.757	4740
882.883	4675
883.01	4725
883.136	4675
883.262	4588
883.388	4622
883.514	4774
883.64	4843
883.766	4843
883.892	4683
884.018	4672
884.143	4892
884.269	4965
884.395	4675
884.52	4630
884.646	4660
884.772	4626
884.897	4542
885.023	4660
885.148	4820
885.274	4847
885.399	4786
885.524	4725
885.65	4702
885.775	4736
885.9	4649
886.025	4862
886.15	4809
886.275	4729
886.4	4691
886.525	4725
886.65	4672
886.775	4675
886.9	4908
887.025	5010
887.149	4793
887.274	4622
887.399	4550
887.523	4584
887.648	4512
887.773	4558
887.897	4748
888.021	4782
888.146	4622
888.27	4816
888.395	4843
888.519	4752
888.643	4793
888.767	4755
888.891	4622
889.015	4607
889.139	4645
889.263	4588
889.387	4752
889.511	4896
889.635	4820
889.759	4634
889.883	4679
890.006	4691
890.13	4858
890.254	4615
890.377	4660
890.501	4546
890.624	4527
890.748	4683
890.871	4481
890.995	4451
891.118	4367
891.241	4470
891.364	4577
891.488	4641
891.611	4519
891.734	4554
891.857	4573
891.98	4584
892.103	4649
892.226	4588
892.349	4478
892.471	4398
892.594	4554
892.717	4531
892.839	4519
892.962	4565
893.085	4679
893.207	4599
893.33	4455
893.452	4516
893.575	4710
893.697	4573
893.819	4778
893.941	4793
894.064	4729
894.186	4599
894.308	4558
894.43	4721
894.552	4801
894.674	4733
894.796	4554
894.918	4618
895.04	4538
895.161	4672
895.283	4679
895.405	4577
895.526	4645
895.648	4653
895.769	4645
895.891	4694
896.012	4721
896.134	4714
896.255	4653
896.376	4660
896.498	4584
896.619	4694
896.74	4592
896.861	4641
896.982	4938
897.103	5064
897.224	4828
897.345	4729
897.466	4656
897.587	4694
897.708	4809
897.828	4774
897.949	4675
898.07	4538
898.19	4599
898.311	4812
898.431	4649
898.552	4702
898.672	4778
898.792	4740
898.913	4755
899.033	4603
899.153	4516
899.273	4386
899.393	4481
899.513	4535
899.633	4519
899.753	4615
899.873	4535
899.993	4565
900.113	4538
900.232	4550
900.352	4500
900.472	4493
900.591	4383
900.711	4481
900.83	4424
900.95	4565
901.069	4687
901.189	4561
901.308	4344
901.427	4291
901.546	4398
901.665	4447
901.784	4519
901.904	4383
902.023	4276
902.141	4181
902.26	4128
902.379	4265
902.498	4181
902.617	4211
902.735	4363
902.854	4367
902.973	4352
903.091	4207
903.21	4227
903.328	4287
903.446	4261
903.565	4276
903.683	4405
903.801	4257
903.919	4379
904.038	4394
904.156	4348
904.274	4432
904.392	4402
904.51	4424
904.627	4443
904.745	4580
904.863	4645
904.981	4390
905.098	4329
905.216	4329
905.334	4409
905.451	4405
905.569	4428
905.686	4516
905.803	4519
905.921	4436
906.038	4550
906.155	4466
906.272	4375
906.389	4440
906.506	4341
906.623	4413
906.74	4379
906.857	4299
906.974	4356
907.091	4558
907.208	4630
907.324	4592
907.441	4478
907.557	4371
907.674	4325
907.79	4337
907.907	4329
908.023	4443
908.139	4462
908.256	4417
908.372	4440
908.488	4440
908.604	4352
908.72	4352
908.836	4371
908.952	4352
909.068	4447
909.184	4538
909.3	4542
909.415	4558
909.531	4584
909.647	4360
909.762	4383
909.878	4329
909.993	4432
910.108	4398
910.224	4417
910.339	4413
910.454	4436
910.57	4348
910.685	4306
910.8	4656
910.915	4588
911.03	4497
911.145	4333
911.259	4291
911.374	4386
911.489	4363
911.604	4295
911.718	4223
911.833	4253
911.947	4112
912.062	4063
912.176	4230
912.291	4242
912.405	4280
912.519	4459
912.633	4538
912.748	4356
912.862	4329
912.976	4223
913.09	4074
913.204	4204
913.318	4253
913.431	4405
913.545	4428
913.659	4470
913.772	4394
913.886	4291
914	4223
914.113	4413
914.226	4470
914.34	4451
914.453	4276
914.566	4478
914.68	4363
914.793	4344
914.906	4185
915.019	4185
915.132	4128
915.245	4166
915.358	4253
915.47	4299
915.583	4287
915.696	4253
915.809	4443
915.921	4405
916.034	4329
916.146	4280
916.259	4261
916.371	4432
916.483	4348
916.595	4249
916.708	4360
916.82	4337
916.932	4325
917.044	4390
917.156	4379
917.268	4276
917.38	4329
917.491	4287
917.603	4383
917.715	4432
917.826	4489
917.938	4383
918.049	4314
918.161	4443
918.272	4554
918.384	4538
918.495	4474
918.606	4363
918.717	4295
918.828	4375
918.939	4424
919.05	4310
919.161	4325
919.272	4143
919.383	4276
919.494	4478
919.604	4675
919.715	4493
919.826	4402
919.936	4478
920.047	4596
920.157	4519
920.267	4725
920.378	4577
920.488	4527
920.598	4740
920.708	4934
920.818	4790
920.928	4824
921.038	4949
921.148	4991
921.258	4618
921.368	4569
921.477	4481
921.587	4516
921.697	4459
921.806	4607
921.916	4489
922.025	4272
922.134	4310
922.244	4257
922.353	4371
922.462	4196
922.571	4169
922.68	4078
922.789	3956
922.898	4071
923.007	3983
923.116	4139
923.224	4124
923.333	4112
923.442	4044
923.55	4025
923.659	4044
923.767	4147
923.876	4025
923.984	4131
924.092	4036
924.201	4143
924.309	4116
924.417	4139
924.525	4040
924.633	4128
924.741	5102
924.849	3945
924.956	4211
925.064	3972
925.172	3972
925.279	3960
925.387	4097
925.494	4063
925.602	4234
925.709	4257
925.816	4044
925.924	4158
926.031	4234
926.138	4227
926.245	4196
926.352	4124
926.459	4295
926.566	4337
926.673	4162
926.779	4093
926.886	4093
926.993	4017
927.099	3975
927.206	3945
927.312	3972
927.419	4116
927.525	4013
927.631	4101
927.737	3972
927.843	3953
927.95	3865
928.056	3987
928.162	4036
928.267	4055
928.373	4592
928.479	4169
928.585	3930
928.69	4017
928.796	4101
928.901	3983
929.007	3899
929.112	4025
929.218	4013
929.323	3983
929.428	3949
929.533	4139
929.638	3975
929.743	3983
929.848	4021
929.953	4010
930.058	3994
930.163	3793
930.267	3842
930.372	3983
930.477	3819
930.581	4124
930.685	3972
930.79	3819
930.894	3918
930.998	3937
931.103	4063
931.207	3709
931.311	3724
931.415	3701
931.519	3580
931.623	3606
