Data from test_V78500241_163.txt Node
Date: Fri Mar 25 16:50:08 CST 2022
User: usil
Spectrometer: V785-0024
Trigger mode: 0
Integration Time (sec): 4.000000E-1
Scans to average: 1
Nonlinearity correction enabled: false
Boxcar width: 0
Storing dark spectrum: false
XAxis mode: Wavelengths
Number of Pixels in Spectrum: 1024
>>>>>Begin Spectral Data<<<<<
801.071	8031
801.214	8016
801.356	7898
801.499	7890
801.641	7890
801.783	7841
801.926	8058
802.068	8024
802.211	8008
802.353	7982
802.496	7871
802.638	7868
802.78	8001
802.923	7982
803.065	7818
803.208	7955
803.35	7997
803.492	8107
803.635	8111
803.777	8088
803.919	8100
804.061	8366
804.204	8058
804.346	8035
804.488	8001
804.63	8031
804.773	8031
804.915	8046
805.057	8225
805.199	8111
805.341	8214
805.483	8279
805.626	8180
805.768	8119
805.91	8180
806.052	8172
806.194	8164
806.336	8332
806.478	8119
806.62	8035
806.762	8187
806.904	8301
807.046	8358
807.188	8377
807.33	8358
807.472	8336
807.614	8218
807.756	8134
807.898	7978
808.04	7913
808.182	7944
808.324	7887
808.465	7887
808.607	8001
808.749	8142
808.891	8328
809.033	8332
809.174	8199
809.316	8092
809.458	8069
809.6	7997
809.741	8031
809.883	8005
810.025	8138
810.166	8130
810.308	8005
810.45	8046
810.591	7887
810.733	7826
810.875	7674
811.016	7624
811.158	7521
811.299	7670
811.441	7753
811.582	7708
811.724	7715
811.865	7594
812.007	7632
812.148	7639
812.29	7719
812.431	7807
812.573	7940
812.714	8058
812.855	8199
812.997	8267
813.138	8396
813.279	8252
813.421	8183
813.562	8088
813.703	7928
813.845	7830
813.986	7521
814.127	7297
814.268	7266
814.41	7232
814.551	7202
814.692	7251
814.833	7145
814.974	7168
815.115	7171
815.256	6970
815.397	6962
815.539	6977
815.68	6894
815.821	6825
815.962	6878
816.103	6821
816.244	6760
816.385	6722
816.526	6684
816.666	6517
816.807	6338
816.948	6475
817.089	6456
817.23	6559
817.371	6460
817.512	6441
817.653	6395
817.793	6346
817.934	6422
818.075	6441
818.216	6410
818.356	6429
818.497	6308
818.638	6079
818.778	6163
818.919	6178
819.06	6209
819.2	6281
819.341	6357
819.481	6380
819.622	6593
819.762	6703
819.903	6749
820.043	6669
820.184	6650
820.324	6593
820.465	6734
820.605	6654
820.746	6684
820.886	6517
821.026	6719
821.167	6783
821.307	6852
821.447	6818
821.588	6722
821.728	6627
821.868	6582
822.008	6346
822.149	6350
822.289	6410
822.429	6243
822.569	6144
822.709	6117
822.849	6053
822.99	5920
823.13	5984
823.27	5973
823.41	5783
823.55	5794
823.69	5836
823.83	5809
823.97	5752
824.11	5627
824.25	5539
824.389	5611
824.529	5589
824.669	5577
824.809	5672
824.949	5668
825.089	5676
825.228	5615
825.368	5436
825.508	5368
825.648	5391
825.787	5406
825.927	5410
826.067	5330
826.206	5345
826.346	5391
826.485	5414
826.625	5455
826.765	5520
826.904	5532
827.044	5299
827.183	5223
827.323	5197
827.462	5311
827.601	5273
827.741	5239
827.88	5227
828.02	5155
828.159	5299
828.298	5330
828.437	5364
828.577	5330
828.716	5493
828.855	5334
828.994	5212
829.134	5220
829.273	5185
829.412	5132
829.551	5178
829.69	5201
829.829	5231
829.968	5398
830.107	5239
830.246	5261
830.385	5174
830.524	5128
830.663	5117
830.802	5006
830.941	4919
831.08	4862
831.219	4968
831.357	5045
831.496	5155
831.635	4984
831.774	4873
831.913	4847
832.051	4767
832.19	4729
832.329	4835
832.467	4687
832.606	4675
832.744	4786
832.883	4733
833.022	4774
833.16	4835
833.299	4839
833.437	4824
833.576	4835
833.714	4892
833.852	4870
833.991	4904
834.129	4984
834.267	4984
834.406	4957
834.544	5003
834.682	4999
834.821	5014
834.959	5193
835.097	4976
835.235	5220
835.373	5143
835.511	5105
835.65	5060
835.788	5018
835.926	4889
836.064	4923
836.202	4980
836.34	5181
836.478	5277
836.615	5159
836.753	5265
836.891	5337
837.029	5280
837.167	5242
837.305	5208
837.443	5147
837.58	5083
837.718	5322
837.856	5170
837.993	5140
838.131	5277
838.269	5296
838.406	5239
838.544	5189
838.681	5025
838.819	4980
838.956	4942
839.094	4965
839.231	4984
839.369	5105
839.506	5444
839.643	5292
839.781	5094
839.918	5022
840.055	5151
840.193	5075
840.33	5094
840.467	5193
840.604	5208
840.742	5440
840.879	5113
841.016	5128
841.153	5159
841.29	5395
841.427	5326
841.564	5334
841.701	5337
841.838	5345
841.975	5242
842.112	5292
842.249	5181
842.385	5113
842.522	5353
842.659	5178
842.796	5151
842.933	5174
843.069	5128
843.206	5151
843.343	5303
843.479	5227
843.616	5239
843.752	5022
843.889	5029
844.025	5273
844.162	5022
844.298	5250
844.435	5075
844.571	5014
844.708	5189
844.844	5303
844.98	5383
845.117	5315
845.253	5162
845.389	5090
845.525	5151
845.661	5151
845.798	5064
845.934	5181
846.07	5117
846.206	5181
846.342	5277
846.478	5174
846.614	5022
846.75	5018
846.886	4984
847.022	5136
847.158	5056
847.294	5071
847.429	5121
847.565	5086
847.701	5368
847.837	4839
847.972	4812
848.108	4927
848.244	4949
848.379	4763
848.515	4740
848.65	4687
848.786	4786
848.921	4824
849.057	4896
849.192	4980
849.328	4835
849.463	4866
849.598	4797
849.734	4816
849.869	4729
850.004	4653
850.14	4721
850.275	4634
850.41	4554
850.545	4573
850.68	4626
850.815	4607
850.95	4637
851.085	4877
851.22	4752
851.355	4675
851.49	4622
851.625	4668
851.76	4675
851.895	4584
852.03	4558
852.165	4645
852.299	4744
852.434	4812
852.569	4744
852.703	4786
852.838	4908
852.973	4927
853.107	4911
853.242	4736
853.376	4702
853.511	4561
853.645	4618
853.78	4828
853.914	4710
854.048	4683
854.183	4672
854.317	4748
854.451	4923
854.585	4717
854.72	4592
854.854	4797
854.988	4584
855.122	4618
855.256	4577
855.39	4675
855.524	4793
855.658	4744
855.792	4725
855.926	4710
856.06	4778
856.194	4835
856.327	4729
856.461	4630
856.595	4641
856.729	4626
856.862	4782
856.996	4691
857.13	4778
857.263	4759
857.397	4843
857.53	4641
857.664	4706
857.797	4847
857.931	4774
858.064	4698
858.197	4759
858.331	4679
858.464	4691
858.597	4531
858.731	4664
858.864	4702
858.997	4626
859.13	4653
859.263	4694
859.396	4717
859.529	4607
859.662	4618
859.795	4577
859.928	4668
860.061	4774
860.194	4767
860.327	4611
860.46	4611
860.592	4763
860.725	4755
860.858	4744
860.99	4565
861.123	4550
861.256	4531
861.388	4641
861.521	5417
861.653	4489
861.786	4466
861.918	4440
862.05	4516
862.183	4588
862.315	4645
862.447	4668
862.58	4542
862.712	4394
862.844	4337
862.976	4478
863.108	4451
863.24	4896
863.372	4325
863.504	4443
863.636	4421
863.768	4455
863.9	4508
864.032	4333
864.164	4413
864.296	4508
864.428	4588
864.559	4569
864.691	4550
864.823	4550
864.954	4516
865.086	4554
865.217	4459
865.349	4421
865.48	4462
865.612	4500
865.743	4656
865.875	4497
866.006	4489
866.137	4493
866.269	4432
866.4	4459
866.531	4459
866.662	4409
866.793	4421
866.924	4390
867.055	4504
867.186	4432
867.317	4436
867.448	4432
867.579	4379
867.71	4451
867.841	4352
867.972	4481
868.103	4504
868.233	4485
868.364	4527
868.495	4538
868.625	4710
868.756	4805
868.886	4603
869.017	4637
869.147	4801
869.278	4767
869.408	4668
869.539	4694
869.669	4714
869.799	4618
869.929	4763
870.06	4771
870.19	4953
870.32	4923
870.45	4930
870.58	5022
870.71	5041
870.84	5159
870.97	4972
871.1	4934
871.23	5155
871.36	5143
871.489	5029
871.619	5079
871.749	5121
871.879	5162
872.008	5220
872.138	5018
872.267	5052
872.397	4881
872.526	4820
872.656	4782
872.785	4839
872.915	4949
873.044	5067
873.173	4999
873.303	4957
873.432	4976
873.561	4968
873.69	4870
873.819	4911
873.948	4892
874.077	4835
874.206	4782
874.335	4763
874.464	4900
874.593	5060
874.722	4965
874.851	5132
874.979	5060
875.108	5056
875.237	4972
875.365	4854
875.494	4934
875.623	4987
875.751	4835
875.88	4877
876.008	4942
876.136	5086
876.265	5242
876.393	5337
876.521	5250
876.65	5212
876.778	5151
876.906	5079
877.034	5033
877.162	5075
877.29	4995
877.418	5052
877.546	5105
877.674	5060
877.802	5003
877.93	5048
878.058	4934
878.185	4892
878.313	4976
878.441	4934
878.568	4801
878.696	4900
878.824	4987
878.951	4957
879.079	5166
879.206	5265
879.333	5143
879.461	5022
879.588	5010
879.715	5102
879.842	5254
879.97	5022
880.097	4812
880.224	4721
880.351	4847
880.478	4862
880.605	4824
880.732	4812
880.859	5071
880.986	4957
881.112	4900
881.239	4828
881.366	4736
881.493	4626
881.619	4626
881.746	4653
881.872	4672
881.999	4691
882.125	4710
882.252	4771
882.378	4824
882.505	5029
882.631	4801
882.757	4668
882.883	4694
883.01	4752
883.136	4702
883.262	4599
883.388	4580
883.514	4839
883.64	4847
883.766	4839
883.892	4656
884.018	4740
884.143	4923
884.269	5056
884.395	4714
884.52	4679
884.646	4710
884.772	4645
884.897	4565
885.023	4664
885.148	4782
885.274	4843
885.399	4831
885.524	4740
885.65	4740
885.775	4744
885.9	4729
886.025	4896
886.15	4786
886.275	4702
886.4	4668
886.525	4698
886.65	4675
886.775	4740
886.9	4908
887.025	5048
887.149	4801
887.274	4668
887.399	4615
887.523	4580
887.648	4653
887.773	4596
887.897	4782
888.021	4801
888.146	4675
888.27	4866
888.395	4915
888.519	4812
888.643	4820
888.767	4839
888.891	4698
889.015	4641
889.139	4706
889.263	4569
889.387	4744
889.511	4881
889.635	4786
889.759	4611
889.883	4630
890.006	4736
890.13	4816
890.254	4687
890.377	4691
890.501	4546
890.624	4558
890.748	4656
890.871	4519
890.995	4447
891.118	4363
891.241	4558
891.364	4584
891.488	4687
891.611	4489
891.734	4569
891.857	4577
891.98	4603
892.103	4649
892.226	4622
892.349	4535
892.471	4394
892.594	4558
892.717	4603
892.839	4615
892.962	4630
893.085	4683
893.207	4660
893.33	4466
893.452	4542
893.575	4672
893.697	4584
893.819	4801
893.941	4873
894.064	4790
894.186	4596
894.308	4607
894.43	4763
894.552	4820
894.674	4774
894.796	4554
894.918	4649
895.04	4558
895.161	4656
895.283	4683
895.405	4577
895.526	4645
895.648	4721
895.769	4675
895.891	4714
896.012	4755
896.134	4729
896.255	4691
896.376	4660
896.498	4626
896.619	4725
896.74	4645
896.861	4645
896.982	4968
897.103	5048
897.224	4854
897.345	4752
897.466	4656
897.587	4721
897.708	4858
897.828	4831
897.949	4656
898.07	4611
898.19	4672
898.311	4839
898.431	4702
898.552	4748
898.672	4835
898.792	4782
898.913	4763
899.033	4656
899.153	4497
899.273	4474
899.393	4470
899.513	4565
899.633	4535
899.753	4573
899.873	4554
899.993	4599
900.113	4527
900.232	4653
900.352	4535
900.472	4485
900.591	4428
900.711	4538
900.83	4447
900.95	4607
901.069	4687
901.189	4577
901.308	4341
901.427	4306
901.546	4371
901.665	4481
901.784	4519
901.904	4379
902.023	4322
902.141	4154
902.26	4150
902.379	4337
902.498	4291
902.617	4253
902.735	4375
902.854	4402
902.973	4379
903.091	4219
903.21	4238
903.328	4306
903.446	4280
903.565	4306
903.683	4344
903.801	4337
903.919	4379
904.038	4459
904.156	4356
904.274	4436
904.392	4409
904.51	4409
904.627	4451
904.745	4577
904.863	4691
904.981	4443
905.098	4337
905.216	4390
905.334	4432
905.451	4424
905.569	4462
905.686	4573
905.803	4588
905.921	4428
906.038	4558
906.155	4447
906.272	4386
906.389	4466
906.506	4344
906.623	4417
906.74	4409
906.857	4322
906.974	4390
907.091	4546
907.208	4714
907.324	4592
907.441	4542
907.557	4379
907.674	4348
907.79	4337
907.907	4413
908.023	4489
908.139	4531
908.256	4409
908.372	4462
908.488	4432
908.604	4379
908.72	4325
908.836	4379
908.952	4379
909.068	4417
909.184	4603
909.3	4493
909.415	4523
909.531	4588
909.647	4379
909.762	4341
909.878	4322
909.993	4466
910.108	4440
910.224	4440
910.339	4535
910.454	4363
910.57	4394
910.685	4344
910.8	4679
910.915	4645
911.03	4512
911.145	4306
911.259	4360
911.374	4394
911.489	4306
911.604	4314
911.718	4230
911.833	4211
911.947	4067
912.062	4048
912.176	4223
912.291	4272
912.405	4280
912.519	4459
912.633	4516
912.748	4371
912.862	4341
912.976	4207
913.09	4116
913.204	4200
913.318	4295
913.431	4440
913.545	4394
913.659	4470
913.772	4367
913.886	4272
914	4230
914.113	4417
914.226	4485
914.34	4398
914.453	4284
914.566	4466
914.68	4306
914.793	4333
914.906	4154
915.019	4124
915.132	4128
915.245	4211
915.358	4242
915.47	4257
915.583	4261
915.696	4295
915.809	4466
915.921	4459
916.034	4276
916.146	4310
916.259	4200
916.371	4390
916.483	4405
916.595	4287
916.708	4333
916.82	4371
916.932	4352
917.044	4405
917.156	4318
917.268	4227
917.38	4257
917.491	4314
917.603	4390
917.715	4360
917.826	4462
917.938	4341
918.049	4223
918.161	4421
918.272	4554
918.384	4516
918.495	4481
918.606	4299
918.717	4257
918.828	4386
918.939	4417
919.05	4276
919.161	4348
919.272	4147
919.383	4280
919.494	4424
919.604	4611
919.715	4443
919.826	4360
919.936	4440
920.047	4508
920.157	4493
920.267	4748
920.378	4580
920.488	4459
920.598	4748
920.708	4900
920.818	4748
920.928	4744
921.038	4991
921.148	4919
921.258	4630
921.368	4569
921.477	4538
921.587	4481
921.697	4402
921.806	4554
921.916	4436
922.025	4306
922.134	4287
922.244	4207
922.353	4363
922.462	4169
922.571	4139
922.68	3979
922.789	4032
922.898	4055
923.007	4025
923.116	4166
923.224	4090
923.333	4063
923.442	4051
923.55	3987
923.659	4025
923.767	4105
923.876	3998
923.984	4120
924.092	3975
924.201	4150
924.309	4048
924.417	4093
924.525	4051
924.633	4177
924.741	4873
924.849	3937
924.956	4116
925.064	3922
925.172	3903
925.279	4032
925.387	4044
925.494	4051
925.602	4207
925.709	4169
925.816	4078
925.924	4139
926.031	4276
926.138	4139
926.245	4223
926.352	4086
926.459	4234
926.566	4291
926.673	4207
926.779	4093
926.886	4131
926.993	4017
927.099	3953
927.206	3975
927.312	4002
927.419	4082
927.525	4040
927.631	4143
927.737	4017
927.843	3949
927.95	3892
928.056	3964
928.162	4010
928.267	4086
928.373	4736
928.479	4162
928.585	3926
928.69	4021
928.796	4086
928.901	3926
929.007	3888
929.112	3975
929.218	3979
929.323	3949
929.428	3930
929.533	4116
929.638	3865
929.743	3960
929.848	4048
929.953	3994
930.058	3994
930.163	3774
930.267	3865
930.372	3945
930.477	3819
930.581	4131
930.685	4006
930.79	3827
930.894	3896
930.998	3819
931.103	4059
931.207	3747
931.311	3728
931.415	3671
931.519	3526
931.623	3568
