Data from test_V78500241_467.txt Node
Date: Fri Mar 25 16:52:14 CST 2022
User: usil
Spectrometer: V785-0024
Trigger mode: 0
Integration Time (sec): 4.000000E-1
Scans to average: 1
Nonlinearity correction enabled: false
Boxcar width: 0
Storing dark spectrum: false
XAxis mode: Wavelengths
Number of Pixels in Spectrum: 1024
>>>>>Begin Spectral Data<<<<<
801.071	7993
801.214	7986
801.356	7875
801.499	7909
801.641	7788
801.783	7913
801.926	7989
802.068	7997
802.211	8050
802.353	8088
802.496	7917
802.638	7978
802.78	7944
802.923	7890
803.065	7894
803.208	7925
803.35	7978
803.492	8024
803.635	8024
803.777	8001
803.919	8123
804.061	8518
804.204	8092
804.346	8088
804.488	7978
804.63	8084
804.773	7970
804.915	8161
805.057	8290
805.199	8195
805.341	8336
805.483	8309
805.626	8191
805.768	8111
805.91	8199
806.052	8138
806.194	8172
806.336	8298
806.478	8168
806.62	8115
806.762	8172
806.904	8138
807.046	8454
807.188	8355
807.33	8317
807.472	8313
807.614	8149
807.756	8084
807.898	7982
808.04	7925
808.182	7925
808.324	7909
808.465	7925
808.607	8077
808.749	8123
808.891	8168
809.033	8263
809.174	8119
809.316	8005
809.458	8123
809.6	8062
809.741	8073
809.883	8046
810.025	8084
810.166	8077
810.308	7967
810.45	8001
810.591	7871
810.733	7731
810.875	7632
811.016	7521
811.158	7620
811.299	7582
811.441	7769
811.582	7727
811.724	7556
811.865	7575
812.007	7639
812.148	7586
812.29	7636
812.431	7742
812.573	7909
812.714	7970
812.855	8164
812.997	8233
813.138	8339
813.279	8256
813.421	8164
813.562	8024
813.703	7890
813.845	7864
813.986	7559
814.127	7384
814.268	7285
814.41	7198
814.551	7160
814.692	7175
814.833	7118
814.974	7145
815.115	7217
815.256	7019
815.397	6886
815.539	7015
815.68	6837
815.821	6863
815.962	6890
816.103	6814
816.244	6768
816.385	6681
816.526	6616
816.666	6555
816.807	6365
816.948	6460
817.089	6475
817.23	6426
817.371	6395
817.512	6323
817.653	6456
817.793	6452
817.934	6399
818.075	6513
818.216	6483
818.356	6452
818.497	6285
818.638	6110
818.778	6125
818.919	6110
819.06	6159
819.2	6289
819.341	6304
819.481	6353
819.622	6521
819.762	6688
819.903	6639
820.043	6616
820.184	6547
820.324	6521
820.465	6692
820.605	6681
820.746	6654
820.886	6574
821.026	6711
821.167	6726
821.307	6802
821.447	6806
821.588	6623
821.728	6650
821.868	6528
822.008	6327
822.149	6361
822.289	6407
822.429	6186
822.569	6110
822.709	6194
822.849	5889
822.99	5920
823.13	5920
823.27	5927
823.41	5794
823.55	5798
823.69	5767
823.83	5775
823.97	5676
824.11	5516
824.25	5520
824.389	5573
824.529	5649
824.669	5611
824.809	5638
824.949	5665
825.089	5589
825.228	5539
825.368	5402
825.508	5376
825.648	5391
825.787	5364
825.927	5433
826.067	5284
826.206	5372
826.346	5372
826.485	5414
826.625	5395
826.765	5532
826.904	5429
827.044	5261
827.183	5197
827.323	5109
827.462	5258
827.601	5204
827.741	5185
827.88	5208
828.02	5159
828.159	5242
828.298	5303
828.437	5376
828.577	5288
828.716	5478
828.855	5364
828.994	5181
829.134	5147
829.273	5220
829.412	5178
829.551	5151
829.69	5140
829.829	5273
829.968	5322
830.107	5273
830.246	5334
830.385	5227
830.524	5136
830.663	5109
830.802	5003
830.941	4892
831.08	4881
831.219	4991
831.357	5052
831.496	5185
831.635	4961
831.774	4881
831.913	4862
832.051	4729
832.19	4755
832.329	4828
832.467	4683
832.606	4675
832.744	4748
832.883	4733
833.022	4736
833.16	4759
833.299	4839
833.437	4873
833.576	4866
833.714	4824
833.852	4881
833.991	4942
834.129	4949
834.267	4980
834.406	4938
834.544	5037
834.682	5010
834.821	4965
834.959	5178
835.097	5048
835.235	5143
835.373	5102
835.511	5132
835.65	5037
835.788	5006
835.926	4949
836.064	4870
836.202	4911
836.34	5197
836.478	5284
836.615	5113
836.753	5189
836.891	5299
837.029	5258
837.167	5231
837.305	5235
837.443	5143
837.58	5064
837.718	5265
837.856	5220
837.993	5185
838.131	5216
838.269	5181
838.406	5235
838.544	5185
838.681	5022
838.819	4999
838.956	4930
839.094	4942
839.231	4980
839.369	5067
839.506	5486
839.643	5292
839.781	5098
839.918	5033
840.055	5143
840.193	5140
840.33	5117
840.467	5140
840.604	5193
840.742	5474
840.879	5143
841.016	5098
841.153	5094
841.29	5364
841.427	5406
841.564	5330
841.701	5372
841.838	5284
841.975	5261
842.112	5269
842.249	5197
842.385	5132
842.522	5299
842.659	5193
842.796	5147
842.933	5212
843.069	5136
843.206	5178
843.343	5322
843.479	5220
843.616	5318
843.752	5060
843.889	5056
844.025	5204
844.162	5010
844.298	5204
844.435	5064
844.571	5083
844.708	5181
844.844	5322
844.98	5349
845.117	5273
845.253	5151
845.389	5124
845.525	5132
845.661	5128
845.798	5079
845.934	5159
846.07	5048
846.206	5212
846.342	5261
846.478	5227
846.614	4961
846.75	4984
846.886	4953
847.022	5124
847.158	4999
847.294	5056
847.429	5185
847.565	5071
847.701	5288
847.837	4866
847.972	4801
848.108	5010
848.244	4957
848.379	4786
848.515	4744
848.65	4740
848.786	4786
848.921	4828
849.057	4858
849.192	4976
849.328	4816
849.463	4870
849.598	4809
849.734	4771
849.869	4702
850.004	4611
850.14	4683
850.275	4626
850.41	4542
850.545	4519
850.68	4649
850.815	4599
850.95	4656
851.085	4835
851.22	4710
851.355	4691
851.49	4660
851.625	4599
851.76	4626
851.895	4599
852.03	4546
852.165	4698
852.299	4748
852.434	4763
852.569	4752
852.703	4717
852.838	4839
852.973	4980
853.107	4908
853.242	4763
853.376	4660
853.511	4535
853.645	4637
853.78	4839
853.914	4694
854.048	4710
854.183	4645
854.317	4710
854.451	4824
854.585	4672
854.72	4637
854.854	4790
854.988	4580
855.122	4672
855.256	4546
855.39	4660
855.524	4782
855.658	4744
855.792	4729
855.926	4714
856.06	4736
856.194	4843
856.327	4717
856.461	4630
856.595	4592
856.729	4645
856.862	4744
856.996	4721
857.13	4706
857.263	4744
857.397	4805
857.53	4653
857.664	4714
857.797	4805
857.931	4793
858.064	4660
858.197	4744
858.331	4679
858.464	4626
858.597	4577
858.731	4649
858.864	4672
858.997	4653
859.13	4691
859.263	4649
859.396	4733
859.529	4592
859.662	4622
859.795	4558
859.928	4645
860.061	4755
860.194	4771
860.327	4603
860.46	4538
860.592	4736
860.725	4767
860.858	4710
860.99	4546
861.123	4558
861.256	4561
861.388	4615
861.521	5341
861.653	4504
861.786	4451
861.918	4459
862.05	4599
862.183	4538
862.315	4615
862.447	4645
862.58	4580
862.712	4386
862.844	4329
862.976	4489
863.108	4440
863.24	4850
863.372	4318
863.504	4436
863.636	4443
863.768	4459
863.9	4443
864.032	4409
864.164	4451
864.296	4500
864.428	4550
864.559	4546
864.691	4527
864.823	4546
864.954	4481
865.086	4508
865.217	4493
865.349	4402
865.48	4508
865.612	4508
865.743	4649
865.875	4459
866.006	4432
866.137	4485
866.269	4466
866.4	4432
866.531	4432
866.662	4462
866.793	4432
866.924	4413
867.055	4516
867.186	4466
867.317	4394
867.448	4394
867.579	4409
867.71	4398
867.841	4367
867.972	4489
868.103	4481
868.233	4459
868.364	4455
868.495	4504
868.625	4668
868.756	4767
868.886	4550
869.017	4694
869.147	4797
869.278	4767
869.408	4706
869.539	4687
869.669	4714
869.799	4664
869.929	4748
870.06	4725
870.19	4927
870.32	4889
870.45	4957
870.58	5037
870.71	5121
870.84	5109
870.97	4965
871.1	4881
871.23	5094
871.36	5155
871.489	5018
871.619	5079
871.749	5094
871.879	5121
872.008	5170
872.138	5071
872.267	5006
872.397	4892
872.526	4797
872.656	4755
872.785	4824
872.915	4976
873.044	4999
873.173	4953
873.303	5003
873.432	4923
873.561	4984
873.69	4934
873.819	4919
873.948	4930
874.077	4820
874.206	4774
874.335	4831
874.464	4934
874.593	5075
874.722	4965
874.851	5090
874.979	5006
875.108	5048
875.237	4942
875.365	4873
875.494	4946
875.623	4957
875.751	4858
875.88	4908
876.008	4987
876.136	4995
876.265	5201
876.393	5341
876.521	5261
876.65	5258
876.778	5159
876.906	5094
877.034	4999
877.162	5052
877.29	5033
877.418	5075
877.546	4965
877.674	5109
877.802	5010
877.93	5045
878.058	4934
878.185	4911
878.313	5003
878.441	4965
878.568	4797
878.696	4866
878.824	4980
878.951	4965
879.079	5109
879.206	5258
879.333	5105
879.461	4984
879.588	4980
879.715	5064
879.842	5189
879.97	5037
880.097	4801
880.224	4774
880.351	4820
880.478	4828
880.605	4828
880.732	4801
880.859	5083
880.986	4900
881.112	4946
881.239	4729
881.366	4618
881.493	4592
881.619	4603
881.746	4653
881.872	4637
881.999	4687
882.125	4698
882.252	4790
882.378	4820
882.505	4930
882.631	4797
882.757	4679
882.883	4736
883.01	4748
883.136	4691
883.262	4569
883.388	4615
883.514	4790
883.64	4923
883.766	4805
883.892	4649
884.018	4675
884.143	4930
884.269	4984
884.395	4691
884.52	4637
884.646	4672
884.772	4565
884.897	4592
885.023	4702
885.148	4805
885.274	4835
885.399	4778
885.524	4694
885.65	4675
885.775	4778
885.9	4691
886.025	4892
886.15	4771
886.275	4668
886.4	4694
886.525	4774
886.65	4698
886.775	4706
886.9	4930
887.025	5014
887.149	4812
887.274	4645
887.399	4592
887.523	4588
887.648	4588
887.773	4687
887.897	4710
888.021	4805
888.146	4725
888.27	4820
888.395	4908
888.519	4793
888.643	4816
888.767	4885
888.891	4675
889.015	4611
889.139	4656
889.263	4622
889.387	4740
889.511	4896
889.635	4763
889.759	4607
889.883	4653
890.006	4706
890.13	4835
890.254	4641
890.377	4687
890.501	4531
890.624	4508
890.748	4641
890.871	4535
890.995	4413
891.118	4402
891.241	4516
891.364	4512
891.488	4611
891.611	4485
891.734	4554
891.857	4618
891.98	4577
892.103	4698
892.226	4634
892.349	4527
892.471	4413
892.594	4489
892.717	4588
892.839	4584
892.962	4580
893.085	4691
893.207	4596
893.33	4500
893.452	4565
893.575	4672
893.697	4599
893.819	4801
893.941	4824
894.064	4729
894.186	4588
894.308	4596
894.43	4752
894.552	4843
894.674	4790
894.796	4538
894.918	4588
895.04	4573
895.161	4706
895.283	4714
895.405	4588
895.526	4653
895.648	4694
895.769	4698
895.891	4736
896.012	4771
896.134	4725
896.255	4694
896.376	4607
896.498	4615
896.619	4717
896.74	4618
896.861	4630
896.982	4911
897.103	5079
897.224	4843
897.345	4801
897.466	4672
897.587	4721
897.708	4904
897.828	4759
897.949	4675
898.07	4561
898.19	4679
898.311	4835
898.431	4675
898.552	4733
898.672	4839
898.792	4771
898.913	4721
899.033	4592
899.153	4523
899.273	4440
899.393	4481
899.513	4504
899.633	4500
899.753	4550
899.873	4542
899.993	4596
900.113	4546
900.232	4592
900.352	4561
900.472	4481
900.591	4428
900.711	4523
900.83	4413
900.95	4656
901.069	4702
901.189	4592
901.308	4383
901.427	4314
901.546	4398
901.665	4459
901.784	4504
901.904	4390
902.023	4367
902.141	4219
902.26	4185
902.379	4325
902.498	4227
902.617	4238
902.735	4390
902.854	4367
902.973	4402
903.091	4204
903.21	4280
903.328	4325
903.446	4310
903.565	4268
903.683	4375
903.801	4253
903.919	4417
904.038	4363
904.156	4352
904.274	4447
904.392	4413
904.51	4432
904.627	4500
904.745	4569
904.863	4580
904.981	4417
905.098	4329
905.216	4356
905.334	4459
905.451	4436
905.569	4500
905.686	4550
905.803	4599
905.921	4436
906.038	4546
906.155	4478
906.272	4413
906.389	4485
906.506	4379
906.623	4367
906.74	4402
906.857	4341
906.974	4394
907.091	4535
907.208	4660
907.324	4550
907.441	4500
907.557	4348
907.674	4303
907.79	4375
907.907	4363
908.023	4459
908.139	4474
908.256	4424
908.372	4459
908.488	4436
908.604	4379
908.72	4325
908.836	4363
908.952	4405
909.068	4459
909.184	4573
909.3	4466
909.415	4599
909.531	4565
909.647	4360
909.762	4371
909.878	4329
909.993	4409
910.108	4443
910.224	4440
910.339	4451
910.454	4432
910.57	4398
910.685	4371
910.8	4664
910.915	4630
911.03	4508
911.145	4341
911.259	4352
911.374	4386
911.489	4253
911.604	4253
911.718	4181
911.833	4234
911.947	4067
912.062	4036
912.176	4242
912.291	4246
912.405	4291
912.519	4470
912.633	4493
912.748	4325
912.862	4284
912.976	4211
913.09	4078
913.204	4135
913.318	4234
913.431	4363
913.545	4352
913.659	4424
913.772	4371
913.886	4253
914	4253
914.113	4432
914.226	4474
914.34	4402
914.453	4227
914.566	4424
914.68	4284
914.793	4356
914.906	4154
915.019	4135
915.132	4078
915.245	4188
915.358	4185
915.47	4242
915.583	4352
915.696	4306
915.809	4398
915.921	4398
916.034	4291
916.146	4249
916.259	4257
916.371	4375
916.483	4352
916.595	4310
916.708	4287
916.82	4329
916.932	4322
917.044	4348
917.156	4379
917.268	4257
917.38	4310
917.491	4287
917.603	4409
917.715	4440
917.826	4455
917.938	4371
918.049	4261
918.161	4390
918.272	4573
918.384	4493
918.495	4462
918.606	4306
918.717	4261
918.828	4318
918.939	4322
919.05	4295
919.161	4314
919.272	4128
919.383	4272
919.494	4459
919.604	4649
919.715	4440
919.826	4367
919.936	4409
920.047	4500
920.157	4493
920.267	4714
920.378	4542
920.488	4527
920.598	4744
920.708	4839
920.818	4767
920.928	4748
921.038	4957
921.148	4915
921.258	4679
921.368	4538
921.477	4504
921.587	4466
921.697	4383
921.806	4573
921.916	4405
922.025	4272
922.134	4272
922.244	4230
922.353	4409
922.462	4204
922.571	4173
922.68	3975
922.789	3975
922.898	4063
923.007	3956
923.116	4120
923.224	4071
923.333	4063
923.442	4036
923.55	3960
923.659	4029
923.767	4135
923.876	4025
923.984	4120
924.092	4017
924.201	4093
924.309	4055
924.417	4135
924.525	4071
924.633	4078
924.741	5033
924.849	3949
924.956	4109
925.064	3972
925.172	3956
925.279	3941
925.387	4082
925.494	4071
925.602	4219
925.709	4215
925.816	4059
925.924	4150
926.031	4219
926.138	4192
926.245	4223
926.352	4112
926.459	4253
926.566	4306
926.673	4185
926.779	4101
926.886	4093
926.993	3926
927.099	3979
927.206	3994
927.312	3972
927.419	4063
927.525	4051
927.631	4116
927.737	3994
927.843	3915
927.95	3812
928.056	3949
928.162	4025
928.267	4051
928.373	4740
928.479	4131
928.585	3850
928.69	3987
928.796	4059
928.901	3964
929.007	3816
929.112	4002
929.218	3991
929.323	3953
929.428	3945
929.533	4074
929.638	3903
929.743	4010
929.848	4040
929.953	3983
930.058	3941
930.163	3778
930.267	3819
930.372	3941
930.477	3793
930.581	4120
930.685	3991
930.79	3835
930.894	3926
930.998	3896
931.103	4059
931.207	3728
931.311	3701
931.415	3694
931.519	3515
931.623	3553
