Data from test_V78500241_2466.txt Node
Date: Fri Mar 25 17:06:08 CST 2022
User: usil
Spectrometer: V785-0024
Trigger mode: 0
Integration Time (sec): 4.000000E-1
Scans to average: 1
Nonlinearity correction enabled: false
Boxcar width: 0
Storing dark spectrum: false
XAxis mode: Wavelengths
Number of Pixels in Spectrum: 1024
>>>>>Begin Spectral Data<<<<<
801.071	8001
801.214	7997
801.356	7860
801.499	7822
801.641	7746
801.783	7849
801.926	7913
802.068	7932
802.211	7955
802.353	7959
802.496	7921
802.638	7890
802.78	7826
802.923	7906
803.065	7906
803.208	7871
803.35	8016
803.492	8016
803.635	8134
803.777	8020
803.919	8077
804.061	8454
804.204	8134
804.346	8100
804.488	7940
804.63	8103
804.773	7982
804.915	8134
805.057	8233
805.199	8244
805.341	8199
805.483	8320
805.626	8221
805.768	8157
805.91	8145
806.052	8267
806.194	8069
806.336	8259
806.478	8142
806.62	8039
806.762	8084
806.904	8317
807.046	8526
807.188	8404
807.33	8347
807.472	8343
807.614	8119
807.756	8161
807.898	7989
808.04	7868
808.182	7894
808.324	7871
808.465	7883
808.607	8046
808.749	8100
808.891	8214
809.033	8320
809.174	8195
809.316	8111
809.458	8012
809.6	7967
809.741	8088
809.883	8027
810.025	8119
810.166	8096
810.308	8016
810.45	7944
810.591	7879
810.733	7738
810.875	7719
811.016	7480
811.158	7468
811.299	7590
811.441	7666
811.582	7674
811.724	7575
811.865	7548
812.007	7518
812.148	7597
812.29	7605
812.431	7723
812.573	7902
812.714	7944
812.855	8096
812.997	8233
813.138	8301
813.279	8130
813.421	8008
813.562	7936
813.703	7864
813.845	7715
813.986	7445
814.127	7221
814.268	7217
814.41	7202
814.551	7206
814.692	7225
814.833	7103
814.974	7122
815.115	7141
815.256	6958
815.397	6935
815.539	6977
815.68	6783
815.821	6768
815.962	6894
816.103	6837
816.244	6673
816.385	6631
816.526	6623
816.666	6528
816.807	6327
816.948	6475
817.089	6498
817.23	6437
817.371	6395
817.512	6391
817.653	6445
817.793	6338
817.934	6380
818.075	6456
818.216	6376
818.356	6422
818.497	6308
818.638	6205
818.778	6201
818.919	6117
819.06	6133
819.2	6338
819.341	6285
819.481	6350
819.622	6612
819.762	6730
819.903	6749
820.043	6604
820.184	6597
820.324	6578
820.465	6738
820.605	6688
820.746	6642
820.886	6509
821.026	6623
821.167	6764
821.307	6810
821.447	6791
821.588	6688
821.728	6574
821.868	6475
822.008	6350
822.149	6372
822.289	6331
822.429	6175
822.569	6083
822.709	6125
822.849	5908
822.99	5859
823.13	5920
823.27	5904
823.41	5828
823.55	5748
823.69	5752
823.83	5824
823.97	5691
824.11	5505
824.25	5497
824.389	5581
824.529	5570
824.669	5516
824.809	5649
824.949	5665
825.089	5615
825.228	5543
825.368	5357
825.508	5357
825.648	5341
825.787	5383
825.927	5417
826.067	5280
826.206	5273
826.346	5360
826.485	5406
826.625	5417
826.765	5604
826.904	5490
827.044	5273
827.183	5246
827.323	5178
827.462	5246
827.601	5151
827.741	5197
827.88	5239
828.02	5121
828.159	5273
828.298	5288
828.437	5334
828.577	5288
828.716	5448
828.855	5265
828.994	5208
829.134	5124
829.273	5197
829.412	5105
829.551	5155
829.69	5102
829.829	5239
829.968	5402
830.107	5280
830.246	5273
830.385	5178
830.524	5181
830.663	5052
830.802	4999
830.941	4854
831.08	4866
831.219	4972
831.357	4942
831.496	5128
831.635	4938
831.774	4873
831.913	4885
832.051	4683
832.19	4774
832.329	4870
832.467	4717
832.606	4615
832.744	4717
832.883	4717
833.022	4702
833.16	4809
833.299	4831
833.437	4816
833.576	4805
833.714	4839
833.852	4824
833.991	4904
834.129	4915
834.267	5006
834.406	4873
834.544	4980
834.682	4968
834.821	4987
834.959	5216
835.097	4953
835.235	5185
835.373	5056
835.511	5060
835.65	5029
835.788	5014
835.926	4892
836.064	4892
836.202	4892
836.34	5204
836.478	5216
836.615	5147
836.753	5201
836.891	5280
837.029	5269
837.167	5174
837.305	5197
837.443	5147
837.58	5090
837.718	5303
837.856	5223
837.993	5174
838.131	5246
838.269	5166
838.406	5201
838.544	5170
838.681	5041
838.819	4980
838.956	4889
839.094	4896
839.231	4965
839.369	5060
839.506	5433
839.643	5326
839.781	5090
839.918	5003
840.055	5102
840.193	5155
840.33	5117
840.467	5124
840.604	5136
840.742	5459
840.879	5090
841.016	5109
841.153	5159
841.29	5417
841.427	5307
841.564	5349
841.701	5372
841.838	5246
841.975	5246
842.112	5273
842.249	5166
842.385	5105
842.522	5337
842.659	5140
842.796	5166
842.933	5227
843.069	5140
843.206	5132
843.343	5299
843.479	5296
843.616	5235
843.752	5006
843.889	5029
844.025	5208
844.162	4980
844.298	5220
844.435	5075
844.571	5045
844.708	5185
844.844	5288
844.98	5345
845.117	5280
845.253	5143
845.389	5071
845.525	5185
845.661	5193
845.798	5079
845.934	5109
846.07	5056
846.206	5220
846.342	5326
846.478	5193
846.614	5010
846.75	4953
846.886	4904
847.022	5185
847.158	5010
847.294	5124
847.429	5143
847.565	5064
847.701	5368
847.837	4839
847.972	4831
848.108	4976
848.244	4927
848.379	4801
848.515	4740
848.65	4752
848.786	4767
848.921	4774
849.057	4809
849.192	4873
849.328	4847
849.463	4809
849.598	4736
849.734	4790
849.869	4649
850.004	4626
850.14	4691
850.275	4580
850.41	4497
850.545	4535
850.68	4630
850.815	4645
850.95	4599
851.085	4850
851.22	4763
851.355	4672
851.49	4641
851.625	4637
851.76	4653
851.895	4558
852.03	4569
852.165	4611
852.299	4740
852.434	4809
852.569	4748
852.703	4767
852.838	4870
852.973	4934
853.107	4908
853.242	4706
853.376	4687
853.511	4512
853.645	4607
853.78	4809
853.914	4721
854.048	4607
854.183	4653
854.317	4755
854.451	4850
854.585	4668
854.72	4649
854.854	4740
854.988	4588
855.122	4630
855.256	4577
855.39	4664
855.524	4736
855.658	4683
855.792	4698
855.926	4687
856.06	4759
856.194	4763
856.327	4660
856.461	4599
856.595	4565
856.729	4626
856.862	4725
856.996	4714
857.13	4748
857.263	4729
857.397	4801
857.53	4660
857.664	4691
857.797	4717
857.931	4793
858.064	4736
858.197	4717
858.331	4615
858.464	4615
858.597	4558
858.731	4675
858.864	4641
858.997	4592
859.13	4645
859.263	4656
859.396	4675
859.529	4615
859.662	4535
859.795	4523
859.928	4607
860.061	4771
860.194	4755
860.327	4580
860.46	4542
860.592	4733
860.725	4721
860.858	4717
860.99	4550
861.123	4531
861.256	4527
861.388	4641
861.521	5181
861.653	4489
861.786	4443
861.918	4447
862.05	4508
862.183	4596
862.315	4599
862.447	4656
862.58	4542
862.712	4367
862.844	4310
862.976	4489
863.108	4413
863.24	4858
863.372	4356
863.504	4428
863.636	4356
863.768	4504
863.9	4417
864.032	4356
864.164	4417
864.296	4443
864.428	4546
864.559	4615
864.691	4573
864.823	4504
864.954	4478
865.086	4512
865.217	4500
865.349	4443
865.48	4440
865.612	4527
865.743	4611
865.875	4470
866.006	4417
866.137	4474
866.269	4455
866.4	4390
866.531	4421
866.662	4363
866.793	4417
866.924	4428
867.055	4481
867.186	4394
867.317	4413
867.448	4390
867.579	4383
867.71	4375
867.841	4341
867.972	4523
868.103	4474
868.233	4459
868.364	4405
868.495	4478
868.625	4668
868.756	4740
868.886	4554
869.017	4645
869.147	4812
869.278	4786
869.408	4668
869.539	4660
869.669	4706
869.799	4656
869.929	4782
870.06	4702
870.19	4923
870.32	4908
870.45	4938
870.58	4991
870.71	5128
870.84	5064
870.97	4953
871.1	4896
871.23	5143
871.36	5140
871.489	5006
871.619	5060
871.749	5090
871.879	5128
872.008	5227
872.138	5052
872.267	4942
872.397	4870
872.526	4790
872.656	4733
872.785	4824
872.915	4987
873.044	5056
873.173	4930
873.303	4995
873.432	4942
873.561	5010
873.69	4919
873.819	4915
873.948	4934
874.077	4809
874.206	4736
874.335	4816
874.464	4904
874.593	5052
874.722	4949
874.851	5075
874.979	5056
875.108	5033
875.237	4927
875.365	4889
875.494	4839
875.623	4949
875.751	4805
875.88	4862
876.008	4976
876.136	5079
876.265	5185
876.393	5345
876.521	5208
876.65	5242
876.778	5174
876.906	5105
877.034	5014
877.162	5037
877.29	5014
877.418	5102
877.546	5064
877.674	5010
877.802	5025
877.93	5022
878.058	4934
878.185	4881
878.313	4968
878.441	4946
878.568	4801
878.696	4835
878.824	4984
878.951	5025
879.079	5102
879.206	5277
879.333	5147
879.461	4984
879.588	4987
879.715	5117
879.842	5254
879.97	5006
880.097	4740
880.224	4740
880.351	4759
880.478	4812
880.605	4736
880.732	4812
880.859	5071
880.986	4927
881.112	4862
881.239	4816
881.366	4626
881.493	4607
881.619	4542
881.746	4679
881.872	4637
881.999	4679
882.125	4687
882.252	4816
882.378	4778
882.505	4980
882.631	4778
882.757	4653
882.883	4736
883.01	4721
883.136	4717
883.262	4596
883.388	4641
883.514	4816
883.64	4820
883.766	4820
883.892	4694
884.018	4721
884.143	4892
884.269	4999
884.395	4664
884.52	4615
884.646	4656
884.772	4596
884.897	4580
885.023	4675
885.148	4809
885.274	4862
885.399	4767
885.524	4767
885.65	4771
885.775	4755
885.9	4679
886.025	4824
886.15	4767
886.275	4679
886.4	4668
886.525	4767
886.65	4740
886.775	4679
886.9	4896
887.025	5071
887.149	4809
887.274	4660
887.399	4607
887.523	4603
887.648	4596
887.773	4546
887.897	4763
888.021	4763
888.146	4656
888.27	4839
888.395	4816
888.519	4771
888.643	4793
888.767	4820
888.891	4740
889.015	4656
889.139	4656
889.263	4592
889.387	4759
889.511	4892
889.635	4797
889.759	4641
889.883	4622
890.006	4736
890.13	4839
890.254	4656
890.377	4683
890.501	4504
890.624	4531
890.748	4611
890.871	4523
890.995	4436
891.118	4383
891.241	4481
891.364	4527
891.488	4630
891.611	4519
891.734	4531
891.857	4588
891.98	4550
892.103	4664
892.226	4550
892.349	4516
892.471	4481
892.594	4565
892.717	4607
892.839	4577
892.962	4592
893.085	4694
893.207	4569
893.33	4466
893.452	4455
893.575	4649
893.697	4569
893.819	4778
893.941	4820
894.064	4714
894.186	4558
894.308	4550
894.43	4710
894.552	4820
894.674	4740
894.796	4523
894.918	4561
895.04	4596
895.161	4714
895.283	4664
895.405	4561
895.526	4596
895.648	4687
895.769	4656
895.891	4725
896.012	4759
896.134	4805
896.255	4668
896.376	4660
896.498	4573
896.619	4664
896.74	4599
896.861	4660
896.982	4900
897.103	5102
897.224	4801
897.345	4733
897.466	4653
897.587	4717
897.708	4858
897.828	4786
897.949	4672
898.07	4592
898.19	4653
898.311	4824
898.431	4656
898.552	4759
898.672	4809
898.792	4816
898.913	4729
899.033	4630
899.153	4523
899.273	4443
899.393	4512
899.513	4538
899.633	4558
899.753	4504
899.873	4504
899.993	4577
900.113	4474
900.232	4558
900.352	4519
900.472	4474
900.591	4402
900.711	4493
900.83	4428
900.95	4645
901.069	4664
901.189	4538
901.308	4421
901.427	4356
901.546	4363
901.665	4466
901.784	4474
901.904	4402
902.023	4287
902.141	4230
902.26	4215
902.379	4322
902.498	4223
902.617	4246
902.735	4371
902.854	4428
902.973	4329
903.091	4234
903.21	4223
903.328	4325
903.446	4291
903.565	4230
903.683	4329
903.801	4246
903.919	4383
904.038	4428
904.156	4348
904.274	4451
904.392	4386
904.51	4428
904.627	4478
904.745	4558
904.863	4611
904.981	4432
905.098	4299
905.216	4276
905.334	4432
905.451	4440
905.569	4440
905.686	4561
905.803	4561
905.921	4428
906.038	4554
906.155	4436
906.272	4386
906.389	4447
906.506	4333
906.623	4375
906.74	4417
906.857	4322
906.974	4367
907.091	4569
907.208	4714
907.324	4599
907.441	4500
907.557	4341
907.674	4341
907.79	4303
907.907	4402
908.023	4459
908.139	4516
908.256	4436
908.372	4417
908.488	4447
908.604	4360
908.72	4341
908.836	4371
908.952	4386
909.068	4436
909.184	4531
909.3	4447
909.415	4584
909.531	4550
909.647	4325
909.762	4344
909.878	4291
909.993	4443
910.108	4432
910.224	4394
910.339	4474
910.454	4485
910.57	4337
910.685	4291
910.8	4668
910.915	4618
911.03	4497
911.145	4337
911.259	4299
911.374	4352
911.489	4276
911.604	4291
911.718	4135
911.833	4192
911.947	4139
912.062	4029
912.176	4268
912.291	4238
912.405	4280
912.519	4500
912.633	4516
912.748	4409
912.862	4329
912.976	4227
913.09	4067
913.204	4181
913.318	4207
913.431	4375
913.545	4329
913.659	4466
913.772	4375
913.886	4230
914	4204
914.113	4325
914.226	4451
914.34	4375
914.453	4249
914.566	4428
914.68	4322
914.793	4360
914.906	4120
915.019	4109
915.132	4105
915.245	4166
915.358	4219
915.47	4200
915.583	4261
915.696	4295
915.809	4379
915.921	4402
916.034	4287
916.146	4204
916.259	4234
916.371	4409
916.483	4394
916.595	4287
916.708	4299
916.82	4310
916.932	4329
917.044	4352
917.156	4333
917.268	4230
917.38	4276
917.491	4272
917.603	4329
917.715	4443
917.826	4459
917.938	4379
918.049	4188
918.161	4402
918.272	4558
918.384	4508
918.495	4481
918.606	4295
918.717	4196
918.828	4306
918.939	4375
919.05	4253
919.161	4299
919.272	4135
919.383	4257
919.494	4447
919.604	4664
919.715	4432
919.826	4371
919.936	4383
920.047	4512
920.157	4497
920.267	4645
920.378	4558
920.488	4493
920.598	4710
920.708	4911
920.818	4759
920.928	4793
921.038	4923
921.148	4877
921.258	4656
921.368	4565
921.477	4500
921.587	4481
921.697	4363
921.806	4512
921.916	4447
922.025	4234
922.134	4265
922.244	4192
922.353	4310
922.462	4166
922.571	4147
922.68	3968
922.789	4010
922.898	3998
923.007	3998
923.116	4116
923.224	4040
923.333	4051
923.442	3968
923.55	3983
923.659	4048
923.767	4105
923.876	3975
923.984	4105
924.092	3975
924.201	4067
924.309	4059
924.417	4124
924.525	4032
924.633	4116
924.741	5025
924.849	3884
924.956	4139
925.064	3975
925.172	3892
925.279	3960
925.387	4055
925.494	4067
925.602	4215
925.709	4166
925.816	4017
925.924	4124
926.031	4249
926.138	4188
926.245	4257
926.352	4063
926.459	4265
926.566	4306
926.673	4181
926.779	4101
926.886	4078
926.993	3964
927.099	3953
927.206	3911
927.312	3949
927.419	4013
927.525	3991
927.631	4101
927.737	3975
927.843	3884
927.95	3827
928.056	3911
928.162	3975
928.267	4055
928.373	4668
928.479	4101
928.585	3892
928.69	4006
928.796	4055
928.901	3994
929.007	3869
929.112	4002
929.218	3994
929.323	3903
929.428	3918
929.533	4120
929.638	3953
929.743	3960
929.848	4051
929.953	3991
930.058	3907
930.163	3812
930.267	3831
930.372	3964
930.477	3823
930.581	4090
930.685	3972
930.79	3884
930.894	3880
930.998	3838
931.103	4067
931.207	3732
931.311	3682
931.415	3694
931.519	3515
931.623	3515
