Data from test_V78500241_1718.txt Node
Date: Fri Mar 25 17:00:56 CST 2022
User: usil
Spectrometer: V785-0024
Trigger mode: 0
Integration Time (sec): 4.000000E-1
Scans to average: 1
Nonlinearity correction enabled: false
Boxcar width: 0
Storing dark spectrum: false
XAxis mode: Wavelengths
Number of Pixels in Spectrum: 1024
>>>>>Begin Spectral Data<<<<<
801.071	7997
801.214	8065
801.356	7879
801.499	7906
801.641	7898
801.783	7750
801.926	7913
802.068	7932
802.211	7951
802.353	8005
802.496	7925
802.638	7902
802.78	7856
802.923	7963
803.065	7860
803.208	7849
803.35	8039
803.492	8016
803.635	8180
803.777	7986
803.919	8149
804.061	8457
804.204	8187
804.346	8084
804.488	7967
804.63	8119
804.773	8081
804.915	8107
805.057	8351
805.199	8157
805.341	8202
805.483	8298
805.626	8206
805.768	8119
805.91	8161
806.052	8240
806.194	8161
806.336	8267
806.478	8119
806.62	8092
806.762	8183
806.904	8320
807.046	8495
807.188	8381
807.33	8355
807.472	8332
807.614	8187
807.756	8103
807.898	7959
808.04	7940
808.182	7879
808.324	7860
808.465	7986
808.607	8024
808.749	8092
808.891	8191
809.033	8320
809.174	8164
809.316	8073
809.458	8039
809.6	7967
809.741	8035
809.883	8081
810.025	8054
810.166	8115
810.308	8039
810.45	8016
810.591	7860
810.733	7742
810.875	7624
811.016	7510
811.158	7502
811.299	7559
811.441	7647
811.582	7693
811.724	7571
811.865	7491
812.007	7586
812.148	7586
812.29	7609
812.431	7734
812.573	7841
812.714	8016
812.855	8176
812.997	8161
813.138	8313
813.279	8176
813.421	8062
813.562	7982
813.703	7814
813.845	7795
813.986	7441
814.127	7251
814.268	7206
814.41	7259
814.551	7232
814.692	7156
814.833	7187
814.974	7099
815.115	7095
815.256	6920
815.397	6947
815.539	6875
815.68	6852
815.821	6772
815.962	6928
816.103	6741
816.244	6650
816.385	6589
816.526	6639
816.666	6490
816.807	6319
816.948	6403
817.089	6547
817.23	6410
817.371	6403
817.512	6342
817.653	6285
817.793	6357
817.934	6346
818.075	6486
818.216	6407
818.356	6441
818.497	6266
818.638	6163
818.778	6171
818.919	6117
819.06	6178
819.2	6277
819.341	6273
819.481	6361
819.622	6517
819.762	6738
819.903	6662
820.043	6582
820.184	6494
820.324	6604
820.465	6726
820.605	6665
820.746	6673
820.886	6509
821.026	6616
821.167	6658
821.307	6840
821.447	6772
821.588	6669
821.728	6578
821.868	6490
822.008	6407
822.149	6361
822.289	6357
822.429	6159
822.569	6083
822.709	6102
822.849	5931
822.99	5889
823.13	5901
823.27	5855
823.41	5813
823.55	5794
823.69	5756
823.83	5775
823.97	5672
824.11	5570
824.25	5501
824.389	5566
824.529	5592
824.669	5532
824.809	5600
824.949	5646
825.089	5604
825.228	5585
825.368	5372
825.508	5372
825.648	5307
825.787	5448
825.927	5360
826.067	5288
826.206	5299
826.346	5330
826.485	5425
826.625	5425
826.765	5535
826.904	5501
827.044	5258
827.183	5258
827.323	5136
827.462	5254
827.601	5128
827.741	5189
827.88	5185
828.02	5124
828.159	5220
828.298	5292
828.437	5387
828.577	5265
828.716	5436
828.855	5296
828.994	5159
829.134	5140
829.273	5204
829.412	5086
829.551	5132
829.69	5159
829.829	5212
829.968	5406
830.107	5258
830.246	5269
830.385	5223
830.524	5113
830.663	5079
830.802	4999
830.941	4911
831.08	4847
831.219	4995
831.357	5010
831.496	5109
831.635	4942
831.774	4877
831.913	4870
832.051	4736
832.19	4736
832.329	4850
832.467	4694
832.606	4630
832.744	4691
832.883	4721
833.022	4698
833.16	4729
833.299	4816
833.437	4831
833.576	4809
833.714	4790
833.852	4854
833.991	4889
834.129	4919
834.267	4942
834.406	4892
834.544	5018
834.682	4915
834.821	4976
834.959	5083
835.097	5033
835.235	5159
835.373	5086
835.511	5105
835.65	5045
835.788	5014
835.926	4877
836.064	4934
836.202	4908
836.34	5105
836.478	5204
836.615	5128
836.753	5250
836.891	5269
837.029	5220
837.167	5193
837.305	5170
837.443	5105
837.58	5079
837.718	5258
837.856	5193
837.993	5140
838.131	5227
838.269	5174
838.406	5216
838.544	5223
838.681	5045
838.819	4987
838.956	4877
839.094	4900
839.231	4946
839.369	5052
839.506	5414
839.643	5250
839.781	5075
839.918	4991
840.055	5113
840.193	5090
840.33	5113
840.467	5121
840.604	5170
840.742	5383
840.879	5086
841.016	5098
841.153	5147
841.29	5349
841.427	5326
841.564	5280
841.701	5372
841.838	5250
841.975	5216
842.112	5269
842.249	5147
842.385	5117
842.522	5349
842.659	5166
842.796	5117
842.933	5147
843.069	5132
843.206	5121
843.343	5284
843.479	5220
843.616	5277
843.752	4968
843.889	4995
844.025	5212
844.162	5025
844.298	5189
844.435	5033
844.571	5056
844.708	5178
844.844	5265
844.98	5345
845.117	5258
845.253	5189
845.389	5041
845.525	5151
845.661	5174
845.798	5033
845.934	5178
846.07	5067
846.206	5181
846.342	5258
846.478	5162
846.614	5003
846.75	4987
846.886	4942
847.022	5117
847.158	5018
847.294	5037
847.429	5098
847.565	5022
847.701	5330
847.837	4889
847.972	4790
848.108	4900
848.244	4919
848.379	4767
848.515	4752
848.65	4729
848.786	4733
848.921	4748
849.057	4831
849.192	4908
849.328	4812
849.463	4812
849.598	4774
849.734	4733
849.869	4691
850.004	4637
850.14	4672
850.275	4588
850.41	4546
850.545	4558
850.68	4580
850.815	4611
850.95	4615
851.085	4797
851.22	4755
851.355	4660
851.49	4618
851.625	4656
851.76	4588
851.895	4561
852.03	4577
852.165	4637
852.299	4729
852.434	4755
852.569	4744
852.703	4790
852.838	4828
852.973	4904
853.107	4877
853.242	4714
853.376	4664
853.511	4577
853.645	4592
853.78	4752
853.914	4687
854.048	4634
854.183	4645
854.317	4698
854.451	4790
854.585	4653
854.72	4645
854.854	4767
854.988	4599
855.122	4672
855.256	4519
855.39	4660
855.524	4790
855.658	4706
855.792	4698
855.926	4748
856.06	4725
856.194	4763
856.327	4706
856.461	4622
856.595	4615
856.729	4611
856.862	4778
856.996	4679
857.13	4748
857.263	4782
857.397	4812
857.53	4668
857.664	4702
857.797	4736
857.931	4748
858.064	4675
858.197	4668
858.331	4656
858.464	4592
858.597	4550
858.731	4603
858.864	4596
858.997	4596
859.13	4664
859.263	4622
859.396	4714
859.529	4569
859.662	4580
859.795	4527
859.928	4622
860.061	4740
860.194	4706
860.327	4626
860.46	4584
860.592	4717
860.725	4702
860.858	4721
860.99	4558
861.123	4504
861.256	4485
861.388	4637
861.521	5223
861.653	4455
861.786	4459
861.918	4413
862.05	4485
862.183	4535
862.315	4584
862.447	4694
862.58	4519
862.712	4413
862.844	4276
862.976	4519
863.108	4440
863.24	4881
863.372	4325
863.504	4421
863.636	4402
863.768	4535
863.9	4383
864.032	4333
864.164	4413
864.296	4409
864.428	4550
864.559	4535
864.691	4542
864.823	4500
864.954	4455
865.086	4478
865.217	4466
865.349	4417
865.48	4440
865.612	4508
865.743	4649
865.875	4455
866.006	4436
866.137	4455
866.269	4474
866.4	4436
866.531	4443
866.662	4421
866.793	4390
866.924	4451
867.055	4508
867.186	4459
867.317	4405
867.448	4322
867.579	4417
867.71	4409
867.841	4356
867.972	4451
868.103	4428
868.233	4455
868.364	4455
868.495	4474
868.625	4611
868.756	4752
868.886	4538
869.017	4618
869.147	4805
869.278	4717
869.408	4660
869.539	4656
869.669	4721
869.799	4664
869.929	4729
870.06	4706
870.19	4976
870.32	4889
870.45	4927
870.58	5014
870.71	5109
870.84	5018
870.97	4942
871.1	4843
871.23	5124
871.36	5121
871.489	5064
871.619	5041
871.749	5121
871.879	5071
872.008	5143
872.138	5041
872.267	5029
872.397	4828
872.526	4835
872.656	4714
872.785	4820
872.915	4915
873.044	4965
873.173	4919
873.303	4976
873.432	4889
873.561	4953
873.69	4919
873.819	4885
873.948	4908
874.077	4881
874.206	4736
874.335	4763
874.464	4904
874.593	5048
874.722	4953
874.851	5102
874.979	5003
875.108	5018
875.237	4911
875.365	4900
875.494	4900
875.623	4965
875.751	4809
875.88	4835
876.008	4938
876.136	5067
876.265	5208
876.393	5258
876.521	5235
876.65	5227
876.778	5189
876.906	5083
877.034	5029
877.162	5037
877.29	4976
877.418	5045
877.546	5064
877.674	5052
877.802	5025
877.93	4980
878.058	4942
878.185	4892
878.313	4942
878.441	4957
878.568	4793
878.696	4911
878.824	4984
878.951	5014
879.079	5136
879.206	5292
879.333	5086
879.461	4984
879.588	4927
879.715	5117
879.842	5231
879.97	4995
880.097	4809
880.224	4752
880.351	4793
880.478	4797
880.605	4809
880.732	4847
880.859	5048
880.986	4866
881.112	4946
881.239	4763
881.366	4672
881.493	4645
881.619	4611
881.746	4634
881.872	4672
881.999	4653
882.125	4672
882.252	4755
882.378	4824
882.505	4961
882.631	4790
882.757	4683
882.883	4694
883.01	4714
883.136	4664
883.262	4641
883.388	4641
883.514	4782
883.64	4828
883.766	4755
883.892	4668
884.018	4714
884.143	4889
884.269	5014
884.395	4653
884.52	4634
884.646	4736
884.772	4584
884.897	4546
885.023	4656
885.148	4786
885.274	4843
885.399	4805
885.524	4721
885.65	4687
885.775	4698
885.9	4714
886.025	4847
886.15	4744
886.275	4694
886.4	4675
886.525	4649
886.65	4630
886.775	4656
886.9	4946
887.025	5048
887.149	4850
887.274	4630
887.399	4546
887.523	4618
887.648	4569
887.773	4607
887.897	4755
888.021	4744
888.146	4672
888.27	4778
888.395	4965
888.519	4786
888.643	4778
888.767	4790
888.891	4702
889.015	4561
889.139	4615
889.263	4615
889.387	4752
889.511	4900
889.635	4820
889.759	4649
889.883	4656
890.006	4721
890.13	4801
890.254	4599
890.377	4672
890.501	4565
890.624	4516
890.748	4611
890.871	4523
890.995	4440
891.118	4371
891.241	4538
891.364	4542
891.488	4653
891.611	4554
891.734	4550
891.857	4580
891.98	4493
892.103	4618
892.226	4588
892.349	4519
892.471	4436
892.594	4561
892.717	4584
892.839	4580
892.962	4588
893.085	4679
893.207	4550
893.33	4443
893.452	4508
893.575	4668
893.697	4588
893.819	4816
893.941	4805
894.064	4790
894.186	4584
894.308	4565
894.43	4717
894.552	4816
894.674	4778
894.796	4569
894.918	4550
895.04	4554
895.161	4691
895.283	4634
895.405	4596
895.526	4649
895.648	4641
895.769	4668
895.891	4706
896.012	4736
896.134	4717
896.255	4672
896.376	4649
896.498	4592
896.619	4672
896.74	4615
896.861	4641
896.982	4923
897.103	5029
897.224	4786
897.345	4710
897.466	4664
897.587	4714
897.708	4782
897.828	4744
897.949	4664
898.07	4538
898.19	4618
898.311	4828
898.431	4687
898.552	4771
898.672	4801
898.792	4786
898.913	4687
899.033	4577
899.153	4516
899.273	4455
899.393	4493
899.513	4481
899.633	4500
899.753	4508
899.873	4512
899.993	4561
900.113	4569
900.232	4561
900.352	4550
900.472	4436
900.591	4432
900.711	4443
900.83	4466
900.95	4603
901.069	4679
901.189	4599
901.308	4299
901.427	4386
901.546	4287
901.665	4489
901.784	4493
901.904	4436
902.023	4310
902.141	4215
902.26	4120
902.379	4253
902.498	4230
902.617	4215
902.735	4409
902.854	4386
902.973	4390
903.091	4223
903.21	4215
903.328	4287
903.446	4265
903.565	4234
903.683	4363
903.801	4299
903.919	4405
904.038	4428
904.156	4322
904.274	4424
904.392	4383
904.51	4402
904.627	4443
904.745	4577
904.863	4596
904.981	4413
905.098	4318
905.216	4390
905.334	4417
905.451	4413
905.569	4428
905.686	4527
905.803	4588
905.921	4421
906.038	4558
906.155	4440
906.272	4386
906.389	4436
906.506	4314
906.623	4375
906.74	4371
906.857	4318
906.974	4348
907.091	4531
907.208	4641
907.324	4565
907.441	4565
907.557	4310
907.674	4344
907.79	4333
907.907	4383
908.023	4485
908.139	4489
908.256	4447
908.372	4470
908.488	4466
908.604	4371
908.72	4295
908.836	4394
908.952	4447
909.068	4398
909.184	4565
909.3	4481
909.415	4584
909.531	4535
909.647	4367
909.762	4367
909.878	4356
909.993	4421
910.108	4394
910.224	4402
910.339	4428
910.454	4402
910.57	4341
910.685	4337
910.8	4626
910.915	4592
911.03	4512
911.145	4310
911.259	4303
911.374	4329
911.489	4306
911.604	4291
911.718	4173
911.833	4200
911.947	4082
912.062	4021
912.176	4230
912.291	4246
912.405	4246
912.519	4459
912.633	4516
912.748	4424
912.862	4314
912.976	4238
913.09	4071
913.204	4196
913.318	4234
913.431	4386
913.545	4371
913.659	4466
913.772	4337
913.886	4276
914	4219
914.113	4398
914.226	4462
914.34	4367
914.453	4249
914.566	4428
914.68	4379
914.793	4306
914.906	4181
915.019	4147
915.132	4063
915.245	4181
915.358	4200
915.47	4223
915.583	4249
915.696	4299
915.809	4413
915.921	4421
916.034	4303
916.146	4246
916.259	4200
916.371	4386
916.483	4379
916.595	4219
916.708	4337
916.82	4325
916.932	4303
917.044	4314
917.156	4337
917.268	4246
917.38	4280
917.491	4253
917.603	4360
917.715	4432
917.826	4432
917.938	4363
918.049	4253
918.161	4379
918.272	4531
918.384	4542
918.495	4432
918.606	4284
918.717	4200
918.828	4276
918.939	4371
919.05	4287
919.161	4261
919.272	4131
919.383	4230
919.494	4417
919.604	4664
919.715	4462
919.826	4371
919.936	4394
920.047	4481
920.157	4500
920.267	4729
920.378	4497
920.488	4466
920.598	4710
920.708	4870
920.818	4771
920.928	4740
921.038	4957
921.148	4915
921.258	4577
921.368	4527
921.477	4504
921.587	4493
921.697	4379
921.806	4573
921.916	4459
922.025	4238
922.134	4242
922.244	4253
922.353	4325
922.462	4166
922.571	4166
922.68	4021
922.789	3975
922.898	4029
923.007	4010
923.116	4166
923.224	4067
923.333	4116
923.442	3964
923.55	4002
923.659	4013
923.767	4097
923.876	4010
923.984	4120
924.092	4048
924.201	4086
924.309	4078
924.417	4116
924.525	4074
924.633	4105
924.741	4881
924.849	3873
924.956	4135
925.064	3987
925.172	3896
925.279	3956
925.387	4044
925.494	4002
925.602	4207
925.709	4207
925.816	4040
925.924	4135
926.031	4234
926.138	4181
926.245	4185
926.352	4093
926.459	4268
926.566	4310
926.673	4147
926.779	4067
926.886	4093
926.993	3949
927.099	3945
927.206	3968
927.312	3979
927.419	4040
927.525	4021
927.631	4078
927.737	3998
927.843	3972
927.95	3846
928.056	3892
928.162	3998
928.267	4044
928.373	4660
928.479	4139
928.585	3842
928.69	3991
928.796	4051
928.901	4002
929.007	3850
929.112	4036
929.218	3979
929.323	3922
929.428	3975
929.533	4169
929.638	3888
929.743	3956
929.848	4017
929.953	4044
930.058	3918
930.163	3766
930.267	3819
930.372	4021
930.477	3808
930.581	4074
930.685	3975
930.79	3835
930.894	3918
930.998	3869
931.103	4074
931.207	3762
931.311	3740
931.415	3660
931.519	3504
931.623	3545
