Data from test_V78500241_1502.txt Node
Date: Fri Mar 25 16:59:26 CST 2022
User: usil
Spectrometer: V785-0024
Trigger mode: 0
Integration Time (sec): 4.000000E-1
Scans to average: 1
Nonlinearity correction enabled: false
Boxcar width: 0
Storing dark spectrum: false
XAxis mode: Wavelengths
Number of Pixels in Spectrum: 1024
>>>>>Begin Spectral Data<<<<<
801.071	7993
801.214	8008
801.356	7841
801.499	7845
801.641	7845
801.783	7818
801.926	7944
802.068	7909
802.211	8020
802.353	7982
802.496	7860
802.638	7894
802.78	7944
802.923	7940
803.065	7849
803.208	7864
803.35	7940
803.492	8107
803.635	8119
803.777	8050
803.919	8145
804.061	8465
804.204	8111
804.346	8115
804.488	7928
804.63	8111
804.773	8024
804.915	8119
805.057	8313
805.199	8164
805.341	8161
805.483	8168
805.626	8100
805.768	8069
805.91	8191
806.052	8168
806.194	8123
806.336	8210
806.478	8020
806.62	8081
806.762	8111
806.904	8263
807.046	8457
807.188	8336
807.33	8256
807.472	8324
807.614	8164
807.756	8130
807.898	8024
808.04	7925
808.182	7917
808.324	7944
808.465	7894
808.607	8046
808.749	8092
808.891	8161
809.033	8286
809.174	8221
809.316	8062
809.458	8046
809.6	7993
809.741	8024
809.883	8005
810.025	8092
810.166	8096
810.308	7997
810.45	8035
810.591	7856
810.733	7742
810.875	7639
811.016	7521
811.158	7460
811.299	7586
811.441	7780
811.582	7723
811.724	7651
811.865	7506
812.007	7582
812.148	7552
812.29	7636
812.431	7795
812.573	7894
812.714	7978
812.855	8107
812.997	8134
813.138	8320
813.279	8123
813.421	8050
813.562	7932
813.703	7868
813.845	7753
813.986	7468
814.127	7209
814.268	7187
814.41	7187
814.551	7198
814.692	7263
814.833	7057
814.974	7019
815.115	7179
815.256	7000
815.397	6905
815.539	6958
815.68	6768
815.821	6779
815.962	6882
816.103	6814
816.244	6726
816.385	6585
816.526	6616
816.666	6445
816.807	6277
816.948	6391
817.089	6460
817.23	6403
817.371	6380
817.512	6361
817.653	6407
817.793	6414
817.934	6403
818.075	6506
818.216	6422
818.356	6353
818.497	6205
818.638	6117
818.778	6159
818.919	6136
819.06	6083
819.2	6315
819.341	6311
819.481	6365
819.622	6509
819.762	6692
819.903	6707
820.043	6620
820.184	6559
820.324	6551
820.465	6650
820.605	6673
820.746	6658
820.886	6506
821.026	6639
821.167	6764
821.307	6768
821.447	6753
821.588	6642
821.728	6563
821.868	6525
822.008	6300
822.149	6334
822.289	6308
822.429	6125
822.569	6041
822.709	6129
822.849	5901
822.99	5855
823.13	5889
823.27	5863
823.41	5752
823.55	5737
823.69	5718
823.83	5710
823.97	5630
824.11	5474
824.25	5509
824.389	5551
824.529	5516
824.669	5524
824.809	5672
824.949	5627
825.089	5627
825.228	5535
825.368	5417
825.508	5322
825.648	5341
825.787	5376
825.927	5368
826.067	5265
826.206	5284
826.346	5376
826.485	5383
826.625	5406
826.765	5581
826.904	5421
827.044	5265
827.183	5227
827.323	5166
827.462	5261
827.601	5181
827.741	5151
827.88	5201
828.02	5136
828.159	5242
828.298	5318
828.437	5296
828.577	5288
828.716	5482
828.855	5326
828.994	5170
829.134	5132
829.273	5174
829.412	5102
829.551	5128
829.69	5170
829.829	5223
829.968	5330
830.107	5258
830.246	5239
830.385	5155
830.524	5132
830.663	5037
830.802	4930
830.941	4847
831.08	4889
831.219	4980
831.357	4991
831.496	5143
831.635	4930
831.774	4812
831.913	4797
832.051	4725
832.19	4771
832.329	4843
832.467	4683
832.606	4656
832.744	4691
832.883	4721
833.022	4668
833.16	4778
833.299	4820
833.437	4809
833.576	4763
833.714	4877
833.852	4858
833.991	4881
834.129	4938
834.267	4900
834.406	4908
834.544	4980
834.682	4942
834.821	4972
834.959	5132
835.097	4984
835.235	5109
835.373	5094
835.511	5048
835.65	5018
835.788	5006
835.926	4896
836.064	4896
836.202	4889
836.34	5102
836.478	5181
836.615	5128
836.753	5204
836.891	5288
837.029	5212
837.167	5208
837.305	5174
837.443	5132
837.58	5079
837.718	5273
837.856	5162
837.993	5159
838.131	5212
838.269	5193
838.406	5212
838.544	5193
838.681	5067
838.819	5045
838.956	4900
839.094	4908
839.231	4972
839.369	5071
839.506	5383
839.643	5223
839.781	5048
839.918	5010
840.055	5075
840.193	5075
840.33	5079
840.467	5124
840.604	5166
840.742	5379
840.879	5048
841.016	5067
841.153	5147
841.29	5368
841.427	5383
841.564	5288
841.701	5261
841.838	5250
841.975	5250
842.112	5273
842.249	5075
842.385	5128
842.522	5315
842.659	5166
842.796	5155
842.933	5231
843.069	5166
843.206	5178
843.343	5296
843.479	5166
843.616	5265
843.752	5018
843.889	4965
844.025	5242
844.162	4965
844.298	5212
844.435	5098
844.571	5025
844.708	5117
844.844	5296
844.98	5311
845.117	5315
845.253	5140
845.389	5094
845.525	5143
845.661	5124
845.798	5064
845.934	5113
846.07	5052
846.206	5181
846.342	5227
846.478	5143
846.614	5022
846.75	4961
846.886	4930
847.022	5124
847.158	4984
847.294	5006
847.429	5041
847.565	5079
847.701	5322
847.837	4843
847.972	4809
848.108	5006
848.244	4934
848.379	4786
848.515	4744
848.65	4656
848.786	4744
848.921	4809
849.057	4881
849.192	4873
849.328	4805
849.463	4881
849.598	4744
849.734	4740
849.869	4653
850.004	4622
850.14	4634
850.275	4573
850.41	4489
850.545	4550
850.68	4554
850.815	4653
850.95	4630
851.085	4805
851.22	4717
851.355	4702
851.49	4611
851.625	4687
851.76	4611
851.895	4588
852.03	4531
852.165	4599
852.299	4649
852.434	4744
852.569	4748
852.703	4774
852.838	4885
852.973	4957
853.107	4892
853.242	4729
853.376	4714
853.511	4554
853.645	4637
853.78	4786
853.914	4698
854.048	4714
854.183	4641
854.317	4702
854.451	4843
854.585	4660
854.72	4626
854.854	4691
854.988	4584
855.122	4603
855.256	4519
855.39	4694
855.524	4824
855.658	4679
855.792	4710
855.926	4717
856.06	4736
856.194	4801
856.327	4634
856.461	4603
856.595	4580
856.729	4607
856.862	4733
856.996	4675
857.13	4736
857.263	4748
857.397	4774
857.53	4637
857.664	4721
857.797	4729
857.931	4744
858.064	4653
858.197	4733
858.331	4649
858.464	4584
858.597	4504
858.731	4630
858.864	4645
858.997	4561
859.13	4641
859.263	4675
859.396	4694
859.529	4569
859.662	4565
859.795	4569
859.928	4588
860.061	4771
860.194	4752
860.327	4607
860.46	4603
860.592	4710
860.725	4691
860.858	4714
860.99	4550
861.123	4531
861.256	4504
861.388	4615
861.521	5315
861.653	4466
861.786	4497
861.918	4421
862.05	4497
862.183	4588
862.315	4550
862.447	4691
862.58	4500
862.712	4383
862.844	4306
862.976	4474
863.108	4436
863.24	4755
863.372	4356
863.504	4440
863.636	4398
863.768	4493
863.9	4443
864.032	4318
864.164	4409
864.296	4451
864.428	4538
864.559	4580
864.691	4531
864.823	4580
864.954	4516
865.086	4504
865.217	4451
865.349	4443
865.48	4432
865.612	4451
865.743	4588
865.875	4508
866.006	4455
866.137	4443
866.269	4440
866.4	4405
866.531	4398
866.662	4341
866.793	4375
866.924	4402
867.055	4474
867.186	4462
867.317	4402
867.448	4402
867.579	4398
867.71	4405
867.841	4371
867.972	4440
868.103	4500
868.233	4470
868.364	4481
868.495	4474
868.625	4622
868.756	4767
868.886	4512
869.017	4588
869.147	4733
869.278	4763
869.408	4679
869.539	4596
869.669	4687
869.799	4710
869.929	4755
870.06	4740
870.19	4934
870.32	4904
870.45	4938
870.58	4995
870.71	5117
870.84	5086
870.97	4911
871.1	4911
871.23	5147
871.36	5136
871.489	5025
871.619	5098
871.749	5102
871.879	5102
872.008	5181
872.138	5045
872.267	4961
872.397	4854
872.526	4763
872.656	4664
872.785	4805
872.915	4900
873.044	5006
873.173	4976
873.303	4938
873.432	4953
873.561	4972
873.69	4896
873.819	4850
873.948	4854
874.077	4812
874.206	4748
874.335	4782
874.464	4934
874.593	5094
874.722	4942
874.851	5109
874.979	5041
875.108	5056
875.237	4877
875.365	4889
875.494	4854
875.623	4934
875.751	4831
875.88	4911
876.008	4968
876.136	4991
876.265	5212
876.393	5303
876.521	5189
876.65	5239
876.778	5178
876.906	5079
877.034	5056
877.162	4987
877.29	4999
877.418	5029
877.546	5064
877.674	5006
877.802	4976
877.93	4961
878.058	4957
878.185	4854
878.313	4965
878.441	4934
878.568	4843
878.696	4847
878.824	4980
878.951	4972
879.079	5098
879.206	5269
879.333	5056
879.461	4923
879.588	4976
879.715	5121
879.842	5204
879.97	5025
880.097	4736
880.224	4710
880.351	4771
880.478	4824
880.605	4782
880.732	4820
880.859	5086
880.986	4919
881.112	4870
881.239	4820
881.366	4706
881.493	4626
881.619	4607
881.746	4599
881.872	4672
881.999	4630
882.125	4656
882.252	4774
882.378	4812
882.505	4949
882.631	4771
882.757	4653
882.883	4736
883.01	4694
883.136	4656
883.262	4622
883.388	4596
883.514	4774
883.64	4866
883.766	4809
883.892	4645
884.018	4725
884.143	4870
884.269	5022
884.395	4752
884.52	4634
884.646	4656
884.772	4569
884.897	4573
885.023	4683
885.148	4793
885.274	4835
885.399	4744
885.524	4729
885.65	4698
885.775	4717
885.9	4702
886.025	4797
886.15	4714
886.275	4729
886.4	4637
886.525	4698
886.65	4687
886.775	4687
886.9	4930
887.025	4938
887.149	4778
887.274	4622
887.399	4565
887.523	4584
887.648	4542
887.773	4603
887.897	4725
888.021	4820
888.146	4683
888.27	4801
888.395	4896
888.519	4774
888.643	4790
888.767	4801
888.891	4622
889.015	4535
889.139	4653
889.263	4584
889.387	4759
889.511	4850
889.635	4790
889.759	4653
889.883	4645
890.006	4710
890.13	4831
890.254	4641
890.377	4656
890.501	4546
890.624	4516
890.748	4637
890.871	4478
890.995	4436
891.118	4405
891.241	4531
891.364	4542
891.488	4622
891.611	4519
891.734	4558
891.857	4618
891.98	4538
892.103	4637
892.226	4561
892.349	4550
892.471	4436
892.594	4535
892.717	4554
892.839	4550
892.962	4550
893.085	4653
893.207	4607
893.33	4459
893.452	4500
893.575	4691
893.697	4550
893.819	4733
893.941	4812
894.064	4755
894.186	4588
894.308	4561
894.43	4698
894.552	4809
894.674	4698
894.796	4519
894.918	4577
895.04	4554
895.161	4733
895.283	4649
895.405	4554
895.526	4649
895.648	4653
895.769	4687
895.891	4721
896.012	4755
896.134	4683
896.255	4637
896.376	4630
896.498	4611
896.619	4668
896.74	4679
896.861	4649
896.982	4873
897.103	5075
897.224	4843
897.345	4721
897.466	4664
897.587	4675
897.708	4854
897.828	4828
897.949	4698
898.07	4573
898.19	4641
898.311	4801
898.431	4637
898.552	4725
898.672	4778
898.792	4797
898.913	4740
899.033	4626
899.153	4489
899.273	4459
899.393	4504
899.513	4569
899.633	4527
899.753	4519
899.873	4493
899.993	4596
900.113	4561
900.232	4558
900.352	4519
900.472	4531
900.591	4405
900.711	4500
900.83	4409
900.95	4611
901.069	4702
901.189	4519
901.308	4383
901.427	4310
901.546	4417
901.665	4474
901.784	4512
901.904	4360
902.023	4310
902.141	4169
902.26	4154
902.379	4287
902.498	4230
902.617	4211
902.735	4306
902.854	4314
902.973	4325
903.091	4223
903.21	4253
903.328	4257
903.446	4242
903.565	4268
903.683	4375
903.801	4242
903.919	4421
904.038	4428
904.156	4325
904.274	4409
904.392	4367
904.51	4375
904.627	4500
904.745	4584
904.863	4645
904.981	4383
905.098	4261
905.216	4344
905.334	4428
905.451	4421
905.569	4417
905.686	4569
905.803	4512
905.921	4394
906.038	4573
906.155	4485
906.272	4390
906.389	4459
906.506	4306
906.623	4344
906.74	4409
906.857	4306
906.974	4329
907.091	4504
907.208	4675
907.324	4523
907.441	4481
907.557	4325
907.674	4356
907.79	4291
907.907	4398
908.023	4550
908.139	4497
908.256	4432
908.372	4470
908.488	4447
908.604	4363
908.72	4337
908.836	4333
908.952	4348
909.068	4432
909.184	4565
909.3	4451
909.415	4573
909.531	4531
909.647	4337
909.762	4402
909.878	4375
909.993	4436
910.108	4402
910.224	4428
910.339	4443
910.454	4375
910.57	4348
910.685	4341
910.8	4599
910.915	4626
911.03	4462
911.145	4325
911.259	4318
911.374	4375
911.489	4310
911.604	4261
911.718	4181
911.833	4162
911.947	4067
912.062	4032
912.176	4204
912.291	4204
912.405	4310
912.519	4443
912.633	4508
912.748	4348
912.862	4306
912.976	4230
913.09	4063
913.204	4158
913.318	4230
913.431	4440
913.545	4402
913.659	4432
913.772	4375
913.886	4227
914	4238
914.113	4375
914.226	4432
914.34	4367
914.453	4242
914.566	4409
914.68	4280
914.793	4348
914.906	4143
915.019	4101
915.132	4021
915.245	4169
915.358	4204
915.47	4230
915.583	4276
915.696	4299
915.809	4436
915.921	4428
916.034	4287
916.146	4246
916.259	4196
916.371	4394
916.483	4352
916.595	4223
916.708	4344
916.82	4303
916.932	4306
917.044	4329
917.156	4344
917.268	4230
917.38	4295
917.491	4272
917.603	4337
917.715	4436
917.826	4440
917.938	4356
918.049	4223
918.161	4398
918.272	4546
918.384	4538
918.495	4424
918.606	4253
918.717	4276
918.828	4337
918.939	4356
919.05	4230
919.161	4318
919.272	4150
919.383	4215
919.494	4417
919.604	4672
919.715	4398
919.826	4341
919.936	4390
920.047	4519
920.157	4443
920.267	4698
920.378	4573
920.488	4546
920.598	4668
920.708	4900
920.818	4767
920.928	4744
921.038	4927
921.148	4900
921.258	4611
921.368	4519
921.477	4546
921.587	4459
921.697	4348
921.806	4607
921.916	4386
922.025	4284
922.134	4276
922.244	4242
922.353	4325
922.462	4196
922.571	4101
922.68	3953
922.789	3991
922.898	3994
923.007	3987
923.116	4051
923.224	4067
923.333	4063
923.442	3983
923.55	3994
923.659	3960
923.767	4128
923.876	4017
923.984	4086
924.092	4013
924.201	4055
924.309	4093
924.417	4116
924.525	4090
924.633	4093
924.741	4915
924.849	3903
924.956	4169
925.064	3941
925.172	3888
925.279	3960
925.387	4006
925.494	4059
925.602	4185
925.709	4177
925.816	4025
925.924	4093
926.031	4227
926.138	4154
926.245	4166
926.352	4074
926.459	4268
926.566	4314
926.673	4086
926.779	4116
926.886	4086
926.993	3979
927.099	3934
927.206	3983
927.312	3953
927.419	4051
927.525	4021
927.631	4090
927.737	3941
927.843	3975
927.95	3831
928.056	3949
928.162	3979
928.267	4055
928.373	4618
928.479	4086
928.585	3899
928.69	4029
928.796	4051
928.901	3953
929.007	3861
929.112	3994
929.218	3956
929.323	3937
929.428	3964
929.533	4169
929.638	3934
929.743	3926
929.848	4021
929.953	3991
930.058	3934
930.163	3800
930.267	3838
930.372	3956
930.477	3812
930.581	4109
930.685	3930
930.79	3842
930.894	3865
930.998	3873
931.103	4055
931.207	3762
931.311	3690
931.415	3644
931.519	3519
931.623	3538
