Data from test_V78500241_291.txt Node
Date: Fri Mar 25 16:51:01 CST 2022
User: usil
Spectrometer: V785-0024
Trigger mode: 0
Integration Time (sec): 4.000000E-1
Scans to average: 1
Nonlinearity correction enabled: false
Boxcar width: 0
Storing dark spectrum: false
XAxis mode: Wavelengths
Number of Pixels in Spectrum: 1024
>>>>>Begin Spectral Data<<<<<
801.071	8043
801.214	8039
801.356	7887
801.499	7947
801.641	7883
801.783	7879
801.926	8046
802.068	7947
802.211	7982
802.353	8008
802.496	7849
802.638	7951
802.78	7940
802.923	7993
803.065	7925
803.208	7814
803.35	7986
803.492	8020
803.635	8115
803.777	8043
803.919	8153
804.061	8492
804.204	8195
804.346	8054
804.488	7989
804.63	8138
804.773	8005
804.915	8142
805.057	8244
805.199	8149
805.341	8164
805.483	8233
805.626	8256
805.768	8008
805.91	8191
806.052	8210
806.194	8123
806.336	8237
806.478	8134
806.62	8046
806.762	8172
806.904	8191
807.046	8377
807.188	8404
807.33	8237
807.472	8324
807.614	8199
807.756	8172
807.898	7993
808.04	7849
808.182	7909
808.324	7967
808.465	7963
808.607	8100
808.749	8134
808.891	8187
809.033	8301
809.174	8214
809.316	8073
809.458	8062
809.6	8012
809.741	8020
809.883	8016
810.025	8081
810.166	8058
810.308	7993
810.45	8031
810.591	7925
810.733	7822
810.875	7719
811.016	7552
811.158	7514
811.299	7559
811.441	7712
811.582	7620
811.724	7594
811.865	7578
812.007	7613
812.148	7632
812.29	7693
812.431	7738
812.573	7944
812.714	7989
812.855	8111
812.997	8199
813.138	8275
813.279	8103
813.421	8092
813.562	7978
813.703	7887
813.845	7784
813.986	7502
814.127	7259
814.268	7187
814.41	7270
814.551	7187
814.692	7255
814.833	7137
814.974	7110
815.115	7137
815.256	6951
815.397	6905
815.539	6871
815.68	6776
815.821	6764
815.962	6821
816.103	6840
816.244	6692
816.385	6646
816.526	6623
816.666	6486
816.807	6308
816.948	6479
817.089	6486
817.23	6490
817.371	6384
817.512	6369
817.653	6456
817.793	6338
817.934	6395
818.075	6479
818.216	6467
818.356	6460
818.497	6205
818.638	6095
818.778	6102
818.919	6148
819.06	6159
819.2	6342
819.341	6357
819.481	6350
819.622	6559
819.762	6753
819.903	6692
820.043	6589
820.184	6578
820.324	6540
820.465	6623
820.605	6688
820.746	6612
820.886	6502
821.026	6650
821.167	6700
821.307	6787
821.447	6760
821.588	6639
821.728	6570
821.868	6517
822.008	6327
822.149	6376
822.289	6357
822.429	6136
822.569	6095
822.709	6140
822.849	5958
822.99	5935
823.13	5958
823.27	5870
823.41	5790
823.55	5836
823.69	5771
823.83	5752
823.97	5680
824.11	5570
824.25	5509
824.389	5596
824.529	5600
824.669	5532
824.809	5615
824.949	5684
825.089	5611
825.228	5573
825.368	5429
825.508	5326
825.648	5337
825.787	5433
825.927	5417
826.067	5330
826.206	5292
826.346	5376
826.485	5391
826.625	5417
826.765	5554
826.904	5467
827.044	5269
827.183	5212
827.323	5185
827.462	5201
827.601	5292
827.741	5204
827.88	5223
828.02	5060
828.159	5284
828.298	5288
828.437	5345
828.577	5334
828.716	5482
828.855	5330
828.994	5208
829.134	5140
829.273	5189
829.412	5128
829.551	5159
829.69	5181
829.829	5254
829.968	5326
830.107	5235
830.246	5296
830.385	5208
830.524	5136
830.663	5041
830.802	4892
830.941	4870
831.08	4919
831.219	5018
831.357	4934
831.496	5166
831.635	4938
831.774	4889
831.913	4866
832.051	4759
832.19	4721
832.329	4839
832.467	4698
832.606	4611
832.744	4740
832.883	4702
833.022	4710
833.16	4824
833.299	4870
833.437	4850
833.576	4805
833.714	4877
833.852	4862
833.991	4881
834.129	4968
834.267	4968
834.406	4904
834.544	5018
834.682	5014
834.821	4923
834.959	5147
835.097	5003
835.235	5132
835.373	5086
835.511	5140
835.65	5041
835.788	4976
835.926	4900
836.064	4881
836.202	4908
836.34	5147
836.478	5220
836.615	5102
836.753	5201
836.891	5273
837.029	5220
837.167	5231
837.305	5162
837.443	5124
837.58	5109
837.718	5299
837.856	5178
837.993	5132
838.131	5208
838.269	5216
838.406	5227
838.544	5162
838.681	5037
838.819	5014
838.956	4904
839.094	4923
839.231	4976
839.369	5086
839.506	5414
839.643	5261
839.781	5132
839.918	4987
840.055	5113
840.193	5140
840.33	5124
840.467	5189
840.604	5147
840.742	5436
840.879	5113
841.016	5109
841.153	5174
841.29	5391
841.427	5349
841.564	5315
841.701	5379
841.838	5239
841.975	5201
842.112	5265
842.249	5128
842.385	5109
842.522	5303
842.659	5124
842.796	5159
842.933	5220
843.069	5102
843.206	5193
843.343	5311
843.479	5288
843.616	5280
843.752	5067
843.889	5022
844.025	5212
844.162	5014
844.298	5201
844.435	5075
844.571	5048
844.708	5197
844.844	5326
844.98	5330
845.117	5337
845.253	5132
845.389	5086
845.525	5159
845.661	5094
845.798	5067
845.934	5109
846.07	5075
846.206	5193
846.342	5349
846.478	5201
846.614	5018
846.75	4957
846.886	4900
847.022	5102
847.158	5029
847.294	5083
847.429	5067
847.565	5029
847.701	5349
847.837	4866
847.972	4797
848.108	4934
848.244	4938
848.379	4782
848.515	4714
848.65	4740
848.786	4759
848.921	4767
849.057	4858
849.192	4866
849.328	4812
849.463	4793
849.598	4805
849.734	4778
849.869	4702
850.004	4653
850.14	4637
850.275	4611
850.41	4508
850.545	4561
850.68	4615
850.815	4618
850.95	4637
851.085	4847
851.22	4793
851.355	4714
851.49	4618
851.625	4599
851.76	4683
851.895	4584
852.03	4519
852.165	4672
852.299	4740
852.434	4812
852.569	4771
852.703	4805
852.838	4820
852.973	4904
853.107	4854
853.242	4755
853.376	4645
853.511	4542
853.645	4580
853.78	4870
853.914	4687
854.048	4664
854.183	4637
854.317	4702
854.451	4839
854.585	4664
854.72	4653
854.854	4725
854.988	4580
855.122	4668
855.256	4535
855.39	4706
855.524	4809
855.658	4744
855.792	4694
855.926	4755
856.06	4790
856.194	4790
856.327	4687
856.461	4603
856.595	4573
856.729	4641
856.862	4767
856.996	4675
857.13	4759
857.263	4774
857.397	4858
857.53	4672
857.664	4714
857.797	4710
857.931	4797
858.064	4714
858.197	4740
858.331	4672
858.464	4611
858.597	4500
858.731	4653
858.864	4645
858.997	4588
859.13	4637
859.263	4672
859.396	4740
859.529	4611
859.662	4580
859.795	4569
859.928	4653
860.061	4725
860.194	4748
860.327	4607
860.46	4573
860.592	4774
860.725	4668
860.858	4721
860.99	4546
861.123	4519
861.256	4527
861.388	4622
861.521	5337
861.653	4455
861.786	4451
861.918	4459
862.05	4493
862.183	4538
862.315	4607
862.447	4664
862.58	4535
862.712	4402
862.844	4337
862.976	4455
863.108	4440
863.24	4873
863.372	4325
863.504	4363
863.636	4424
863.768	4508
863.9	4459
864.032	4375
864.164	4383
864.296	4470
864.428	4523
864.559	4561
864.691	4470
864.823	4504
864.954	4478
865.086	4500
865.217	4466
865.349	4383
865.48	4455
865.612	4508
865.743	4653
865.875	4466
866.006	4436
866.137	4432
866.269	4455
866.4	4451
866.531	4436
866.662	4394
866.793	4424
866.924	4443
867.055	4455
867.186	4436
867.317	4432
867.448	4341
867.579	4383
867.71	4371
867.841	4367
867.972	4478
868.103	4485
868.233	4390
868.364	4440
868.495	4527
868.625	4649
868.756	4717
868.886	4592
869.017	4611
869.147	4786
869.278	4801
869.408	4630
869.539	4630
869.669	4733
869.799	4664
869.929	4759
870.06	4767
870.19	4957
870.32	4915
870.45	4972
870.58	5045
870.71	5064
870.84	5159
870.97	4965
871.1	4900
871.23	5159
871.36	5102
871.489	5022
871.619	5060
871.749	5083
871.879	5185
872.008	5208
872.138	5079
872.267	5033
872.397	4805
872.526	4786
872.656	4774
872.785	4816
872.915	5003
873.044	4999
873.173	4938
873.303	4968
873.432	4908
873.561	4953
873.69	4923
873.819	4877
873.948	4930
874.077	4870
874.206	4793
874.335	4812
874.464	4923
874.593	5079
874.722	4980
874.851	5098
874.979	5018
875.108	5041
875.237	4858
875.365	4900
875.494	4927
875.623	4957
875.751	4828
875.88	4870
876.008	4961
876.136	5018
876.265	5181
876.393	5303
876.521	5246
876.65	5242
876.778	5117
876.906	5060
877.034	5067
877.162	5071
877.29	4984
877.418	5045
877.546	5014
877.674	5064
877.802	5052
877.93	4984
878.058	4957
878.185	4911
878.313	4957
878.441	4911
878.568	4835
878.696	4885
878.824	4999
878.951	5041
879.079	5117
879.206	5326
879.333	5128
879.461	4984
879.588	5033
879.715	5136
879.842	5197
879.97	5014
880.097	4812
880.224	4729
880.351	4793
880.478	4854
880.605	4793
880.732	4793
880.859	5090
880.986	4877
881.112	4927
881.239	4824
881.366	4672
881.493	4622
881.619	4558
881.746	4649
881.872	4672
881.999	4668
882.125	4714
882.252	4767
882.378	4843
882.505	4987
882.631	4839
882.757	4691
882.883	4736
883.01	4748
883.136	4694
883.262	4622
883.388	4603
883.514	4839
883.64	4873
883.766	4809
883.892	4694
884.018	4694
884.143	4904
884.269	5029
884.395	4656
884.52	4592
884.646	4653
884.772	4588
884.897	4588
885.023	4641
885.148	4767
885.274	4915
885.399	4805
885.524	4683
885.65	4721
885.775	4725
885.9	4721
886.025	4904
886.15	4797
886.275	4733
886.4	4653
886.525	4763
886.65	4698
886.775	4653
886.9	4904
887.025	5045
887.149	4835
887.274	4660
887.399	4618
887.523	4592
887.648	4554
887.773	4588
887.897	4771
888.021	4793
888.146	4687
888.27	4816
888.395	4881
888.519	4820
888.643	4809
888.767	4809
888.891	4706
889.015	4599
889.139	4645
889.263	4615
889.387	4771
889.511	4866
889.635	4820
889.759	4660
889.883	4645
890.006	4736
890.13	4858
890.254	4607
890.377	4687
890.501	4531
890.624	4588
890.748	4645
890.871	4508
890.995	4462
891.118	4371
891.241	4512
891.364	4542
891.488	4679
891.611	4489
891.734	4531
891.857	4622
891.98	4565
892.103	4675
892.226	4573
892.349	4542
892.471	4432
892.594	4535
892.717	4618
892.839	4561
892.962	4630
893.085	4622
893.207	4603
893.33	4508
893.452	4523
893.575	4736
893.697	4550
893.819	4763
893.941	4854
894.064	4748
894.186	4618
894.308	4580
894.43	4790
894.552	4801
894.674	4729
894.796	4561
894.918	4611
895.04	4641
895.161	4763
895.283	4706
895.405	4584
895.526	4615
895.648	4710
895.769	4656
895.891	4721
896.012	4736
896.134	4698
896.255	4641
896.376	4649
896.498	4626
896.619	4710
896.74	4634
896.861	4668
896.982	4984
897.103	5094
897.224	4862
897.345	4755
897.466	4660
897.587	4702
897.708	4889
897.828	4778
897.949	4717
898.07	4561
898.19	4649
898.311	4843
898.431	4691
898.552	4755
898.672	4793
898.792	4805
898.913	4687
899.033	4645
899.153	4478
899.273	4417
899.393	4550
899.513	4519
899.633	4561
899.753	4519
899.873	4500
899.993	4611
900.113	4538
900.232	4622
900.352	4504
900.472	4470
900.591	4402
900.711	4481
900.83	4443
900.95	4596
901.069	4733
901.189	4519
901.308	4356
901.427	4337
901.546	4379
901.665	4474
901.784	4455
901.904	4367
902.023	4322
902.141	4211
902.26	4169
902.379	4303
902.498	4257
902.617	4230
902.735	4371
902.854	4379
902.973	4352
903.091	4261
903.21	4261
903.328	4314
903.446	4246
903.565	4249
903.683	4280
903.801	4291
903.919	4413
904.038	4436
904.156	4280
904.274	4447
904.392	4413
904.51	4436
904.627	4478
904.745	4569
904.863	4660
904.981	4363
905.098	4322
905.216	4375
905.334	4462
905.451	4432
905.569	4428
905.686	4565
905.803	4599
905.921	4447
906.038	4577
906.155	4500
906.272	4413
906.389	4489
906.506	4394
906.623	4432
906.74	4421
906.857	4352
906.974	4322
907.091	4565
907.208	4645
907.324	4626
907.441	4481
907.557	4352
907.674	4314
907.79	4360
907.907	4375
908.023	4466
908.139	4516
908.256	4432
908.372	4440
908.488	4455
908.604	4360
908.72	4367
908.836	4375
908.952	4379
909.068	4497
909.184	4554
909.3	4504
909.415	4615
909.531	4550
909.647	4394
909.762	4413
909.878	4367
909.993	4470
910.108	4421
910.224	4390
910.339	4504
910.454	4417
910.57	4371
910.685	4314
910.8	4664
910.915	4626
911.03	4504
911.145	4337
911.259	4348
911.374	4367
911.489	4261
911.604	4352
911.718	4200
911.833	4192
911.947	4097
912.062	3998
912.176	4204
912.291	4249
912.405	4291
912.519	4459
912.633	4497
912.748	4398
912.862	4325
912.976	4230
913.09	4139
913.204	4181
913.318	4238
913.431	4394
913.545	4363
913.659	4481
913.772	4329
913.886	4291
914	4185
914.113	4424
914.226	4440
914.34	4367
914.453	4227
914.566	4470
914.68	4322
914.793	4379
914.906	4188
915.019	4154
915.132	4082
915.245	4154
915.358	4211
915.47	4265
915.583	4268
915.696	4291
915.809	4424
915.921	4470
916.034	4295
916.146	4207
916.259	4280
916.371	4390
916.483	4363
916.595	4265
916.708	4341
916.82	4333
916.932	4375
917.044	4284
917.156	4314
917.268	4192
917.38	4211
917.491	4291
917.603	4344
917.715	4459
917.826	4421
917.938	4314
918.049	4242
918.161	4405
918.272	4508
918.384	4489
918.495	4443
918.606	4284
918.717	4246
918.828	4348
918.939	4398
919.05	4253
919.161	4333
919.272	4135
919.383	4249
919.494	4474
919.604	4622
919.715	4424
919.826	4375
919.936	4394
920.047	4512
920.157	4440
920.267	4702
920.378	4565
920.488	4535
920.598	4759
920.708	4938
920.818	4824
920.928	4733
921.038	5014
921.148	4927
921.258	4649
921.368	4558
921.477	4504
921.587	4497
921.697	4421
921.806	4531
921.916	4428
922.025	4268
922.134	4303
922.244	4242
922.353	4314
922.462	4185
922.571	4139
922.68	4032
922.789	4017
922.898	4078
923.007	3998
923.116	4116
923.224	4097
923.333	4090
923.442	4059
923.55	3956
923.659	4036
923.767	4086
923.876	3975
923.984	4135
924.092	4002
924.201	4128
924.309	4048
924.417	4116
924.525	4044
924.633	4082
924.741	5037
924.849	3922
924.956	4143
925.064	3968
925.172	3949
925.279	3964
925.387	4078
925.494	4040
925.602	4192
925.709	4162
925.816	4048
925.924	4143
926.031	4280
926.138	4192
926.245	4158
926.352	4109
926.459	4295
926.566	4291
926.673	4128
926.779	4055
926.886	4036
926.993	3968
927.099	3930
927.206	3941
927.312	3903
927.419	4044
927.525	4013
927.631	4105
927.737	3975
927.843	3972
927.95	3812
928.056	3968
928.162	4048
928.267	4059
928.373	4740
928.479	4082
928.585	3896
928.69	4051
928.796	4055
928.901	3922
929.007	3865
929.112	4032
929.218	3994
929.323	3964
929.428	3937
929.533	4112
929.638	3922
929.743	3983
929.848	4048
929.953	3960
930.058	3945
930.163	3800
930.267	3823
930.372	3941
930.477	3819
930.581	4090
930.685	3956
930.79	3778
930.894	3918
930.998	3819
931.103	4017
931.207	3740
931.311	3701
931.415	3644
931.519	3538
931.623	3576
