Data from test_V78500241_2048.txt Node
Date: Fri Mar 25 17:03:14 CST 2022
User: usil
Spectrometer: V785-0024
Trigger mode: 0
Integration Time (sec): 4.000000E-1
Scans to average: 1
Nonlinearity correction enabled: false
Boxcar width: 0
Storing dark spectrum: false
XAxis mode: Wavelengths
Number of Pixels in Spectrum: 1024
>>>>>Begin Spectral Data<<<<<
801.071	8035
801.214	7940
801.356	7765
801.499	7852
801.641	7753
801.783	7925
801.926	7932
802.068	7936
802.211	7936
802.353	8020
802.496	7795
802.638	7849
802.78	7925
802.923	7925
803.065	7921
803.208	7826
803.35	7963
803.492	7963
803.635	8130
803.777	7932
803.919	8138
804.061	8412
804.204	8180
804.346	8046
804.488	7913
804.63	8111
804.773	7959
804.915	8020
805.057	8317
805.199	8123
805.341	8149
805.483	8256
805.626	8210
805.768	8092
805.91	8149
806.052	8210
806.194	8088
806.336	8263
806.478	8062
806.62	8069
806.762	8149
806.904	8237
807.046	8492
807.188	8320
807.33	8279
807.472	8259
807.614	8149
807.756	8138
807.898	7993
808.04	7852
808.182	7856
808.324	7860
808.465	7959
808.607	8054
808.749	8149
808.891	8210
809.033	8256
809.174	8187
809.316	8088
809.458	8058
809.6	8020
809.741	8035
809.883	8001
810.025	8039
810.166	8054
810.308	8008
810.45	7959
810.591	7898
810.733	7769
810.875	7681
811.016	7483
811.158	7487
811.299	7636
811.441	7681
811.582	7658
811.724	7590
811.865	7521
812.007	7537
812.148	7590
812.29	7613
812.431	7742
812.573	7932
812.714	7989
812.855	8115
812.997	8221
813.138	8313
813.279	8172
813.421	8005
813.562	7951
813.703	7830
813.845	7746
813.986	7403
814.127	7251
814.268	7202
814.41	7179
814.551	7141
814.692	7217
814.833	7110
814.974	7110
815.115	7103
815.256	6962
815.397	6890
815.539	6954
815.68	6829
815.821	6760
815.962	6863
816.103	6783
816.244	6749
816.385	6631
816.526	6582
816.666	6456
816.807	6315
816.948	6395
817.089	6490
817.23	6391
817.371	6311
817.512	6399
817.653	6388
817.793	6369
817.934	6384
818.075	6479
818.216	6403
818.356	6471
818.497	6232
818.638	6125
818.778	6159
818.919	6121
819.06	6117
819.2	6319
819.341	6350
819.481	6357
819.622	6506
819.762	6753
819.903	6707
820.043	6623
820.184	6540
820.324	6585
820.465	6639
820.605	6642
820.746	6662
820.886	6502
821.026	6665
821.167	6684
821.307	6814
821.447	6741
821.588	6662
821.728	6559
821.868	6521
822.008	6311
822.149	6308
822.289	6361
822.429	6178
822.569	6079
822.709	6129
822.849	5931
822.99	5904
823.13	5844
823.27	5916
823.41	5748
823.55	5805
823.69	5748
823.83	5764
823.97	5634
824.11	5543
824.25	5478
824.389	5520
824.529	5551
824.669	5497
824.809	5615
824.949	5649
825.089	5623
825.228	5547
825.368	5410
825.508	5330
825.648	5364
825.787	5387
825.927	5357
826.067	5311
826.206	5318
826.346	5330
826.485	5406
826.625	5368
826.765	5509
826.904	5463
827.044	5220
827.183	5170
827.323	5102
827.462	5261
827.601	5185
827.741	5193
827.88	5250
828.02	5124
828.159	5216
828.298	5311
828.437	5299
828.577	5299
828.716	5535
828.855	5303
828.994	5113
829.134	5162
829.273	5162
829.412	5124
829.551	5090
829.69	5174
829.829	5223
829.968	5368
830.107	5246
830.246	5246
830.385	5143
830.524	5117
830.663	5029
830.802	4984
830.941	4877
831.08	4847
831.219	4987
831.357	4987
831.496	5178
831.635	4942
831.774	4805
831.913	4801
832.051	4736
832.19	4714
832.329	4778
832.467	4683
832.606	4630
832.744	4755
832.883	4733
833.022	4782
833.16	4759
833.299	4812
833.437	4828
833.576	4820
833.714	4839
833.852	4915
833.991	4881
834.129	4938
834.267	4965
834.406	4862
834.544	4949
834.682	4976
834.821	4923
834.959	5181
835.097	4995
835.235	5124
835.373	5052
835.511	5140
835.65	5018
835.788	5048
835.926	4915
836.064	4850
836.202	4938
836.34	5155
836.478	5189
836.615	5064
836.753	5216
836.891	5239
837.029	5216
837.167	5105
837.305	5132
837.443	5166
837.58	5090
837.718	5246
837.856	5212
837.993	5128
838.131	5231
838.269	5193
838.406	5250
838.544	5174
838.681	4984
838.819	4987
838.956	4904
839.094	4949
839.231	4972
839.369	5071
839.506	5414
839.643	5284
839.781	5064
839.918	4968
840.055	5090
840.193	5117
840.33	5109
840.467	5124
840.604	5132
840.742	5455
840.879	5075
841.016	5060
841.153	5136
841.29	5379
841.427	5258
841.564	5315
841.701	5357
841.838	5235
841.975	5277
842.112	5246
842.249	5128
842.385	5136
842.522	5322
842.659	5189
842.796	5201
842.933	5181
843.069	5178
843.206	5193
843.343	5353
843.479	5250
843.616	5265
843.752	5003
843.889	5033
844.025	5239
844.162	5033
844.298	5193
844.435	5079
844.571	5109
844.708	5220
844.844	5303
844.98	5322
845.117	5254
845.253	5136
845.389	5060
845.525	5174
845.661	5155
845.798	5041
845.934	5181
846.07	5029
846.206	5132
846.342	5220
846.478	5159
846.614	4968
846.75	4930
846.886	4923
847.022	5105
847.158	5014
847.294	5029
847.429	5098
847.565	5025
847.701	5318
847.837	4839
847.972	4759
848.108	4919
848.244	4919
848.379	4771
848.515	4675
848.65	4675
848.786	4790
848.921	4782
849.057	4793
849.192	4877
849.328	4831
849.463	4847
849.598	4774
849.734	4763
849.869	4698
850.004	4660
850.14	4630
850.275	4622
850.41	4493
850.545	4596
850.68	4596
850.815	4607
850.95	4615
851.085	4797
851.22	4767
851.355	4668
851.49	4584
851.625	4622
851.76	4603
851.895	4531
852.03	4519
852.165	4645
852.299	4698
852.434	4752
852.569	4752
852.703	4801
852.838	4919
852.973	4957
853.107	4904
853.242	4786
853.376	4653
853.511	4550
853.645	4618
853.78	4805
853.914	4702
854.048	4637
854.183	4683
854.317	4675
854.451	4835
854.585	4668
854.72	4637
854.854	4717
854.988	4592
855.122	4626
855.256	4485
855.39	4668
855.524	4778
855.658	4729
855.792	4653
855.926	4729
856.06	4714
856.194	4831
856.327	4679
856.461	4607
856.595	4649
856.729	4626
856.862	4740
856.996	4706
857.13	4748
857.263	4816
857.397	4801
857.53	4645
857.664	4675
857.797	4782
857.931	4824
858.064	4733
858.197	4767
858.331	4641
858.464	4577
858.597	4531
858.731	4611
858.864	4615
858.997	4634
859.13	4630
859.263	4656
859.396	4679
859.529	4565
859.662	4561
859.795	4558
859.928	4637
860.061	4748
860.194	4733
860.327	4588
860.46	4554
860.592	4649
860.725	4691
860.858	4694
860.99	4542
861.123	4531
861.256	4497
861.388	4637
861.521	5288
861.653	4500
861.786	4405
861.918	4462
862.05	4500
862.183	4523
862.315	4603
862.447	4649
862.58	4546
862.712	4455
862.844	4325
862.976	4481
863.108	4447
863.24	4752
863.372	4356
863.504	4390
863.636	4394
863.768	4474
863.9	4428
864.032	4333
864.164	4398
864.296	4447
864.428	4546
864.559	4607
864.691	4493
864.823	4550
864.954	4500
865.086	4489
865.217	4474
865.349	4394
865.48	4462
865.612	4493
865.743	4611
865.875	4443
866.006	4428
866.137	4489
866.269	4402
866.4	4398
866.531	4413
866.662	4405
866.793	4428
866.924	4379
867.055	4550
867.186	4481
867.317	4409
867.448	4322
867.579	4329
867.71	4409
867.841	4379
867.972	4421
868.103	4478
868.233	4462
868.364	4402
868.495	4500
868.625	4660
868.756	4748
868.886	4634
869.017	4626
869.147	4767
869.278	4736
869.408	4656
869.539	4637
869.669	4694
869.799	4668
869.929	4736
870.06	4755
870.19	4965
870.32	4919
870.45	4900
870.58	5018
870.71	5075
870.84	5060
870.97	4949
871.1	4911
871.23	5143
871.36	5121
871.489	5003
871.619	5037
871.749	5067
871.879	5159
872.008	5159
872.138	5037
872.267	4961
872.397	4824
872.526	4824
872.656	4725
872.785	4812
872.915	4942
873.044	5018
873.173	4892
873.303	4995
873.432	4930
873.561	5010
873.69	4858
873.819	4850
873.948	4892
874.077	4816
874.206	4790
874.335	4828
874.464	4984
874.593	5052
874.722	4965
874.851	5124
874.979	5006
875.108	5014
875.237	4911
875.365	4896
875.494	4854
875.623	4991
875.751	4896
875.88	4858
876.008	4995
876.136	5033
876.265	5208
876.393	5364
876.521	5231
876.65	5223
876.778	5166
876.906	5090
877.034	4938
877.162	5045
877.29	5033
877.418	5102
877.546	5045
877.674	5025
877.802	5010
877.93	4995
878.058	4919
878.185	4866
878.313	4908
878.441	5006
878.568	4809
878.696	4854
878.824	4930
878.951	4972
879.079	5105
879.206	5280
879.333	5086
879.461	4942
879.588	4995
879.715	5128
879.842	5227
879.97	5010
880.097	4828
880.224	4797
880.351	4786
880.478	4850
880.605	4759
880.732	4755
880.859	5083
880.986	4881
881.112	4930
881.239	4774
881.366	4637
881.493	4622
881.619	4569
881.746	4569
881.872	4637
881.999	4618
882.125	4694
882.252	4767
882.378	4797
882.505	4991
882.631	4793
882.757	4687
882.883	4710
883.01	4748
883.136	4672
883.262	4592
883.388	4611
883.514	4755
883.64	4820
883.766	4778
883.892	4645
884.018	4702
884.143	4873
884.269	5003
884.395	4679
884.52	4630
884.646	4656
884.772	4580
884.897	4554
885.023	4626
885.148	4797
885.274	4850
885.399	4748
885.524	4717
885.65	4683
885.775	4752
885.9	4687
886.025	4873
886.15	4812
886.275	4721
886.4	4645
886.525	4752
886.65	4664
886.775	4645
886.9	4904
887.025	4927
887.149	4797
887.274	4637
887.399	4580
887.523	4603
887.648	4622
887.773	4584
887.897	4755
888.021	4763
888.146	4649
888.27	4805
888.395	4961
888.519	4748
888.643	4839
888.767	4793
888.891	4660
889.015	4569
889.139	4656
889.263	4584
889.387	4714
889.511	4847
889.635	4790
889.759	4664
889.883	4694
890.006	4725
890.13	4805
890.254	4603
890.377	4702
890.501	4558
890.624	4485
890.748	4607
890.871	4512
890.995	4421
891.118	4360
891.241	4519
891.364	4550
891.488	4611
891.611	4481
891.734	4493
891.857	4588
891.98	4554
892.103	4637
892.226	4561
892.349	4527
892.471	4409
892.594	4531
892.717	4584
892.839	4584
892.962	4554
893.085	4664
893.207	4618
893.33	4459
893.452	4497
893.575	4675
893.697	4516
893.819	4771
893.941	4820
894.064	4752
894.186	4561
894.308	4542
894.43	4736
894.552	4790
894.674	4793
894.796	4542
894.918	4611
895.04	4584
895.161	4683
895.283	4626
895.405	4573
895.526	4641
895.648	4691
895.769	4691
895.891	4698
896.012	4755
896.134	4694
896.255	4653
896.376	4637
896.498	4641
896.619	4656
896.74	4607
896.861	4626
896.982	4946
897.103	5041
897.224	4870
897.345	4767
897.466	4664
897.587	4714
897.708	4847
897.828	4744
897.949	4656
898.07	4580
898.19	4611
898.311	4809
898.431	4641
898.552	4744
898.672	4774
898.792	4771
898.913	4740
899.033	4596
899.153	4455
899.273	4424
899.393	4493
899.513	4504
899.633	4512
899.753	4542
899.873	4462
899.993	4550
900.113	4538
900.232	4573
900.352	4565
900.472	4455
900.591	4386
900.711	4436
900.83	4409
900.95	4615
901.069	4626
901.189	4493
901.308	4348
901.427	4314
901.546	4375
901.665	4459
901.784	4504
901.904	4383
902.023	4329
902.141	4147
902.26	4105
902.379	4325
902.498	4169
902.617	4181
902.735	4386
902.854	4337
902.973	4379
903.091	4154
903.21	4192
903.328	4272
903.446	4230
903.565	4234
903.683	4333
903.801	4287
903.919	4356
904.038	4375
904.156	4268
904.274	4394
904.392	4383
904.51	4394
904.627	4489
904.745	4542
904.863	4630
904.981	4398
905.098	4306
905.216	4314
905.334	4405
905.451	4443
905.569	4409
905.686	4550
905.803	4592
905.921	4432
906.038	4500
906.155	4459
906.272	4371
906.389	4466
906.506	4325
906.623	4405
906.74	4367
906.857	4291
906.974	4409
907.091	4523
907.208	4656
907.324	4561
907.441	4512
907.557	4344
907.674	4344
907.79	4325
907.907	4367
908.023	4489
908.139	4504
908.256	4424
908.372	4462
908.488	4481
908.604	4379
908.72	4379
908.836	4413
908.952	4371
909.068	4459
909.184	4580
909.3	4478
909.415	4603
909.531	4573
909.647	4383
909.762	4413
909.878	4341
909.993	4478
910.108	4421
910.224	4443
910.339	4500
910.454	4405
910.57	4352
910.685	4375
910.8	4660
910.915	4626
911.03	4512
911.145	4398
911.259	4379
911.374	4417
911.489	4363
911.604	4295
911.718	4200
911.833	4246
911.947	4109
912.062	4036
912.176	4253
912.291	4257
912.405	4253
912.519	4516
912.633	4535
912.748	4421
912.862	4306
912.976	4223
913.09	4139
913.204	4200
913.318	4272
913.431	4424
913.545	4440
913.659	4451
913.772	4398
913.886	4314
914	4322
914.113	4436
914.226	4485
914.34	4455
914.453	4299
914.566	4443
914.68	4333
914.793	4379
914.906	4219
915.019	4169
915.132	4139
915.245	4284
915.358	4234
915.47	4234
915.583	4325
915.696	4341
915.809	4478
915.921	4443
916.034	4306
916.146	4306
916.259	4284
916.371	4360
916.483	4413
916.595	4303
916.708	4344
916.82	4360
916.932	4363
917.044	4341
917.156	4398
917.268	4333
917.38	4284
917.491	4299
917.603	4405
917.715	4417
917.826	4436
917.938	4383
918.049	4284
918.161	4443
918.272	4615
918.384	4554
918.495	4497
918.606	4306
918.717	4280
918.828	4341
918.939	4348
919.05	4303
919.161	4348
919.272	4207
919.383	4261
919.494	4504
919.604	4649
919.715	4447
919.826	4398
919.936	4421
920.047	4546
920.157	4531
920.267	4691
920.378	4558
920.488	4531
920.598	4763
920.708	4850
920.818	4752
920.928	4801
921.038	4984
921.148	4976
921.258	4664
921.368	4577
921.477	4546
921.587	4519
921.697	4421
921.806	4561
921.916	4478
922.025	4333
922.134	4268
922.244	4234
922.353	4341
922.462	4238
922.571	4162
922.68	4059
922.789	4021
922.898	4097
923.007	4021
923.116	4131
923.224	4078
923.333	4131
923.442	4013
923.55	4032
923.659	4071
923.767	4109
923.876	4051
923.984	4135
924.092	4013
924.201	4067
924.309	4097
924.417	4101
924.525	4063
924.633	4135
924.741	5075
924.849	3926
924.956	4158
925.064	3964
925.172	3953
925.279	3979
925.387	4097
925.494	4101
925.602	4192
925.709	4211
925.816	4029
925.924	4139
926.031	4242
926.138	4162
926.245	4284
926.352	4131
926.459	4276
926.566	4371
926.673	4200
926.779	4120
926.886	4116
926.993	3983
927.099	3987
927.206	3987
927.312	3968
927.419	4044
927.525	4067
927.631	4135
927.737	3998
927.843	3979
927.95	3915
928.056	3953
928.162	4017
928.267	4120
928.373	4626
928.479	4207
928.585	3903
928.69	4044
928.796	4055
928.901	4021
929.007	3892
929.112	4044
929.218	3983
929.323	3972
929.428	3983
929.533	4128
929.638	3915
929.743	3987
929.848	4071
929.953	4048
930.058	3975
930.163	3789
930.267	3865
930.372	3968
930.477	3869
930.581	4120
930.685	3937
930.79	3831
930.894	3922
930.998	3850
931.103	4105
931.207	3747
931.311	3785
931.415	3717
931.519	3523
931.623	3603
