Data from test_V78500241_2811.txt Node
Date: Fri Mar 25 17:08:32 CST 2022
User: usil
Spectrometer: V785-0024
Trigger mode: 0
Integration Time (sec): 4.000000E-1
Scans to average: 1
Nonlinearity correction enabled: false
Boxcar width: 0
Storing dark spectrum: false
XAxis mode: Wavelengths
Number of Pixels in Spectrum: 1024
>>>>>Begin Spectral Data<<<<<
801.071	8050
801.214	8005
801.356	7944
801.499	7856
801.641	7845
801.783	7822
801.926	7967
802.068	7963
802.211	7940
802.353	8001
802.496	7833
802.638	7894
802.78	7947
802.923	7951
803.065	7868
803.208	7871
803.35	7936
803.492	8100
803.635	8157
803.777	8065
803.919	8103
804.061	8370
804.204	8191
804.346	8035
804.488	7970
804.63	8111
804.773	8024
804.915	8115
805.057	8298
805.199	8176
805.341	8180
805.483	8256
805.626	8244
805.768	8096
805.91	8225
806.052	8187
806.194	8081
806.336	8328
806.478	8088
806.62	8024
806.762	8107
806.904	8225
807.046	8545
807.188	8393
807.33	8305
807.472	8343
807.614	8183
807.756	8069
807.898	7932
808.04	7883
808.182	7875
808.324	7875
808.465	7925
808.607	8088
808.749	8126
808.891	8225
809.033	8248
809.174	8206
809.316	8103
809.458	8065
809.6	7974
809.741	8031
809.883	8096
810.025	8096
810.166	8123
810.308	8039
810.45	7970
810.591	7913
810.733	7731
810.875	7670
811.016	7540
811.158	7563
811.299	7616
811.441	7734
811.582	7685
811.724	7613
811.865	7563
812.007	7563
812.148	7582
812.29	7632
812.431	7674
812.573	7868
812.714	7978
812.855	8202
812.997	8225
813.138	8343
813.279	8187
813.421	8248
813.562	8008
813.703	7898
813.845	7772
813.986	7464
814.127	7251
814.268	7259
814.41	7221
814.551	7194
814.692	7190
814.833	7061
814.974	7080
815.115	7088
815.256	6970
815.397	6890
815.539	6985
815.68	6844
815.821	6745
815.962	6852
816.103	6821
816.244	6791
816.385	6593
816.526	6665
816.666	6498
816.807	6277
816.948	6395
817.089	6452
817.23	6460
817.371	6346
817.512	6372
817.653	6422
817.793	6384
817.934	6391
818.075	6471
818.216	6410
818.356	6395
818.497	6243
818.638	6144
818.778	6129
818.919	6140
819.06	6148
819.2	6327
819.341	6350
819.481	6376
819.622	6528
819.762	6734
819.903	6719
820.043	6639
820.184	6589
820.324	6608
820.465	6776
820.605	6658
820.746	6662
820.886	6536
821.026	6665
821.167	6707
821.307	6810
821.447	6719
821.588	6593
821.728	6585
821.868	6475
822.008	6300
822.149	6350
822.289	6414
822.429	6159
822.569	6026
822.709	6098
822.849	5973
822.99	5893
823.13	5920
823.27	5961
823.41	5840
823.55	5798
823.69	5767
823.83	5756
823.97	5630
824.11	5497
824.25	5543
824.389	5562
824.529	5551
824.669	5512
824.809	5638
824.949	5703
825.089	5634
825.228	5570
825.368	5391
825.508	5341
825.648	5303
825.787	5425
825.927	5368
826.067	5307
826.206	5288
826.346	5383
826.485	5379
826.625	5410
826.765	5535
826.904	5490
827.044	5288
827.183	5223
827.323	5124
827.462	5269
827.601	5162
827.741	5178
827.88	5212
828.02	5117
828.159	5204
828.298	5288
828.437	5360
828.577	5303
828.716	5482
828.855	5337
828.994	5212
829.134	5117
829.273	5155
829.412	5136
829.551	5181
829.69	5124
829.829	5250
829.968	5345
830.107	5250
830.246	5239
830.385	5166
830.524	5132
830.663	5029
830.802	4980
830.941	4866
831.08	4866
831.219	4972
831.357	4946
831.496	5136
831.635	4900
831.774	4850
831.913	4862
832.051	4729
832.19	4710
832.329	4809
832.467	4691
832.606	4626
832.744	4717
832.883	4683
833.022	4721
833.16	4752
833.299	4801
833.437	4854
833.576	4793
833.714	4870
833.852	4870
833.991	4889
834.129	4934
834.267	4980
834.406	4892
834.544	4972
834.682	4999
834.821	4911
834.959	5136
835.097	5010
835.235	5174
835.373	5098
835.511	5086
835.65	5025
835.788	5025
835.926	4915
836.064	4873
836.202	4915
836.34	5121
836.478	5223
836.615	5197
836.753	5212
836.891	5254
837.029	5197
837.167	5170
837.305	5162
837.443	5105
837.58	5121
837.718	5273
837.856	5201
837.993	5151
838.131	5216
838.269	5212
838.406	5159
838.544	5174
838.681	5067
838.819	5037
838.956	4911
839.094	4889
839.231	4972
839.369	5067
839.506	5376
839.643	5280
839.781	5094
839.918	4980
840.055	5090
840.193	5060
840.33	5067
840.467	5159
840.604	5174
840.742	5429
840.879	5056
841.016	5090
841.153	5166
841.29	5299
841.427	5364
841.564	5330
841.701	5391
841.838	5239
841.975	5227
842.112	5250
842.249	5128
842.385	5041
842.522	5345
842.659	5128
842.796	5132
842.933	5159
843.069	5136
843.206	5143
843.343	5318
843.479	5216
843.616	5258
843.752	4991
843.889	4972
844.025	5204
844.162	4999
844.298	5223
844.435	5071
844.571	5064
844.708	5201
844.844	5280
844.98	5299
845.117	5299
845.253	5170
845.389	5083
845.525	5128
845.661	5128
845.798	5048
845.934	5117
846.07	5022
846.206	5204
846.342	5235
846.478	5170
846.614	5006
846.75	4930
846.886	4961
847.022	5162
847.158	4999
847.294	5094
847.429	5086
847.565	5056
847.701	5265
847.837	4843
847.972	4763
848.108	4915
848.244	4911
848.379	4820
848.515	4725
848.65	4702
848.786	4748
848.921	4759
849.057	4896
849.192	4911
849.328	4786
849.463	4843
849.598	4771
849.734	4694
849.869	4721
850.004	4649
850.14	4637
850.275	4588
850.41	4531
850.545	4546
850.68	4618
850.815	4607
850.95	4641
851.085	4797
851.22	4736
851.355	4641
851.49	4603
851.625	4630
851.76	4649
851.895	4561
852.03	4554
852.165	4660
852.299	4706
852.434	4774
852.569	4748
852.703	4790
852.838	4820
852.973	4923
853.107	4915
853.242	4721
853.376	4687
853.511	4546
853.645	4569
853.78	4809
853.914	4637
854.048	4634
854.183	4626
854.317	4702
854.451	4824
854.585	4653
854.72	4561
854.854	4736
854.988	4580
855.122	4615
855.256	4535
855.39	4611
855.524	4782
855.658	4733
855.792	4698
855.926	4733
856.06	4675
856.194	4759
856.327	4698
856.461	4634
856.595	4569
856.729	4588
856.862	4698
856.996	4660
857.13	4744
857.263	4755
857.397	4843
857.53	4641
857.664	4672
857.797	4755
857.931	4778
858.064	4687
858.197	4702
858.331	4645
858.464	4637
858.597	4481
858.731	4637
858.864	4634
858.997	4607
859.13	4653
859.263	4626
859.396	4736
859.529	4565
859.662	4550
859.795	4569
859.928	4592
860.061	4748
860.194	4763
860.327	4622
860.46	4569
860.592	4725
860.725	4710
860.858	4809
860.99	4637
861.123	4573
861.256	4554
861.388	4592
861.521	5334
861.653	4497
861.786	4489
861.918	4474
862.05	4577
862.183	4565
862.315	4592
862.447	4664
862.58	4588
862.712	4462
862.844	4348
862.976	4489
863.108	4481
863.24	4801
863.372	4371
863.504	4474
863.636	4386
863.768	4519
863.9	4478
864.032	4428
864.164	4428
864.296	4531
864.428	4573
864.559	4626
864.691	4558
864.823	4565
864.954	4558
865.086	4580
865.217	4500
865.349	4485
865.48	4500
865.612	4516
865.743	4694
865.875	4489
866.006	4474
866.137	4504
866.269	4474
866.4	4478
866.531	4512
866.662	4478
866.793	4455
866.924	4447
867.055	4531
867.186	4519
867.317	4466
867.448	4394
867.579	4424
867.71	4428
867.841	4413
867.972	4478
868.103	4493
868.233	4481
868.364	4497
868.495	4523
868.625	4679
868.756	4820
868.886	4603
869.017	4721
869.147	4824
869.278	4805
869.408	4660
869.539	4691
869.669	4771
869.799	4641
869.929	4797
870.06	4782
870.19	4980
870.32	5010
870.45	5025
870.58	5075
870.71	5140
870.84	5124
870.97	4987
871.1	4866
871.23	5197
871.36	5147
871.489	5048
871.619	5109
871.749	5162
871.879	5140
872.008	5193
872.138	5098
872.267	5052
872.397	4862
872.526	4801
872.656	4721
872.785	4820
872.915	4972
873.044	5071
873.173	4968
873.303	5022
873.432	4961
873.561	4987
873.69	4873
873.819	4835
873.948	4938
874.077	4862
874.206	4778
874.335	4873
874.464	4995
874.593	5048
874.722	4972
874.851	5124
874.979	5128
875.108	5048
875.237	4961
875.365	4900
875.494	4927
875.623	5029
875.751	4870
875.88	4904
876.008	4980
876.136	5121
876.265	5216
876.393	5395
876.521	5292
876.65	5227
876.778	5197
876.906	5136
877.034	5071
877.162	5079
877.29	4968
877.418	5140
877.546	5048
877.674	5056
877.802	5003
877.93	5094
878.058	5014
878.185	4930
878.313	4957
878.441	4980
878.568	4885
878.696	4908
878.824	5014
878.951	5037
879.079	5181
879.206	5284
879.333	5113
879.461	5041
879.588	5037
879.715	5178
879.842	5254
879.97	5071
880.097	4870
880.224	4755
880.351	4919
880.478	4854
880.605	4847
880.732	4824
880.859	5140
880.986	4953
881.112	4927
881.239	4801
881.366	4752
881.493	4599
881.619	4630
881.746	4664
881.872	4729
881.999	4675
882.125	4721
882.252	4778
882.378	4911
882.505	4987
882.631	4812
882.757	4725
882.883	4767
883.01	4759
883.136	4706
883.262	4653
883.388	4672
883.514	4881
883.64	4866
883.766	4809
883.892	4717
884.018	4748
884.143	4915
884.269	5018
884.395	4714
884.52	4687
884.646	4691
884.772	4618
884.897	4584
885.023	4725
885.148	4790
885.274	4877
885.399	4782
885.524	4733
885.65	4744
885.775	4771
885.9	4725
886.025	4873
886.15	4835
886.275	4752
886.4	4668
886.525	4797
886.65	4740
886.775	4771
886.9	4942
887.025	5071
887.149	4824
887.274	4698
887.399	4592
887.523	4668
887.648	4573
887.773	4668
887.897	4771
888.021	4824
888.146	4683
888.27	4812
888.395	4870
888.519	4816
888.643	4847
888.767	4873
888.891	4672
889.015	4618
889.139	4660
889.263	4668
889.387	4759
889.511	4896
889.635	4854
889.759	4679
889.883	4653
890.006	4752
890.13	4847
890.254	4664
890.377	4733
890.501	4550
890.624	4584
890.748	4679
890.871	4569
890.995	4443
891.118	4409
891.241	4538
891.364	4573
891.488	4653
891.611	4481
891.734	4569
891.857	4603
891.98	4615
892.103	4656
892.226	4630
892.349	4588
892.471	4428
892.594	4558
892.717	4649
892.839	4607
892.962	4596
893.085	4721
893.207	4637
893.33	4512
893.452	4603
893.575	4668
893.697	4599
893.819	4820
893.941	4866
894.064	4763
894.186	4603
894.308	4599
894.43	4755
894.552	4812
894.674	4786
894.796	4561
894.918	4592
895.04	4626
895.161	4714
895.283	4717
895.405	4615
895.526	4672
895.648	4755
895.769	4683
895.891	4752
896.012	4721
896.134	4767
896.255	4683
896.376	4656
896.498	4694
896.619	4630
896.74	4634
896.861	4660
896.982	4904
897.103	5124
897.224	4873
897.345	4748
897.466	4702
897.587	4801
897.708	4942
897.828	4816
897.949	4679
898.07	4554
898.19	4622
898.311	4854
898.431	4649
898.552	4725
898.672	4828
898.792	4774
898.913	4744
899.033	4649
899.153	4558
899.273	4440
899.393	4519
899.513	4523
899.633	4535
899.753	4538
899.873	4558
899.993	4580
900.113	4554
900.232	4634
900.352	4550
900.472	4523
900.591	4421
900.711	4527
900.83	4424
900.95	4656
901.069	4706
901.189	4531
901.308	4409
901.427	4348
901.546	4383
901.665	4462
901.784	4558
901.904	4394
902.023	4325
902.141	4249
902.26	4200
902.379	4333
902.498	4238
902.617	4253
902.735	4405
902.854	4516
902.973	4383
903.091	4261
903.21	4299
903.328	4318
903.446	4291
903.565	4303
903.683	4367
903.801	4287
903.919	4383
904.038	4500
904.156	4360
904.274	4436
904.392	4367
904.51	4436
904.627	4466
904.745	4603
904.863	4626
904.981	4436
905.098	4344
905.216	4383
905.334	4436
905.451	4462
905.569	4451
905.686	4573
905.803	4607
905.921	4436
906.038	4546
906.155	4535
906.272	4432
906.389	4508
906.506	4394
906.623	4417
906.74	4447
906.857	4314
906.974	4424
907.091	4546
907.208	4721
907.324	4603
907.441	4561
907.557	4352
907.674	4363
907.79	4325
907.907	4424
908.023	4497
908.139	4478
908.256	4424
908.372	4531
908.488	4470
908.604	4352
908.72	4356
908.836	4466
908.952	4409
909.068	4485
909.184	4607
909.3	4470
909.415	4592
909.531	4558
909.647	4394
909.762	4417
909.878	4371
909.993	4443
910.108	4409
910.224	4428
910.339	4527
910.454	4417
910.57	4367
910.685	4322
910.8	4717
910.915	4603
911.03	4508
911.145	4318
911.259	4383
911.374	4405
911.489	4318
911.604	4306
911.718	4230
911.833	4215
911.947	4074
912.062	4006
912.176	4207
912.291	4276
912.405	4246
912.519	4489
912.633	4535
912.748	4383
912.862	4344
912.976	4223
913.09	4074
913.204	4223
913.318	4310
913.431	4367
913.545	4417
913.659	4402
913.772	4405
913.886	4257
914	4211
914.113	4348
914.226	4421
914.34	4440
914.453	4234
914.566	4447
914.68	4367
914.793	4310
914.906	4196
915.019	4154
915.132	4120
915.245	4177
915.358	4253
915.47	4215
915.583	4272
915.696	4291
915.809	4447
915.921	4428
916.034	4246
916.146	4268
916.259	4227
916.371	4405
916.483	4398
916.595	4303
916.708	4398
916.82	4337
916.932	4299
917.044	4314
917.156	4322
917.268	4272
917.38	4303
917.491	4303
917.603	4383
917.715	4451
917.826	4474
917.938	4329
918.049	4295
918.161	4466
918.272	4596
918.384	4500
918.495	4531
918.606	4291
918.717	4268
918.828	4363
918.939	4344
919.05	4303
919.161	4371
919.272	4139
919.383	4265
919.494	4504
919.604	4645
919.715	4421
919.826	4383
919.936	4417
920.047	4584
920.157	4504
920.267	4710
920.378	4573
920.488	4569
920.598	4687
920.708	4946
920.818	4740
920.928	4786
921.038	4976
921.148	4923
921.258	4656
921.368	4569
921.477	4538
921.587	4474
921.697	4390
921.806	4577
921.916	4440
922.025	4299
922.134	4242
922.244	4303
922.353	4344
922.462	4211
922.571	4135
922.68	4051
922.789	3994
922.898	4055
923.007	3983
923.116	4112
923.224	4074
923.333	4078
923.442	3991
923.55	3983
923.659	4010
923.767	4093
923.876	4071
923.984	4154
924.092	4048
924.201	4067
924.309	4105
924.417	4166
924.525	4074
924.633	4128
924.741	4877
924.849	3899
924.956	4158
925.064	3968
925.172	3949
925.279	3956
925.387	4029
925.494	4082
925.602	4204
925.709	4166
925.816	4051
925.924	4166
926.031	4242
926.138	4173
926.245	4238
926.352	4086
926.459	4249
926.566	4299
926.673	4204
926.779	4131
926.886	4101
926.993	4002
927.099	3968
927.206	3964
927.312	3930
927.419	4055
927.525	4090
927.631	4120
927.737	3972
927.843	3991
927.95	3827
928.056	3960
928.162	4002
928.267	4143
928.373	4736
928.479	4143
928.585	3846
928.69	4078
928.796	4101
928.901	4006
929.007	3884
929.112	4040
929.218	4017
929.323	3994
929.428	3979
929.533	4139
929.638	3926
929.743	3983
929.848	4086
929.953	4055
930.058	3960
930.163	3816
930.267	3869
930.372	3964
930.477	3838
930.581	4116
930.685	4006
930.79	3846
930.894	3937
930.998	3876
931.103	4082
931.207	3762
931.311	3724
931.415	3709
931.519	3549
931.623	3610
