Data from test_V78500241_2031.txt Node
Date: Fri Mar 25 17:03:07 CST 2022
User: usil
Spectrometer: V785-0024
Trigger mode: 0
Integration Time (sec): 4.000000E-1
Scans to average: 1
Nonlinearity correction enabled: false
Boxcar width: 0
Storing dark spectrum: false
XAxis mode: Wavelengths
Number of Pixels in Spectrum: 1024
>>>>>Begin Spectral Data<<<<<
801.071	7982
801.214	7967
801.356	7871
801.499	7875
801.641	7822
801.783	7845
801.926	7970
802.068	7917
802.211	8062
802.353	8084
802.496	7849
802.638	7868
802.78	7883
802.923	7925
803.065	7795
803.208	7890
803.35	8008
803.492	8138
803.635	8202
803.777	7986
803.919	8187
804.061	8457
804.204	8168
804.346	8111
804.488	7932
804.63	8077
804.773	7993
804.915	8077
805.057	8339
805.199	8050
805.341	8195
805.483	8221
805.626	8267
805.768	8111
805.91	8221
806.052	8229
806.194	8187
806.336	8225
806.478	8081
806.62	8020
806.762	8149
806.904	8202
807.046	8488
807.188	8305
807.33	8244
807.472	8286
807.614	8145
807.756	8126
807.898	8001
808.04	7875
808.182	7894
808.324	7856
808.465	7906
808.607	8027
808.749	8119
808.891	8199
809.033	8336
809.174	8267
809.316	8096
809.458	8031
809.6	8035
809.741	8077
809.883	8035
810.025	8096
810.166	8024
810.308	8058
810.45	7967
810.591	7845
810.733	7696
810.875	7662
811.016	7510
811.158	7434
811.299	7601
811.441	7689
811.582	7715
811.724	7559
811.865	7559
812.007	7567
812.148	7643
812.29	7616
812.431	7738
812.573	7883
812.714	7982
812.855	8168
812.997	8210
813.138	8301
813.279	8164
813.421	8054
813.562	7951
813.703	7784
813.845	7742
813.986	7445
814.127	7244
814.268	7183
814.41	7156
814.551	7232
814.692	7149
814.833	7095
814.974	7156
815.115	7065
815.256	7008
815.397	6897
815.539	6920
815.68	6814
815.821	6719
815.962	6852
816.103	6852
816.244	6681
816.385	6601
816.526	6612
816.666	6448
816.807	6331
816.948	6460
817.089	6445
817.23	6414
817.371	6346
817.512	6384
817.653	6372
817.793	6372
817.934	6376
818.075	6471
818.216	6418
818.356	6433
818.497	6338
818.638	6095
818.778	6121
818.919	6144
819.06	6102
819.2	6380
819.341	6346
819.481	6361
819.622	6540
819.762	6741
819.903	6696
820.043	6620
820.184	6578
820.324	6635
820.465	6711
820.605	6688
820.746	6665
820.886	6578
821.026	6719
821.167	6722
821.307	6760
821.447	6741
821.588	6681
821.728	6684
821.868	6540
822.008	6331
822.149	6369
822.289	6399
822.429	6175
822.569	6133
822.709	6079
822.849	5950
822.99	5882
823.13	6019
823.27	5931
823.41	5836
823.55	5817
823.69	5794
823.83	5783
823.97	5691
824.11	5573
824.25	5482
824.389	5630
824.529	5600
824.669	5532
824.809	5661
824.949	5737
825.089	5680
825.228	5589
825.368	5429
825.508	5353
825.648	5353
825.787	5398
825.927	5425
826.067	5337
826.206	5265
826.346	5436
826.485	5433
826.625	5417
826.765	5627
826.904	5482
827.044	5349
827.183	5239
827.323	5193
827.462	5235
827.601	5227
827.741	5208
827.88	5250
828.02	5208
828.159	5261
828.298	5345
828.437	5448
828.577	5315
828.716	5512
828.855	5345
828.994	5223
829.134	5242
829.273	5254
829.412	5155
829.551	5155
829.69	5277
829.829	5311
829.968	5417
830.107	5357
830.246	5273
830.385	5235
830.524	5185
830.663	5075
830.802	5014
830.941	4953
831.08	4877
831.219	5025
831.357	5075
831.496	5204
831.635	4991
831.774	4889
831.913	4915
832.051	4714
832.19	4812
832.329	4835
832.467	4767
832.606	4714
832.744	4740
832.883	4763
833.022	4759
833.16	4831
833.299	4873
833.437	4824
833.576	4889
833.714	4866
833.852	4889
833.991	4957
834.129	4995
834.267	4968
834.406	4961
834.544	4980
834.682	5018
834.821	4961
834.959	5185
835.097	5045
835.235	5170
835.373	5113
835.511	5128
835.65	5075
835.788	5071
835.926	4911
836.064	4877
836.202	4938
836.34	5166
836.478	5341
836.615	5174
836.753	5273
836.891	5265
837.029	5261
837.167	5227
837.305	5212
837.443	5201
837.58	5086
837.718	5315
837.856	5216
837.993	5201
838.131	5235
838.269	5201
838.406	5235
838.544	5204
838.681	5105
838.819	5025
838.956	4919
839.094	4972
839.231	4980
839.369	5143
839.506	5455
839.643	5364
839.781	5102
839.918	5037
840.055	5102
840.193	5143
840.33	5151
840.467	5166
840.604	5239
840.742	5509
840.879	5048
841.016	5132
841.153	5140
841.29	5379
841.427	5368
841.564	5383
841.701	5368
841.838	5250
841.975	5273
842.112	5265
842.249	5189
842.385	5121
842.522	5391
842.659	5189
842.796	5113
842.933	5178
843.069	5204
843.206	5136
843.343	5322
843.479	5307
843.616	5261
843.752	5113
843.889	5022
844.025	5208
844.162	5006
844.298	5239
844.435	5094
844.571	5105
844.708	5208
844.844	5337
844.98	5379
845.117	5357
845.253	5166
845.389	5128
845.525	5220
845.661	5140
845.798	5086
845.934	5136
846.07	5086
846.206	5223
846.342	5261
846.478	5216
846.614	5037
846.75	5064
846.886	4968
847.022	5109
847.158	5029
847.294	5079
847.429	5102
847.565	5128
847.701	5326
847.837	4858
847.972	4847
848.108	5006
848.244	4968
848.379	4854
848.515	4736
848.65	4733
848.786	4748
848.921	4744
849.057	4816
849.192	4987
849.328	4812
849.463	4927
849.598	4790
849.734	4714
849.869	4664
850.004	4691
850.14	4714
850.275	4607
850.41	4531
850.545	4569
850.68	4626
850.815	4653
850.95	4641
851.085	4873
851.22	4771
851.355	4691
851.49	4687
851.625	4675
851.76	4672
851.895	4558
852.03	4607
852.165	4710
852.299	4736
852.434	4786
852.569	4774
852.703	4805
852.838	4858
852.973	4934
853.107	4961
853.242	4759
853.376	4729
853.511	4569
853.645	4645
853.78	4793
853.914	4683
854.048	4748
854.183	4702
854.317	4717
854.451	4877
854.585	4694
854.72	4664
854.854	4744
854.988	4656
855.122	4653
855.256	4577
855.39	4679
855.524	4782
855.658	4725
855.792	4729
855.926	4733
856.06	4767
856.194	4805
856.327	4706
856.461	4679
856.595	4706
856.729	4637
856.862	4801
856.996	4717
857.13	4759
857.263	4778
857.397	4809
857.53	4721
857.664	4725
857.797	4748
857.931	4778
858.064	4714
858.197	4790
858.331	4683
858.464	4645
858.597	4542
858.731	4645
858.864	4672
858.997	4626
859.13	4672
859.263	4660
859.396	4710
859.529	4626
859.662	4535
859.795	4531
859.928	4653
860.061	4771
860.194	4797
860.327	4668
860.46	4542
860.592	4725
860.725	4717
860.858	4683
860.99	4588
861.123	4535
861.256	4573
861.388	4649
861.521	5322
861.653	4474
861.786	4455
861.918	4455
862.05	4550
862.183	4588
862.315	4611
862.447	4710
862.58	4569
862.712	4413
862.844	4398
862.976	4512
863.108	4443
863.24	4801
863.372	4333
863.504	4466
863.636	4443
863.768	4478
863.9	4413
864.032	4344
864.164	4436
864.296	4550
864.428	4565
864.559	4565
864.691	4596
864.823	4550
864.954	4474
865.086	4554
865.217	4508
865.349	4478
865.48	4512
865.612	4542
865.743	4683
865.875	4481
866.006	4466
866.137	4497
866.269	4443
866.4	4462
866.531	4390
866.662	4436
866.793	4383
866.924	4402
867.055	4538
867.186	4447
867.317	4459
867.448	4383
867.579	4424
867.71	4421
867.841	4386
867.972	4497
868.103	4500
868.233	4424
868.364	4485
868.495	4508
868.625	4675
868.756	4797
868.886	4554
869.017	4687
869.147	4797
869.278	4812
869.408	4664
869.539	4634
869.669	4721
869.799	4729
869.929	4759
870.06	4721
870.19	5018
870.32	4911
870.45	4968
870.58	5018
870.71	5121
870.84	5170
870.97	4946
871.1	4934
871.23	5155
871.36	5185
871.489	5029
871.619	5128
871.749	5109
871.879	5162
872.008	5155
872.138	5037
872.267	4995
872.397	4896
872.526	4831
872.656	4759
872.785	4843
872.915	4984
873.044	5025
873.173	4976
873.303	4957
873.432	5037
873.561	5048
873.69	4911
873.819	4900
873.948	4919
874.077	4839
874.206	4748
874.335	4809
874.464	4919
874.593	5041
874.722	4980
874.851	5109
874.979	5105
875.108	5033
875.237	4934
875.365	4873
875.494	4858
875.623	4961
875.751	4831
875.88	4961
876.008	4984
876.136	5067
876.265	5212
876.393	5322
876.521	5277
876.65	5166
876.778	5185
876.906	5045
877.034	5067
877.162	5052
877.29	4995
877.418	5041
877.546	5094
877.674	5056
877.802	4987
877.93	5033
878.058	4930
878.185	4862
878.313	4968
878.441	4972
878.568	4786
878.696	4892
878.824	5003
878.951	5018
879.079	5105
879.206	5345
879.333	5102
879.461	4995
879.588	5033
879.715	5105
879.842	5227
879.97	5029
880.097	4767
880.224	4809
880.351	4854
880.478	4885
880.605	4778
880.732	4801
880.859	5067
880.986	4873
881.112	4934
881.239	4786
881.366	4668
881.493	4611
881.619	4561
881.746	4706
881.872	4679
881.999	4664
882.125	4702
882.252	4793
882.378	4858
882.505	4972
882.631	4816
882.757	4660
882.883	4698
883.01	4748
883.136	4721
883.262	4641
883.388	4634
883.514	4816
883.64	4896
883.766	4797
883.892	4672
884.018	4725
884.143	4904
884.269	5041
884.395	4618
884.52	4618
884.646	4672
884.772	4554
884.897	4580
885.023	4672
885.148	4858
885.274	4889
885.399	4839
885.524	4698
885.65	4710
885.775	4752
885.9	4733
886.025	4870
886.15	4774
886.275	4759
886.4	4664
886.525	4664
886.65	4691
886.775	4710
886.9	4923
887.025	5086
887.149	4873
887.274	4672
887.399	4653
887.523	4584
887.648	4580
887.773	4599
887.897	4778
888.021	4801
888.146	4683
888.27	4771
888.395	4919
888.519	4820
888.643	4786
888.767	4839
888.891	4702
889.015	4577
889.139	4698
889.263	4596
889.387	4702
889.511	4904
889.635	4744
889.759	4634
889.883	4611
890.006	4725
890.13	4816
890.254	4645
890.377	4649
890.501	4542
890.624	4565
890.748	4634
890.871	4573
890.995	4409
891.118	4402
891.241	4535
891.364	4618
891.488	4679
891.611	4527
891.734	4504
891.857	4592
891.98	4569
892.103	4637
892.226	4588
892.349	4558
892.471	4436
892.594	4531
892.717	4596
892.839	4554
892.962	4645
893.085	4675
893.207	4626
893.33	4466
893.452	4554
893.575	4691
893.697	4569
893.819	4835
893.941	4866
894.064	4801
894.186	4580
894.308	4546
894.43	4748
894.552	4801
894.674	4793
894.796	4535
894.918	4546
895.04	4577
895.161	4694
895.283	4725
895.405	4580
895.526	4580
895.648	4675
895.769	4675
895.891	4733
896.012	4755
896.134	4755
896.255	4679
896.376	4603
896.498	4660
896.619	4698
896.74	4649
896.861	4668
896.982	4930
897.103	5079
897.224	4847
897.345	4748
897.466	4645
897.587	4748
897.708	4881
897.828	4778
897.949	4698
898.07	4512
898.19	4683
898.311	4828
898.431	4656
898.552	4725
898.672	4793
898.792	4740
898.913	4740
899.033	4596
899.153	4519
899.273	4466
899.393	4466
899.513	4519
899.633	4523
899.753	4516
899.873	4508
899.993	4531
900.113	4546
900.232	4603
900.352	4577
900.472	4481
900.591	4409
900.711	4512
900.83	4466
900.95	4603
901.069	4706
901.189	4542
901.308	4344
901.427	4352
901.546	4375
901.665	4497
901.784	4519
901.904	4371
902.023	4318
902.141	4223
902.26	4185
902.379	4295
902.498	4253
902.617	4234
902.735	4329
902.854	4417
902.973	4363
903.091	4181
903.21	4230
903.328	4268
903.446	4230
903.565	4276
903.683	4348
903.801	4238
903.919	4432
904.038	4455
904.156	4352
904.274	4409
904.392	4383
904.51	4363
904.627	4481
904.745	4550
904.863	4641
904.981	4360
905.098	4341
905.216	4306
905.334	4390
905.451	4474
905.569	4413
905.686	4554
905.803	4546
905.921	4402
906.038	4535
906.155	4466
906.272	4390
906.389	4478
906.506	4367
906.623	4409
906.74	4371
906.857	4314
906.974	4363
907.091	4527
907.208	4675
907.324	4558
907.441	4485
907.557	4322
907.674	4360
907.79	4318
907.907	4371
908.023	4512
908.139	4508
908.256	4417
908.372	4462
908.488	4466
908.604	4367
908.72	4325
908.836	4360
908.952	4379
909.068	4474
909.184	4565
909.3	4497
909.415	4577
909.531	4554
909.647	4360
909.762	4402
909.878	4333
909.993	4402
910.108	4443
910.224	4383
910.339	4459
910.454	4432
910.57	4363
910.685	4310
910.8	4683
910.915	4573
911.03	4504
911.145	4287
911.259	4303
911.374	4379
911.489	4303
911.604	4284
911.718	4173
911.833	4207
911.947	4105
912.062	4013
912.176	4211
912.291	4238
912.405	4261
912.519	4474
912.633	4508
912.748	4367
912.862	4337
912.976	4192
913.09	4116
913.204	4215
913.318	4246
913.431	4402
913.545	4405
913.659	4443
913.772	4421
913.886	4253
914	4192
914.113	4394
914.226	4428
914.34	4379
914.453	4215
914.566	4402
914.68	4299
914.793	4325
914.906	4120
915.019	4131
915.132	4078
915.245	4196
915.358	4204
915.47	4215
915.583	4284
915.696	4291
915.809	4333
915.921	4440
916.034	4265
916.146	4299
916.259	4211
916.371	4451
916.483	4348
916.595	4253
916.708	4303
916.82	4341
916.932	4386
917.044	4314
917.156	4333
917.268	4261
917.38	4295
917.491	4272
917.603	4367
917.715	4402
917.826	4440
917.938	4356
918.049	4242
918.161	4344
918.272	4497
918.384	4531
918.495	4481
918.606	4287
918.717	4268
918.828	4341
918.939	4363
919.05	4219
919.161	4314
919.272	4162
919.383	4234
919.494	4462
919.604	4626
919.715	4436
919.826	4394
919.936	4386
920.047	4489
920.157	4478
920.267	4691
920.378	4519
920.488	4489
920.598	4729
920.708	4862
920.818	4733
920.928	4694
921.038	4866
921.148	4896
921.258	4634
921.368	4607
921.477	4470
921.587	4413
921.697	4383
921.806	4519
921.916	4383
922.025	4265
922.134	4249
922.244	4230
922.353	4341
922.462	4135
922.571	4105
922.68	3983
922.789	3994
922.898	4017
923.007	4010
923.116	4074
923.224	4067
923.333	4029
923.442	3964
923.55	3956
923.659	3983
923.767	4097
923.876	4017
923.984	4082
924.092	3994
924.201	4055
924.309	4124
924.417	4128
924.525	4032
924.633	4074
924.741	5090
924.849	3918
924.956	4120
925.064	3998
925.172	3880
925.279	3922
925.387	4036
925.494	4067
925.602	4204
925.709	4173
925.816	4048
925.924	4128
926.031	4219
926.138	4185
926.245	4185
926.352	4128
926.459	4253
926.566	4287
926.673	4158
926.779	4071
926.886	4063
926.993	3979
927.099	3994
927.206	3953
927.312	3949
927.419	4055
927.525	4036
927.631	4044
927.737	3953
927.843	3918
927.95	3846
928.056	3960
928.162	3994
928.267	4036
928.373	4527
928.479	4093
928.585	3934
928.69	4021
928.796	4093
928.901	3975
929.007	3899
929.112	4044
929.218	4006
929.323	3956
929.428	3945
929.533	4101
929.638	3903
929.743	3949
929.848	4051
929.953	3998
930.058	3945
930.163	3755
930.267	3812
930.372	3979
930.477	3816
930.581	4040
930.685	3964
930.79	3789
930.894	3880
930.998	3880
931.103	4021
931.207	3675
931.311	3694
931.415	3701
931.519	3538
931.623	3530
