Data from test_V78500241_53.txt Node
Date: Fri Mar 25 16:49:22 CST 2022
User: usil
Spectrometer: V785-0024
Trigger mode: 0
Integration Time (sec): 4.000000E-1
Scans to average: 1
Nonlinearity correction enabled: false
Boxcar width: 0
Storing dark spectrum: false
XAxis mode: Wavelengths
Number of Pixels in Spectrum: 1024
>>>>>Begin Spectral Data<<<<<
801.071	8012
801.214	8027
801.356	7936
801.499	7902
801.641	7932
801.783	7871
801.926	7986
802.068	8012
802.211	8035
802.353	8027
802.496	7917
802.638	7982
802.78	7974
802.923	8005
803.065	7940
803.208	7906
803.35	8077
803.492	8134
803.635	8195
803.777	8005
803.919	8058
804.061	8450
804.204	8161
804.346	8077
804.488	8012
804.63	8065
804.773	8046
804.915	8062
805.057	8259
805.199	8172
805.341	8267
805.483	8244
805.626	8256
805.768	8138
805.91	8195
806.052	8202
806.194	8153
806.336	8377
806.478	8172
806.62	8103
806.762	8240
806.904	8313
807.046	8438
807.188	8423
807.33	8275
807.472	8370
807.614	8218
807.756	8206
807.898	8096
808.04	7932
808.182	7940
808.324	7925
808.465	8046
808.607	8134
808.749	8100
808.891	8195
809.033	8301
809.174	8202
809.316	8062
809.458	8054
809.6	7997
809.741	8039
809.883	8081
810.025	8084
810.166	8016
810.308	8107
810.45	8077
810.591	7909
810.733	7765
810.875	7746
811.016	7559
811.158	7594
811.299	7681
811.441	7776
811.582	7700
811.724	7586
811.865	7616
812.007	7651
812.148	7636
812.29	7708
812.431	7776
812.573	7875
812.714	8012
812.855	8191
812.997	8282
813.138	8374
813.279	8191
813.421	8058
813.562	8012
813.703	7879
813.845	7723
813.986	7460
814.127	7335
814.268	7263
814.41	7213
814.551	7209
814.692	7194
814.833	7137
814.974	7088
815.115	7103
815.256	7031
815.397	6973
815.539	6958
815.68	6882
815.821	6783
815.962	6894
816.103	6905
816.244	6753
816.385	6589
816.526	6604
816.666	6532
816.807	6399
816.948	6494
817.089	6422
817.23	6456
817.371	6429
817.512	6388
817.653	6410
817.793	6391
817.934	6426
818.075	6467
818.216	6433
818.356	6467
818.497	6235
818.638	6144
818.778	6213
818.919	6163
819.06	6224
819.2	6338
819.341	6361
819.481	6433
819.622	6608
819.762	6749
819.903	6738
820.043	6669
820.184	6623
820.324	6616
820.465	6646
820.605	6688
820.746	6669
820.886	6585
821.026	6662
821.167	6802
821.307	6745
821.447	6734
821.588	6677
821.728	6513
821.868	6566
822.008	6346
822.149	6426
822.289	6429
822.429	6182
822.569	6106
822.709	6152
822.849	5969
822.99	5954
823.13	5935
823.27	5923
823.41	5817
823.55	5817
823.69	5859
823.83	5802
823.97	5733
824.11	5581
824.25	5573
824.389	5653
824.529	5638
824.669	5554
824.809	5623
824.949	5680
825.089	5619
825.228	5589
825.368	5421
825.508	5353
825.648	5391
825.787	5406
825.927	5425
826.067	5337
826.206	5311
826.346	5436
826.485	5421
826.625	5467
826.765	5592
826.904	5455
827.044	5330
827.183	5258
827.323	5170
827.462	5292
827.601	5220
827.741	5239
827.88	5197
828.02	5189
828.159	5208
828.298	5349
828.437	5402
828.577	5303
828.716	5501
828.855	5364
828.994	5227
829.134	5212
829.273	5178
829.412	5185
829.551	5147
829.69	5216
829.829	5288
829.968	5376
830.107	5307
830.246	5311
830.385	5143
830.524	5178
830.663	5102
830.802	4980
830.941	4953
831.08	4889
831.219	5014
831.357	4972
831.496	5170
831.635	4927
831.774	4938
831.913	4843
832.051	4748
832.19	4698
832.329	4873
832.467	4702
832.606	4626
832.744	4698
832.883	4744
833.022	4767
833.16	4816
833.299	4847
833.437	4847
833.576	4866
833.714	4908
833.852	4896
833.991	4877
834.129	4961
834.267	4938
834.406	4934
834.544	5022
834.682	5018
834.821	4984
834.959	5239
835.097	5041
835.235	5216
835.373	5128
835.511	5121
835.65	5041
835.788	5090
835.926	4923
836.064	4847
836.202	4965
836.34	5201
836.478	5273
836.615	5147
836.753	5250
836.891	5326
837.029	5258
837.167	5216
837.305	5159
837.443	5155
837.58	5094
837.718	5288
837.856	5189
837.993	5208
838.131	5242
838.269	5174
838.406	5178
838.544	5227
838.681	5029
838.819	5045
838.956	4915
839.094	4904
839.231	5056
839.369	5083
839.506	5433
839.643	5303
839.781	5132
839.918	5033
840.055	5121
840.193	5155
840.33	5162
840.467	5178
840.604	5235
840.742	5429
840.879	5094
841.016	5060
841.153	5189
841.29	5406
841.427	5406
841.564	5357
841.701	5398
841.838	5296
841.975	5178
842.112	5334
842.249	5124
842.385	5109
842.522	5357
842.659	5212
842.796	5170
842.933	5223
843.069	5174
843.206	5155
843.343	5334
843.479	5258
843.616	5315
843.752	5029
843.889	5014
844.025	5227
844.162	5010
844.298	5254
844.435	5083
844.571	5056
844.708	5258
844.844	5299
844.98	5360
845.117	5330
845.253	5132
845.389	5143
845.525	5197
845.661	5166
845.798	5071
845.934	5143
846.07	5056
846.206	5227
846.342	5265
846.478	5166
846.614	5037
846.75	4976
846.886	4991
847.022	5124
847.158	5064
847.294	5151
847.429	5147
847.565	5083
847.701	5360
847.837	4873
847.972	4858
848.108	4934
848.244	4942
848.379	4847
848.515	4763
848.65	4714
848.786	4805
848.921	4862
849.057	4904
849.192	4938
849.328	4866
849.463	4892
849.598	4831
849.734	4824
849.869	4809
850.004	4714
850.14	4710
850.275	4675
850.41	4577
850.545	4634
850.68	4664
850.815	4656
850.95	4672
851.085	4915
851.22	4809
851.355	4683
851.49	4698
851.625	4694
851.76	4759
851.895	4592
852.03	4588
852.165	4721
852.299	4767
852.434	4862
852.569	4774
852.703	4828
852.838	4904
852.973	5014
853.107	4961
853.242	4824
853.376	4725
853.511	4592
853.645	4679
853.78	4866
853.914	4805
854.048	4736
854.183	4698
854.317	4809
854.451	4938
854.585	4752
854.72	4694
854.854	4843
854.988	4691
855.122	4698
855.256	4592
855.39	4694
855.524	4816
855.658	4778
855.792	4793
855.926	4824
856.06	4854
856.194	4850
856.327	4729
856.461	4664
856.595	4664
856.729	4736
856.862	4809
856.996	4733
857.13	4744
857.263	4782
857.397	4881
857.53	4736
857.664	4824
857.797	4831
857.931	4824
858.064	4733
858.197	4793
858.331	4687
858.464	4721
858.597	4592
858.731	4725
858.864	4714
858.997	4679
859.13	4752
859.263	4740
859.396	4752
859.529	4710
859.662	4668
859.795	4580
859.928	4691
860.061	4771
860.194	4812
860.327	4679
860.46	4618
860.592	4774
860.725	4771
860.858	4782
860.99	4656
861.123	4607
861.256	4645
861.388	4660
861.521	5326
861.653	4565
861.786	4523
861.918	4504
862.05	4577
862.183	4592
862.315	4668
862.447	4706
862.58	4611
862.712	4451
862.844	4428
862.976	4538
863.108	4493
863.24	4908
863.372	4405
863.504	4489
863.636	4447
863.768	4542
863.9	4466
864.032	4451
864.164	4481
864.296	4561
864.428	4588
864.559	4565
864.691	4653
864.823	4584
864.954	4542
865.086	4558
865.217	4504
865.349	4508
865.48	4535
865.612	4512
865.743	4717
865.875	4596
866.006	4470
866.137	4538
866.269	4504
866.4	4447
866.531	4531
866.662	4440
866.793	4500
866.924	4470
867.055	4569
867.186	4508
867.317	4527
867.448	4462
867.579	4443
867.71	4436
867.841	4421
867.972	4577
868.103	4470
868.233	4531
868.364	4535
868.495	4569
868.625	4717
868.756	4862
868.886	4645
869.017	4683
869.147	4801
869.278	4850
869.408	4721
869.539	4706
869.669	4763
869.799	4725
869.929	4824
870.06	4793
870.19	4968
870.32	5018
870.45	4968
870.58	5086
870.71	5147
870.84	5151
870.97	4976
871.1	4946
871.23	5242
871.36	5220
871.489	5113
871.619	5178
871.749	5113
871.879	5185
872.008	5220
872.138	5128
872.267	5052
872.397	4934
872.526	4862
872.656	4805
872.785	4866
872.915	5033
873.044	5117
873.173	5018
873.303	5056
873.432	5037
873.561	5033
873.69	4961
873.819	4938
873.948	5010
874.077	4892
874.206	4824
874.335	4828
874.464	4949
874.593	5113
874.722	5060
874.851	5193
874.979	5140
875.108	5079
875.237	5014
875.365	4965
875.494	4987
875.623	5094
875.751	4885
875.88	5006
876.008	5041
876.136	5083
876.265	5307
876.393	5429
876.521	5242
876.65	5296
876.778	5261
876.906	5143
877.034	5064
877.162	5075
877.29	5067
877.418	5132
877.546	5098
877.674	5086
877.802	5136
877.93	5109
878.058	4972
878.185	4953
878.313	5029
878.441	4999
878.568	4908
878.696	5003
878.824	5045
878.951	5071
879.079	5201
879.206	5337
879.333	5094
879.461	5037
879.588	5071
879.715	5223
879.842	5299
879.97	5094
880.097	4812
880.224	4835
880.351	4847
880.478	4877
880.605	4919
880.732	4839
880.859	5216
880.986	4946
881.112	4984
881.239	4809
881.366	4748
881.493	4641
881.619	4649
881.746	4706
881.872	4698
881.999	4748
882.125	4778
882.252	4862
882.378	4900
882.505	5029
882.631	4919
882.757	4759
882.883	4778
883.01	4793
883.136	4706
883.262	4626
883.388	4668
883.514	4885
883.64	4957
883.766	4847
883.892	4702
884.018	4774
884.143	4953
884.269	5105
884.395	4771
884.52	4687
884.646	4721
884.772	4675
884.897	4634
885.023	4740
885.148	4850
885.274	4896
885.399	4873
885.524	4816
885.65	4793
885.775	4759
885.9	4809
886.025	4904
886.15	4809
886.275	4782
886.4	4736
886.525	4797
886.65	4759
886.775	4774
886.9	4949
887.025	5102
887.149	4858
887.274	4740
887.399	4622
887.523	4691
887.648	4664
887.773	4691
887.897	4820
888.021	4835
888.146	4797
888.27	4915
888.395	4980
888.519	4839
888.643	4900
888.767	4881
888.891	4752
889.015	4664
889.139	4733
889.263	4717
889.387	4820
889.511	4938
889.635	4892
889.759	4679
889.883	4668
890.006	4816
890.13	4885
890.254	4641
890.377	4767
890.501	4618
890.624	4558
890.748	4694
890.871	4577
890.995	4489
891.118	4405
891.241	4542
891.364	4599
891.488	4717
891.611	4569
891.734	4569
891.857	4634
891.98	4622
892.103	4714
892.226	4664
892.349	4615
892.471	4485
892.594	4554
892.717	4622
892.839	4691
892.962	4683
893.085	4740
893.207	4645
893.33	4531
893.452	4558
893.575	4691
893.697	4634
893.819	4854
893.941	4866
894.064	4847
894.186	4702
894.308	4653
894.43	4816
894.552	4896
894.674	4820
894.796	4653
894.918	4687
895.04	4577
895.161	4759
895.283	4759
895.405	4630
895.526	4687
895.648	4790
895.769	4755
895.891	4755
896.012	4805
896.134	4752
896.255	4714
896.376	4717
896.498	4641
896.619	4740
896.74	4725
896.861	4729
896.982	4976
897.103	5128
897.224	4908
897.345	4793
897.466	4725
897.587	4767
897.708	4949
897.828	4786
897.949	4683
898.07	4649
898.19	4630
898.311	4866
898.431	4721
898.552	4759
898.672	4824
898.792	4877
898.913	4797
899.033	4710
899.153	4573
899.273	4462
899.393	4565
899.513	4542
899.633	4599
899.753	4622
899.873	4569
899.993	4626
900.113	4641
900.232	4626
900.352	4626
900.472	4538
900.591	4489
900.711	4535
900.83	4527
900.95	4691
901.069	4778
901.189	4550
901.308	4371
901.427	4371
901.546	4443
901.665	4493
901.784	4603
901.904	4493
902.023	4390
902.141	4268
902.26	4227
902.379	4341
902.498	4284
902.617	4272
902.735	4432
902.854	4440
902.973	4421
903.091	4234
903.21	4276
903.328	4329
903.446	4284
903.565	4329
903.683	4417
903.801	4329
903.919	4474
904.038	4500
904.156	4348
904.274	4504
904.392	4462
904.51	4481
904.627	4500
904.745	4641
904.863	4736
904.981	4451
905.098	4379
905.216	4424
905.334	4516
905.451	4466
905.569	4474
905.686	4596
905.803	4634
905.921	4489
906.038	4599
906.155	4512
906.272	4462
906.389	4519
906.506	4398
906.623	4405
906.74	4459
906.857	4394
906.974	4466
907.091	4626
907.208	4733
907.324	4637
907.441	4550
907.557	4440
907.674	4428
907.79	4337
907.907	4443
908.023	4504
908.139	4512
908.256	4531
908.372	4508
908.488	4531
908.604	4383
908.72	4413
908.836	4455
908.952	4417
909.068	4493
909.184	4626
909.3	4535
909.415	4649
909.531	4584
909.647	4402
909.762	4375
909.878	4394
909.993	4493
910.108	4424
910.224	4432
910.339	4542
910.454	4455
910.57	4371
910.685	4341
910.8	4755
910.915	4596
911.03	4527
911.145	4356
911.259	4375
911.374	4402
911.489	4344
911.604	4295
911.718	4204
911.833	4238
911.947	4112
912.062	4082
912.176	4272
912.291	4272
912.405	4276
912.519	4489
912.633	4569
912.748	4409
912.862	4341
912.976	4238
913.09	4162
913.204	4166
913.318	4280
913.431	4447
913.545	4428
913.659	4459
913.772	4375
913.886	4287
914	4306
914.113	4440
914.226	4519
914.34	4428
914.453	4299
914.566	4474
914.68	4390
914.793	4367
914.906	4242
915.019	4181
915.132	4116
915.245	4276
915.358	4249
915.47	4310
915.583	4287
915.696	4356
915.809	4485
915.921	4440
916.034	4280
916.146	4299
916.259	4344
916.371	4428
916.483	4432
916.595	4322
916.708	4337
916.82	4383
916.932	4371
917.044	4375
917.156	4352
917.268	4291
917.38	4352
917.491	4329
917.603	4417
917.715	4447
917.826	4535
917.938	4379
918.049	4386
918.161	4440
918.272	4618
918.384	4637
918.495	4500
918.606	4341
918.717	4325
918.828	4470
918.939	4440
919.05	4314
919.161	4398
919.272	4223
919.383	4322
919.494	4546
919.604	4656
919.715	4519
919.826	4413
919.936	4455
920.047	4588
920.157	4596
920.267	4786
920.378	4588
920.488	4580
920.598	4816
920.708	4976
920.818	4835
920.928	4850
921.038	5022
921.148	4965
921.258	4729
921.368	4626
921.477	4626
921.587	4542
921.697	4440
921.806	4637
921.916	4500
922.025	4371
922.134	4363
922.244	4341
922.353	4409
922.462	4318
922.571	4204
922.68	4082
922.789	4025
922.898	4101
923.007	4025
923.116	4147
923.224	4162
923.333	4158
923.442	4090
923.55	4059
923.659	4093
923.767	4162
923.876	4116
923.984	4139
924.092	4063
924.201	4147
924.309	4158
924.417	4150
924.525	4112
924.633	4177
924.741	5155
924.849	4032
924.956	4207
925.064	4025
925.172	4002
925.279	4036
925.387	4181
925.494	4177
925.602	4280
925.709	4272
925.816	4093
925.924	4162
926.031	4367
926.138	4261
926.245	4291
926.352	4227
926.459	4295
926.566	4352
926.673	4230
926.779	4166
926.886	4154
926.993	4082
927.099	4021
927.206	4059
927.312	4021
927.419	4086
927.525	4090
927.631	4139
927.737	4067
927.843	4059
927.95	3880
928.056	4010
928.162	4048
928.267	4135
928.373	4801
928.479	4181
928.585	3956
928.69	4101
928.796	4120
928.901	4093
929.007	3941
929.112	4090
929.218	4048
929.323	4032
929.428	4002
929.533	4204
929.638	3949
929.743	4040
929.848	4101
929.953	4048
930.058	4013
930.163	3842
930.267	3884
930.372	4006
930.477	3896
930.581	4185
930.685	4055
930.79	3865
930.894	3991
930.998	3960
931.103	4109
931.207	3774
931.311	3759
931.415	3736
931.519	3553
931.623	3591
