Data from test_V78500241_2293.txt Node
Date: Fri Mar 25 17:04:56 CST 2022
User: usil
Spectrometer: V785-0024
Trigger mode: 0
Integration Time (sec): 4.000000E-1
Scans to average: 1
Nonlinearity correction enabled: false
Boxcar width: 0
Storing dark spectrum: false
XAxis mode: Wavelengths
Number of Pixels in Spectrum: 1024
>>>>>Begin Spectral Data<<<<<
801.071	8012
801.214	7951
801.356	7864
801.499	7841
801.641	7784
801.783	7822
801.926	7997
802.068	7936
802.211	8035
802.353	8027
802.496	7883
802.638	7875
802.78	7803
802.923	7887
803.065	7875
803.208	7875
803.35	8001
803.492	8103
803.635	8149
803.777	8027
803.919	8096
804.061	8404
804.204	8180
804.346	8107
804.488	8001
804.63	8046
804.773	8024
804.915	8161
805.057	8309
805.199	8210
805.341	8237
805.483	8275
805.626	8164
805.768	8111
805.91	8191
806.052	8225
806.194	8126
806.336	8324
806.478	8081
806.62	7974
806.762	8126
806.904	8240
807.046	8461
807.188	8347
807.33	8294
807.472	8355
807.614	8191
807.756	8176
807.898	8043
808.04	7909
808.182	7909
808.324	7849
808.465	7894
808.607	8065
808.749	8157
808.891	8119
809.033	8324
809.174	8138
809.316	8073
809.458	8092
809.6	8050
809.741	8035
809.883	8001
810.025	8092
810.166	8062
810.308	8005
810.45	7993
810.591	7833
810.733	7712
810.875	7708
811.016	7510
811.158	7540
811.299	7518
811.441	7734
811.582	7666
811.724	7605
811.865	7556
812.007	7601
812.148	7609
812.29	7578
812.431	7753
812.573	7906
812.714	8027
812.855	8142
812.997	8199
813.138	8370
813.279	8119
813.421	7982
813.562	7978
813.703	7795
813.845	7723
813.986	7396
814.127	7274
814.268	7213
814.41	7133
814.551	7122
814.692	7274
814.833	7118
814.974	7129
815.115	7149
815.256	6935
815.397	6966
815.539	6932
815.68	6787
815.821	6875
815.962	6901
816.103	6848
816.244	6745
816.385	6623
816.526	6700
816.666	6517
816.807	6342
816.948	6403
817.089	6429
817.23	6502
817.371	6380
817.512	6414
817.653	6407
817.793	6361
817.934	6429
818.075	6433
818.216	6403
818.356	6429
818.497	6262
818.638	6167
818.778	6140
818.919	6171
819.06	6175
819.2	6361
819.341	6311
819.481	6399
819.622	6563
819.762	6730
819.903	6646
820.043	6620
820.184	6585
820.324	6574
820.465	6665
820.605	6707
820.746	6601
820.886	6555
821.026	6669
821.167	6719
821.307	6768
821.447	6700
821.588	6681
821.728	6604
821.868	6517
822.008	6323
822.149	6384
822.289	6372
822.429	6152
822.569	6083
822.709	6152
822.849	5935
822.99	5859
823.13	5931
823.27	5901
823.41	5805
823.55	5866
823.69	5779
823.83	5775
823.97	5695
824.11	5493
824.25	5524
824.389	5539
824.529	5558
824.669	5520
824.809	5611
824.949	5676
825.089	5634
825.228	5539
825.368	5463
825.508	5334
825.648	5334
825.787	5410
825.927	5337
826.067	5280
826.206	5315
826.346	5414
826.485	5341
826.625	5414
826.765	5516
826.904	5486
827.044	5265
827.183	5185
827.323	5155
827.462	5235
827.601	5185
827.741	5170
827.88	5181
828.02	5113
828.159	5227
828.298	5250
828.437	5341
828.577	5273
828.716	5459
828.855	5315
828.994	5136
829.134	5166
829.273	5155
829.412	5143
829.551	5132
829.69	5121
829.829	5242
829.968	5334
830.107	5239
830.246	5311
830.385	5151
830.524	5178
830.663	5109
830.802	5010
830.941	4938
831.08	4866
831.219	4984
831.357	4938
831.496	5178
831.635	4900
831.774	4850
831.913	4854
832.051	4710
832.19	4733
832.329	4828
832.467	4675
832.606	4656
832.744	4721
832.883	4714
833.022	4698
833.16	4774
833.299	4816
833.437	4835
833.576	4831
833.714	4850
833.852	4854
833.991	4858
834.129	4930
834.267	4927
834.406	4923
834.544	4965
834.682	5003
834.821	4980
834.959	5185
835.097	5022
835.235	5143
835.373	5064
835.511	5094
835.65	5052
835.788	5010
835.926	4877
836.064	4847
836.202	4908
836.34	5189
836.478	5227
836.615	5064
836.753	5212
836.891	5239
837.029	5193
837.167	5208
837.305	5155
837.443	5147
837.58	5090
837.718	5254
837.856	5197
837.993	5185
838.131	5269
838.269	5178
838.406	5185
838.544	5178
838.681	5010
838.819	5033
838.956	4847
839.094	4889
839.231	4976
839.369	5098
839.506	5391
839.643	5269
839.781	5022
839.918	4965
840.055	5109
840.193	5086
840.33	5117
840.467	5098
840.604	5151
840.742	5425
840.879	5105
841.016	5105
841.153	5121
841.29	5311
841.427	5330
841.564	5326
841.701	5376
841.838	5231
841.975	5254
842.112	5216
842.249	5140
842.385	5067
842.522	5311
842.659	5181
842.796	5174
842.933	5124
843.069	5166
843.206	5147
843.343	5303
843.479	5181
843.616	5239
843.752	5018
843.889	4995
844.025	5227
844.162	5029
844.298	5201
844.435	5029
844.571	5033
844.708	5181
844.844	5311
844.98	5357
845.117	5269
845.253	5113
845.389	5079
845.525	5185
845.661	5170
845.798	5045
845.934	5174
846.07	5029
846.206	5204
846.342	5292
846.478	5155
846.614	5010
846.75	4949
846.886	4938
847.022	5147
847.158	5079
847.294	5010
847.429	5083
847.565	5045
847.701	5299
847.837	4892
847.972	4824
848.108	4946
848.244	4911
848.379	4790
848.515	4755
848.65	4706
848.786	4767
848.921	4778
849.057	4850
849.192	4873
849.328	4824
849.463	4835
849.598	4812
849.734	4733
849.869	4729
850.004	4668
850.14	4637
850.275	4550
850.41	4504
850.545	4535
850.68	4622
850.815	4626
850.95	4630
851.085	4835
851.22	4748
851.355	4675
851.49	4561
851.625	4622
851.76	4683
851.895	4596
852.03	4558
852.165	4641
852.299	4740
852.434	4816
852.569	4748
852.703	4774
852.838	4839
852.973	4904
853.107	4930
853.242	4748
853.376	4641
853.511	4577
853.645	4592
853.78	4786
853.914	4683
854.048	4668
854.183	4675
854.317	4740
854.451	4870
854.585	4672
854.72	4645
854.854	4733
854.988	4588
855.122	4637
855.256	4550
855.39	4626
855.524	4759
855.658	4736
855.792	4717
855.926	4675
856.06	4733
856.194	4801
856.327	4706
856.461	4660
856.595	4626
856.729	4626
856.862	4752
856.996	4706
857.13	4717
857.263	4801
857.397	4736
857.53	4660
857.664	4664
857.797	4744
857.931	4771
858.064	4702
858.197	4782
858.331	4740
858.464	4573
858.597	4538
858.731	4599
858.864	4641
858.997	4607
859.13	4653
859.263	4672
859.396	4664
859.529	4546
859.662	4561
859.795	4527
859.928	4653
860.061	4748
860.194	4774
860.327	4561
860.46	4516
860.592	4664
860.725	4717
860.858	4725
860.99	4538
861.123	4546
861.256	4504
861.388	4615
861.521	5299
861.653	4474
861.786	4432
861.918	4470
862.05	4470
862.183	4538
862.315	4588
862.447	4683
862.58	4546
862.712	4329
862.844	4360
862.976	4451
863.108	4504
863.24	4862
863.372	4356
863.504	4428
863.636	4409
863.768	4493
863.9	4424
864.032	4367
864.164	4405
864.296	4474
864.428	4542
864.559	4542
864.691	4516
864.823	4542
864.954	4500
865.086	4485
865.217	4478
865.349	4383
865.48	4504
865.612	4504
865.743	4603
865.875	4489
866.006	4386
866.137	4466
866.269	4481
866.4	4459
866.531	4375
866.662	4462
866.793	4428
866.924	4413
867.055	4508
867.186	4466
867.317	4451
867.448	4341
867.579	4402
867.71	4363
867.841	4398
867.972	4470
868.103	4455
868.233	4436
868.364	4478
868.495	4516
868.625	4641
868.756	4714
868.886	4577
869.017	4634
869.147	4778
869.278	4710
869.408	4660
869.539	4630
869.669	4736
869.799	4607
869.929	4721
870.06	4740
870.19	4923
870.32	4911
870.45	4968
870.58	4991
870.71	5071
870.84	5067
870.97	4961
871.1	4854
871.23	5113
871.36	5090
871.489	5010
871.619	5067
871.749	5056
871.879	5117
872.008	5155
872.138	5083
872.267	4965
872.397	4881
872.526	4774
872.656	4717
872.785	4805
872.915	4938
873.044	5048
873.173	4949
873.303	4934
873.432	4961
873.561	4934
873.69	4843
873.819	4847
873.948	4870
874.077	4889
874.206	4752
874.335	4771
874.464	4930
874.593	5006
874.722	4949
874.851	5014
874.979	5014
875.108	5056
875.237	4908
875.365	4915
875.494	4896
875.623	4919
875.751	4862
875.88	4862
876.008	4965
876.136	5037
876.265	5174
876.393	5334
876.521	5242
876.65	5265
876.778	5174
876.906	5117
877.034	4999
877.162	5064
877.29	4987
877.418	5022
877.546	5060
877.674	5067
877.802	4999
877.93	5003
878.058	4919
878.185	4904
878.313	4919
878.441	4953
878.568	4782
878.696	4908
878.824	4968
878.951	5006
879.079	5170
879.206	5299
879.333	5121
879.461	4961
879.588	4968
879.715	5048
879.842	5193
879.97	4984
880.097	4767
880.224	4771
880.351	4774
880.478	4786
880.605	4790
880.732	4774
880.859	5090
880.986	4873
881.112	4881
881.239	4805
881.366	4672
881.493	4603
881.619	4580
881.746	4596
881.872	4683
881.999	4664
882.125	4649
882.252	4801
882.378	4835
882.505	4949
882.631	4752
882.757	4645
882.883	4725
883.01	4740
883.136	4672
883.262	4634
883.388	4634
883.514	4831
883.64	4858
883.766	4774
883.892	4679
884.018	4698
884.143	4881
884.269	5025
884.395	4687
884.52	4630
884.646	4675
884.772	4542
884.897	4569
885.023	4668
885.148	4763
885.274	4828
885.399	4797
885.524	4660
885.65	4729
885.775	4782
885.9	4698
886.025	4839
886.15	4831
886.275	4755
886.4	4626
886.525	4717
886.65	4683
886.775	4683
886.9	4889
887.025	4980
887.149	4801
887.274	4675
887.399	4603
887.523	4588
887.648	4550
887.773	4573
887.897	4748
888.021	4793
888.146	4721
888.27	4786
888.395	4877
888.519	4801
888.643	4831
888.767	4862
888.891	4706
889.015	4584
889.139	4622
889.263	4626
889.387	4771
889.511	4889
889.635	4778
889.759	4615
889.883	4641
890.006	4698
890.13	4786
890.254	4603
890.377	4630
890.501	4535
890.624	4489
890.748	4630
890.871	4516
890.995	4497
891.118	4367
891.241	4523
891.364	4504
891.488	4641
891.611	4432
891.734	4504
891.857	4588
891.98	4573
892.103	4630
892.226	4588
892.349	4542
892.471	4443
892.594	4538
892.717	4573
892.839	4558
892.962	4584
893.085	4664
893.207	4611
893.33	4455
893.452	4512
893.575	4653
893.697	4569
893.819	4797
893.941	4847
894.064	4755
894.186	4630
894.308	4573
894.43	4752
894.552	4771
894.674	4805
894.796	4558
894.918	4573
895.04	4546
895.161	4679
895.283	4622
895.405	4580
895.526	4641
895.648	4698
895.769	4637
895.891	4702
896.012	4736
896.134	4733
896.255	4740
896.376	4668
896.498	4603
896.619	4675
896.74	4607
896.861	4656
896.982	4908
897.103	5029
897.224	4831
897.345	4828
897.466	4626
897.587	4710
897.708	4904
897.828	4824
897.949	4641
898.07	4542
898.19	4653
898.311	4797
898.431	4660
898.552	4702
898.672	4774
898.792	4778
898.913	4714
899.033	4649
899.153	4504
899.273	4451
899.393	4462
899.513	4554
899.633	4535
899.753	4500
899.873	4512
899.993	4596
900.113	4565
900.232	4546
900.352	4554
900.472	4447
900.591	4379
900.711	4519
900.83	4455
900.95	4630
901.069	4634
901.189	4569
901.308	4356
901.427	4341
901.546	4379
901.665	4485
901.784	4523
901.904	4409
902.023	4325
902.141	4196
902.26	4147
902.379	4261
902.498	4261
902.617	4196
902.735	4383
902.854	4455
902.973	4394
903.091	4204
903.21	4192
903.328	4287
903.446	4306
903.565	4280
903.683	4344
903.801	4265
903.919	4383
904.038	4440
904.156	4333
904.274	4402
904.392	4421
904.51	4440
904.627	4462
904.745	4550
904.863	4656
904.981	4371
905.098	4265
905.216	4348
905.334	4383
905.451	4462
905.569	4386
905.686	4504
905.803	4580
905.921	4379
906.038	4546
906.155	4478
906.272	4383
906.389	4489
906.506	4310
906.623	4348
906.74	4375
906.857	4295
906.974	4386
907.091	4527
907.208	4672
907.324	4573
907.441	4531
907.557	4367
907.674	4318
907.79	4306
907.907	4344
908.023	4409
908.139	4470
908.256	4470
908.372	4428
908.488	4485
908.604	4371
908.72	4348
908.836	4352
908.952	4337
909.068	4405
909.184	4561
909.3	4447
909.415	4603
909.531	4565
909.647	4344
909.762	4386
909.878	4348
909.993	4421
910.108	4398
910.224	4443
910.339	4512
910.454	4367
910.57	4333
910.685	4348
910.8	4618
910.915	4497
911.03	4443
911.145	4303
911.259	4325
911.374	4333
911.489	4318
911.604	4265
911.718	4192
911.833	4143
911.947	4093
912.062	3983
912.176	4188
912.291	4204
912.405	4223
912.519	4409
912.633	4428
912.748	4360
912.862	4322
912.976	4230
913.09	4086
913.204	4173
913.318	4280
913.431	4379
913.545	4344
913.659	4390
913.772	4337
913.886	4211
914	4177
914.113	4348
914.226	4386
914.34	4356
914.453	4207
914.566	4363
914.68	4268
914.793	4344
914.906	4154
915.019	4097
915.132	4071
915.245	4181
915.358	4211
915.47	4227
915.583	4253
915.696	4246
915.809	4409
915.921	4394
916.034	4219
916.146	4265
916.259	4215
916.371	4379
916.483	4394
916.595	4230
916.708	4341
916.82	4318
916.932	4341
917.044	4337
917.156	4318
917.268	4230
917.38	4299
917.491	4257
917.603	4371
917.715	4447
917.826	4432
917.938	4379
918.049	4238
918.161	4455
918.272	4527
918.384	4592
918.495	4451
918.606	4299
918.717	4306
918.828	4379
918.939	4360
919.05	4253
919.161	4318
919.272	4154
919.383	4242
919.494	4519
919.604	4668
919.715	4459
919.826	4386
919.936	4455
920.047	4561
920.157	4527
920.267	4748
920.378	4588
920.488	4504
920.598	4733
920.708	4911
920.818	4767
920.928	4767
921.038	4991
921.148	4957
921.258	4679
921.368	4622
921.477	4561
921.587	4481
921.697	4409
921.806	4626
921.916	4459
922.025	4287
922.134	4325
922.244	4242
922.353	4356
922.462	4219
922.571	4181
922.68	4067
922.789	4067
922.898	4128
923.007	4063
923.116	4169
923.224	4109
923.333	4143
923.442	4044
923.55	3975
923.659	4063
923.767	4162
923.876	4032
923.984	4207
924.092	3994
924.201	4131
924.309	4135
924.417	4162
924.525	4135
924.633	4131
924.741	5094
924.849	3968
924.956	4207
925.064	3994
925.172	3888
925.279	3994
925.387	4090
925.494	4051
925.602	4249
925.709	4253
925.816	4063
925.924	4173
926.031	4249
926.138	4196
926.245	4253
926.352	4154
926.459	4268
926.566	4291
926.673	4158
926.779	4063
926.886	4143
926.993	3998
927.099	3960
927.206	3953
927.312	3956
927.419	4097
927.525	4044
927.631	4135
927.737	3979
927.843	3972
927.95	3854
928.056	3941
928.162	4078
928.267	4082
928.373	4714
928.479	4147
928.585	3915
928.69	4021
928.796	4055
928.901	3964
929.007	3876
929.112	4048
929.218	4021
929.323	3979
929.428	3987
929.533	4105
929.638	3953
929.743	3975
929.848	4086
929.953	4044
930.058	3949
930.163	3816
930.267	3861
930.372	3994
930.477	3831
930.581	4059
930.685	3953
930.79	3816
930.894	3941
930.998	3880
931.103	4048
931.207	3736
931.311	3663
931.415	3667
931.519	3549
931.623	3545
