Data from test_V78500241_718.txt Node
Date: Fri Mar 25 16:53:59 CST 2022
User: usil
Spectrometer: V785-0024
Trigger mode: 0
Integration Time (sec): 4.000000E-1
Scans to average: 1
Nonlinearity correction enabled: false
Boxcar width: 0
Storing dark spectrum: false
XAxis mode: Wavelengths
Number of Pixels in Spectrum: 1024
>>>>>Begin Spectral Data<<<<<
801.071	8058
801.214	8005
801.356	7928
801.499	7894
801.641	7837
801.783	7849
801.926	7978
802.068	8035
802.211	8050
802.353	7989
802.496	7970
802.638	7925
802.78	7837
802.923	7921
803.065	7909
803.208	7811
803.35	8024
803.492	8123
803.635	8221
803.777	8058
803.919	8157
804.061	8370
804.204	8103
804.346	8062
804.488	8062
804.63	8161
804.773	8073
804.915	8096
805.057	8298
805.199	8187
805.341	8176
805.483	8248
805.626	8305
805.768	8111
805.91	8275
806.052	8240
806.194	8161
806.336	8358
806.478	8145
806.62	8073
806.762	8168
806.904	8267
807.046	8488
807.188	8343
807.33	8358
807.472	8366
807.614	8240
807.756	8134
807.898	7970
808.04	7883
808.182	7875
808.324	7875
808.465	7917
808.607	8138
808.749	8149
808.891	8286
809.033	8244
809.174	8202
809.316	8039
809.458	8054
809.6	8031
809.741	8046
809.883	8020
810.025	8065
810.166	8062
810.308	8035
810.45	8073
810.591	7902
810.733	7780
810.875	7670
811.016	7586
811.158	7472
811.299	7567
811.441	7700
811.582	7696
811.724	7563
811.865	7514
812.007	7571
812.148	7601
812.29	7586
812.431	7723
812.573	7875
812.714	7963
812.855	8107
812.997	8191
813.138	8381
813.279	8199
813.421	8103
813.562	7955
813.703	7860
813.845	7795
813.986	7502
814.127	7358
814.268	7308
814.41	7171
814.551	7145
814.692	7209
814.833	7050
814.974	7084
815.115	7050
815.256	7008
815.397	7012
815.539	7012
815.68	6833
815.821	6810
815.962	6909
816.103	6829
816.244	6707
816.385	6601
816.526	6677
816.666	6525
816.807	6247
816.948	6486
817.089	6506
817.23	6467
817.371	6391
817.512	6403
817.653	6346
817.793	6380
817.934	6433
818.075	6422
818.216	6506
818.356	6388
818.497	6205
818.638	6155
818.778	6175
818.919	6140
819.06	6205
819.2	6331
819.341	6338
819.481	6346
819.622	6525
819.762	6783
819.903	6688
820.043	6669
820.184	6578
820.324	6627
820.465	6669
820.605	6627
820.746	6631
820.886	6509
821.026	6726
821.167	6692
821.307	6787
821.447	6692
821.588	6673
821.728	6631
821.868	6483
822.008	6311
822.149	6384
822.289	6429
822.429	6148
822.569	6110
822.709	6068
822.849	5904
822.99	5908
823.13	5927
823.27	5859
823.41	5824
823.55	5802
823.69	5729
823.83	5828
823.97	5718
824.11	5604
824.25	5505
824.389	5539
824.529	5558
824.669	5535
824.809	5642
824.949	5672
825.089	5551
825.228	5558
825.368	5353
825.508	5357
825.648	5402
825.787	5383
825.927	5429
826.067	5303
826.206	5337
826.346	5452
826.485	5440
826.625	5429
826.765	5581
826.904	5463
827.044	5307
827.183	5227
827.323	5151
827.462	5280
827.601	5181
827.741	5223
827.88	5250
828.02	5147
828.159	5280
828.298	5307
828.437	5398
828.577	5296
828.716	5509
828.855	5353
828.994	5212
829.134	5174
829.273	5227
829.412	5121
829.551	5124
829.69	5140
829.829	5261
829.968	5337
830.107	5280
830.246	5284
830.385	5170
830.524	5151
830.663	5083
830.802	4968
830.941	4919
831.08	4949
831.219	4987
831.357	5018
831.496	5178
831.635	4927
831.774	4885
831.913	4915
832.051	4740
832.19	4755
832.329	4850
832.467	4664
832.606	4634
832.744	4736
832.883	4740
833.022	4706
833.16	4717
833.299	4835
833.437	4839
833.576	4847
833.714	4881
833.852	4847
833.991	4942
834.129	4930
834.267	4991
834.406	4908
834.544	4991
834.682	4953
834.821	4999
834.959	5159
835.097	4995
835.235	5170
835.373	5041
835.511	5128
835.65	5006
835.788	5033
835.926	4946
836.064	4885
836.202	4946
836.34	5201
836.478	5231
836.615	5170
836.753	5208
836.891	5261
837.029	5246
837.167	5178
837.305	5140
837.443	5162
837.58	5117
837.718	5239
837.856	5197
837.993	5121
838.131	5250
838.269	5155
838.406	5223
838.544	5181
838.681	5018
838.819	5029
838.956	4892
839.094	4892
839.231	5025
839.369	5121
839.506	5440
839.643	5265
839.781	5102
839.918	5025
840.055	5083
840.193	5083
840.33	5090
840.467	5162
840.604	5220
840.742	5452
840.879	5083
841.016	5098
841.153	5162
841.29	5364
841.427	5341
841.564	5292
841.701	5315
841.838	5341
841.975	5174
842.112	5277
842.249	5178
842.385	5071
842.522	5307
842.659	5223
842.796	5223
842.933	5201
843.069	5136
843.206	5140
843.343	5311
843.479	5204
843.616	5273
843.752	5041
843.889	5045
844.025	5204
844.162	5006
844.298	5235
844.435	5079
844.571	5094
844.708	5166
844.844	5360
844.98	5273
845.117	5292
845.253	5143
845.389	5083
845.525	5166
845.661	5170
845.798	5048
845.934	5140
846.07	5090
846.206	5227
846.342	5265
846.478	5212
846.614	5060
846.75	5003
846.886	4938
847.022	5121
847.158	5075
847.294	5029
847.429	5132
847.565	5071
847.701	5284
847.837	4866
847.972	4835
848.108	4980
848.244	4976
848.379	4828
848.515	4683
848.65	4702
848.786	4740
848.921	4812
849.057	4900
849.192	4927
849.328	4790
849.463	4881
849.598	4843
849.734	4763
849.869	4679
850.004	4653
850.14	4622
850.275	4637
850.41	4538
850.545	4558
850.68	4637
850.815	4637
850.95	4599
851.085	4839
851.22	4771
851.355	4656
851.49	4622
851.625	4675
851.76	4698
851.895	4550
852.03	4584
852.165	4596
852.299	4710
852.434	4816
852.569	4744
852.703	4793
852.838	4839
852.973	4949
853.107	4949
853.242	4714
853.376	4660
853.511	4542
853.645	4668
853.78	4839
853.914	4656
854.048	4683
854.183	4679
854.317	4702
854.451	4866
854.585	4702
854.72	4698
854.854	4744
854.988	4584
855.122	4626
855.256	4550
855.39	4698
855.524	4797
855.658	4683
855.792	4714
855.926	4763
856.06	4759
856.194	4790
856.327	4672
856.461	4611
856.595	4645
856.729	4634
856.862	4744
856.996	4729
857.13	4744
857.263	4763
857.397	4797
857.53	4645
857.664	4714
857.797	4763
857.931	4778
858.064	4694
858.197	4733
858.331	4706
858.464	4607
858.597	4489
858.731	4649
858.864	4653
858.997	4622
859.13	4702
859.263	4664
859.396	4660
859.529	4558
859.662	4569
859.795	4558
859.928	4599
860.061	4721
860.194	4740
860.327	4675
860.46	4603
860.592	4755
860.725	4687
860.858	4698
860.99	4565
861.123	4550
861.256	4554
861.388	4634
861.521	5421
861.653	4474
861.786	4443
861.918	4428
862.05	4481
862.183	4584
862.315	4611
862.447	4641
862.58	4554
862.712	4383
862.844	4363
862.976	4489
863.108	4440
863.24	4900
863.372	4341
863.504	4428
863.636	4402
863.768	4523
863.9	4455
864.032	4371
864.164	4398
864.296	4466
864.428	4512
864.559	4580
864.691	4493
864.823	4512
864.954	4481
865.086	4462
865.217	4440
865.349	4417
865.48	4436
865.612	4538
865.743	4611
865.875	4542
866.006	4424
866.137	4447
866.269	4455
866.4	4424
866.531	4443
866.662	4402
866.793	4432
866.924	4409
867.055	4493
867.186	4493
867.317	4424
867.448	4402
867.579	4413
867.71	4363
867.841	4367
867.972	4451
868.103	4459
868.233	4493
868.364	4478
868.495	4474
868.625	4634
868.756	4729
868.886	4599
869.017	4622
869.147	4778
869.278	4767
869.408	4675
869.539	4645
869.669	4714
869.799	4656
869.929	4721
870.06	4729
870.19	4911
870.32	4923
870.45	4965
870.58	4987
870.71	5113
870.84	5086
870.97	4904
871.1	4896
871.23	5162
871.36	5132
871.489	5060
871.619	5041
871.749	5132
871.879	5124
872.008	5170
872.138	4999
872.267	4987
872.397	4858
872.526	4816
872.656	4740
872.785	4820
872.915	4923
873.044	5025
873.173	4984
873.303	4968
873.432	4919
873.561	4957
873.69	4915
873.819	4847
873.948	4930
874.077	4812
874.206	4831
874.335	4793
874.464	4957
874.593	5067
874.722	4908
874.851	5124
874.979	5064
875.108	5090
875.237	4957
875.365	4850
875.494	4953
875.623	4995
875.751	4752
875.88	4885
876.008	5010
876.136	5083
876.265	5193
876.393	5296
876.521	5250
876.65	5246
876.778	5140
876.906	5086
877.034	5067
877.162	5045
877.29	5022
877.418	5048
877.546	5048
877.674	5052
877.802	5041
877.93	4968
878.058	4995
878.185	4866
878.313	4938
878.441	4949
878.568	4790
878.696	4904
878.824	4968
878.951	4999
879.079	5098
879.206	5280
879.333	5113
879.461	4980
879.588	4961
879.715	5121
879.842	5216
879.97	5018
880.097	4774
880.224	4755
880.351	4831
880.478	4812
880.605	4801
880.732	4786
880.859	5079
880.986	4873
881.112	4911
881.239	4763
881.366	4660
881.493	4603
881.619	4550
881.746	4592
881.872	4653
881.999	4656
882.125	4702
882.252	4824
882.378	4816
882.505	4984
882.631	4835
882.757	4694
882.883	4721
883.01	4706
883.136	4641
883.262	4611
883.388	4611
883.514	4782
883.64	4873
883.766	4790
883.892	4687
884.018	4744
884.143	4881
884.269	5045
884.395	4698
884.52	4542
884.646	4653
884.772	4611
884.897	4512
885.023	4656
885.148	4801
885.274	4847
885.399	4778
885.524	4710
885.65	4725
885.775	4694
885.9	4752
886.025	4873
886.15	4774
886.275	4736
886.4	4660
886.525	4752
886.65	4702
886.775	4710
886.9	4938
887.025	4991
887.149	4774
887.274	4656
887.399	4603
887.523	4618
887.648	4596
887.773	4592
887.897	4717
888.021	4778
888.146	4725
888.27	4843
888.395	4923
888.519	4774
888.643	4790
888.767	4824
888.891	4622
889.015	4592
889.139	4675
889.263	4554
889.387	4771
889.511	4873
889.635	4786
889.759	4656
889.883	4634
890.006	4755
890.13	4793
890.254	4611
890.377	4698
890.501	4535
890.624	4531
890.748	4672
890.871	4512
890.995	4443
891.118	4386
891.241	4542
891.364	4554
891.488	4698
891.611	4512
891.734	4538
891.857	4588
891.98	4535
892.103	4626
892.226	4607
892.349	4519
892.471	4402
892.594	4535
892.717	4618
892.839	4565
892.962	4637
893.085	4660
893.207	4592
893.33	4485
893.452	4558
893.575	4580
893.697	4554
893.819	4801
893.941	4835
894.064	4782
894.186	4565
894.308	4596
894.43	4717
894.552	4809
894.674	4755
894.796	4546
894.918	4645
895.04	4573
895.161	4740
895.283	4660
895.405	4611
895.526	4626
895.648	4641
895.769	4694
895.891	4710
896.012	4687
896.134	4721
896.255	4630
896.376	4592
896.498	4698
896.619	4664
896.74	4596
896.861	4656
896.982	4911
897.103	5102
897.224	4862
897.345	4744
897.466	4679
897.587	4733
897.708	4915
897.828	4797
897.949	4668
898.07	4527
898.19	4615
898.311	4820
898.431	4702
898.552	4721
898.672	4809
898.792	4824
898.913	4725
899.033	4622
899.153	4504
899.273	4409
899.393	4500
899.513	4546
899.633	4527
899.753	4531
899.873	4554
899.993	4538
900.113	4584
900.232	4558
900.352	4531
900.472	4497
900.591	4421
900.711	4493
900.83	4421
900.95	4569
901.069	4622
901.189	4497
901.308	4329
901.427	4291
901.546	4363
901.665	4504
901.784	4508
901.904	4436
902.023	4265
902.141	4238
902.26	4135
902.379	4314
902.498	4303
902.617	4215
902.735	4344
902.854	4413
902.973	4352
903.091	4181
903.21	4246
903.328	4287
903.446	4249
903.565	4246
903.683	4333
903.801	4299
903.919	4432
904.038	4432
904.156	4276
904.274	4413
904.392	4405
904.51	4409
904.627	4470
904.745	4558
904.863	4641
904.981	4409
905.098	4371
905.216	4348
905.334	4478
905.451	4398
905.569	4424
905.686	4527
905.803	4565
905.921	4394
906.038	4519
906.155	4462
906.272	4352
906.389	4459
906.506	4318
906.623	4398
906.74	4413
906.857	4284
906.974	4329
907.091	4577
907.208	4649
907.324	4645
907.441	4481
907.557	4356
907.674	4367
907.79	4299
907.907	4375
908.023	4512
908.139	4470
908.256	4462
908.372	4451
908.488	4470
908.604	4363
908.72	4325
908.836	4310
908.952	4356
909.068	4394
909.184	4592
909.3	4493
909.415	4546
909.531	4554
909.647	4322
909.762	4363
909.878	4325
909.993	4436
910.108	4424
910.224	4398
910.339	4489
910.454	4341
910.57	4344
910.685	4280
910.8	4637
910.915	4584
911.03	4493
911.145	4318
911.259	4322
911.374	4363
911.489	4322
911.604	4310
911.718	4173
911.833	4200
911.947	4116
912.062	4044
912.176	4200
912.291	4196
912.405	4261
912.519	4504
912.633	4478
912.748	4402
912.862	4310
912.976	4200
913.09	4124
913.204	4162
913.318	4268
913.431	4291
913.545	4371
913.659	4432
913.772	4322
913.886	4253
914	4261
914.113	4337
914.226	4398
914.34	4417
914.453	4287
914.566	4390
914.68	4287
914.793	4276
914.906	4169
915.019	4112
915.132	4112
915.245	4211
915.358	4204
915.47	4223
915.583	4257
915.696	4295
915.809	4432
915.921	4367
916.034	4257
916.146	4268
916.259	4257
916.371	4398
916.483	4325
916.595	4242
916.708	4371
916.82	4318
916.932	4360
917.044	4363
917.156	4337
917.268	4204
917.38	4265
917.491	4219
917.603	4360
917.715	4409
917.826	4409
917.938	4367
918.049	4181
918.161	4394
918.272	4538
918.384	4512
918.495	4455
918.606	4268
918.717	4257
918.828	4329
918.939	4322
919.05	4268
919.161	4325
919.272	4181
919.383	4211
919.494	4413
919.604	4565
919.715	4386
919.826	4356
919.936	4413
920.047	4519
920.157	4432
920.267	4694
920.378	4497
920.488	4508
920.598	4683
920.708	4824
920.818	4767
920.928	4729
921.038	4980
921.148	4934
921.258	4599
921.368	4569
921.477	4478
921.587	4459
921.697	4386
921.806	4531
921.916	4466
922.025	4280
922.134	4299
922.244	4207
922.353	4291
922.462	4158
922.571	4150
922.68	4002
922.789	3949
922.898	4029
923.007	4002
923.116	4040
923.224	4082
923.333	4074
923.442	3998
923.55	3956
923.659	4051
923.767	4101
923.876	3991
923.984	4105
924.092	3968
924.201	4059
924.309	4082
924.417	4090
924.525	4101
924.633	4112
924.741	4987
924.849	3937
924.956	4150
925.064	3949
925.172	3911
925.279	3922
925.387	4067
925.494	4078
925.602	4177
925.709	4147
925.816	4048
925.924	4112
926.031	4227
926.138	4169
926.245	4230
926.352	4105
926.459	4230
926.566	4329
926.673	4177
926.779	4029
926.886	4048
926.993	3937
927.099	3972
927.206	3930
927.312	3915
927.419	4044
927.525	4010
927.631	4067
927.737	3964
927.843	3930
927.95	3842
928.056	3930
928.162	3964
928.267	4078
928.373	4706
928.479	4078
928.585	3869
928.69	4002
928.796	4044
928.901	3960
929.007	3819
929.112	4006
929.218	3953
929.323	3884
929.428	3934
929.533	4086
929.638	3873
929.743	3922
929.848	4006
929.953	3949
930.058	3880
930.163	3751
930.267	3762
930.372	3907
930.477	3800
930.581	4063
930.685	3945
930.79	3766
930.894	3850
930.998	3884
931.103	4006
931.207	3675
931.311	3679
931.415	3679
931.519	3504
931.623	3526
