Data from test_V78500241_2564.txt Node
Date: Fri Mar 25 17:06:49 CST 2022
User: usil
Spectrometer: V785-0024
Trigger mode: 0
Integration Time (sec): 4.000000E-1
Scans to average: 1
Nonlinearity correction enabled: false
Boxcar width: 0
Storing dark spectrum: false
XAxis mode: Wavelengths
Number of Pixels in Spectrum: 1024
>>>>>Begin Spectral Data<<<<<
801.071	8054
801.214	7993
801.356	7871
801.499	7860
801.641	7803
801.783	7814
801.926	7936
802.068	7925
802.211	7959
802.353	8020
802.496	7822
802.638	7868
802.78	7928
802.923	7940
803.065	7887
803.208	7826
803.35	7959
803.492	8039
803.635	8138
803.777	8005
803.919	8149
804.061	8408
804.204	8176
804.346	8088
804.488	7993
804.63	8088
804.773	8035
804.915	8134
805.057	8237
805.199	8172
805.341	8164
805.483	8320
805.626	8309
805.768	8081
805.91	8187
806.052	8180
806.194	8138
806.336	8259
806.478	8142
806.62	7982
806.762	8092
806.904	8237
807.046	8438
807.188	8336
807.33	8298
807.472	8336
807.614	8168
807.756	8145
807.898	7970
808.04	7814
808.182	7868
808.324	7951
808.465	7856
808.607	8123
808.749	8100
808.891	8168
809.033	8195
809.174	8123
809.316	8008
809.458	8005
809.6	7959
809.741	8088
809.883	8084
810.025	8100
810.166	8069
810.308	8008
810.45	7947
810.591	7902
810.733	7651
810.875	7613
811.016	7453
811.158	7480
811.299	7586
811.441	7738
811.582	7693
811.724	7594
811.865	7582
812.007	7586
812.148	7620
812.29	7594
812.431	7746
812.573	7807
812.714	7959
812.855	8081
812.997	8199
813.138	8298
813.279	8191
813.421	8062
813.562	7951
813.703	7871
813.845	7750
813.986	7403
814.127	7282
814.268	7126
814.41	7187
814.551	7175
814.692	7244
814.833	7118
814.974	7053
815.115	7107
815.256	7004
815.397	6932
815.539	6924
815.68	6825
815.821	6741
815.962	6882
816.103	6760
816.244	6719
816.385	6642
816.526	6639
816.666	6490
816.807	6357
816.948	6445
817.089	6437
817.23	6467
817.371	6418
817.512	6361
817.653	6403
817.793	6292
817.934	6437
818.075	6479
818.216	6498
818.356	6407
818.497	6220
818.638	6148
818.778	6091
818.919	6136
819.06	6121
819.2	6334
819.341	6357
819.481	6311
819.622	6563
819.762	6768
819.903	6684
820.043	6642
820.184	6574
820.324	6597
820.465	6684
820.605	6658
820.746	6642
820.886	6559
821.026	6658
821.167	6730
821.307	6833
821.447	6700
821.588	6623
821.728	6604
821.868	6448
822.008	6311
822.149	6403
822.289	6384
822.429	6144
822.569	6110
822.709	6148
822.849	5870
822.99	5870
823.13	5908
823.27	5923
823.41	5821
823.55	5733
823.69	5783
823.83	5786
823.97	5684
824.11	5539
824.25	5551
824.389	5512
824.529	5573
824.669	5551
824.809	5604
824.949	5649
825.089	5653
825.228	5570
825.368	5417
825.508	5284
825.648	5326
825.787	5425
825.927	5353
826.067	5330
826.206	5330
826.346	5402
826.485	5376
826.625	5383
826.765	5570
826.904	5543
827.044	5239
827.183	5242
827.323	5162
827.462	5216
827.601	5147
827.741	5162
827.88	5254
828.02	5113
828.159	5284
828.298	5337
828.437	5387
828.577	5269
828.716	5497
828.855	5326
828.994	5189
829.134	5193
829.273	5220
829.412	5189
829.551	5132
829.69	5201
829.829	5299
829.968	5398
830.107	5299
830.246	5334
830.385	5220
830.524	5204
830.663	5117
830.802	5067
830.941	4911
831.08	4923
831.219	5018
831.357	5033
831.496	5193
831.635	4976
831.774	4984
831.913	4892
832.051	4774
832.19	4847
832.329	4900
832.467	4725
832.606	4668
832.744	4740
832.883	4774
833.022	4797
833.16	4824
833.299	4847
833.437	4839
833.576	4923
833.714	4889
833.852	4896
833.991	4949
834.129	5029
834.267	4930
834.406	4995
834.544	5018
834.682	5014
834.821	5067
834.959	5212
835.097	5029
835.235	5178
835.373	5075
835.511	5136
835.65	5010
835.788	5094
835.926	4953
836.064	4904
836.202	5014
836.34	5170
836.478	5265
836.615	5151
836.753	5242
836.891	5307
837.029	5315
837.167	5231
837.305	5201
837.443	5193
837.58	5121
837.718	5296
837.856	5201
837.993	5193
838.131	5269
838.269	5239
838.406	5254
838.544	5227
838.681	5067
838.819	5060
838.956	4987
839.094	4938
839.231	5025
839.369	5079
839.506	5474
839.643	5239
839.781	5079
839.918	5033
840.055	5189
840.193	5132
840.33	5105
840.467	5170
840.604	5208
840.742	5459
840.879	5166
841.016	5113
841.153	5220
841.29	5398
841.427	5349
841.564	5368
841.701	5398
841.838	5360
841.975	5273
842.112	5292
842.249	5189
842.385	5090
842.522	5376
842.659	5201
842.796	5166
842.933	5239
843.069	5181
843.206	5159
843.343	5326
843.479	5254
843.616	5326
843.752	5037
843.889	5052
844.025	5227
844.162	5033
844.298	5269
844.435	5098
844.571	5075
844.708	5231
844.844	5326
844.98	5318
845.117	5368
845.253	5143
845.389	5136
845.525	5159
845.661	5181
845.798	5098
845.934	5197
846.07	5083
846.206	5208
846.342	5311
846.478	5231
846.614	5060
846.75	5010
846.886	4991
847.022	5151
847.158	4991
847.294	5140
847.429	5121
847.565	5067
847.701	5341
847.837	4858
847.972	4835
848.108	4961
848.244	5033
848.379	4835
848.515	4729
848.65	4714
848.786	4771
848.921	4820
849.057	4923
849.192	4908
849.328	4866
849.463	4900
849.598	4847
849.734	4824
849.869	4759
850.004	4710
850.14	4725
850.275	4573
850.41	4588
850.545	4596
850.68	4710
850.815	4645
850.95	4634
851.085	4915
851.22	4714
851.355	4653
851.49	4645
851.625	4706
851.76	4679
851.895	4599
852.03	4596
852.165	4664
852.299	4736
852.434	4824
852.569	4812
852.703	4793
852.838	4870
852.973	4949
853.107	4930
853.242	4790
853.376	4702
853.511	4546
853.645	4634
853.78	4809
853.914	4725
854.048	4675
854.183	4664
854.317	4744
854.451	4843
854.585	4740
854.72	4634
854.854	4755
854.988	4618
855.122	4694
855.256	4565
855.39	4687
855.524	4782
855.658	4733
855.792	4721
855.926	4816
856.06	4740
856.194	4828
856.327	4771
856.461	4596
856.595	4618
856.729	4675
856.862	4797
856.996	4714
857.13	4767
857.263	4778
857.397	4843
857.53	4668
857.664	4752
857.797	4809
857.931	4858
858.064	4710
858.197	4824
858.331	4702
858.464	4656
858.597	4599
858.731	4615
858.864	4653
858.997	4599
859.13	4683
859.263	4683
859.396	4740
859.529	4637
859.662	4596
859.795	4615
859.928	4687
860.061	4782
860.194	4843
860.327	4660
860.46	4580
860.592	4755
860.725	4778
860.858	4755
860.99	4634
861.123	4497
861.256	4565
861.388	4660
861.521	5364
861.653	4519
861.786	4481
861.918	4519
862.05	4577
862.183	4580
862.315	4660
862.447	4675
862.58	4558
862.712	4462
862.844	4348
862.976	4523
863.108	4508
863.24	4752
863.372	4375
863.504	4493
863.636	4390
863.768	4535
863.9	4489
864.032	4398
864.164	4421
864.296	4470
864.428	4565
864.559	4592
864.691	4531
864.823	4531
864.954	4527
865.086	4542
865.217	4512
865.349	4493
865.48	4500
865.612	4516
865.743	4664
865.875	4519
866.006	4428
866.137	4508
866.269	4516
866.4	4497
866.531	4440
866.662	4481
866.793	4402
866.924	4413
867.055	4519
867.186	4451
867.317	4455
867.448	4371
867.579	4409
867.71	4451
867.841	4398
867.972	4466
868.103	4504
868.233	4455
868.364	4508
868.495	4554
868.625	4672
868.756	4778
868.886	4611
869.017	4656
869.147	4763
869.278	4816
869.408	4664
869.539	4679
869.669	4752
869.799	4645
869.929	4759
870.06	4748
870.19	4965
870.32	4946
870.45	4984
870.58	5041
870.71	5159
870.84	5136
870.97	4961
871.1	4942
871.23	5162
871.36	5105
871.489	5052
871.619	5147
871.749	5045
871.879	5143
872.008	5212
872.138	5018
872.267	4987
872.397	4870
872.526	4839
872.656	4729
872.785	4805
872.915	4987
873.044	5041
873.173	4995
873.303	4965
873.432	4961
873.561	5006
873.69	4923
873.819	4858
873.948	4927
874.077	4862
874.206	4748
874.335	4839
874.464	4877
874.593	5056
874.722	4980
874.851	5128
874.979	5071
875.108	5071
875.237	4942
875.365	4889
875.494	4911
875.623	4980
875.751	4843
875.88	4927
876.008	4987
876.136	5029
876.265	5223
876.393	5357
876.521	5235
876.65	5265
876.778	5174
876.906	5117
877.034	4984
877.162	5105
877.29	4991
877.418	5105
877.546	5064
877.674	5094
877.802	5064
877.93	5041
878.058	4965
878.185	4919
878.313	4930
878.441	4987
878.568	4824
878.696	4896
878.824	4953
878.951	5041
879.079	5151
879.206	5315
879.333	5102
879.461	5018
879.588	4991
879.715	5105
879.842	5220
879.97	5041
880.097	4843
880.224	4820
880.351	4858
880.478	4850
880.605	4835
880.732	4858
880.859	5067
880.986	4938
881.112	4919
881.239	4805
881.366	4691
881.493	4664
881.619	4634
881.746	4653
881.872	4656
881.999	4675
882.125	4740
882.252	4809
882.378	4866
882.505	4995
882.631	4812
882.757	4702
882.883	4755
883.01	4759
883.136	4706
883.262	4603
883.388	4660
883.514	4790
883.64	4900
883.766	4790
883.892	4698
884.018	4752
884.143	4915
884.269	5022
884.395	4664
884.52	4687
884.646	4683
884.772	4622
884.897	4656
885.023	4725
885.148	4839
885.274	4915
885.399	4812
885.524	4702
885.65	4725
885.775	4740
885.9	4744
886.025	4843
886.15	4805
886.275	4733
886.4	4675
886.525	4721
886.65	4706
886.775	4683
886.9	4919
887.025	5033
887.149	4767
887.274	4698
887.399	4607
887.523	4588
887.648	4592
887.773	4615
887.897	4790
888.021	4786
888.146	4691
888.27	4805
888.395	4877
888.519	4786
888.643	4858
888.767	4824
888.891	4637
889.015	4607
889.139	4649
889.263	4622
889.387	4786
889.511	4873
889.635	4820
889.759	4694
889.883	4649
890.006	4740
890.13	4828
890.254	4603
890.377	4675
890.501	4535
890.624	4523
890.748	4641
890.871	4481
890.995	4428
891.118	4383
891.241	4554
891.364	4527
891.488	4603
891.611	4504
891.734	4535
891.857	4653
891.98	4558
892.103	4687
892.226	4630
892.349	4546
892.471	4447
892.594	4561
892.717	4558
892.839	4599
892.962	4618
893.085	4687
893.207	4588
893.33	4538
893.452	4519
893.575	4679
893.697	4596
893.819	4774
893.941	4805
894.064	4805
894.186	4580
894.308	4580
894.43	4771
894.552	4820
894.674	4721
894.796	4500
894.918	4630
895.04	4615
895.161	4725
895.283	4607
895.405	4546
895.526	4672
895.648	4656
895.769	4771
895.891	4755
896.012	4736
896.134	4771
896.255	4691
896.376	4653
896.498	4615
896.619	4702
896.74	4645
896.861	4653
896.982	4923
897.103	5071
897.224	4782
897.345	4786
897.466	4653
897.587	4698
897.708	4854
897.828	4740
897.949	4656
898.07	4584
898.19	4653
898.311	4847
898.431	4710
898.552	4733
898.672	4828
898.792	4805
898.913	4767
899.033	4630
899.153	4561
899.273	4451
899.393	4489
899.513	4512
899.633	4569
899.753	4592
899.873	4516
899.993	4542
900.113	4493
900.232	4592
900.352	4523
900.472	4577
900.591	4375
900.711	4565
900.83	4466
900.95	4615
901.069	4710
901.189	4527
901.308	4356
901.427	4341
901.546	4383
901.665	4493
901.784	4508
901.904	4386
902.023	4352
902.141	4253
902.26	4268
902.379	4341
902.498	4242
902.617	4227
902.735	4383
902.854	4474
902.973	4363
903.091	4268
903.21	4280
903.328	4329
903.446	4306
903.565	4299
903.683	4413
903.801	4337
903.919	4421
904.038	4493
904.156	4371
904.274	4466
904.392	4447
904.51	4443
904.627	4523
904.745	4653
904.863	4664
904.981	4500
905.098	4379
905.216	4409
905.334	4489
905.451	4462
905.569	4478
905.686	4588
905.803	4622
905.921	4489
906.038	4592
906.155	4546
906.272	4413
906.389	4527
906.506	4341
906.623	4413
906.74	4432
906.857	4356
906.974	4409
907.091	4618
907.208	4774
907.324	4622
907.441	4554
907.557	4371
907.674	4413
907.79	4432
907.907	4459
908.023	4527
908.139	4485
908.256	4474
908.372	4523
908.488	4512
908.604	4383
908.72	4394
908.836	4432
908.952	4390
909.068	4493
909.184	4675
909.3	4546
909.415	4603
909.531	4611
909.647	4344
909.762	4409
909.878	4402
909.993	4489
910.108	4428
910.224	4466
910.339	4523
910.454	4455
910.57	4363
910.685	4394
910.8	4729
910.915	4664
911.03	4535
911.145	4322
911.259	4398
911.374	4409
911.489	4314
911.604	4322
911.718	4219
911.833	4261
911.947	4150
912.062	4071
912.176	4261
912.291	4322
912.405	4295
912.519	4493
912.633	4535
912.748	4413
912.862	4348
912.976	4253
913.09	4128
913.204	4207
913.318	4295
913.431	4402
913.545	4428
913.659	4462
913.772	4398
913.886	4238
914	4257
914.113	4375
914.226	4470
914.34	4436
914.453	4246
914.566	4436
914.68	4310
914.793	4360
914.906	4204
915.019	4135
915.132	4154
915.245	4196
915.358	4261
915.47	4337
915.583	4249
915.696	4371
915.809	4440
915.921	4497
916.034	4280
916.146	4291
916.259	4291
916.371	4421
916.483	4421
916.595	4318
916.708	4379
916.82	4337
916.932	4394
917.044	4325
917.156	4371
917.268	4291
917.38	4318
917.491	4295
917.603	4371
917.715	4481
917.826	4489
917.938	4367
918.049	4257
918.161	4436
918.272	4561
918.384	4573
918.495	4519
918.606	4341
918.717	4299
918.828	4318
918.939	4405
919.05	4318
919.161	4398
919.272	4177
919.383	4253
919.494	4500
919.604	4706
919.715	4417
919.826	4413
919.936	4451
920.047	4561
920.157	4542
920.267	4748
920.378	4584
920.488	4569
920.598	4744
920.708	4934
920.818	4828
920.928	4797
921.038	4953
921.148	4953
921.258	4679
921.368	4573
921.477	4489
921.587	4481
921.697	4394
921.806	4603
921.916	4443
922.025	4257
922.134	4303
922.244	4287
922.353	4398
922.462	4227
922.571	4162
922.68	4051
922.789	4044
922.898	4055
923.007	4036
923.116	4124
923.224	4078
923.333	4105
923.442	4048
923.55	4006
923.659	4055
923.767	4181
923.876	4048
923.984	4116
924.092	3975
924.201	4131
924.309	4181
924.417	4166
924.525	4090
924.633	4158
924.741	5079
924.849	3998
924.956	4158
925.064	3956
925.172	3956
925.279	3994
925.387	4093
925.494	4097
925.602	4242
925.709	4211
925.816	4097
925.924	4177
926.031	4265
926.138	4253
926.245	4211
926.352	4135
926.459	4287
926.566	4329
926.673	4166
926.779	4128
926.886	4150
926.993	4013
927.099	3994
927.206	3979
927.312	3987
927.419	4086
927.525	4032
927.631	4139
927.737	3987
927.843	3968
927.95	3899
928.056	3968
928.162	4013
928.267	4071
928.373	4603
928.479	4147
928.585	3915
928.69	4055
928.796	4097
928.901	4021
929.007	3876
929.112	4010
929.218	4021
929.323	3991
929.428	3987
929.533	4143
929.638	3934
929.743	4021
929.848	4074
929.953	3998
930.058	3960
930.163	3850
930.267	3854
930.372	4021
930.477	3838
930.581	4124
930.685	4006
930.79	3869
930.894	3930
930.998	3854
931.103	4090
931.207	3736
931.311	3740
931.415	3709
931.519	3561
931.623	3564
