Data from test_V78500241_2213.txt Node
Date: Fri Mar 25 17:04:23 CST 2022
User: usil
Spectrometer: V785-0024
Trigger mode: 0
Integration Time (sec): 4.000000E-1
Scans to average: 1
Nonlinearity correction enabled: false
Boxcar width: 0
Storing dark spectrum: false
XAxis mode: Wavelengths
Number of Pixels in Spectrum: 1024
>>>>>Begin Spectral Data<<<<<
801.071	8001
801.214	8046
801.356	7822
801.499	7814
801.641	7780
801.783	7765
801.926	7989
802.068	7879
802.211	7974
802.353	7967
802.496	7818
802.638	7826
802.78	7928
802.923	7883
803.065	7811
803.208	7871
803.35	7913
803.492	8084
803.635	8149
803.777	7944
803.919	8050
804.061	8469
804.204	8145
804.346	8024
804.488	7947
804.63	7993
804.773	7989
804.915	8126
805.057	8248
805.199	8115
805.341	8176
805.483	8229
805.626	8176
805.768	8134
805.91	8172
806.052	8183
806.194	8020
806.336	8294
806.478	8100
806.62	8100
806.762	8115
806.904	8275
807.046	8438
807.188	8362
807.33	8286
807.472	8305
807.614	8100
807.756	8115
807.898	8058
808.04	7856
808.182	7841
808.324	7852
808.465	7936
808.607	8088
808.749	8073
808.891	8286
809.033	8358
809.174	8214
809.316	8077
809.458	8111
809.6	8035
809.741	8024
809.883	7947
810.025	8107
810.166	8058
810.308	8024
810.45	7887
810.591	7792
810.733	7708
810.875	7632
811.016	7521
811.158	7468
811.299	7510
811.441	7700
811.582	7685
811.724	7578
811.865	7563
812.007	7578
812.148	7586
812.29	7658
812.431	7727
812.573	7902
812.714	7967
812.855	8039
812.997	8161
813.138	8248
813.279	8126
813.421	8073
813.562	7803
813.703	7708
813.845	7723
813.986	7449
814.127	7232
814.268	7156
814.41	7206
814.551	7183
814.692	7247
814.833	7110
814.974	7129
815.115	7023
815.256	7000
815.397	6951
815.539	6977
815.68	6734
815.821	6719
815.962	6856
816.103	6741
816.244	6703
816.385	6582
816.526	6593
816.666	6544
816.807	6300
816.948	6429
817.089	6437
817.23	6399
817.371	6418
817.512	6395
817.653	6426
817.793	6346
817.934	6361
818.075	6464
818.216	6388
818.356	6441
818.497	6270
818.638	6129
818.778	6155
818.919	6144
819.06	6190
819.2	6262
819.341	6323
819.481	6414
819.622	6513
819.762	6696
819.903	6677
820.043	6528
820.184	6585
820.324	6627
820.465	6703
820.605	6669
820.746	6646
820.886	6547
821.026	6646
821.167	6722
821.307	6791
821.447	6760
821.588	6673
821.728	6555
821.868	6448
822.008	6319
822.149	6350
822.289	6300
822.429	6140
822.569	6057
822.709	6178
822.849	5946
822.99	5897
823.13	5893
823.27	5973
823.41	5802
823.55	5764
823.69	5809
823.83	5767
823.97	5630
824.11	5581
824.25	5459
824.389	5528
824.529	5623
824.669	5554
824.809	5630
824.949	5668
825.089	5668
825.228	5638
825.368	5417
825.508	5360
825.648	5311
825.787	5334
825.927	5444
826.067	5353
826.206	5284
826.346	5349
826.485	5421
826.625	5425
826.765	5570
826.904	5493
827.044	5235
827.183	5166
827.323	5117
827.462	5273
827.601	5147
827.741	5178
827.88	5204
828.02	5140
828.159	5242
828.298	5334
828.437	5326
828.577	5303
828.716	5425
828.855	5311
828.994	5143
829.134	5178
829.273	5193
829.412	5143
829.551	5151
829.69	5162
829.829	5254
829.968	5391
830.107	5250
830.246	5235
830.385	5178
830.524	5136
830.663	5071
830.802	4934
830.941	4904
831.08	4873
831.219	4965
831.357	4984
831.496	5155
831.635	4904
831.774	4862
831.913	4843
832.051	4698
832.19	4687
832.329	4816
832.467	4649
832.606	4626
832.744	4702
832.883	4729
833.022	4721
833.16	4767
833.299	4805
833.437	4850
833.576	4843
833.714	4854
833.852	4904
833.991	4923
834.129	4904
834.267	4915
834.406	4858
834.544	5010
834.682	4949
834.821	4923
834.959	5121
835.097	4972
835.235	5109
835.373	5052
835.511	5090
835.65	5029
835.788	5006
835.926	4843
836.064	4881
836.202	4873
836.34	5143
836.478	5273
836.615	5113
836.753	5189
836.891	5284
837.029	5246
837.167	5140
837.305	5143
837.443	5170
837.58	5064
837.718	5315
837.856	5178
837.993	5159
838.131	5227
838.269	5170
838.406	5197
838.544	5170
838.681	5037
838.819	4972
838.956	4877
839.094	4889
839.231	5018
839.369	5052
839.506	5398
839.643	5220
839.781	5052
839.918	5033
840.055	5128
840.193	5094
840.33	5094
840.467	5117
840.604	5170
840.742	5395
840.879	5075
841.016	5056
841.153	5155
841.29	5395
841.427	5277
841.564	5273
841.701	5353
841.838	5307
841.975	5197
842.112	5258
842.249	5117
842.385	5136
842.522	5341
842.659	5178
842.796	5155
842.933	5159
843.069	5197
843.206	5132
843.343	5273
843.479	5246
843.616	5258
843.752	5022
843.889	4999
844.025	5269
844.162	5003
844.298	5208
844.435	5037
844.571	4999
844.708	5201
844.844	5296
844.98	5341
845.117	5254
845.253	5121
845.389	5102
845.525	5151
845.661	5136
845.798	5018
845.934	5105
846.07	5045
846.206	5132
846.342	5292
846.478	5216
846.614	5056
846.75	4957
846.886	4930
847.022	5124
847.158	4972
847.294	5029
847.429	5056
847.565	5060
847.701	5303
847.837	4885
847.972	4816
848.108	4953
848.244	4949
848.379	4774
848.515	4714
848.65	4721
848.786	4729
848.921	4782
849.057	4812
849.192	4900
849.328	4774
849.463	4854
849.598	4786
849.734	4721
849.869	4710
850.004	4660
850.14	4653
850.275	4584
850.41	4516
850.545	4546
850.68	4584
850.815	4615
850.95	4630
851.085	4801
851.22	4786
851.355	4664
851.49	4588
851.625	4641
851.76	4630
851.895	4573
852.03	4535
852.165	4653
852.299	4721
852.434	4778
852.569	4740
852.703	4778
852.838	4862
852.973	4911
853.107	4866
853.242	4653
853.376	4698
853.511	4565
853.645	4615
853.78	4790
853.914	4702
854.048	4687
854.183	4660
854.317	4755
854.451	4820
854.585	4733
854.72	4645
854.854	4714
854.988	4630
855.122	4626
855.256	4538
855.39	4641
855.524	4782
855.658	4706
855.792	4656
855.926	4763
856.06	4721
856.194	4831
856.327	4679
856.461	4607
856.595	4611
856.729	4626
856.862	4721
856.996	4698
857.13	4687
857.263	4725
857.397	4786
857.53	4626
857.664	4733
857.797	4740
857.931	4744
858.064	4736
858.197	4687
858.331	4637
858.464	4622
858.597	4531
858.731	4611
858.864	4626
858.997	4596
859.13	4611
859.263	4649
859.396	4721
859.529	4573
859.662	4565
859.795	4519
859.928	4649
860.061	4752
860.194	4782
860.327	4569
860.46	4596
860.592	4717
860.725	4706
860.858	4717
860.99	4569
861.123	4485
861.256	4531
861.388	4569
861.521	5242
861.653	4478
861.786	4451
861.918	4417
862.05	4470
862.183	4531
862.315	4649
862.447	4653
862.58	4569
862.712	4363
862.844	4341
862.976	4481
863.108	4512
863.24	4797
863.372	4322
863.504	4432
863.636	4398
863.768	4474
863.9	4394
864.032	4394
864.164	4398
864.296	4455
864.428	4569
864.559	4523
864.691	4508
864.823	4542
864.954	4462
865.086	4462
865.217	4474
865.349	4409
865.48	4481
865.612	4474
865.743	4630
865.875	4504
866.006	4451
866.137	4470
866.269	4398
866.4	4417
866.531	4436
866.662	4367
866.793	4409
866.924	4417
867.055	4500
867.186	4466
867.317	4428
867.448	4318
867.579	4390
867.71	4398
867.841	4371
867.972	4466
868.103	4474
868.233	4504
868.364	4443
868.495	4474
868.625	4679
868.756	4778
868.886	4554
869.017	4588
869.147	4752
869.278	4771
869.408	4634
869.539	4664
869.669	4721
869.799	4607
869.929	4729
870.06	4702
870.19	4942
870.32	4892
870.45	4938
870.58	4987
870.71	5014
870.84	5086
870.97	4972
871.1	4942
871.23	5174
871.36	5113
871.489	5022
871.619	5060
871.749	5075
871.879	5147
872.008	5189
872.138	5045
872.267	5025
872.397	4866
872.526	4831
872.656	4691
872.785	4801
872.915	5006
873.044	5048
873.173	4938
873.303	4919
873.432	4881
873.561	4885
873.69	4919
873.819	4839
873.948	4904
874.077	4790
874.206	4698
874.335	4778
874.464	4915
874.593	5033
874.722	4984
874.851	5083
874.979	5090
875.108	5014
875.237	4885
875.365	4858
875.494	4889
875.623	4976
875.751	4820
875.88	4889
876.008	5003
876.136	5014
876.265	5231
876.393	5334
876.521	5235
876.65	5216
876.778	5121
876.906	5128
877.034	4991
877.162	5071
877.29	5010
877.418	5094
877.546	5033
877.674	5041
877.802	5041
877.93	4995
878.058	4927
878.185	4892
878.313	4968
878.441	4991
878.568	4767
878.696	4885
878.824	4991
878.951	5029
879.079	5109
879.206	5277
879.333	5048
879.461	4953
879.588	4995
879.715	5117
879.842	5246
879.97	5025
880.097	4782
880.224	4714
880.351	4782
880.478	4812
880.605	4763
880.732	4771
880.859	5109
880.986	4877
881.112	4896
881.239	4786
881.366	4641
881.493	4577
881.619	4630
881.746	4656
881.872	4618
881.999	4599
882.125	4683
882.252	4786
882.378	4805
882.505	4995
882.631	4805
882.757	4611
882.883	4774
883.01	4744
883.136	4691
883.262	4558
883.388	4641
883.514	4839
883.64	4881
883.766	4771
883.892	4637
884.018	4702
884.143	4896
884.269	5003
884.395	4645
884.52	4660
884.646	4649
884.772	4565
884.897	4550
885.023	4656
885.148	4752
885.274	4866
885.399	4778
885.524	4733
885.65	4641
885.775	4759
885.9	4721
886.025	4805
886.15	4805
886.275	4675
886.4	4641
886.525	4714
886.65	4641
886.775	4687
886.9	4900
887.025	5045
887.149	4786
887.274	4618
887.399	4577
887.523	4596
887.648	4573
887.773	4580
887.897	4782
888.021	4767
888.146	4683
888.27	4793
888.395	4904
888.519	4801
888.643	4801
888.767	4816
888.891	4668
889.015	4577
889.139	4626
889.263	4649
889.387	4714
889.511	4854
889.635	4801
889.759	4668
889.883	4599
890.006	4717
890.13	4801
890.254	4592
890.377	4634
890.501	4558
890.624	4519
890.748	4641
890.871	4485
890.995	4436
891.118	4405
891.241	4504
891.364	4538
891.488	4630
891.611	4474
891.734	4512
891.857	4596
891.98	4538
892.103	4622
892.226	4561
892.349	4542
892.471	4421
892.594	4470
892.717	4569
892.839	4573
892.962	4584
893.085	4683
893.207	4599
893.33	4481
893.452	4554
893.575	4656
893.697	4592
893.819	4759
893.941	4854
894.064	4736
894.186	4546
894.308	4550
894.43	4740
894.552	4801
894.674	4721
894.796	4561
894.918	4588
895.04	4546
895.161	4668
895.283	4626
895.405	4592
895.526	4660
895.648	4664
895.769	4664
895.891	4683
896.012	4736
896.134	4752
896.255	4626
896.376	4634
896.498	4653
896.619	4649
896.74	4580
896.861	4603
896.982	4911
897.103	5006
897.224	4812
897.345	4744
897.466	4675
897.587	4687
897.708	4854
897.828	4759
897.949	4668
898.07	4554
898.19	4649
898.311	4812
898.431	4679
898.552	4710
898.672	4782
898.792	4801
898.913	4717
899.033	4618
899.153	4542
899.273	4421
899.393	4497
899.513	4538
899.633	4455
899.753	4523
899.873	4500
899.993	4565
900.113	4516
900.232	4558
900.352	4527
900.472	4481
900.591	4421
900.711	4508
900.83	4405
900.95	4599
901.069	4691
901.189	4565
901.308	4375
901.427	4322
901.546	4402
901.665	4455
901.784	4489
901.904	4375
902.023	4314
902.141	4192
902.26	4162
902.379	4306
902.498	4249
902.617	4207
902.735	4421
902.854	4371
902.973	4314
903.091	4188
903.21	4215
903.328	4303
903.446	4257
903.565	4219
903.683	4363
903.801	4242
903.919	4344
904.038	4474
904.156	4333
904.274	4421
904.392	4383
904.51	4375
904.627	4470
904.745	4588
904.863	4656
904.981	4371
905.098	4295
905.216	4318
905.334	4405
905.451	4440
905.569	4493
905.686	4554
905.803	4561
905.921	4421
906.038	4554
906.155	4497
906.272	4459
906.389	4466
906.506	4325
906.623	4375
906.74	4371
906.857	4303
906.974	4367
907.091	4558
907.208	4672
907.324	4618
907.441	4542
907.557	4360
907.674	4348
907.79	4341
907.907	4413
908.023	4489
908.139	4538
908.256	4417
908.372	4478
908.488	4462
908.604	4344
908.72	4360
908.836	4398
908.952	4386
909.068	4512
909.184	4615
909.3	4481
909.415	4618
909.531	4516
909.647	4348
909.762	4398
909.878	4348
909.993	4462
910.108	4447
910.224	4440
910.339	4504
910.454	4432
910.57	4417
910.685	4398
910.8	4683
910.915	4675
911.03	4542
911.145	4356
911.259	4379
911.374	4390
911.489	4310
911.604	4318
911.718	4192
911.833	4185
911.947	4093
912.062	4086
912.176	4227
912.291	4325
912.405	4246
912.519	4523
912.633	4554
912.748	4394
912.862	4329
912.976	4204
913.09	4154
913.204	4181
913.318	4249
913.431	4398
913.545	4413
913.659	4489
913.772	4371
913.886	4230
914	4284
914.113	4402
914.226	4500
914.34	4413
914.453	4265
914.566	4474
914.68	4344
914.793	4371
914.906	4196
915.019	4177
915.132	4150
915.245	4219
915.358	4204
915.47	4276
915.583	4272
915.696	4329
915.809	4424
915.921	4398
916.034	4329
916.146	4276
916.259	4299
916.371	4405
916.483	4383
916.595	4299
916.708	4344
916.82	4314
916.932	4390
917.044	4360
917.156	4314
917.268	4284
917.38	4295
917.491	4284
917.603	4405
917.715	4447
917.826	4447
917.938	4352
918.049	4257
918.161	4424
918.272	4596
918.384	4577
918.495	4531
918.606	4299
918.717	4253
918.828	4360
918.939	4402
919.05	4303
919.161	4386
919.272	4177
919.383	4272
919.494	4462
919.604	4687
919.715	4508
919.826	4367
919.936	4478
920.047	4569
920.157	4546
920.267	4675
920.378	4558
920.488	4519
920.598	4729
920.708	4938
920.818	4809
920.928	4771
921.038	4957
921.148	4927
921.258	4679
921.368	4615
921.477	4531
921.587	4451
921.697	4409
921.806	4630
921.916	4474
922.025	4242
922.134	4310
922.244	4287
922.353	4333
922.462	4166
922.571	4188
922.68	4059
922.789	4013
922.898	4101
923.007	3994
923.116	4128
923.224	4116
923.333	4105
923.442	4010
923.55	3983
923.659	4029
923.767	4135
923.876	4013
923.984	4154
924.092	4006
924.201	4090
924.309	4120
924.417	4166
924.525	4105
924.633	4135
924.741	5075
924.849	3918
924.956	4173
925.064	3994
925.172	3960
925.279	3972
925.387	4124
925.494	4109
925.602	4242
925.709	4200
925.816	4071
925.924	4131
926.031	4253
926.138	4200
926.245	4272
926.352	4147
926.459	4261
926.566	4371
926.673	4158
926.779	4105
926.886	4120
926.993	4029
927.099	3960
927.206	3937
927.312	3998
927.419	4101
927.525	4036
927.631	4093
927.737	4017
927.843	3987
927.95	3899
928.056	3983
928.162	3991
928.267	4109
928.373	4679
928.479	4112
928.585	3854
928.69	4055
928.796	4124
928.901	4017
929.007	3869
929.112	4013
929.218	3998
929.323	3994
929.428	4017
929.533	4097
929.638	3953
929.743	3983
929.848	4074
929.953	4036
930.058	3949
930.163	3873
930.267	3861
930.372	4006
930.477	3831
930.581	4112
930.685	3945
930.79	3819
930.894	3896
930.998	3876
931.103	4097
931.207	3740
931.311	3751
931.415	3717
931.519	3530
931.623	3580
