Data from test_V78500241_1185.txt Node
Date: Fri Mar 25 16:57:14 CST 2022
User: usil
Spectrometer: V785-0024
Trigger mode: 0
Integration Time (sec): 4.000000E-1
Scans to average: 1
Nonlinearity correction enabled: false
Boxcar width: 0
Storing dark spectrum: false
XAxis mode: Wavelengths
Number of Pixels in Spectrum: 1024
>>>>>Begin Spectral Data<<<<<
801.071	8100
801.214	8020
801.356	7837
801.499	7845
801.641	7792
801.783	7849
801.926	7955
802.068	7898
802.211	7974
802.353	7978
802.496	7807
802.638	7936
802.78	7883
802.923	7928
803.065	7833
803.208	7814
803.35	8005
803.492	8096
803.635	8183
803.777	8050
803.919	8134
804.061	8484
804.204	8187
804.346	8046
804.488	7963
804.63	8149
804.773	7944
804.915	8119
805.057	8301
805.199	8161
805.341	8199
805.483	8298
805.626	8229
805.768	8164
805.91	8157
806.052	8191
806.194	8062
806.336	8271
806.478	8111
806.62	8050
806.762	8138
806.904	8317
807.046	8484
807.188	8351
807.33	8286
807.472	8400
807.614	8195
807.756	8123
807.898	7970
808.04	7814
808.182	7909
808.324	7864
808.465	7925
808.607	7986
808.749	8126
808.891	8164
809.033	8301
809.174	8153
809.316	8031
809.458	8027
809.6	7940
809.741	8081
809.883	7997
810.025	8103
810.166	8050
810.308	8031
810.45	8008
810.591	7909
810.733	7674
810.875	7677
811.016	7487
811.158	7487
811.299	7567
811.441	7708
811.582	7712
811.724	7605
811.865	7502
812.007	7521
812.148	7586
812.29	7609
812.431	7719
812.573	7841
812.714	7986
812.855	8092
812.997	8233
813.138	8309
813.279	8168
813.421	8084
813.562	8035
813.703	7841
813.845	7803
813.986	7518
814.127	7247
814.268	7232
814.41	7190
814.551	7069
814.692	7187
814.833	7038
814.974	7076
815.115	7069
815.256	6905
815.397	6901
815.539	6901
815.68	6871
815.821	6821
815.962	6806
816.103	6818
816.244	6749
816.385	6521
816.526	6627
816.666	6441
816.807	6262
816.948	6433
817.089	6456
817.23	6479
817.371	6426
817.512	6433
817.653	6395
817.793	6422
817.934	6372
818.075	6445
818.216	6464
818.356	6338
818.497	6224
818.638	6117
818.778	6152
818.919	6133
819.06	6140
819.2	6304
819.341	6353
819.481	6403
819.622	6540
819.762	6772
819.903	6696
820.043	6604
820.184	6578
820.324	6604
820.465	6715
820.605	6642
820.746	6612
820.886	6486
821.026	6601
821.167	6681
821.307	6745
821.447	6772
821.588	6631
821.728	6547
821.868	6486
822.008	6285
822.149	6327
822.289	6350
822.429	6121
822.569	6057
822.709	6098
822.849	5935
822.99	5878
823.13	5908
823.27	5866
823.41	5767
823.55	5752
823.69	5775
823.83	5695
823.97	5661
824.11	5505
824.25	5501
824.389	5539
824.529	5592
824.669	5497
824.809	5630
824.949	5672
825.089	5627
825.228	5551
825.368	5395
825.508	5357
825.648	5360
825.787	5368
825.927	5383
826.067	5284
826.206	5235
826.346	5368
826.485	5425
826.625	5395
826.765	5516
826.904	5482
827.044	5216
827.183	5201
827.323	5113
827.462	5174
827.601	5166
827.741	5204
827.88	5204
828.02	5121
828.159	5204
828.298	5250
828.437	5353
828.577	5258
828.716	5509
828.855	5273
828.994	5140
829.134	5193
829.273	5204
829.412	5113
829.551	5124
829.69	5143
829.829	5258
829.968	5349
830.107	5280
830.246	5235
830.385	5197
830.524	5083
830.663	5098
830.802	4976
830.941	4881
831.08	4892
831.219	4919
831.357	4984
831.496	5124
831.635	4885
831.774	4873
831.913	4870
832.051	4714
832.19	4721
832.329	4805
832.467	4664
832.606	4653
832.744	4725
832.883	4672
833.022	4702
833.16	4763
833.299	4782
833.437	4835
833.576	4793
833.714	4873
833.852	4828
833.991	4881
834.129	4980
834.267	4957
834.406	4904
834.544	4946
834.682	4946
834.821	4999
834.959	5159
835.097	4949
835.235	5140
835.373	5098
835.511	5083
835.65	5018
835.788	5037
835.926	4881
836.064	4835
836.202	4900
836.34	5117
836.478	5197
836.615	5067
836.753	5201
836.891	5254
837.029	5273
837.167	5162
837.305	5162
837.443	5079
837.58	5071
837.718	5277
837.856	5216
837.993	5140
838.131	5136
838.269	5231
838.406	5132
838.544	5181
838.681	5025
838.819	4957
838.956	4885
839.094	4885
839.231	4965
839.369	5064
839.506	5387
839.643	5223
839.781	5064
839.918	5006
840.055	5102
840.193	5098
840.33	5105
840.467	5143
840.604	5155
840.742	5471
840.879	5117
841.016	5067
841.153	5151
841.29	5360
841.427	5292
841.564	5292
841.701	5353
841.838	5284
841.975	5235
842.112	5273
842.249	5124
842.385	5113
842.522	5330
842.659	5201
842.796	5071
842.933	5197
843.069	5143
843.206	5102
843.343	5208
843.479	5227
843.616	5246
843.752	5029
843.889	4980
844.025	5197
844.162	5010
844.298	5231
844.435	5067
844.571	5022
844.708	5136
844.844	5258
844.98	5284
845.117	5334
845.253	5098
845.389	5048
845.525	5166
845.661	5113
845.798	5022
845.934	5098
846.07	5018
846.206	5201
846.342	5250
846.478	5174
846.614	4999
846.75	4980
846.886	4949
847.022	5136
847.158	4972
847.294	5067
847.429	5121
847.565	4976
847.701	5292
847.837	4850
847.972	4850
848.108	4957
848.244	4915
848.379	4790
848.515	4698
848.65	4702
848.786	4706
848.921	4752
849.057	4847
849.192	4862
849.328	4790
849.463	4873
849.598	4755
849.734	4714
849.869	4706
850.004	4622
850.14	4679
850.275	4588
850.41	4535
850.545	4546
850.68	4580
850.815	4577
850.95	4622
851.085	4786
851.22	4672
851.355	4649
851.49	4580
851.625	4588
851.76	4626
851.895	4512
852.03	4550
852.165	4599
852.299	4710
852.434	4793
852.569	4725
852.703	4782
852.838	4843
852.973	4889
853.107	4923
853.242	4767
853.376	4645
853.511	4535
853.645	4641
853.78	4793
853.914	4679
854.048	4675
854.183	4630
854.317	4675
854.451	4847
854.585	4626
854.72	4637
854.854	4714
854.988	4565
855.122	4618
855.256	4519
855.39	4596
855.524	4778
855.658	4672
855.792	4679
855.926	4725
856.06	4763
856.194	4778
856.327	4679
856.461	4580
856.595	4569
856.729	4656
856.862	4710
856.996	4694
857.13	4733
857.263	4710
857.397	4786
857.53	4607
857.664	4679
857.797	4691
857.931	4763
858.064	4683
858.197	4717
858.331	4641
858.464	4561
858.597	4569
858.731	4626
858.864	4630
858.997	4607
859.13	4660
859.263	4668
859.396	4649
859.529	4634
859.662	4550
859.795	4512
859.928	4611
860.061	4744
860.194	4721
860.327	4573
860.46	4542
860.592	4653
860.725	4721
860.858	4694
860.99	4550
861.123	4535
861.256	4478
861.388	4596
861.521	5318
861.653	4421
861.786	4451
861.918	4432
862.05	4504
862.183	4538
862.315	4588
862.447	4637
862.58	4542
862.712	4409
862.844	4386
862.976	4455
863.108	4432
863.24	4885
863.372	4344
863.504	4413
863.636	4383
863.768	4481
863.9	4421
864.032	4386
864.164	4371
864.296	4402
864.428	4577
864.559	4561
864.691	4550
864.823	4500
864.954	4485
865.086	4497
865.217	4440
865.349	4390
865.48	4424
865.612	4474
865.743	4603
865.875	4383
866.006	4386
866.137	4451
866.269	4443
866.4	4398
866.531	4390
866.662	4398
866.793	4390
866.924	4383
867.055	4478
867.186	4451
867.317	4386
867.448	4413
867.579	4379
867.71	4371
867.841	4322
867.972	4428
868.103	4447
868.233	4443
868.364	4489
868.495	4436
868.625	4660
868.756	4736
868.886	4531
869.017	4615
869.147	4721
869.278	4797
869.408	4599
869.539	4660
869.669	4702
869.799	4694
869.929	4740
870.06	4714
870.19	4946
870.32	4957
870.45	4938
870.58	5018
870.71	5064
870.84	5109
870.97	4965
871.1	4896
871.23	5147
871.36	5121
871.489	5067
871.619	5071
871.749	5132
871.879	5094
872.008	5178
872.138	5048
872.267	5025
872.397	4850
872.526	4782
872.656	4691
872.785	4801
872.915	4957
873.044	5022
873.173	4923
873.303	4923
873.432	4923
873.561	4923
873.69	4889
873.819	4862
873.948	4885
874.077	4843
874.206	4767
874.335	4782
874.464	4957
874.593	5033
874.722	4942
874.851	5075
874.979	5022
875.108	5029
875.237	4862
875.365	4835
875.494	4889
875.623	4946
875.751	4820
875.88	4881
876.008	5003
876.136	5010
876.265	5162
876.393	5364
876.521	5273
876.65	5193
876.778	5124
876.906	5052
877.034	5006
877.162	5018
877.29	4968
877.418	5045
877.546	5037
877.674	5025
877.802	4942
877.93	5010
878.058	4942
878.185	4900
878.313	4957
878.441	4930
878.568	4759
878.696	4885
878.824	4946
878.951	4961
879.079	5105
879.206	5265
879.333	5052
879.461	4934
879.588	4991
879.715	5102
879.842	5201
879.97	4980
880.097	4793
880.224	4755
880.351	4816
880.478	4793
880.605	4786
880.732	4809
880.859	5098
880.986	4854
881.112	4885
881.239	4778
881.366	4668
881.493	4592
881.619	4607
881.746	4626
881.872	4615
881.999	4641
882.125	4668
882.252	4771
882.378	4786
882.505	4980
882.631	4774
882.757	4634
882.883	4748
883.01	4698
883.136	4664
883.262	4584
883.388	4637
883.514	4793
883.64	4854
883.766	4786
883.892	4634
884.018	4717
884.143	4812
884.269	4984
884.395	4622
884.52	4584
884.646	4660
884.772	4592
884.897	4527
885.023	4660
885.148	4763
885.274	4866
885.399	4786
885.524	4759
885.65	4725
885.775	4725
885.9	4733
886.025	4839
886.15	4771
886.275	4714
886.4	4607
886.525	4714
886.65	4656
886.775	4664
886.9	4866
887.025	5010
887.149	4828
887.274	4721
887.399	4603
887.523	4599
887.648	4569
887.773	4565
887.897	4702
888.021	4778
888.146	4660
888.27	4858
888.395	4942
888.519	4748
888.643	4812
888.767	4771
888.891	4721
889.015	4531
889.139	4615
889.263	4634
889.387	4706
889.511	4801
889.635	4763
889.759	4641
889.883	4626
890.006	4733
890.13	4790
890.254	4622
890.377	4679
890.501	4508
890.624	4519
890.748	4630
890.871	4462
890.995	4398
891.118	4341
891.241	4504
891.364	4504
891.488	4580
891.611	4523
891.734	4497
891.857	4607
891.98	4516
892.103	4641
892.226	4546
892.349	4459
892.471	4443
892.594	4527
892.717	4558
892.839	4577
892.962	4599
893.085	4615
893.207	4607
893.33	4440
893.452	4516
893.575	4660
893.697	4569
893.819	4847
893.941	4839
894.064	4786
894.186	4558
894.308	4565
894.43	4714
894.552	4763
894.674	4736
894.796	4565
894.918	4641
895.04	4516
895.161	4664
895.283	4679
895.405	4542
895.526	4660
895.648	4630
895.769	4691
895.891	4729
896.012	4755
896.134	4710
896.255	4675
896.376	4603
896.498	4634
896.619	4622
896.74	4546
896.861	4641
896.982	4889
897.103	5090
897.224	4790
897.345	4721
897.466	4679
897.587	4668
897.708	4862
897.828	4790
897.949	4634
898.07	4542
898.19	4649
898.311	4801
898.431	4698
898.552	4702
898.672	4824
898.792	4778
898.913	4714
899.033	4618
899.153	4470
899.273	4402
899.393	4474
899.513	4538
899.633	4493
899.753	4565
899.873	4527
899.993	4523
900.113	4489
900.232	4546
900.352	4569
900.472	4481
900.591	4386
900.711	4478
900.83	4421
900.95	4599
901.069	4660
901.189	4489
901.308	4344
901.427	4314
901.546	4360
901.665	4424
901.784	4546
901.904	4356
902.023	4322
902.141	4234
902.26	4097
902.379	4284
902.498	4230
902.617	4238
902.735	4341
902.854	4409
902.973	4341
903.091	4215
903.21	4223
903.328	4325
903.446	4242
903.565	4265
903.683	4337
903.801	4287
903.919	4379
904.038	4470
904.156	4295
904.274	4363
904.392	4383
904.51	4447
904.627	4409
904.745	4462
904.863	4645
904.981	4360
905.098	4268
905.216	4356
905.334	4413
905.451	4470
905.569	4440
905.686	4516
905.803	4573
905.921	4398
906.038	4554
906.155	4470
906.272	4402
906.389	4481
906.506	4341
906.623	4379
906.74	4409
906.857	4280
906.974	4344
907.091	4561
907.208	4679
907.324	4550
907.441	4485
907.557	4344
907.674	4341
907.79	4333
907.907	4341
908.023	4466
908.139	4481
908.256	4402
908.372	4462
908.488	4459
908.604	4383
908.72	4295
908.836	4356
908.952	4363
909.068	4413
909.184	4523
909.3	4474
909.415	4561
909.531	4550
909.647	4379
909.762	4348
909.878	4306
909.993	4447
910.108	4405
910.224	4402
910.339	4470
910.454	4398
910.57	4322
910.685	4287
910.8	4649
910.915	4626
911.03	4466
911.145	4329
911.259	4310
911.374	4379
911.489	4303
911.604	4204
911.718	4154
911.833	4211
911.947	4059
912.062	4048
912.176	4207
912.291	4227
912.405	4211
912.519	4451
912.633	4531
912.748	4367
912.862	4333
912.976	4177
913.09	4109
913.204	4139
913.318	4249
913.431	4341
913.545	4375
913.659	4413
913.772	4379
913.886	4253
914	4196
914.113	4360
914.226	4421
914.34	4363
914.453	4234
914.566	4409
914.68	4280
914.793	4333
914.906	4158
915.019	4078
915.132	4093
915.245	4162
915.358	4242
915.47	4196
915.583	4314
915.696	4253
915.809	4432
915.921	4432
916.034	4223
916.146	4230
916.259	4173
916.371	4413
916.483	4348
916.595	4261
916.708	4333
916.82	4333
916.932	4306
917.044	4329
917.156	4276
917.268	4257
917.38	4238
917.491	4257
917.603	4337
917.715	4421
917.826	4462
917.938	4322
918.049	4227
918.161	4348
918.272	4519
918.384	4497
918.495	4428
918.606	4276
918.717	4265
918.828	4318
918.939	4379
919.05	4238
919.161	4322
919.272	4097
919.383	4246
919.494	4394
919.604	4672
919.715	4379
919.826	4348
919.936	4379
920.047	4558
920.157	4462
920.267	4744
920.378	4519
920.488	4447
920.598	4691
920.708	4850
920.818	4698
920.928	4714
921.038	4961
921.148	4904
921.258	4649
921.368	4527
921.477	4443
921.587	4466
921.697	4344
921.806	4516
921.916	4421
922.025	4223
922.134	4261
922.244	4223
922.353	4352
922.462	4166
922.571	4131
922.68	3998
922.789	3987
922.898	4029
923.007	3979
923.116	4078
923.224	4032
923.333	4082
923.442	3964
923.55	3983
923.659	4006
923.767	4082
923.876	3975
923.984	4082
924.092	3975
924.201	4048
924.309	4086
924.417	4162
924.525	4036
924.633	4090
924.741	5045
924.849	3926
924.956	4101
925.064	3983
925.172	3926
925.279	3911
925.387	4048
925.494	4025
925.602	4207
925.709	4154
925.816	4006
925.924	4128
926.031	4211
926.138	4177
926.245	4230
926.352	4082
926.459	4242
926.566	4291
926.673	4131
926.779	4051
926.886	4093
926.993	3934
927.099	3945
927.206	3975
927.312	3911
927.419	4032
927.525	4044
927.631	4116
927.737	3991
927.843	3941
927.95	3831
928.056	3896
928.162	4025
928.267	4051
928.373	4721
928.479	4086
928.585	3838
928.69	3998
928.796	4082
928.901	3941
929.007	3854
929.112	4029
929.218	3975
929.323	3934
929.428	3922
929.533	4078
929.638	3896
929.743	3964
929.848	4051
929.953	3991
930.058	3896
930.163	3793
930.267	3865
930.372	3960
930.477	3812
930.581	4112
930.685	3956
930.79	3838
930.894	3861
930.998	3857
931.103	4051
931.207	3724
931.311	3679
931.415	3637
931.519	3523
931.623	3519
