Data from test_V78500241_1388.txt Node
Date: Fri Mar 25 16:58:39 CST 2022
User: usil
Spectrometer: V785-0024
Trigger mode: 0
Integration Time (sec): 4.000000E-1
Scans to average: 1
Nonlinearity correction enabled: false
Boxcar width: 0
Storing dark spectrum: false
XAxis mode: Wavelengths
Number of Pixels in Spectrum: 1024
>>>>>Begin Spectral Data<<<<<
801.071	8054
801.214	7982
801.356	7841
801.499	7795
801.641	7734
801.783	7772
801.926	7932
802.068	7944
802.211	8012
802.353	7967
802.496	7860
802.638	7845
802.78	7955
802.923	7928
803.065	7894
803.208	7795
803.35	7989
803.492	8073
803.635	8043
803.777	8012
803.919	8126
804.061	8427
804.204	8180
804.346	8016
804.488	7940
804.63	8054
804.773	7986
804.915	8081
805.057	8290
805.199	8199
805.341	8168
805.483	8221
805.626	8138
805.768	8153
805.91	8088
806.052	8221
806.194	8046
806.336	8244
806.478	8092
806.62	8024
806.762	8107
806.904	8195
807.046	8446
807.188	8400
807.33	8271
807.472	8286
807.614	8138
807.756	8153
807.898	8031
808.04	7902
808.182	7932
808.324	7894
808.465	7917
808.607	8062
808.749	8168
808.891	8149
809.033	8275
809.174	8244
809.316	7986
809.458	8054
809.6	7928
809.741	8016
809.883	8020
810.025	7997
810.166	8001
810.308	8062
810.45	7955
810.591	7852
810.733	7647
810.875	7746
811.016	7499
811.158	7403
811.299	7578
811.441	7704
811.582	7704
811.724	7571
811.865	7434
812.007	7624
812.148	7586
812.29	7556
812.431	7765
812.573	7860
812.714	7997
812.855	8107
812.997	8164
813.138	8233
813.279	8172
813.421	8145
813.562	7951
813.703	7799
813.845	7776
813.986	7453
814.127	7228
814.268	7194
814.41	7175
814.551	7198
814.692	7145
814.833	7072
814.974	7072
815.115	7149
815.256	6981
815.397	6947
815.539	6932
815.68	6810
815.821	6753
815.962	6875
816.103	6772
816.244	6673
816.385	6555
816.526	6604
816.666	6479
816.807	6319
816.948	6346
817.089	6456
817.23	6361
817.371	6369
817.512	6338
817.653	6338
817.793	6365
817.934	6391
818.075	6414
818.216	6369
818.356	6388
818.497	6201
818.638	6114
818.778	6095
818.919	6152
819.06	6117
819.2	6292
819.341	6289
819.481	6304
819.622	6498
819.762	6768
819.903	6681
820.043	6536
820.184	6479
820.324	6604
820.465	6677
820.605	6681
820.746	6654
820.886	6506
821.026	6635
821.167	6719
821.307	6738
821.447	6711
821.588	6677
821.728	6532
821.868	6490
822.008	6258
822.149	6296
822.289	6319
822.429	6167
822.569	6079
822.709	6102
822.849	5912
822.99	5874
823.13	5885
823.27	5897
823.41	5821
823.55	5779
823.69	5741
823.83	5752
823.97	5642
824.11	5532
824.25	5486
824.389	5528
824.529	5562
824.669	5554
824.809	5615
824.949	5707
825.089	5600
825.228	5493
825.368	5353
825.508	5326
825.648	5353
825.787	5364
825.927	5357
826.067	5326
826.206	5280
826.346	5383
826.485	5364
826.625	5448
826.765	5543
826.904	5501
827.044	5246
827.183	5185
827.323	5121
827.462	5189
827.601	5155
827.741	5181
827.88	5185
828.02	5117
828.159	5220
828.298	5280
828.437	5318
828.577	5265
828.716	5417
828.855	5315
828.994	5166
829.134	5136
829.273	5151
829.412	5102
829.551	5113
829.69	5162
829.829	5235
829.968	5353
830.107	5242
830.246	5303
830.385	5121
830.524	5147
830.663	5033
830.802	4965
830.941	4858
831.08	4881
831.219	5003
831.357	4953
831.496	5201
831.635	4904
831.774	4877
831.913	4854
832.051	4710
832.19	4752
832.329	4881
832.467	4691
832.606	4569
832.744	4710
832.883	4717
833.022	4687
833.16	4736
833.299	4797
833.437	4828
833.576	4831
833.714	4835
833.852	4858
833.991	4885
834.129	4968
834.267	4949
834.406	4873
834.544	5014
834.682	4946
834.821	4923
834.959	5109
835.097	4984
835.235	5147
835.373	5064
835.511	5136
835.65	5045
835.788	5037
835.926	4862
836.064	4820
836.202	4927
836.34	5197
836.478	5242
836.615	5128
836.753	5136
836.891	5246
837.029	5185
837.167	5212
837.305	5128
837.443	5117
837.58	5060
837.718	5269
837.856	5181
837.993	5132
838.131	5189
838.269	5185
838.406	5174
838.544	5181
838.681	5022
838.819	5010
838.956	4866
839.094	4881
839.231	4965
839.369	5086
839.506	5433
839.643	5269
839.781	5045
839.918	4968
840.055	5033
840.193	5132
840.33	5117
840.467	5162
840.604	5193
840.742	5440
840.879	5079
841.016	5086
841.153	5124
841.29	5383
841.427	5303
841.564	5284
841.701	5353
841.838	5299
841.975	5197
842.112	5242
842.249	5166
842.385	5105
842.522	5303
842.659	5136
842.796	5166
842.933	5201
843.069	5117
843.206	5117
843.343	5273
843.479	5254
843.616	5220
843.752	5029
843.889	5041
844.025	5201
844.162	5010
844.298	5185
844.435	5029
844.571	5022
844.708	5178
844.844	5235
844.98	5284
845.117	5254
845.253	5151
845.389	5048
845.525	5159
845.661	5140
845.798	5003
845.934	5121
846.07	5006
846.206	5197
846.342	5280
846.478	5166
846.614	4987
846.75	4915
846.886	4927
847.022	5109
847.158	5014
847.294	5025
847.429	5064
847.565	5029
847.701	5277
847.837	4828
847.972	4786
848.108	4934
848.244	4877
848.379	4786
848.515	4721
848.65	4706
848.786	4702
848.921	4790
849.057	4892
849.192	4873
849.328	4774
849.463	4816
849.598	4771
849.734	4778
849.869	4668
850.004	4599
850.14	4630
850.275	4611
850.41	4535
850.545	4561
850.68	4577
850.815	4641
850.95	4622
851.085	4812
851.22	4729
851.355	4645
851.49	4607
851.625	4615
851.76	4607
851.895	4519
852.03	4493
852.165	4615
852.299	4725
852.434	4801
852.569	4752
852.703	4809
852.838	4839
852.973	4927
853.107	4976
853.242	4748
853.376	4672
853.511	4573
853.645	4622
853.78	4759
853.914	4710
854.048	4691
854.183	4599
854.317	4672
854.451	4877
854.585	4664
854.72	4687
854.854	4763
854.988	4656
855.122	4675
855.256	4542
855.39	4656
855.524	4774
855.658	4717
855.792	4736
855.926	4801
856.06	4801
856.194	4809
856.327	4679
856.461	4580
856.595	4656
856.729	4634
856.862	4797
856.996	4717
857.13	4736
857.263	4763
857.397	4786
857.53	4675
857.664	4752
857.797	4797
857.931	4831
858.064	4721
858.197	4759
858.331	4698
858.464	4645
858.597	4550
858.731	4656
858.864	4645
858.997	4618
859.13	4656
859.263	4653
859.396	4740
859.529	4637
859.662	4558
859.795	4573
859.928	4622
860.061	4797
860.194	4793
860.327	4592
860.46	4599
860.592	4729
860.725	4771
860.858	4809
860.99	4607
861.123	4569
861.256	4538
861.388	4656
861.521	5421
861.653	4478
861.786	4481
861.918	4455
862.05	4538
862.183	4584
862.315	4637
862.447	4653
862.58	4584
862.712	4455
862.844	4352
862.976	4493
863.108	4470
863.24	4908
863.372	4383
863.504	4470
863.636	4440
863.768	4523
863.9	4451
864.032	4390
864.164	4459
864.296	4527
864.428	4542
864.559	4573
864.691	4645
864.823	4599
864.954	4489
865.086	4485
865.217	4481
865.349	4451
865.48	4512
865.612	4516
865.743	4660
865.875	4470
866.006	4504
866.137	4474
866.269	4508
866.4	4459
866.531	4470
866.662	4402
866.793	4394
866.924	4428
867.055	4565
867.186	4535
867.317	4413
867.448	4379
867.579	4428
867.71	4371
867.841	4379
867.972	4459
868.103	4504
868.233	4508
868.364	4462
868.495	4474
868.625	4653
868.756	4835
868.886	4577
869.017	4618
869.147	4801
869.278	4771
869.408	4649
869.539	4664
869.669	4721
869.799	4698
869.929	4797
870.06	4774
870.19	5025
870.32	4896
870.45	4938
870.58	4995
870.71	5067
870.84	5109
870.97	4976
871.1	4870
871.23	5197
871.36	5113
871.489	5025
871.619	5090
871.749	5128
871.879	5143
872.008	5235
872.138	5052
872.267	4953
872.397	4850
872.526	4824
872.656	4759
872.785	4812
872.915	4946
873.044	5006
873.173	5003
873.303	4995
873.432	4980
873.561	4984
873.69	4923
873.819	4877
873.948	4927
874.077	4866
874.206	4786
874.335	4805
874.464	4942
874.593	5094
874.722	5025
874.851	5086
874.979	5029
875.108	5109
875.237	4957
875.365	4900
875.494	4934
875.623	4999
875.751	4892
875.88	4957
876.008	5010
876.136	5052
876.265	5239
876.393	5311
876.521	5246
876.65	5280
876.778	5181
876.906	5132
877.034	5045
877.162	5079
877.29	4999
877.418	5086
877.546	5060
877.674	5022
877.802	5067
877.93	5048
878.058	4999
878.185	4904
878.313	4953
878.441	4961
878.568	4873
878.696	4900
878.824	5010
878.951	5048
879.079	5136
879.206	5349
879.333	5102
879.461	4991
879.588	5045
879.715	5143
879.842	5223
879.97	5041
880.097	4812
880.224	4786
880.351	4873
880.478	4873
880.605	4801
880.732	4835
880.859	5113
880.986	4911
881.112	4934
881.239	4786
881.366	4721
881.493	4660
881.619	4607
881.746	4596
881.872	4698
881.999	4736
882.125	4687
882.252	4809
882.378	4831
882.505	5018
882.631	4824
882.757	4691
882.883	4774
883.01	4801
883.136	4721
883.262	4637
883.388	4679
883.514	4870
883.64	4858
883.766	4801
883.892	4752
884.018	4755
884.143	4915
884.269	5037
884.395	4736
884.52	4596
884.646	4714
884.772	4622
884.897	4603
885.023	4698
885.148	4820
885.274	4850
885.399	4847
885.524	4752
885.65	4721
885.775	4736
885.9	4721
886.025	4862
886.15	4755
886.275	4759
886.4	4656
886.525	4714
886.65	4714
886.775	4733
886.9	4930
887.025	5045
887.149	4847
887.274	4622
887.399	4645
887.523	4607
887.648	4584
887.773	4607
887.897	4782
888.021	4786
888.146	4656
888.27	4828
888.395	4946
888.519	4805
888.643	4831
888.767	4866
888.891	4706
889.015	4656
889.139	4733
889.263	4607
889.387	4790
889.511	4858
889.635	4858
889.759	4683
889.883	4687
890.006	4763
890.13	4828
890.254	4653
890.377	4691
890.501	4573
890.624	4527
890.748	4706
890.871	4542
890.995	4489
891.118	4428
891.241	4474
891.364	4538
891.488	4702
891.611	4512
891.734	4584
891.857	4618
891.98	4599
892.103	4656
892.226	4588
892.349	4493
892.471	4440
892.594	4588
892.717	4607
892.839	4550
892.962	4622
893.085	4656
893.207	4607
893.33	4512
893.452	4561
893.575	4721
893.697	4577
893.819	4805
893.941	4839
894.064	4786
894.186	4569
894.308	4588
894.43	4767
894.552	4854
894.674	4759
894.796	4554
894.918	4637
895.04	4584
895.161	4714
895.283	4706
895.405	4580
895.526	4675
895.648	4744
895.769	4664
895.891	4755
896.012	4721
896.134	4729
896.255	4706
896.376	4637
896.498	4641
896.619	4691
896.74	4622
896.861	4691
896.982	4946
897.103	5121
897.224	4839
897.345	4786
897.466	4710
897.587	4733
897.708	4896
897.828	4755
897.949	4649
898.07	4550
898.19	4660
898.311	4812
898.431	4714
898.552	4752
898.672	4805
898.792	4862
898.913	4752
899.033	4618
899.153	4523
899.273	4459
899.393	4538
899.513	4561
899.633	4580
899.753	4565
899.873	4527
899.993	4622
900.113	4569
900.232	4641
900.352	4550
900.472	4531
900.591	4398
900.711	4508
900.83	4421
900.95	4668
901.069	4706
901.189	4531
901.308	4405
901.427	4322
901.546	4428
901.665	4485
901.784	4538
901.904	4394
902.023	4337
902.141	4280
902.26	4147
902.379	4367
902.498	4215
902.617	4230
902.735	4394
902.854	4405
902.973	4329
903.091	4238
903.21	4223
903.328	4299
903.446	4287
903.565	4238
903.683	4341
903.801	4299
903.919	4394
904.038	4443
904.156	4356
904.274	4436
904.392	4436
904.51	4466
904.627	4447
904.745	4588
904.863	4554
904.981	4451
905.098	4310
905.216	4390
905.334	4466
905.451	4447
905.569	4470
905.686	4573
905.803	4599
905.921	4424
906.038	4569
906.155	4504
906.272	4424
906.389	4493
906.506	4363
906.623	4417
906.74	4413
906.857	4318
906.974	4375
907.091	4558
907.208	4622
907.324	4615
907.441	4542
907.557	4379
907.674	4333
907.79	4325
907.907	4371
908.023	4489
908.139	4470
908.256	4462
908.372	4470
908.488	4436
908.604	4383
908.72	4367
908.836	4386
908.952	4394
909.068	4428
909.184	4592
909.3	4523
909.415	4611
909.531	4588
909.647	4390
909.762	4390
909.878	4363
909.993	4436
910.108	4443
910.224	4417
910.339	4508
910.454	4421
910.57	4363
910.685	4363
910.8	4675
910.915	4577
911.03	4489
911.145	4386
911.259	4341
911.374	4371
911.489	4272
911.604	4310
911.718	4173
911.833	4211
911.947	4097
912.062	4021
912.176	4196
912.291	4238
912.405	4242
912.519	4481
912.633	4519
912.748	4344
912.862	4333
912.976	4196
913.09	4097
913.204	4223
913.318	4257
913.431	4394
913.545	4322
913.659	4432
913.772	4360
913.886	4276
914	4219
914.113	4352
914.226	4459
914.34	4356
914.453	4242
914.566	4436
914.68	4337
914.793	4299
914.906	4181
915.019	4181
915.132	4067
915.245	4196
915.358	4223
915.47	4230
915.583	4280
915.696	4344
915.809	4436
915.921	4451
916.034	4257
916.146	4284
916.259	4242
916.371	4356
916.483	4333
916.595	4257
916.708	4310
916.82	4325
916.932	4322
917.044	4360
917.156	4333
917.268	4196
917.38	4306
917.491	4265
917.603	4322
917.715	4405
917.826	4443
917.938	4348
918.049	4246
918.161	4375
918.272	4546
918.384	4519
918.495	4455
918.606	4322
918.717	4261
918.828	4344
918.939	4390
919.05	4246
919.161	4356
919.272	4158
919.383	4280
919.494	4402
919.604	4660
919.715	4440
919.826	4310
919.936	4443
920.047	4523
920.157	4512
920.267	4717
920.378	4535
920.488	4577
920.598	4733
920.708	4908
920.818	4801
920.928	4831
921.038	4942
921.148	4930
921.258	4653
921.368	4546
921.477	4485
921.587	4497
921.697	4405
921.806	4603
921.916	4451
922.025	4280
922.134	4325
922.244	4272
922.353	4306
922.462	4192
922.571	4181
922.68	4002
922.789	4010
922.898	4071
923.007	4017
923.116	4128
923.224	4055
923.333	4166
923.442	4055
923.55	4044
923.659	4029
923.767	4128
923.876	4002
923.984	4139
924.092	4010
924.201	4090
924.309	4147
924.417	4128
924.525	4124
924.633	4177
924.741	5117
924.849	3960
924.956	4196
925.064	3979
925.172	3945
925.279	3983
925.387	4109
925.494	4139
925.602	4268
925.709	4188
925.816	4090
925.924	4166
926.031	4306
926.138	4261
926.245	4238
926.352	4124
926.459	4291
926.566	4333
926.673	4207
926.779	4154
926.886	4131
926.993	4013
927.099	3983
927.206	3949
927.312	4013
927.419	4101
927.525	4040
927.631	4139
927.737	4013
927.843	4006
927.95	3911
928.056	4017
928.162	4051
928.267	4032
928.373	4744
928.479	4139
928.585	3937
928.69	4040
928.796	4082
928.901	4017
929.007	3884
929.112	4002
929.218	3968
929.323	3953
929.428	3964
929.533	4131
929.638	3930
929.743	3975
929.848	4116
929.953	4002
930.058	3968
930.163	3797
930.267	3911
930.372	3991
930.477	3831
930.581	4112
930.685	3964
930.79	3831
930.894	3945
930.998	3911
931.103	4063
931.207	3743
931.311	3728
931.415	3705
931.519	3557
931.623	3584
