Data from test_V78500241_199.txt Node
Date: Fri Mar 25 16:50:23 CST 2022
User: usil
Spectrometer: V785-0024
Trigger mode: 0
Integration Time (sec): 4.000000E-1
Scans to average: 1
Nonlinearity correction enabled: false
Boxcar width: 0
Storing dark spectrum: false
XAxis mode: Wavelengths
Number of Pixels in Spectrum: 1024
>>>>>Begin Spectral Data<<<<<
801.071	8058
801.214	8027
801.356	7875
801.499	7913
801.641	7788
801.783	7833
801.926	8050
802.068	7989
802.211	8016
802.353	8008
802.496	7917
802.638	7944
802.78	7963
802.923	7932
803.065	7856
803.208	7883
803.35	8005
803.492	8138
803.635	8111
803.777	8008
803.919	8077
804.061	8412
804.204	8183
804.346	8062
804.488	8043
804.63	8092
804.773	7986
804.915	8096
805.057	8301
805.199	8149
805.341	8153
805.483	8248
805.626	8191
805.768	8119
805.91	8214
806.052	8225
806.194	8084
806.336	8351
806.478	8130
806.62	8035
806.762	8119
806.904	8191
807.046	8396
807.188	8332
807.33	8343
807.472	8267
807.614	8115
807.756	8183
807.898	7997
808.04	7909
808.182	8001
808.324	7928
808.465	7959
808.607	8088
808.749	8168
808.891	8240
809.033	8328
809.174	8248
809.316	8050
809.458	8092
809.6	8001
809.741	8039
809.883	8054
810.025	8107
810.166	8077
810.308	8001
810.45	7967
810.591	7986
810.733	7803
810.875	7670
811.016	7537
811.158	7529
811.299	7628
811.441	7738
811.582	7636
811.724	7639
811.865	7567
812.007	7628
812.148	7609
812.29	7712
812.431	7780
812.573	7925
812.714	8024
812.855	8237
812.997	8229
813.138	8370
813.279	8176
813.421	8103
813.562	8027
813.703	7890
813.845	7784
813.986	7499
814.127	7274
814.268	7236
814.41	7263
814.551	7274
814.692	7282
814.833	7084
814.974	7107
815.115	7152
815.256	6977
815.397	6951
815.539	6966
815.68	6897
815.821	6840
815.962	6863
816.103	6833
816.244	6753
816.385	6585
816.526	6620
816.666	6555
816.807	6365
816.948	6486
817.089	6498
817.23	6437
817.371	6391
817.512	6395
817.653	6357
817.793	6372
817.934	6388
818.075	6426
818.216	6357
818.356	6334
818.497	6194
818.638	6095
818.778	6178
818.919	6140
819.06	6133
819.2	6273
819.341	6357
819.481	6380
819.622	6547
819.762	6719
819.903	6753
820.043	6544
820.184	6608
820.324	6635
820.465	6722
820.605	6665
820.746	6654
820.886	6490
821.026	6802
821.167	6688
821.307	6814
821.447	6726
821.588	6654
821.728	6597
821.868	6544
822.008	6331
822.149	6410
822.289	6391
822.429	6220
822.569	6152
822.709	6110
822.849	5950
822.99	5916
823.13	5916
823.27	5961
823.41	5863
823.55	5824
823.69	5741
823.83	5805
823.97	5707
824.11	5562
824.25	5524
824.389	5509
824.529	5577
824.669	5505
824.809	5627
824.949	5665
825.089	5638
825.228	5566
825.368	5425
825.508	5406
825.648	5349
825.787	5398
825.927	5383
826.067	5330
826.206	5269
826.346	5421
826.485	5383
826.625	5406
826.765	5547
826.904	5467
827.044	5299
827.183	5227
827.323	5109
827.462	5288
827.601	5216
827.741	5223
827.88	5254
828.02	5140
828.159	5280
828.298	5269
828.437	5379
828.577	5296
828.716	5512
828.855	5337
828.994	5174
829.134	5162
829.273	5220
829.412	5143
829.551	5166
829.69	5220
829.829	5284
829.968	5421
830.107	5330
830.246	5326
830.385	5166
830.524	5117
830.663	5052
830.802	4972
830.941	4957
831.08	4850
831.219	5029
831.357	5018
831.496	5162
831.635	4949
831.774	4866
831.913	4889
832.051	4771
832.19	4786
832.329	4797
832.467	4698
832.606	4672
832.744	4793
832.883	4767
833.022	4736
833.16	4812
833.299	4812
833.437	4831
833.576	4858
833.714	4892
833.852	4877
833.991	4900
834.129	4968
834.267	4938
834.406	4873
834.544	4999
834.682	4987
834.821	4946
834.959	5140
835.097	5048
835.235	5189
835.373	5105
835.511	5060
835.65	5010
835.788	5071
835.926	4915
836.064	4908
836.202	4942
836.34	5216
836.478	5201
836.615	5166
836.753	5258
836.891	5318
837.029	5242
837.167	5128
837.305	5151
837.443	5181
837.58	5090
837.718	5284
837.856	5174
837.993	5147
838.131	5269
838.269	5193
838.406	5246
838.544	5204
838.681	5067
838.819	5048
838.956	4927
839.094	4953
839.231	5010
839.369	5151
839.506	5463
839.643	5223
839.781	5056
839.918	4987
840.055	5143
840.193	5117
840.33	5086
840.467	5166
840.604	5204
840.742	5440
840.879	5117
841.016	5079
841.153	5132
841.29	5402
841.427	5357
841.564	5280
841.701	5398
841.838	5303
841.975	5258
842.112	5334
842.249	5151
842.385	5124
842.522	5337
842.659	5162
842.796	5155
842.933	5216
843.069	5174
843.206	5166
843.343	5368
843.479	5284
843.616	5280
843.752	5033
843.889	5010
844.025	5220
844.162	5037
844.298	5201
844.435	5109
844.571	5033
844.708	5212
844.844	5288
844.98	5398
845.117	5307
845.253	5197
845.389	5071
845.525	5132
845.661	5181
845.798	5060
845.934	5155
846.07	5033
846.206	5261
846.342	5239
846.478	5181
846.614	5037
846.75	5014
846.886	4911
847.022	5151
847.158	5048
847.294	5071
847.429	5067
847.565	5029
847.701	5395
847.837	4885
847.972	4805
848.108	4953
848.244	4957
848.379	4812
848.515	4759
848.65	4736
848.786	4778
848.921	4828
849.057	4847
849.192	4949
849.328	4828
849.463	4892
849.598	4786
849.734	4771
849.869	4717
850.004	4641
850.14	4691
850.275	4675
850.41	4546
850.545	4588
850.68	4634
850.815	4656
850.95	4634
851.085	4847
851.22	4744
851.355	4683
851.49	4584
851.625	4660
851.76	4706
851.895	4561
852.03	4561
852.165	4634
852.299	4805
852.434	4801
852.569	4763
852.703	4755
852.838	4892
852.973	4949
853.107	4968
853.242	4744
853.376	4672
853.511	4588
853.645	4637
853.78	4816
853.914	4660
854.048	4660
854.183	4645
854.317	4736
854.451	4885
854.585	4675
854.72	4630
854.854	4797
854.988	4611
855.122	4626
855.256	4565
855.39	4706
855.524	4763
855.658	4778
855.792	4694
855.926	4797
856.06	4733
856.194	4782
856.327	4714
856.461	4584
856.595	4558
856.729	4679
856.862	4786
856.996	4714
857.13	4752
857.263	4793
857.397	4820
857.53	4637
857.664	4759
857.797	4809
857.931	4767
858.064	4653
858.197	4778
858.331	4653
858.464	4611
858.597	4573
858.731	4641
858.864	4656
858.997	4558
859.13	4637
859.263	4683
859.396	4759
859.529	4584
859.662	4580
859.795	4561
859.928	4645
860.061	4752
860.194	4786
860.327	4622
860.46	4580
860.592	4759
860.725	4759
860.858	4698
860.99	4569
861.123	4569
861.256	4565
861.388	4630
861.521	5303
861.653	4508
861.786	4440
861.918	4481
862.05	4527
862.183	4573
862.315	4653
862.447	4717
862.58	4577
862.712	4462
862.844	4363
862.976	4485
863.108	4443
863.24	4900
863.372	4333
863.504	4474
863.636	4440
863.768	4500
863.9	4417
864.032	4390
864.164	4436
864.296	4489
864.428	4558
864.559	4508
864.691	4550
864.823	4565
864.954	4470
865.086	4512
865.217	4478
865.349	4436
865.48	4459
865.612	4489
865.743	4634
865.875	4462
866.006	4459
866.137	4497
866.269	4489
866.4	4421
866.531	4421
866.662	4451
866.793	4417
866.924	4462
867.055	4478
867.186	4440
867.317	4447
867.448	4390
867.579	4481
867.71	4436
867.841	4352
867.972	4466
868.103	4481
868.233	4424
868.364	4470
868.495	4500
868.625	4641
868.756	4721
868.886	4561
869.017	4596
869.147	4828
869.278	4774
869.408	4668
869.539	4668
869.669	4752
869.799	4664
869.929	4812
870.06	4736
870.19	4930
870.32	4976
870.45	4987
870.58	5029
870.71	5094
870.84	5113
870.97	4949
871.1	4934
871.23	5098
871.36	5143
871.489	5079
871.619	5105
871.749	5102
871.879	5102
872.008	5189
872.138	5052
872.267	5060
872.397	4870
872.526	4797
872.656	4755
872.785	4850
872.915	4946
873.044	5037
873.173	4930
873.303	4953
873.432	5006
873.561	4965
873.69	4850
873.819	4915
873.948	4930
874.077	4835
874.206	4774
874.335	4744
874.464	4980
874.593	5067
874.722	4991
874.851	5075
874.979	5029
875.108	5083
875.237	4915
875.365	4896
875.494	4915
875.623	4965
875.751	4866
875.88	4923
876.008	4965
876.136	4987
876.265	5204
876.393	5322
876.521	5265
876.65	5269
876.778	5109
876.906	5102
877.034	5048
877.162	5041
877.29	5018
877.418	5037
877.546	5037
877.674	5041
877.802	5010
877.93	5010
878.058	4949
878.185	4862
878.313	4949
878.441	4949
878.568	4801
878.696	4850
878.824	5018
878.951	4961
879.079	5151
879.206	5307
879.333	5136
879.461	5006
879.588	5018
879.715	5105
879.842	5208
879.97	4980
880.097	4820
880.224	4774
880.351	4862
880.478	4831
880.605	4831
880.732	4847
880.859	5102
880.986	4885
881.112	4892
881.239	4763
881.366	4691
881.493	4634
881.619	4596
881.746	4618
881.872	4630
881.999	4675
882.125	4714
882.252	4805
882.378	4805
882.505	5006
882.631	4801
882.757	4656
882.883	4721
883.01	4729
883.136	4656
883.262	4607
883.388	4630
883.514	4767
883.64	4873
883.766	4790
883.892	4729
884.018	4748
884.143	4881
884.269	5022
884.395	4687
884.52	4626
884.646	4679
884.772	4584
884.897	4546
885.023	4717
885.148	4755
885.274	4870
885.399	4847
885.524	4714
885.65	4691
885.775	4744
885.9	4710
886.025	4847
886.15	4816
886.275	4752
886.4	4656
886.525	4733
886.65	4714
886.775	4698
886.9	4900
887.025	5033
887.149	4748
887.274	4675
887.399	4611
887.523	4645
887.648	4569
887.773	4622
887.897	4774
888.021	4797
888.146	4634
888.27	4820
888.395	4927
888.519	4816
888.643	4820
888.767	4831
888.891	4672
889.015	4596
889.139	4691
889.263	4580
889.387	4721
889.511	4843
889.635	4816
889.759	4679
889.883	4634
890.006	4759
890.13	4820
890.254	4645
890.377	4687
890.501	4508
890.624	4542
890.748	4622
890.871	4481
890.995	4447
891.118	4402
891.241	4489
891.364	4592
891.488	4672
891.611	4497
891.734	4577
891.857	4592
891.98	4584
892.103	4645
892.226	4630
892.349	4554
892.471	4386
892.594	4596
892.717	4622
892.839	4577
892.962	4668
893.085	4634
893.207	4588
893.33	4481
893.452	4519
893.575	4706
893.697	4599
893.819	4801
893.941	4858
894.064	4828
894.186	4573
894.308	4588
894.43	4736
894.552	4854
894.674	4797
894.796	4546
894.918	4622
895.04	4542
895.161	4763
895.283	4672
895.405	4603
895.526	4672
895.648	4759
895.769	4691
895.891	4748
896.012	4710
896.134	4672
896.255	4668
896.376	4649
896.498	4603
896.619	4694
896.74	4611
896.861	4664
896.982	4949
897.103	5132
897.224	4820
897.345	4786
897.466	4679
897.587	4755
897.708	4824
897.828	4816
897.949	4702
898.07	4523
898.19	4637
898.311	4843
898.431	4687
898.552	4752
898.672	4809
898.792	4835
898.913	4736
899.033	4634
899.153	4493
899.273	4405
899.393	4481
899.513	4493
899.633	4535
899.753	4592
899.873	4569
899.993	4558
900.113	4569
900.232	4626
900.352	4558
900.472	4504
900.591	4432
900.711	4535
900.83	4459
900.95	4653
901.069	4729
901.189	4569
901.308	4375
901.427	4398
901.546	4398
901.665	4481
901.784	4516
901.904	4383
902.023	4344
902.141	4219
902.26	4234
902.379	4318
902.498	4246
902.617	4276
902.735	4394
902.854	4383
902.973	4367
903.091	4223
903.21	4227
903.328	4325
903.446	4295
903.565	4265
903.683	4341
903.801	4291
903.919	4432
904.038	4405
904.156	4333
904.274	4474
904.392	4409
904.51	4451
904.627	4474
904.745	4645
904.863	4637
904.981	4421
905.098	4348
905.216	4360
905.334	4466
905.451	4390
905.569	4447
905.686	4588
905.803	4599
905.921	4337
906.038	4558
906.155	4512
906.272	4428
906.389	4470
906.506	4337
906.623	4424
906.74	4443
906.857	4337
906.974	4360
907.091	4603
907.208	4706
907.324	4565
907.441	4478
907.557	4337
907.674	4371
907.79	4333
907.907	4363
908.023	4485
908.139	4462
908.256	4421
908.372	4519
908.488	4459
908.604	4363
908.72	4344
908.836	4375
908.952	4379
909.068	4421
909.184	4596
909.3	4500
909.415	4580
909.531	4569
909.647	4356
909.762	4360
909.878	4333
909.993	4462
910.108	4417
910.224	4459
910.339	4478
910.454	4405
910.57	4398
910.685	4310
910.8	4706
910.915	4592
911.03	4497
911.145	4348
911.259	4352
911.374	4375
911.489	4310
911.604	4322
911.718	4204
911.833	4249
911.947	4093
912.062	4040
912.176	4192
912.291	4230
912.405	4303
912.519	4432
912.633	4500
912.748	4409
912.862	4337
912.976	4246
913.09	4124
913.204	4166
913.318	4242
913.431	4383
913.545	4333
913.659	4462
913.772	4371
913.886	4314
914	4291
914.113	4394
914.226	4421
914.34	4383
914.453	4246
914.566	4424
914.68	4325
914.793	4325
914.906	4200
915.019	4150
915.132	4063
915.245	4211
915.358	4215
915.47	4249
915.583	4310
915.696	4299
915.809	4398
915.921	4474
916.034	4246
916.146	4261
916.259	4246
916.371	4363
916.483	4356
916.595	4280
916.708	4303
916.82	4299
916.932	4356
917.044	4295
917.156	4333
917.268	4276
917.38	4246
917.491	4284
917.603	4394
917.715	4405
917.826	4428
917.938	4356
918.049	4253
918.161	4367
918.272	4550
918.384	4580
918.495	4462
918.606	4268
918.717	4249
918.828	4325
918.939	4360
919.05	4261
919.161	4306
919.272	4139
919.383	4215
919.494	4481
919.604	4656
919.715	4424
919.826	4341
919.936	4413
920.047	4531
920.157	4481
920.267	4740
920.378	4565
920.488	4523
920.598	4740
920.708	4919
920.818	4782
920.928	4767
921.038	4980
921.148	4938
921.258	4637
921.368	4561
921.477	4550
921.587	4459
921.697	4394
921.806	4561
921.916	4436
922.025	4265
922.134	4268
922.244	4242
922.353	4363
922.462	4185
922.571	4158
922.68	4071
922.789	4059
922.898	4044
923.007	4040
923.116	4147
923.224	4063
923.333	4097
923.442	3979
923.55	3987
923.659	4048
923.767	4143
923.876	4013
923.984	4147
924.092	3998
924.201	4120
924.309	4097
924.417	4143
924.525	4040
924.633	4082
924.741	5048
924.849	3888
924.956	4143
925.064	3975
925.172	3896
925.279	4021
925.387	4074
925.494	4029
925.602	4215
925.709	4185
925.816	4040
925.924	4124
926.031	4257
926.138	4139
926.245	4192
926.352	4105
926.459	4261
926.566	4314
926.673	4162
926.779	4101
926.886	4082
926.993	3972
927.099	3972
927.206	3975
927.312	3983
927.419	4051
927.525	4055
927.631	4116
927.737	3956
927.843	3926
927.95	3854
928.056	3975
928.162	3953
928.267	4055
928.373	4683
928.479	4093
928.585	3888
928.69	4067
928.796	4128
928.901	3975
929.007	3831
929.112	4006
929.218	3979
929.323	3968
929.428	3994
929.533	4143
929.638	3926
929.743	3994
929.848	4055
929.953	3987
930.058	4002
930.163	3793
930.267	3816
930.372	3960
930.477	3823
930.581	4082
930.685	3953
930.79	3850
930.894	3907
930.998	3896
931.103	4021
931.207	3755
931.311	3694
931.415	3717
931.519	3557
931.623	3576
