Data from test_V78500241_1405.txt Node
Date: Fri Mar 25 16:58:46 CST 2022
User: usil
Spectrometer: V785-0024
Trigger mode: 0
Integration Time (sec): 4.000000E-1
Scans to average: 1
Nonlinearity correction enabled: false
Boxcar width: 0
Storing dark spectrum: false
XAxis mode: Wavelengths
Number of Pixels in Spectrum: 1024
>>>>>Begin Spectral Data<<<<<
801.071	8035
801.214	7993
801.356	7864
801.499	7864
801.641	7868
801.783	7772
801.926	7944
802.068	7906
802.211	7951
802.353	7879
802.496	7890
802.638	7761
802.78	7970
802.923	8005
803.065	7887
803.208	7860
803.35	7974
803.492	8035
803.635	8218
803.777	8043
803.919	8183
804.061	8492
804.204	8195
804.346	8054
804.488	7936
804.63	8081
804.773	8046
804.915	8126
805.057	8244
805.199	8221
805.341	8244
805.483	8259
805.626	8210
805.768	8142
805.91	8237
806.052	8183
806.194	8096
806.336	8267
806.478	8111
806.62	8035
806.762	8062
806.904	8218
807.046	8434
807.188	8301
807.33	8324
807.472	8347
807.614	8183
807.756	8107
807.898	8008
808.04	7944
808.182	7898
808.324	7909
808.465	7967
808.607	8103
808.749	8218
808.891	8153
809.033	8271
809.174	8176
809.316	8035
809.458	8020
809.6	8024
809.741	8012
809.883	8031
810.025	8073
810.166	8100
810.308	8027
810.45	8005
810.591	7898
810.733	7696
810.875	7700
811.016	7453
811.158	7457
811.299	7655
811.441	7750
811.582	7719
811.724	7556
811.865	7540
812.007	7544
812.148	7582
812.29	7636
812.431	7772
812.573	7849
812.714	8001
812.855	8016
812.997	8134
813.138	8339
813.279	8244
813.421	8092
813.562	8005
813.703	7864
813.845	7689
813.986	7403
814.127	7289
814.268	7221
814.41	7228
814.551	7118
814.692	7171
814.833	7057
814.974	7160
815.115	7126
815.256	6966
815.397	6920
815.539	7000
815.68	6852
815.821	6779
815.962	6848
816.103	6840
816.244	6749
816.385	6589
816.526	6642
816.666	6506
816.807	6315
816.948	6479
817.089	6525
817.23	6403
817.371	6369
817.512	6391
817.653	6403
817.793	6361
817.934	6391
818.075	6506
818.216	6410
818.356	6311
818.497	6296
818.638	6110
818.778	6136
818.919	6114
819.06	6159
819.2	6350
819.341	6308
819.481	6422
819.622	6475
819.762	6715
819.903	6719
820.043	6578
820.184	6604
820.324	6593
820.465	6696
820.605	6673
820.746	6692
820.886	6494
821.026	6703
821.167	6703
821.307	6798
821.447	6856
821.588	6662
821.728	6677
821.868	6498
822.008	6327
822.149	6350
822.289	6327
822.429	6125
822.569	6098
822.709	6110
822.849	5927
822.99	5912
823.13	5912
823.27	5897
823.41	5805
823.55	5794
823.69	5802
823.83	5714
823.97	5665
824.11	5516
824.25	5512
824.389	5558
824.529	5596
824.669	5482
824.809	5600
824.949	5699
825.089	5623
825.228	5585
825.368	5357
825.508	5345
825.648	5345
825.787	5334
825.927	5406
826.067	5280
826.206	5269
826.346	5334
826.485	5383
826.625	5379
826.765	5497
826.904	5493
827.044	5162
827.183	5216
827.323	5094
827.462	5201
827.601	5220
827.741	5197
827.88	5170
828.02	5132
828.159	5265
828.298	5280
828.437	5372
828.577	5220
828.716	5520
828.855	5334
828.994	5094
829.134	5178
829.273	5208
829.412	5121
829.551	5159
829.69	5174
829.829	5220
829.968	5391
830.107	5250
830.246	5280
830.385	5185
830.524	5178
830.663	5079
830.802	4934
830.941	4923
831.08	4908
831.219	4953
831.357	4987
831.496	5105
831.635	4915
831.774	4847
831.913	4839
832.051	4706
832.19	4748
832.329	4812
832.467	4672
832.606	4645
832.744	4725
832.883	4733
833.022	4744
833.16	4801
833.299	4801
833.437	4812
833.576	4809
833.714	4900
833.852	4854
833.991	4919
834.129	4923
834.267	4938
834.406	4850
834.544	4919
834.682	4968
834.821	4953
834.959	5136
835.097	5003
835.235	5071
835.373	5029
835.511	5083
835.65	5052
835.788	5018
835.926	4847
836.064	4847
836.202	4911
836.34	5170
836.478	5185
836.615	5071
836.753	5189
836.891	5235
837.029	5246
837.167	5201
837.305	5113
837.443	5181
837.58	5098
837.718	5265
837.856	5159
837.993	5121
838.131	5227
838.269	5223
838.406	5197
838.544	5143
838.681	5056
838.819	5025
838.956	4885
839.094	4866
839.231	4972
839.369	5064
839.506	5376
839.643	5292
839.781	5121
839.918	5048
840.055	5113
840.193	5094
840.33	5102
840.467	5132
840.604	5181
840.742	5467
840.879	5109
841.016	5105
841.153	5143
841.29	5414
841.427	5345
841.564	5322
841.701	5318
841.838	5292
841.975	5231
842.112	5284
842.249	5124
842.385	5155
842.522	5345
842.659	5098
842.796	5132
842.933	5185
843.069	5151
843.206	5140
843.343	5303
843.479	5223
843.616	5269
843.752	5029
843.889	5018
844.025	5159
844.162	4965
844.298	5201
844.435	5094
844.571	5018
844.708	5201
844.844	5292
844.98	5334
845.117	5311
845.253	5155
845.389	5033
845.525	5162
845.661	5140
845.798	5094
845.934	5128
846.07	5052
846.206	5193
846.342	5288
846.478	5204
846.614	5003
846.75	5010
846.886	4934
847.022	5094
847.158	4999
847.294	4999
847.429	5052
847.565	5014
847.701	5345
847.837	4850
847.972	4782
848.108	4942
848.244	4927
848.379	4744
848.515	4691
848.65	4687
848.786	4729
848.921	4752
849.057	4839
849.192	4900
849.328	4782
849.463	4854
849.598	4828
849.734	4729
849.869	4759
850.004	4615
850.14	4660
850.275	4599
850.41	4481
850.545	4554
850.68	4618
850.815	4603
850.95	4634
851.085	4797
851.22	4736
851.355	4687
851.49	4630
851.625	4634
851.76	4615
851.895	4569
852.03	4538
852.165	4656
852.299	4698
852.434	4778
852.569	4725
852.703	4790
852.838	4831
852.973	4934
853.107	4862
853.242	4721
853.376	4687
853.511	4558
853.645	4580
853.78	4797
853.914	4691
854.048	4660
854.183	4607
854.317	4740
854.451	4820
854.585	4668
854.72	4611
854.854	4763
854.988	4599
855.122	4645
855.256	4527
855.39	4656
855.524	4774
855.658	4736
855.792	4683
855.926	4744
856.06	4763
856.194	4847
856.327	4645
856.461	4592
856.595	4634
856.729	4596
856.862	4725
856.996	4710
857.13	4702
857.263	4717
857.397	4824
857.53	4694
857.664	4717
857.797	4778
857.931	4786
858.064	4698
858.197	4702
858.331	4641
858.464	4603
858.597	4535
858.731	4675
858.864	4618
858.997	4596
859.13	4637
859.263	4656
859.396	4668
859.529	4546
859.662	4519
859.795	4542
859.928	4584
860.061	4694
860.194	4767
860.327	4637
860.46	4577
860.592	4679
860.725	4691
860.858	4740
860.99	4546
861.123	4508
861.256	4497
861.388	4615
861.521	5436
861.653	4478
861.786	4497
861.918	4481
862.05	4489
862.183	4538
862.315	4588
862.447	4630
862.58	4538
862.712	4402
862.844	4322
862.976	4485
863.108	4466
863.24	4809
863.372	4333
863.504	4443
863.636	4352
863.768	4462
863.9	4451
864.032	4367
864.164	4379
864.296	4462
864.428	4542
864.559	4565
864.691	4497
864.823	4500
864.954	4478
865.086	4478
865.217	4459
865.349	4402
865.48	4432
865.612	4493
865.743	4618
865.875	4451
866.006	4432
866.137	4428
866.269	4462
866.4	4421
866.531	4436
866.662	4367
866.793	4383
866.924	4363
867.055	4489
867.186	4466
867.317	4363
867.448	4363
867.579	4360
867.71	4421
867.841	4337
867.972	4497
868.103	4432
868.233	4432
868.364	4440
868.495	4455
868.625	4687
868.756	4763
868.886	4550
869.017	4618
869.147	4759
869.278	4733
869.408	4656
869.539	4618
869.669	4694
869.799	4672
869.929	4740
870.06	4752
870.19	4934
870.32	4889
870.45	4934
870.58	4995
870.71	5079
870.84	5102
870.97	4896
871.1	4828
871.23	5170
871.36	5075
871.489	5052
871.619	5079
871.749	5022
871.879	5098
872.008	5151
872.138	5052
872.267	4987
872.397	4847
872.526	4782
872.656	4744
872.785	4782
872.915	4938
873.044	5010
873.173	4915
873.303	4930
873.432	4949
873.561	4927
873.69	4870
873.819	4854
873.948	4946
874.077	4831
874.206	4744
874.335	4759
874.464	4942
874.593	5060
874.722	4911
874.851	5121
874.979	5090
875.108	5029
875.237	4892
875.365	4843
875.494	4892
875.623	4900
875.751	4797
875.88	4873
876.008	4957
876.136	5029
876.265	5242
876.393	5364
876.521	5292
876.65	5239
876.778	5151
876.906	5102
877.034	4999
877.162	4968
877.29	4957
877.418	5048
877.546	5052
877.674	5060
877.802	4980
877.93	4995
878.058	4930
878.185	4797
878.313	4957
878.441	4976
878.568	4763
878.696	4854
878.824	4953
878.951	4991
879.079	5098
879.206	5258
879.333	5045
879.461	4919
879.588	5018
879.715	5086
879.842	5223
879.97	4984
880.097	4778
880.224	4733
880.351	4797
880.478	4816
880.605	4805
880.732	4771
880.859	5086
880.986	4870
881.112	4889
881.239	4763
881.366	4630
881.493	4596
881.619	4599
881.746	4615
881.872	4649
881.999	4664
882.125	4702
882.252	4778
882.378	4790
882.505	4942
882.631	4816
882.757	4668
882.883	4729
883.01	4714
883.136	4721
883.262	4577
883.388	4615
883.514	4767
883.64	4850
883.766	4778
883.892	4679
884.018	4733
884.143	4896
884.269	4999
884.395	4729
884.52	4607
884.646	4634
884.772	4592
884.897	4561
885.023	4649
885.148	4729
885.274	4866
885.399	4778
885.524	4725
885.65	4755
885.775	4790
885.9	4637
886.025	4858
886.15	4771
886.275	4691
886.4	4634
886.525	4710
886.65	4672
886.775	4687
886.9	4889
887.025	5060
887.149	4744
887.274	4641
887.399	4573
887.523	4603
887.648	4592
887.773	4577
887.897	4725
888.021	4729
888.146	4672
888.27	4831
888.395	4885
888.519	4748
888.643	4824
888.767	4839
888.891	4675
889.015	4615
889.139	4653
889.263	4577
889.387	4774
889.511	4820
889.635	4786
889.759	4592
889.883	4641
890.006	4710
890.13	4820
890.254	4584
890.377	4679
890.501	4584
890.624	4561
890.748	4603
890.871	4485
890.995	4440
891.118	4394
891.241	4569
891.364	4527
891.488	4641
891.611	4523
891.734	4523
891.857	4611
891.98	4569
892.103	4630
892.226	4603
892.349	4508
892.471	4447
892.594	4538
892.717	4596
892.839	4550
892.962	4622
893.085	4679
893.207	4588
893.33	4485
893.452	4535
893.575	4641
893.697	4546
893.819	4801
893.941	4805
894.064	4782
894.186	4584
894.308	4622
894.43	4721
894.552	4805
894.674	4755
894.796	4599
894.918	4626
895.04	4599
895.161	4691
895.283	4683
895.405	4607
895.526	4649
895.648	4687
895.769	4660
895.891	4706
896.012	4740
896.134	4729
896.255	4683
896.376	4649
896.498	4599
896.619	4626
896.74	4607
896.861	4599
896.982	4885
897.103	5086
897.224	4839
897.345	4710
897.466	4660
897.587	4759
897.708	4839
897.828	4790
897.949	4660
898.07	4508
898.19	4672
898.311	4854
898.431	4672
898.552	4717
898.672	4835
898.792	4786
898.913	4725
899.033	4599
899.153	4489
899.273	4379
899.393	4474
899.513	4462
899.633	4504
899.753	4523
899.873	4500
899.993	4588
900.113	4516
900.232	4580
900.352	4527
900.472	4481
900.591	4383
900.711	4474
900.83	4417
900.95	4634
901.069	4645
901.189	4516
901.308	4363
901.427	4306
901.546	4348
901.665	4474
901.784	4500
901.904	4394
902.023	4337
902.141	4196
902.26	4150
902.379	4295
902.498	4230
902.617	4200
902.735	4352
902.854	4390
902.973	4310
903.091	4192
903.21	4173
903.328	4306
903.446	4200
903.565	4219
903.683	4333
903.801	4295
903.919	4367
904.038	4432
904.156	4318
904.274	4462
904.392	4447
904.51	4405
904.627	4462
904.745	4588
904.863	4641
904.981	4413
905.098	4295
905.216	4375
905.334	4409
905.451	4440
905.569	4455
905.686	4554
905.803	4573
905.921	4405
906.038	4493
906.155	4478
906.272	4383
906.389	4447
906.506	4379
906.623	4333
906.74	4371
906.857	4280
906.974	4352
907.091	4493
907.208	4687
907.324	4542
907.441	4474
907.557	4325
907.674	4310
907.79	4329
907.907	4360
908.023	4478
908.139	4489
908.256	4428
908.372	4405
908.488	4443
908.604	4356
908.72	4303
908.836	4383
908.952	4371
909.068	4379
909.184	4588
909.3	4478
909.415	4565
909.531	4527
909.647	4333
909.762	4360
909.878	4371
909.993	4436
910.108	4409
910.224	4409
910.339	4478
910.454	4386
910.57	4306
910.685	4303
910.8	4622
910.915	4565
911.03	4474
911.145	4348
911.259	4322
911.374	4348
911.489	4280
911.604	4306
911.718	4215
911.833	4192
911.947	4074
912.062	4040
912.176	4230
912.291	4234
912.405	4230
912.519	4447
912.633	4474
912.748	4303
912.862	4322
912.976	4185
913.09	4143
913.204	4158
913.318	4246
913.431	4295
913.545	4367
913.659	4462
913.772	4310
913.886	4223
914	4272
914.113	4352
914.226	4413
914.34	4386
914.453	4234
914.566	4428
914.68	4322
914.793	4291
914.906	4162
915.019	4154
915.132	4051
915.245	4147
915.358	4207
915.47	4219
915.583	4284
915.696	4265
915.809	4386
915.921	4443
916.034	4227
916.146	4188
916.259	4257
916.371	4325
916.483	4371
916.595	4257
916.708	4261
916.82	4280
916.932	4341
917.044	4314
917.156	4341
917.268	4223
917.38	4230
917.491	4257
917.603	4341
917.715	4421
917.826	4398
917.938	4299
918.049	4310
918.161	4428
918.272	4508
918.384	4527
918.495	4485
918.606	4325
918.717	4265
918.828	4325
918.939	4383
919.05	4268
919.161	4303
919.272	4162
919.383	4207
919.494	4424
919.604	4618
919.715	4421
919.826	4352
919.936	4417
920.047	4516
920.157	4489
920.267	4717
920.378	4569
920.488	4462
920.598	4714
920.708	4908
920.818	4790
920.928	4744
921.038	4915
921.148	4892
921.258	4626
921.368	4500
921.477	4512
921.587	4421
921.697	4390
921.806	4516
921.916	4421
922.025	4287
922.134	4299
922.244	4223
922.353	4344
922.462	4162
922.571	4143
922.68	4036
922.789	4010
922.898	4029
923.007	3956
923.116	4131
923.224	4071
923.333	4055
923.442	3972
923.55	3998
923.659	3994
923.767	4105
923.876	3991
923.984	4120
924.092	3979
924.201	4109
924.309	4093
924.417	4154
924.525	4093
924.633	4124
924.741	5041
924.849	3907
924.956	4109
925.064	3964
925.172	3880
925.279	3945
925.387	4082
925.494	4078
925.602	4192
925.709	4204
925.816	4017
925.924	4139
926.031	4265
926.138	4200
926.245	4223
926.352	4109
926.459	4253
926.566	4295
926.673	4188
926.779	4051
926.886	4139
926.993	3964
927.099	3934
927.206	3922
927.312	3930
927.419	4021
927.525	4029
927.631	4101
927.737	3994
927.843	3888
927.95	3827
928.056	3994
928.162	3979
928.267	4040
928.373	4660
928.479	4150
928.585	3823
928.69	3983
928.796	4074
928.901	3953
929.007	3854
929.112	3972
929.218	3968
929.323	3953
929.428	3930
929.533	4120
929.638	3922
929.743	3949
929.848	4040
929.953	3945
930.058	3896
930.163	3762
930.267	3819
930.372	3960
930.477	3797
930.581	4048
930.685	3972
930.79	3827
930.894	3873
930.998	3854
931.103	4059
931.207	3720
931.311	3709
931.415	3652
931.519	3561
931.623	3549
