Data from test_V78500241_1267.txt Node
Date: Fri Mar 25 16:57:48 CST 2022
User: usil
Spectrometer: V785-0024
Trigger mode: 0
Integration Time (sec): 4.000000E-1
Scans to average: 1
Nonlinearity correction enabled: false
Boxcar width: 0
Storing dark spectrum: false
XAxis mode: Wavelengths
Number of Pixels in Spectrum: 1024
>>>>>Begin Spectral Data<<<<<
801.071	8084
801.214	8050
801.356	7917
801.499	7928
801.641	7833
801.783	7826
801.926	8005
802.068	7936
802.211	7967
802.353	8020
802.496	7849
802.638	7902
802.78	7951
802.923	7936
803.065	7940
803.208	7925
803.35	7925
803.492	8088
803.635	8164
803.777	8035
803.919	8168
804.061	8488
804.204	8180
804.346	8088
804.488	8020
804.63	8130
804.773	8050
804.915	8096
805.057	8252
805.199	8153
805.341	8286
805.483	8263
805.626	8240
805.768	8142
805.91	8271
806.052	8259
806.194	8115
806.336	8267
806.478	8092
806.62	8046
806.762	8233
806.904	8305
807.046	8434
807.188	8377
807.33	8301
807.472	8362
807.614	8142
807.756	8092
807.898	8024
808.04	7925
808.182	7951
808.324	7947
808.465	7978
808.607	8103
808.749	8153
808.891	8206
809.033	8256
809.174	8134
809.316	8103
809.458	8058
809.6	7978
809.741	7989
809.883	8069
810.025	8126
810.166	8092
810.308	8134
810.45	8024
810.591	7921
810.733	7738
810.875	7616
811.016	7586
811.158	7575
811.299	7594
811.441	7685
811.582	7620
811.724	7594
811.865	7502
812.007	7594
812.148	7647
812.29	7639
812.431	7849
812.573	7860
812.714	7982
812.855	8073
812.997	8153
813.138	8286
813.279	8172
813.421	8065
813.562	7982
813.703	7871
813.845	7799
813.986	7400
814.127	7266
814.268	7225
814.41	7194
814.551	7122
814.692	7187
814.833	7091
814.974	7076
815.115	7088
815.256	6962
815.397	6928
815.539	7004
815.68	6905
815.821	6795
815.962	6920
816.103	6840
816.244	6783
816.385	6639
816.526	6604
816.666	6437
816.807	6331
816.948	6441
817.089	6540
817.23	6494
817.371	6369
817.512	6380
817.653	6407
817.793	6380
817.934	6422
818.075	6467
818.216	6513
818.356	6399
818.497	6232
818.638	6155
818.778	6152
818.919	6110
819.06	6178
819.2	6285
819.341	6327
819.481	6334
819.622	6517
819.762	6700
819.903	6688
820.043	6585
820.184	6555
820.324	6566
820.465	6738
820.605	6635
820.746	6669
820.886	6563
821.026	6635
821.167	6696
821.307	6772
821.447	6806
821.588	6627
821.728	6604
821.868	6486
822.008	6319
822.149	6376
822.289	6315
822.429	6163
822.569	6083
822.709	6159
822.849	5874
822.99	5897
823.13	5950
823.27	5889
823.41	5794
823.55	5775
823.69	5764
823.83	5805
823.97	5707
824.11	5535
824.25	5463
824.389	5539
824.529	5600
824.669	5505
824.809	5619
824.949	5668
825.089	5509
825.228	5524
825.368	5429
825.508	5364
825.648	5318
825.787	5387
825.927	5368
826.067	5284
826.206	5296
826.346	5414
826.485	5433
826.625	5387
826.765	5585
826.904	5440
827.044	5239
827.183	5242
827.323	5136
827.462	5235
827.601	5136
827.741	5170
827.88	5174
828.02	5132
828.159	5227
828.298	5258
828.437	5406
828.577	5322
828.716	5471
828.855	5322
828.994	5155
829.134	5162
829.273	5181
829.412	5143
829.551	5090
829.69	5143
829.829	5227
829.968	5383
830.107	5246
830.246	5277
830.385	5197
830.524	5086
830.663	5090
830.802	4965
830.941	4927
831.08	4900
831.219	5003
831.357	4976
831.496	5155
831.635	4900
831.774	4850
831.913	4824
832.051	4721
832.19	4740
832.329	4862
832.467	4733
832.606	4618
832.744	4740
832.883	4717
833.022	4725
833.16	4790
833.299	4816
833.437	4816
833.576	4862
833.714	4843
833.852	4877
833.991	4873
834.129	4980
834.267	4968
834.406	4919
834.544	4938
834.682	4976
834.821	5003
834.959	5155
835.097	4980
835.235	5140
835.373	5060
835.511	5117
835.65	5029
835.788	5006
835.926	4904
836.064	4862
836.202	4934
836.34	5185
836.478	5227
836.615	5045
836.753	5204
836.891	5330
837.029	5250
837.167	5159
837.305	5193
837.443	5102
837.58	5056
837.718	5246
837.856	5178
837.993	5155
838.131	5155
838.269	5250
838.406	5239
838.544	5170
838.681	5067
838.819	5079
838.956	4862
839.094	4900
839.231	4942
839.369	5102
839.506	5376
839.643	5261
839.781	5018
839.918	5010
840.055	5136
840.193	5113
840.33	5064
840.467	5124
840.604	5185
840.742	5406
840.879	5105
841.016	5064
841.153	5166
841.29	5368
841.427	5345
841.564	5357
841.701	5337
841.838	5273
841.975	5265
842.112	5303
842.249	5159
842.385	5075
842.522	5315
842.659	5155
842.796	5132
842.933	5193
843.069	5159
843.206	5121
843.343	5273
843.479	5223
843.616	5242
843.752	5041
843.889	5037
844.025	5280
844.162	5006
844.298	5162
844.435	5094
844.571	5029
844.708	5231
844.844	5288
844.98	5315
845.117	5250
845.253	5147
845.389	5067
845.525	5121
845.661	5155
845.798	5079
845.934	5124
846.07	5067
846.206	5178
846.342	5296
846.478	5124
846.614	5033
846.75	4976
846.886	4889
847.022	5128
847.158	5025
847.294	5090
847.429	5105
847.565	5060
847.701	5303
847.837	4820
847.972	4843
848.108	4942
848.244	4957
848.379	4793
848.515	4694
848.65	4721
848.786	4733
848.921	4805
849.057	4889
849.192	4854
849.328	4801
849.463	4839
849.598	4706
849.734	4755
849.869	4706
850.004	4664
850.14	4694
850.275	4634
850.41	4478
850.545	4542
850.68	4577
850.815	4641
850.95	4626
851.085	4824
851.22	4778
851.355	4687
851.49	4618
851.625	4626
851.76	4660
851.895	4554
852.03	4500
852.165	4634
852.299	4729
852.434	4778
852.569	4725
852.703	4778
852.838	4850
852.973	4915
853.107	4843
853.242	4706
853.376	4687
853.511	4538
853.645	4634
853.78	4839
853.914	4714
854.048	4630
854.183	4660
854.317	4725
854.451	4843
854.585	4664
854.72	4687
854.854	4759
854.988	4615
855.122	4550
855.256	4500
855.39	4653
855.524	4736
855.658	4698
855.792	4721
855.926	4714
856.06	4740
856.194	4801
856.327	4645
856.461	4599
856.595	4637
856.729	4622
856.862	4782
856.996	4668
857.13	4714
857.263	4748
857.397	4797
857.53	4668
857.664	4687
857.797	4763
857.931	4763
858.064	4702
858.197	4733
858.331	4656
858.464	4607
858.597	4527
858.731	4630
858.864	4611
858.997	4599
859.13	4653
859.263	4672
859.396	4717
859.529	4580
859.662	4527
859.795	4550
859.928	4607
860.061	4706
860.194	4725
860.327	4660
860.46	4546
860.592	4721
860.725	4736
860.858	4736
860.99	4561
861.123	4519
861.256	4523
861.388	4653
861.521	5280
861.653	4481
861.786	4428
861.918	4443
862.05	4523
862.183	4531
862.315	4592
862.447	4603
862.58	4550
862.712	4386
862.844	4291
862.976	4443
863.108	4493
863.24	4923
863.372	4341
863.504	4417
863.636	4386
863.768	4493
863.9	4474
864.032	4390
864.164	4409
864.296	4470
864.428	4554
864.559	4538
864.691	4542
864.823	4527
864.954	4451
865.086	4527
865.217	4470
865.349	4428
865.48	4447
865.612	4462
865.743	4668
865.875	4493
866.006	4383
866.137	4455
866.269	4424
866.4	4413
866.531	4390
866.662	4421
866.793	4424
866.924	4428
867.055	4459
867.186	4440
867.317	4409
867.448	4356
867.579	4329
867.71	4421
867.841	4356
867.972	4451
868.103	4462
868.233	4432
868.364	4440
868.495	4474
868.625	4645
868.756	4767
868.886	4561
869.017	4607
869.147	4733
869.278	4729
869.408	4691
869.539	4664
869.669	4733
869.799	4630
869.929	4717
870.06	4694
870.19	4911
870.32	4904
870.45	4923
870.58	5025
870.71	5067
870.84	5128
870.97	4942
871.1	4854
871.23	5109
871.36	5075
871.489	5025
871.619	5102
871.749	5113
871.879	5113
872.008	5140
872.138	5064
872.267	4965
872.397	4824
872.526	4801
872.656	4733
872.785	4805
872.915	4930
873.044	4968
873.173	4908
873.303	4976
873.432	4911
873.561	4923
873.69	4881
873.819	4839
873.948	4873
874.077	4759
874.206	4706
874.335	4752
874.464	4919
874.593	5006
874.722	4976
874.851	5067
874.979	5041
875.108	5014
875.237	4881
875.365	4953
875.494	4854
875.623	4968
875.751	4782
875.88	4870
876.008	4965
876.136	5067
876.265	5166
876.393	5345
876.521	5239
876.65	5189
876.778	5136
876.906	5098
877.034	5045
877.162	5006
877.29	4968
877.418	5025
877.546	4999
877.674	5029
877.802	5022
877.93	5025
878.058	4927
878.185	4843
878.313	4972
878.441	4934
878.568	4805
878.696	4889
878.824	4972
878.951	5010
879.079	5143
879.206	5239
879.333	5121
879.461	5029
879.588	4984
879.715	5086
879.842	5201
879.97	4965
880.097	4809
880.224	4721
880.351	4797
880.478	4790
880.605	4782
880.732	4763
880.859	5052
880.986	4862
881.112	4930
881.239	4740
881.366	4668
881.493	4637
881.619	4580
881.746	4668
881.872	4626
881.999	4679
882.125	4714
882.252	4759
882.378	4790
882.505	5014
882.631	4820
882.757	4687
882.883	4744
883.01	4721
883.136	4641
883.262	4592
883.388	4603
883.514	4782
883.64	4850
883.766	4774
883.892	4637
884.018	4706
884.143	4896
884.269	4999
884.395	4637
884.52	4584
884.646	4664
884.772	4588
884.897	4607
885.023	4679
885.148	4831
885.274	4870
885.399	4847
885.524	4710
885.65	4702
885.775	4702
885.9	4725
886.025	4908
886.15	4767
886.275	4710
886.4	4634
886.525	4668
886.65	4641
886.775	4649
886.9	4904
887.025	5056
887.149	4877
887.274	4683
887.399	4607
887.523	4577
887.648	4569
887.773	4561
887.897	4748
888.021	4774
888.146	4675
888.27	4809
888.395	4942
888.519	4805
888.643	4820
888.767	4835
888.891	4668
889.015	4592
889.139	4653
889.263	4637
889.387	4729
889.511	4847
889.635	4839
889.759	4622
889.883	4618
890.006	4721
890.13	4839
890.254	4618
890.377	4649
890.501	4535
890.624	4546
890.748	4649
890.871	4493
890.995	4394
891.118	4413
891.241	4516
891.364	4504
891.488	4660
891.611	4485
891.734	4554
891.857	4584
891.98	4550
892.103	4649
892.226	4580
892.349	4459
892.471	4379
892.594	4554
892.717	4592
892.839	4542
892.962	4580
893.085	4668
893.207	4558
893.33	4447
893.452	4504
893.575	4649
893.697	4546
893.819	4755
893.941	4828
894.064	4801
894.186	4596
894.308	4584
894.43	4649
894.552	4786
894.674	4740
894.796	4546
894.918	4565
895.04	4523
895.161	4710
895.283	4630
895.405	4577
895.526	4618
895.648	4683
895.769	4645
895.891	4645
896.012	4702
896.134	4714
896.255	4626
896.376	4649
896.498	4626
896.619	4672
896.74	4618
896.861	4675
896.982	4911
897.103	5064
897.224	4801
897.345	4755
897.466	4641
897.587	4710
897.708	4847
897.828	4778
897.949	4679
898.07	4561
898.19	4615
898.311	4786
898.431	4637
898.552	4729
898.672	4831
898.792	4790
898.913	4717
899.033	4607
899.153	4497
899.273	4398
899.393	4443
899.513	4500
899.633	4558
899.753	4535
899.873	4535
899.993	4538
900.113	4573
900.232	4603
900.352	4565
900.472	4516
900.591	4352
900.711	4508
900.83	4390
900.95	4580
901.069	4679
901.189	4550
901.308	4352
901.427	4329
901.546	4375
901.665	4440
901.784	4531
901.904	4383
902.023	4344
902.141	4219
902.26	4166
902.379	4299
902.498	4234
902.617	4147
902.735	4367
902.854	4398
902.973	4337
903.091	4154
903.21	4246
903.328	4291
903.446	4291
903.565	4223
903.683	4337
903.801	4257
903.919	4421
904.038	4398
904.156	4284
904.274	4394
904.392	4371
904.51	4432
904.627	4440
904.745	4584
904.863	4596
904.981	4390
905.098	4306
905.216	4352
905.334	4417
905.451	4440
905.569	4428
905.686	4565
905.803	4607
905.921	4390
906.038	4538
906.155	4531
906.272	4428
906.389	4432
906.506	4325
906.623	4383
906.74	4390
906.857	4261
906.974	4409
907.091	4527
907.208	4672
907.324	4577
907.441	4516
907.557	4341
907.674	4287
907.79	4360
907.907	4398
908.023	4466
908.139	4485
908.256	4413
908.372	4375
908.488	4462
908.604	4352
908.72	4356
908.836	4417
908.952	4363
909.068	4371
909.184	4615
909.3	4500
909.415	4546
909.531	4523
909.647	4329
909.762	4363
909.878	4348
909.993	4356
910.108	4367
910.224	4409
910.339	4443
910.454	4421
910.57	4344
910.685	4337
910.8	4641
910.915	4615
911.03	4493
911.145	4344
911.259	4257
911.374	4306
911.489	4291
911.604	4318
911.718	4223
911.833	4147
911.947	4063
912.062	4036
912.176	4211
912.291	4265
912.405	4223
912.519	4455
912.633	4497
912.748	4363
912.862	4322
912.976	4207
913.09	4086
913.204	4162
913.318	4196
913.431	4341
913.545	4322
913.659	4421
913.772	4375
913.886	4211
914	4173
914.113	4333
914.226	4447
914.34	4386
914.453	4223
914.566	4436
914.68	4314
914.793	4280
914.906	4143
915.019	4097
915.132	4082
915.245	4188
915.358	4192
915.47	4192
915.583	4257
915.696	4303
915.809	4417
915.921	4405
916.034	4291
916.146	4257
916.259	4238
916.371	4390
916.483	4337
916.595	4261
916.708	4363
916.82	4318
916.932	4325
917.044	4375
917.156	4284
917.268	4207
917.38	4249
917.491	4265
917.603	4306
917.715	4428
917.826	4394
917.938	4352
918.049	4230
918.161	4386
918.272	4493
918.384	4523
918.495	4470
918.606	4287
918.717	4242
918.828	4280
918.939	4352
919.05	4291
919.161	4360
919.272	4185
919.383	4181
919.494	4466
919.604	4584
919.715	4383
919.826	4291
919.936	4436
920.047	4489
920.157	4489
920.267	4706
920.378	4478
920.488	4462
920.598	4721
920.708	4900
920.818	4725
920.928	4740
921.038	4930
921.148	4889
921.258	4630
921.368	4588
921.477	4512
921.587	4455
921.697	4375
921.806	4508
921.916	4432
922.025	4234
922.134	4253
922.244	4246
922.353	4295
922.462	4147
922.571	4116
922.68	4044
922.789	3979
922.898	4048
923.007	4021
923.116	4051
923.224	4055
923.333	4101
923.442	3987
923.55	3960
923.659	4044
923.767	4078
923.876	4021
923.984	4086
924.092	3983
924.201	4090
924.309	4071
924.417	4158
924.525	4025
924.633	4093
924.741	5025
924.849	3880
924.956	4128
925.064	3979
925.172	3899
925.279	3892
925.387	4051
925.494	4017
925.602	4173
925.709	4196
925.816	4032
925.924	4128
926.031	4219
926.138	4128
926.245	4219
926.352	4074
926.459	4215
926.566	4280
926.673	4181
926.779	4044
926.886	4074
926.993	3956
927.099	3960
927.206	3949
927.312	3964
927.419	4040
927.525	4036
927.631	4097
927.737	3975
927.843	3949
927.95	3812
928.056	3972
928.162	3987
928.267	4051
928.373	4675
928.479	4093
928.585	3831
928.69	3953
928.796	4055
928.901	3972
929.007	3846
929.112	3979
929.218	3979
929.323	3941
929.428	3949
929.533	4097
929.638	3945
929.743	3968
929.848	4059
929.953	3994
930.058	3941
930.163	3812
930.267	3770
930.372	3983
930.477	3808
930.581	4063
930.685	3979
930.79	3835
930.894	3846
930.998	3812
931.103	4029
931.207	3679
931.311	3694
931.415	3614
931.519	3542
931.623	3511
