Data from test_V78500241_1457.txt Node
Date: Fri Mar 25 16:59:07 CST 2022
User: usil
Spectrometer: V785-0024
Trigger mode: 0
Integration Time (sec): 4.000000E-1
Scans to average: 1
Nonlinearity correction enabled: false
Boxcar width: 0
Storing dark spectrum: false
XAxis mode: Wavelengths
Number of Pixels in Spectrum: 1024
>>>>>Begin Spectral Data<<<<<
801.071	8043
801.214	8001
801.356	7970
801.499	7852
801.641	7757
801.783	7792
801.926	7959
802.068	7982
802.211	7932
802.353	8058
802.496	7849
802.638	7883
802.78	7951
802.923	7936
803.065	7951
803.208	7856
803.35	7967
803.492	8039
803.635	8092
803.777	7967
803.919	8111
804.061	8473
804.204	8153
804.346	8035
804.488	7959
804.63	8096
804.773	8069
804.915	8111
805.057	8336
805.199	8199
805.341	8301
805.483	8195
805.626	8153
805.768	8176
805.91	8248
806.052	8180
806.194	8039
806.336	8221
806.478	8180
806.62	8039
806.762	8149
806.904	8336
807.046	8476
807.188	8366
807.33	8286
807.472	8358
807.614	8183
807.756	8134
807.898	7986
808.04	7883
808.182	7909
808.324	7879
808.465	7887
808.607	8054
808.749	8103
808.891	8149
809.033	8298
809.174	8221
809.316	8100
809.458	8046
809.6	8024
809.741	8046
809.883	7970
810.025	8092
810.166	8111
810.308	8130
810.45	8065
810.591	7887
810.733	7677
810.875	7662
811.016	7472
811.158	7419
811.299	7601
811.441	7712
811.582	7674
811.724	7556
811.865	7575
812.007	7609
812.148	7609
812.29	7616
812.431	7750
812.573	7909
812.714	7944
812.855	8103
812.997	8210
813.138	8343
813.279	8259
813.421	8107
813.562	8012
813.703	7883
813.845	7757
813.986	7480
814.127	7228
814.268	7221
814.41	7187
814.551	7175
814.692	7228
814.833	7076
814.974	7110
815.115	7088
815.256	6935
815.397	6871
815.539	6985
815.68	6856
815.821	6795
815.962	6791
816.103	6825
816.244	6738
816.385	6639
816.526	6677
816.666	6456
816.807	6315
816.948	6410
817.089	6445
817.23	6353
817.371	6357
817.512	6369
817.653	6384
817.793	6346
817.934	6395
818.075	6445
818.216	6448
818.356	6426
818.497	6285
818.638	6121
818.778	6079
818.919	6159
819.06	6197
819.2	6338
819.341	6331
819.481	6319
819.622	6494
819.762	6692
819.903	6681
820.043	6570
820.184	6547
820.324	6555
820.465	6726
820.605	6696
820.746	6665
820.886	6445
821.026	6677
821.167	6764
821.307	6791
821.447	6806
821.588	6650
821.728	6555
821.868	6490
822.008	6311
822.149	6399
822.289	6422
822.429	6140
822.569	6041
822.709	6087
822.849	5992
822.99	5779
823.13	5912
823.27	5870
823.41	5790
823.55	5767
823.69	5748
823.83	5824
823.97	5691
824.11	5482
824.25	5467
824.389	5520
824.529	5562
824.669	5512
824.809	5596
824.949	5581
825.089	5638
825.228	5585
825.368	5395
825.508	5318
825.648	5337
825.787	5410
825.927	5349
826.067	5299
826.206	5258
826.346	5417
826.485	5376
826.625	5406
826.765	5532
826.904	5486
827.044	5197
827.183	5189
827.323	5132
827.462	5208
827.601	5178
827.741	5181
827.88	5181
828.02	5117
828.159	5227
828.298	5261
828.437	5357
828.577	5292
828.716	5463
828.855	5337
828.994	5201
829.134	5162
829.273	5136
829.412	5159
829.551	5155
829.69	5174
829.829	5231
829.968	5402
830.107	5261
830.246	5254
830.385	5136
830.524	5102
830.663	5067
830.802	4957
830.941	4923
831.08	4858
831.219	4984
831.357	4957
831.496	5162
831.635	4881
831.774	4805
831.913	4877
832.051	4687
832.19	4729
832.329	4847
832.467	4721
832.606	4660
832.744	4714
832.883	4717
833.022	4607
833.16	4786
833.299	4740
833.437	4850
833.576	4850
833.714	4843
833.852	4843
833.991	4858
834.129	4961
834.267	4934
834.406	4854
834.544	4976
834.682	4930
834.821	4930
834.959	5132
835.097	4987
835.235	5140
835.373	5079
835.511	5075
835.65	5048
835.788	4995
835.926	4900
836.064	4915
836.202	4904
836.34	5159
836.478	5197
836.615	5086
836.753	5201
836.891	5258
837.029	5307
837.167	5208
837.305	5174
837.443	5147
837.58	5113
837.718	5280
837.856	5223
837.993	5147
838.131	5250
838.269	5208
838.406	5201
838.544	5220
838.681	5037
838.819	4972
838.956	4900
839.094	4877
839.231	5003
839.369	5067
839.506	5421
839.643	5208
839.781	5071
839.918	5010
840.055	5086
840.193	5086
840.33	5128
840.467	5102
840.604	5178
840.742	5467
840.879	5037
841.016	5060
841.153	5136
841.29	5379
841.427	5318
841.564	5299
841.701	5368
841.838	5315
841.975	5208
842.112	5311
842.249	5143
842.385	5109
842.522	5357
842.659	5155
842.796	5189
842.933	5170
843.069	5151
843.206	5159
843.343	5330
843.479	5193
843.616	5223
843.752	5014
843.889	4999
844.025	5208
844.162	5014
844.298	5220
844.435	5060
844.571	5018
844.708	5197
844.844	5235
844.98	5341
845.117	5330
845.253	5147
845.389	5090
845.525	5174
845.661	5124
845.798	5075
845.934	5094
846.07	5071
846.206	5140
846.342	5269
846.478	5136
846.614	4976
846.75	4968
846.886	4923
847.022	5121
847.158	5010
847.294	5029
847.429	5098
847.565	5025
847.701	5299
847.837	4828
847.972	4843
848.108	5010
848.244	4923
848.379	4755
848.515	4729
848.65	4729
848.786	4752
848.921	4778
849.057	4881
849.192	4854
849.328	4828
849.463	4854
849.598	4797
849.734	4755
849.869	4679
850.004	4622
850.14	4664
850.275	4611
850.41	4538
850.545	4504
850.68	4554
850.815	4592
850.95	4599
851.085	4809
851.22	4752
851.355	4645
851.49	4630
851.625	4580
851.76	4675
851.895	4546
852.03	4550
852.165	4660
852.299	4672
852.434	4805
852.569	4698
852.703	4744
852.838	4831
852.973	4904
853.107	4934
853.242	4687
853.376	4668
853.511	4550
853.645	4588
853.78	4809
853.914	4660
854.048	4702
854.183	4626
854.317	4714
854.451	4809
854.585	4672
854.72	4599
854.854	4763
854.988	4577
855.122	4618
855.256	4508
855.39	4641
855.524	4736
855.658	4694
855.792	4714
855.926	4710
856.06	4767
856.194	4774
856.327	4645
856.461	4599
856.595	4626
856.729	4618
856.862	4725
856.996	4691
857.13	4672
857.263	4729
857.397	4801
857.53	4637
857.664	4733
857.797	4752
857.931	4786
858.064	4679
858.197	4736
858.331	4577
858.464	4584
858.597	4485
858.731	4588
858.864	4630
858.997	4538
859.13	4660
859.263	4683
859.396	4668
859.529	4603
859.662	4561
859.795	4558
859.928	4641
860.061	4755
860.194	4786
860.327	4580
860.46	4580
860.592	4710
860.725	4774
860.858	4691
860.99	4550
861.123	4504
861.256	4565
861.388	4584
861.521	5440
861.653	4466
861.786	4405
861.918	4440
862.05	4527
862.183	4527
862.315	4603
862.447	4656
862.58	4535
862.712	4394
862.844	4371
862.976	4504
863.108	4440
863.24	4744
863.372	4333
863.504	4413
863.636	4398
863.768	4459
863.9	4421
864.032	4402
864.164	4344
864.296	4489
864.428	4546
864.559	4558
864.691	4489
864.823	4481
864.954	4527
865.086	4485
865.217	4417
865.349	4375
865.48	4485
865.612	4466
865.743	4592
865.875	4428
866.006	4383
866.137	4455
866.269	4428
866.4	4470
866.531	4443
866.662	4383
866.793	4367
866.924	4436
867.055	4459
867.186	4440
867.317	4394
867.448	4398
867.579	4436
867.71	4436
867.841	4363
867.972	4462
868.103	4379
868.233	4451
868.364	4440
868.495	4462
868.625	4733
868.756	4702
868.886	4546
869.017	4611
869.147	4763
869.278	4774
869.408	4622
869.539	4672
869.669	4748
869.799	4660
869.929	4717
870.06	4748
870.19	4949
870.32	4919
870.45	4930
870.58	4980
870.71	4980
870.84	5067
870.97	4961
871.1	4934
871.23	5151
871.36	5124
871.489	4980
871.619	5079
871.749	5041
871.879	5132
872.008	5147
872.138	5006
872.267	4919
872.397	4877
872.526	4771
872.656	4714
872.785	4778
872.915	4942
873.044	5056
873.173	4938
873.303	4946
873.432	4927
873.561	4908
873.69	4900
873.819	4873
873.948	4934
874.077	4797
874.206	4729
874.335	4820
874.464	4930
874.593	5064
874.722	4938
874.851	5124
874.979	5090
875.108	5029
875.237	4919
875.365	4885
875.494	4858
875.623	5041
875.751	4786
875.88	4873
876.008	4946
876.136	5029
876.265	5216
876.393	5353
876.521	5288
876.65	5227
876.778	5181
876.906	5045
877.034	5018
877.162	5025
877.29	4991
877.418	5025
877.546	5033
877.674	5029
877.802	5033
877.93	4961
878.058	4915
878.185	4862
878.313	4999
878.441	4961
878.568	4809
878.696	4854
878.824	4942
878.951	4995
879.079	5128
879.206	5246
879.333	5090
879.461	4938
879.588	4991
879.715	5113
879.842	5189
879.97	4995
880.097	4748
880.224	4740
880.351	4801
880.478	4786
880.605	4831
880.732	4744
880.859	5075
880.986	4850
881.112	4896
881.239	4797
881.366	4702
881.493	4596
881.619	4622
881.746	4618
881.872	4630
881.999	4645
882.125	4714
882.252	4748
882.378	4782
882.505	4961
882.631	4854
882.757	4694
882.883	4748
883.01	4694
883.136	4702
883.262	4580
883.388	4618
883.514	4831
883.64	4866
883.766	4793
883.892	4679
884.018	4740
884.143	4896
884.269	4984
884.395	4706
884.52	4607
884.646	4588
884.772	4618
884.897	4561
885.023	4653
885.148	4698
885.274	4850
885.399	4831
885.524	4683
885.65	4706
885.775	4752
885.9	4679
886.025	4824
886.15	4797
886.275	4721
886.4	4592
886.525	4668
886.65	4710
886.775	4694
886.9	4923
887.025	5052
887.149	4778
887.274	4607
887.399	4500
887.523	4580
887.648	4584
887.773	4607
887.897	4736
888.021	4774
888.146	4721
888.27	4828
888.395	4930
888.519	4790
888.643	4767
888.767	4793
888.891	4649
889.015	4611
889.139	4630
889.263	4588
889.387	4717
889.511	4843
889.635	4778
889.759	4645
889.883	4596
890.006	4679
890.13	4801
890.254	4611
890.377	4675
890.501	4561
890.624	4504
890.748	4645
890.871	4485
890.995	4409
891.118	4386
891.241	4508
891.364	4508
891.488	4626
891.611	4455
891.734	4508
891.857	4580
891.98	4538
892.103	4630
892.226	4596
892.349	4485
892.471	4405
892.594	4565
892.717	4580
892.839	4550
892.962	4542
893.085	4653
893.207	4599
893.33	4478
893.452	4550
893.575	4637
893.697	4573
893.819	4809
893.941	4801
894.064	4725
894.186	4622
894.308	4573
894.43	4714
894.552	4816
894.674	4721
894.796	4554
894.918	4565
895.04	4531
895.161	4698
895.283	4668
895.405	4580
895.526	4641
895.648	4637
895.769	4660
895.891	4752
896.012	4698
896.134	4721
896.255	4611
896.376	4660
896.498	4607
896.619	4607
896.74	4584
896.861	4607
896.982	4927
897.103	5025
897.224	4809
897.345	4736
897.466	4672
897.587	4679
897.708	4835
897.828	4729
897.949	4694
898.07	4538
898.19	4672
898.311	4748
898.431	4622
898.552	4744
898.672	4755
898.792	4774
898.913	4668
899.033	4599
899.153	4512
899.273	4383
899.393	4504
899.513	4493
899.633	4558
899.753	4535
899.873	4481
899.993	4596
900.113	4546
900.232	4577
900.352	4535
900.472	4485
900.591	4405
900.711	4504
900.83	4413
900.95	4607
901.069	4664
901.189	4516
901.308	4314
901.427	4333
901.546	4371
901.665	4440
901.784	4493
901.904	4402
902.023	4363
902.141	4173
902.26	4166
902.379	4268
902.498	4223
902.617	4173
902.735	4344
902.854	4333
902.973	4356
903.091	4150
903.21	4181
903.328	4299
903.446	4249
903.565	4246
903.683	4379
903.801	4276
903.919	4405
904.038	4424
904.156	4291
904.274	4413
904.392	4367
904.51	4413
904.627	4455
904.745	4565
904.863	4607
904.981	4417
905.098	4257
905.216	4344
905.334	4451
905.451	4428
905.569	4428
905.686	4523
905.803	4546
905.921	4417
906.038	4478
906.155	4459
906.272	4398
906.389	4451
906.506	4367
906.623	4344
906.74	4386
906.857	4295
906.974	4367
907.091	4538
907.208	4668
907.324	4550
907.441	4489
907.557	4356
907.674	4284
907.79	4325
907.907	4371
908.023	4470
908.139	4500
908.256	4398
908.372	4428
908.488	4459
908.604	4398
908.72	4386
908.836	4341
908.952	4348
909.068	4447
909.184	4580
909.3	4428
909.415	4523
909.531	4516
909.647	4306
909.762	4352
909.878	4371
909.993	4394
910.108	4417
910.224	4375
910.339	4470
910.454	4402
910.57	4325
910.685	4272
910.8	4660
910.915	4618
911.03	4481
911.145	4299
911.259	4348
911.374	4295
911.489	4249
911.604	4242
911.718	4135
911.833	4169
911.947	4105
912.062	3964
912.176	4185
912.291	4230
912.405	4234
912.519	4443
912.633	4436
912.748	4356
912.862	4310
912.976	4181
913.09	4135
913.204	4097
913.318	4246
913.431	4333
913.545	4398
913.659	4417
913.772	4276
913.886	4211
914	4204
914.113	4352
914.226	4413
914.34	4367
914.453	4246
914.566	4375
914.68	4276
914.793	4348
914.906	4150
915.019	4120
915.132	4051
915.245	4158
915.358	4192
915.47	4306
915.583	4223
915.696	4249
915.809	4363
915.921	4375
916.034	4234
916.146	4246
916.259	4207
916.371	4371
916.483	4344
916.595	4268
916.708	4261
916.82	4272
916.932	4322
917.044	4341
917.156	4337
917.268	4204
917.38	4242
917.491	4207
917.603	4280
917.715	4383
917.826	4447
917.938	4386
918.049	4253
918.161	4402
918.272	4527
918.384	4497
918.495	4478
918.606	4325
918.717	4280
918.828	4299
918.939	4386
919.05	4295
919.161	4363
919.272	4181
919.383	4200
919.494	4478
919.604	4592
919.715	4436
919.826	4421
919.936	4417
920.047	4588
920.157	4516
920.267	4759
920.378	4516
920.488	4561
920.598	4744
920.708	4904
920.818	4763
920.928	4752
921.038	4995
921.148	4930
921.258	4694
921.368	4618
921.477	4519
921.587	4474
921.697	4363
921.806	4592
921.916	4474
922.025	4306
922.134	4295
922.244	4265
922.353	4371
922.462	4204
922.571	4150
922.68	4071
922.789	4029
922.898	4086
923.007	4051
923.116	4162
923.224	4071
923.333	4120
923.442	4051
923.55	4017
923.659	4074
923.767	4173
923.876	4040
923.984	4131
924.092	4025
924.201	4109
924.309	4120
924.417	4169
924.525	4074
924.633	4150
924.741	5037
924.849	3922
924.956	4185
925.064	4002
925.172	3930
925.279	3987
925.387	4044
925.494	4078
925.602	4238
925.709	4162
925.816	4082
925.924	4204
926.031	4272
926.138	4200
926.245	4215
926.352	4082
926.459	4284
926.566	4276
926.673	4207
926.779	4112
926.886	4124
926.993	3994
927.099	4002
927.206	4021
927.312	3956
927.419	4105
927.525	4074
927.631	4139
927.737	4032
927.843	3945
927.95	3876
928.056	3945
928.162	4040
928.267	4154
928.373	4645
928.479	4120
928.585	3915
928.69	4063
928.796	4124
928.901	3998
929.007	3892
929.112	4051
929.218	4017
929.323	3987
929.428	3926
929.533	4162
929.638	3934
929.743	3964
929.848	4071
929.953	4051
930.058	3956
930.163	3778
930.267	3876
930.372	4010
930.477	3835
930.581	4105
930.685	3979
930.79	3888
930.894	3926
930.998	3865
931.103	4059
931.207	3759
931.311	3686
931.415	3751
931.519	3553
931.623	3557
