Data from test_V78500241_334.txt Node
Date: Fri Mar 25 16:51:19 CST 2022
User: usil
Spectrometer: V785-0024
Trigger mode: 0
Integration Time (sec): 4.000000E-1
Scans to average: 1
Nonlinearity correction enabled: false
Boxcar width: 0
Storing dark spectrum: false
XAxis mode: Wavelengths
Number of Pixels in Spectrum: 1024
>>>>>Begin Spectral Data<<<<<
801.071	8096
801.214	8050
801.356	7890
801.499	7906
801.641	7811
801.783	7826
801.926	7970
802.068	7986
802.211	8020
802.353	8081
802.496	7940
802.638	7959
802.78	8031
802.923	8005
803.065	7932
803.208	7852
803.35	7955
803.492	8119
803.635	8115
803.777	7959
803.919	8039
804.061	8454
804.204	8172
804.346	8054
804.488	7997
804.63	8142
804.773	7955
804.915	8142
805.057	8324
805.199	8244
805.341	8275
805.483	8290
805.626	8142
805.768	8046
805.91	8199
806.052	8237
806.194	8145
806.336	8343
806.478	8096
806.62	8191
806.762	8176
806.904	8320
807.046	8476
807.188	8370
807.33	8313
807.472	8351
807.614	8157
807.756	8119
807.898	8027
808.04	7906
808.182	7963
808.324	7997
808.465	8020
808.607	8138
808.749	8145
808.891	8252
809.033	8412
809.174	8183
809.316	8031
809.458	8084
809.6	8039
809.741	8016
809.883	8050
810.025	8183
810.166	8176
810.308	8100
810.45	8046
810.591	7902
810.733	7772
810.875	7685
811.016	7552
811.158	7601
811.299	7677
811.441	7814
811.582	7765
811.724	7700
811.865	7662
812.007	7689
812.148	7693
812.29	7666
812.431	7727
812.573	7947
812.714	7982
812.855	8172
812.997	8214
813.138	8351
813.279	8233
813.421	8164
813.562	8050
813.703	7932
813.845	7811
813.986	7476
814.127	7358
814.268	7346
814.41	7312
814.551	7175
814.692	7255
814.833	7137
814.974	7149
815.115	7122
815.256	6989
815.397	7019
815.539	6958
815.68	6852
815.821	6787
815.962	6878
816.103	6928
816.244	6768
816.385	6677
816.526	6669
816.666	6551
816.807	6327
816.948	6509
817.089	6570
817.23	6456
817.371	6464
817.512	6426
817.653	6418
817.793	6494
817.934	6433
818.075	6513
818.216	6479
818.356	6452
818.497	6201
818.638	6148
818.778	6239
818.919	6167
819.06	6213
819.2	6376
819.341	6369
819.481	6422
819.622	6532
819.762	6829
819.903	6696
820.043	6604
820.184	6578
820.324	6627
820.465	6719
820.605	6738
820.746	6707
820.886	6589
821.026	6692
821.167	6783
821.307	6882
821.447	6814
821.588	6711
821.728	6692
821.868	6498
822.008	6365
822.149	6391
822.289	6403
822.429	6167
822.569	6163
822.709	6197
822.849	5939
822.99	5973
823.13	5961
823.27	5908
823.41	5885
823.55	5828
823.69	5817
823.83	5821
823.97	5745
824.11	5592
824.25	5585
824.389	5604
824.529	5627
824.669	5562
824.809	5653
824.949	5688
825.089	5684
825.228	5589
825.368	5421
825.508	5391
825.648	5387
825.787	5433
825.927	5444
826.067	5353
826.206	5341
826.346	5463
826.485	5433
826.625	5463
826.765	5581
826.904	5516
827.044	5258
827.183	5216
827.323	5223
827.462	5235
827.601	5223
827.741	5185
827.88	5250
828.02	5185
828.159	5269
828.298	5292
828.437	5459
828.577	5296
828.716	5520
828.855	5326
828.994	5178
829.134	5181
829.273	5189
829.412	5216
829.551	5174
829.69	5151
829.829	5269
829.968	5341
830.107	5292
830.246	5330
830.385	5208
830.524	5170
830.663	5094
830.802	5060
830.941	4957
831.08	4919
831.219	5045
831.357	5025
831.496	5212
831.635	4976
831.774	4866
831.913	4889
832.051	4778
832.19	4771
832.329	4889
832.467	4774
832.606	4698
832.744	4786
832.883	4744
833.022	4767
833.16	4755
833.299	4828
833.437	4831
833.576	4854
833.714	4919
833.852	4938
833.991	4919
834.129	4980
834.267	4980
834.406	4908
834.544	5003
834.682	5045
834.821	4980
834.959	5147
835.097	5003
835.235	5235
835.373	5132
835.511	5178
835.65	5090
835.788	5037
835.926	4927
836.064	4938
836.202	4972
836.34	5216
836.478	5254
836.615	5159
836.753	5216
836.891	5307
837.029	5261
837.167	5265
837.305	5181
837.443	5239
837.58	5102
837.718	5273
837.856	5269
837.993	5193
838.131	5288
838.269	5201
838.406	5239
838.544	5242
838.681	5014
838.819	4980
838.956	4900
839.094	4972
839.231	5033
839.369	5090
839.506	5455
839.643	5318
839.781	5124
839.918	4980
840.055	5170
840.193	5174
840.33	5159
840.467	5193
840.604	5181
840.742	5463
840.879	5067
841.016	5083
841.153	5170
841.29	5406
841.427	5402
841.564	5322
841.701	5414
841.838	5322
841.975	5284
842.112	5330
842.249	5151
842.385	5098
842.522	5364
842.659	5220
842.796	5098
842.933	5220
843.069	5151
843.206	5162
843.343	5337
843.479	5204
843.616	5292
843.752	5102
843.889	5010
844.025	5273
844.162	5052
844.298	5208
844.435	5090
844.571	5033
844.708	5261
844.844	5372
844.98	5474
845.117	5273
845.253	5189
845.389	5117
845.525	5136
845.661	5166
845.798	5060
845.934	5170
846.07	5075
846.206	5212
846.342	5303
846.478	5208
846.614	5052
846.75	4987
846.886	4930
847.022	5197
847.158	5048
847.294	5098
847.429	5132
847.565	5086
847.701	5360
847.837	4904
847.972	4835
848.108	5037
848.244	4942
848.379	4850
848.515	4782
848.65	4774
848.786	4790
848.921	4801
849.057	4927
849.192	4915
849.328	4881
849.463	4847
849.598	4801
849.734	4752
849.869	4725
850.004	4698
850.14	4702
850.275	4626
850.41	4592
850.545	4611
850.68	4611
850.815	4618
850.95	4668
851.085	4889
851.22	4752
851.355	4710
851.49	4668
851.625	4668
851.76	4691
851.895	4561
852.03	4546
852.165	4618
852.299	4706
852.434	4809
852.569	4744
852.703	4767
852.838	4908
852.973	4915
853.107	4957
853.242	4736
853.376	4717
853.511	4580
853.645	4649
853.78	4774
853.914	4717
854.048	4710
854.183	4626
854.317	4725
854.451	4873
854.585	4729
854.72	4714
854.854	4790
854.988	4637
855.122	4618
855.256	4550
855.39	4706
855.524	4801
855.658	4748
855.792	4672
855.926	4797
856.06	4771
856.194	4805
856.327	4774
856.461	4592
856.595	4626
856.729	4679
856.862	4767
856.996	4721
857.13	4721
857.263	4812
857.397	4774
857.53	4637
857.664	4755
857.797	4782
857.931	4805
858.064	4691
858.197	4729
858.331	4698
858.464	4649
858.597	4512
858.731	4641
858.864	4615
858.997	4641
859.13	4717
859.263	4694
859.396	4744
859.529	4573
859.662	4577
859.795	4622
859.928	4649
860.061	4736
860.194	4820
860.327	4622
860.46	4599
860.592	4649
860.725	4778
860.858	4740
860.99	4611
861.123	4599
861.256	4523
861.388	4645
861.521	5387
861.653	4523
861.786	4447
861.918	4516
862.05	4508
862.183	4592
862.315	4630
862.447	4622
862.58	4542
862.712	4390
862.844	4325
862.976	4478
863.108	4466
863.24	4774
863.372	4363
863.504	4405
863.636	4428
863.768	4485
863.9	4485
864.032	4390
864.164	4417
864.296	4489
864.428	4569
864.559	4550
864.691	4558
864.823	4527
864.954	4497
865.086	4535
865.217	4478
865.349	4398
865.48	4489
865.612	4500
865.743	4615
865.875	4523
866.006	4440
866.137	4481
866.269	4489
866.4	4485
866.531	4493
866.662	4398
866.793	4440
866.924	4478
867.055	4512
867.186	4508
867.317	4455
867.448	4424
867.579	4447
867.71	4398
867.841	4371
867.972	4500
868.103	4447
868.233	4485
868.364	4485
868.495	4516
868.625	4683
868.756	4774
868.886	4580
869.017	4653
869.147	4797
869.278	4782
869.408	4698
869.539	4687
869.669	4744
869.799	4687
869.929	4771
870.06	4714
870.19	4930
870.32	4949
870.45	4999
870.58	5025
870.71	5117
870.84	5105
870.97	4972
871.1	4961
871.23	5212
871.36	5193
871.489	5029
871.619	5090
871.749	5155
871.879	5147
872.008	5181
872.138	5071
872.267	5003
872.397	4843
872.526	4870
872.656	4752
872.785	4835
872.915	4949
873.044	5033
873.173	4927
873.303	4957
873.432	4942
873.561	4984
873.69	4892
873.819	4812
873.948	4889
874.077	4828
874.206	4790
874.335	4831
874.464	4984
874.593	5105
874.722	5010
874.851	5151
874.979	5086
875.108	5029
875.237	4942
875.365	4877
875.494	4953
875.623	5041
875.751	4858
875.88	4885
876.008	5029
876.136	5075
876.265	5258
876.393	5372
876.521	5246
876.65	5227
876.778	5147
876.906	5109
877.034	5003
877.162	5052
877.29	4999
877.418	5079
877.546	5071
877.674	5045
877.802	5010
877.93	5045
878.058	4927
878.185	4873
878.313	4987
878.441	4911
878.568	4782
878.696	4908
878.824	4942
878.951	5033
879.079	5185
879.206	5315
879.333	5162
879.461	4987
879.588	5056
879.715	5121
879.842	5204
879.97	5022
880.097	4797
880.224	4786
880.351	4847
880.478	4847
880.605	4828
880.732	4835
880.859	5170
880.986	4900
881.112	4946
881.239	4801
881.366	4664
881.493	4630
881.619	4622
881.746	4698
881.872	4656
881.999	4653
882.125	4797
882.252	4793
882.378	4835
882.505	4938
882.631	4839
882.757	4733
882.883	4721
883.01	4771
883.136	4679
883.262	4679
883.388	4660
883.514	4847
883.64	4870
883.766	4797
883.892	4717
884.018	4763
884.143	4915
884.269	5067
884.395	4729
884.52	4672
884.646	4660
884.772	4573
884.897	4546
885.023	4660
885.148	4828
885.274	4862
885.399	4839
885.524	4763
885.65	4744
885.775	4755
885.9	4691
886.025	4820
886.15	4809
886.275	4721
886.4	4637
886.525	4748
886.65	4698
886.775	4744
886.9	4919
887.025	5075
887.149	4839
887.274	4679
887.399	4679
887.523	4603
887.648	4565
887.773	4584
887.897	4778
888.021	4793
888.146	4660
888.27	4782
888.395	4889
888.519	4835
888.643	4816
888.767	4843
888.891	4664
889.015	4645
889.139	4653
889.263	4580
889.387	4786
889.511	4904
889.635	4793
889.759	4668
889.883	4698
890.006	4740
890.13	4801
890.254	4569
890.377	4736
890.501	4546
890.624	4516
890.748	4653
890.871	4493
890.995	4462
891.118	4352
891.241	4542
891.364	4538
891.488	4645
891.611	4470
891.734	4588
891.857	4580
891.98	4550
892.103	4653
892.226	4630
892.349	4531
892.471	4443
892.594	4550
892.717	4615
892.839	4573
892.962	4603
893.085	4679
893.207	4592
893.33	4493
893.452	4538
893.575	4660
893.697	4584
893.819	4774
893.941	4820
894.064	4786
894.186	4584
894.308	4561
894.43	4679
894.552	4820
894.674	4736
894.796	4569
894.918	4588
895.04	4584
895.161	4675
895.283	4656
895.405	4546
895.526	4615
895.648	4656
895.769	4698
895.891	4691
896.012	4694
896.134	4729
896.255	4702
896.376	4653
896.498	4599
896.619	4733
896.74	4603
896.861	4653
896.982	4900
897.103	5136
897.224	4866
897.345	4744
897.466	4664
897.587	4771
897.708	4816
897.828	4805
897.949	4679
898.07	4584
898.19	4603
898.311	4866
898.431	4687
898.552	4683
898.672	4828
898.792	4824
898.913	4809
899.033	4679
899.153	4542
899.273	4459
899.393	4489
899.513	4538
899.633	4538
899.753	4523
899.873	4466
899.993	4637
900.113	4554
900.232	4599
900.352	4554
900.472	4519
900.591	4379
900.711	4531
900.83	4481
900.95	4596
901.069	4698
901.189	4527
901.308	4383
901.427	4295
901.546	4360
901.665	4489
901.784	4497
901.904	4413
902.023	4322
902.141	4204
902.26	4207
902.379	4333
902.498	4268
902.617	4242
902.735	4379
902.854	4405
902.973	4394
903.091	4192
903.21	4211
903.328	4333
903.446	4276
903.565	4227
903.683	4344
903.801	4314
903.919	4398
904.038	4459
904.156	4375
904.274	4443
904.392	4436
904.51	4459
904.627	4440
904.745	4618
904.863	4649
904.981	4402
905.098	4333
905.216	4348
905.334	4447
905.451	4455
905.569	4432
905.686	4596
905.803	4565
905.921	4417
906.038	4584
906.155	4474
906.272	4459
906.389	4478
906.506	4371
906.623	4417
906.74	4398
906.857	4291
906.974	4417
907.091	4561
907.208	4668
907.324	4611
907.441	4508
907.557	4322
907.674	4409
907.79	4337
907.907	4363
908.023	4500
908.139	4497
908.256	4432
908.372	4554
908.488	4451
908.604	4348
908.72	4371
908.836	4363
908.952	4390
909.068	4470
909.184	4569
909.3	4504
909.415	4611
909.531	4527
909.647	4386
909.762	4367
909.878	4314
909.993	4428
910.108	4379
910.224	4424
910.339	4500
910.454	4432
910.57	4379
910.685	4329
910.8	4637
910.915	4656
911.03	4508
911.145	4371
911.259	4333
911.374	4443
911.489	4322
911.604	4280
911.718	4162
911.833	4207
911.947	4071
912.062	4063
912.176	4227
912.291	4230
912.405	4246
912.519	4443
912.633	4508
912.748	4360
912.862	4356
912.976	4219
913.09	4097
913.204	4128
913.318	4276
913.431	4371
913.545	4344
913.659	4428
913.772	4390
913.886	4287
914	4257
914.113	4402
914.226	4436
914.34	4363
914.453	4204
914.566	4390
914.68	4306
914.793	4329
914.906	4131
915.019	4131
915.132	4093
915.245	4166
915.358	4249
915.47	4192
915.583	4268
915.696	4310
915.809	4402
915.921	4421
916.034	4257
916.146	4242
916.259	4291
916.371	4329
916.483	4318
916.595	4268
916.708	4325
916.82	4356
916.932	4344
917.044	4325
917.156	4314
917.268	4265
917.38	4299
917.491	4268
917.603	4363
917.715	4432
917.826	4485
917.938	4318
918.049	4295
918.161	4379
918.272	4535
918.384	4481
918.495	4405
918.606	4284
918.717	4287
918.828	4325
918.939	4394
919.05	4246
919.161	4280
919.272	4166
919.383	4242
919.494	4500
919.604	4565
919.715	4470
919.826	4398
919.936	4409
920.047	4550
920.157	4535
920.267	4736
920.378	4527
920.488	4516
920.598	4660
920.708	4908
920.818	4767
920.928	4752
921.038	4972
921.148	4892
921.258	4656
921.368	4580
921.477	4523
921.587	4451
921.697	4413
921.806	4554
921.916	4466
922.025	4287
922.134	4227
922.244	4219
922.353	4314
922.462	4200
922.571	4131
922.68	4021
922.789	3975
922.898	4017
923.007	4040
923.116	4093
923.224	4059
923.333	4059
923.442	3956
923.55	3949
923.659	4048
923.767	4101
923.876	4002
923.984	4147
924.092	4010
924.201	4059
924.309	4090
924.417	4109
924.525	4101
924.633	4059
924.741	4854
924.849	3960
924.956	4112
925.064	3930
925.172	3903
925.279	3968
925.387	4032
925.494	4086
925.602	4276
925.709	4207
925.816	4040
925.924	4139
926.031	4230
926.138	4204
926.245	4234
926.352	4059
926.459	4249
926.566	4276
926.673	4131
926.779	4097
926.886	4071
926.993	4010
927.099	4006
927.206	3941
927.312	3983
927.419	4074
927.525	4010
927.631	4131
927.737	4006
927.843	3930
927.95	3838
928.056	3907
928.162	3930
928.267	4105
928.373	4592
928.479	4169
928.585	3903
928.69	4002
928.796	4078
928.901	3994
929.007	3861
929.112	4010
929.218	3960
929.323	3934
929.428	3956
929.533	4086
929.638	3926
929.743	3949
929.848	4040
929.953	3994
930.058	3964
930.163	3762
930.267	3865
930.372	3949
930.477	3850
930.581	4074
930.685	3994
930.79	3816
930.894	3903
930.998	3896
931.103	4040
931.207	3732
931.311	3709
931.415	3682
931.519	3519
931.623	3572
