Data from test_V78500241_2367.txt Node
Date: Fri Mar 25 17:05:27 CST 2022
User: usil
Spectrometer: V785-0024
Trigger mode: 0
Integration Time (sec): 4.000000E-1
Scans to average: 1
Nonlinearity correction enabled: false
Boxcar width: 0
Storing dark spectrum: false
XAxis mode: Wavelengths
Number of Pixels in Spectrum: 1024
>>>>>Begin Spectral Data<<<<<
801.071	7955
801.214	7944
801.356	7868
801.499	7837
801.641	7788
801.783	7792
801.926	7963
802.068	7917
802.211	8069
802.353	8062
802.496	7841
802.638	7925
802.78	7875
802.923	7955
803.065	7883
803.208	7864
803.35	8062
803.492	8096
803.635	8142
803.777	8043
803.919	8161
804.061	8457
804.204	8134
804.346	8058
804.488	7909
804.63	8115
804.773	8027
804.915	8199
805.057	8374
805.199	8183
805.341	8267
805.483	8244
805.626	8180
805.768	8096
805.91	8218
806.052	8210
806.194	8100
806.336	8370
806.478	8153
806.62	8005
806.762	8126
806.904	8187
807.046	8488
807.188	8423
807.33	8358
807.472	8370
807.614	8161
807.756	8065
807.898	8050
808.04	7917
808.182	7845
808.324	7890
808.465	7921
808.607	8065
808.749	8081
808.891	8206
809.033	8294
809.174	8244
809.316	8115
809.458	8142
809.6	8123
809.741	8103
809.883	8062
810.025	8126
810.166	8107
810.308	8012
810.45	7997
810.591	7833
810.733	7723
810.875	7704
811.016	7483
811.158	7480
811.299	7613
811.441	7696
811.582	7696
811.724	7609
811.865	7609
812.007	7601
812.148	7715
812.29	7609
812.431	7772
812.573	7868
812.714	7970
812.855	8096
812.997	8221
813.138	8267
813.279	8191
813.421	8069
813.562	8065
813.703	7822
813.845	7757
813.986	7449
814.127	7240
814.268	7270
814.41	7213
814.551	7149
814.692	7240
814.833	7065
814.974	7095
815.115	7152
815.256	7000
815.397	6943
815.539	6977
815.68	6837
815.821	6760
815.962	6909
816.103	6810
816.244	6707
816.385	6604
816.526	6684
816.666	6525
816.807	6273
816.948	6483
817.089	6460
817.23	6517
817.371	6395
817.512	6429
817.653	6391
817.793	6384
817.934	6437
818.075	6490
818.216	6498
818.356	6414
818.497	6338
818.638	6148
818.778	6152
818.919	6178
819.06	6163
819.2	6334
819.341	6369
819.481	6395
819.622	6498
819.762	6734
819.903	6734
820.043	6631
820.184	6627
820.324	6559
820.465	6665
820.605	6662
820.746	6692
820.886	6490
821.026	6719
821.167	6749
821.307	6798
821.447	6837
821.588	6700
821.728	6616
821.868	6475
822.008	6334
822.149	6380
822.289	6410
822.429	6171
822.569	6102
822.709	6140
822.849	5904
822.99	5946
823.13	5908
823.27	5942
823.41	5878
823.55	5832
823.69	5798
823.83	5775
823.97	5668
824.11	5539
824.25	5577
824.389	5554
824.529	5581
824.669	5520
824.809	5627
824.949	5661
825.089	5558
825.228	5573
825.368	5497
825.508	5345
825.648	5364
825.787	5471
825.927	5395
826.067	5349
826.206	5307
826.346	5368
826.485	5364
826.625	5368
826.765	5577
826.904	5478
827.044	5284
827.183	5235
827.323	5143
827.462	5288
827.601	5162
827.741	5216
827.88	5197
828.02	5105
828.159	5277
828.298	5239
828.437	5360
828.577	5265
828.716	5497
828.855	5299
828.994	5159
829.134	5136
829.273	5254
829.412	5109
829.551	5094
829.69	5136
829.829	5273
829.968	5395
830.107	5277
830.246	5261
830.385	5174
830.524	5147
830.663	5124
830.802	4976
830.941	4904
831.08	4858
831.219	4995
831.357	4930
831.496	5162
831.635	4919
831.774	4816
831.913	4843
832.051	4786
832.19	4767
832.329	4843
832.467	4717
832.606	4653
832.744	4733
832.883	4744
833.022	4763
833.16	4778
833.299	4839
833.437	4889
833.576	4866
833.714	4858
833.852	4927
833.991	4892
834.129	5010
834.267	4991
834.406	4892
834.544	4957
834.682	5014
834.821	4961
834.959	5178
835.097	4984
835.235	5162
835.373	5056
835.511	5098
835.65	5014
835.788	4991
835.926	4889
836.064	4904
836.202	4873
836.34	5132
836.478	5273
836.615	5162
836.753	5170
836.891	5235
837.029	5235
837.167	5166
837.305	5208
837.443	5151
837.58	5155
837.718	5265
837.856	5193
837.993	5178
838.131	5231
838.269	5220
838.406	5185
838.544	5128
838.681	5033
838.819	4965
838.956	4900
839.094	4881
839.231	5025
839.369	5045
839.506	5421
839.643	5227
839.781	5006
839.918	5052
840.055	5018
840.193	5064
840.33	5155
840.467	5151
840.604	5143
840.742	5493
840.879	5060
841.016	5075
841.153	5212
841.29	5391
841.427	5322
841.564	5246
841.701	5322
841.838	5261
841.975	5246
842.112	5261
842.249	5151
842.385	5136
842.522	5330
842.659	5147
842.796	5121
842.933	5147
843.069	5132
843.206	5174
843.343	5273
843.479	5235
843.616	5284
843.752	5033
843.889	4980
844.025	5239
844.162	4987
844.298	5204
844.435	5033
844.571	5041
844.708	5220
844.844	5280
844.98	5349
845.117	5288
845.253	5166
845.389	5109
845.525	5181
845.661	5162
845.798	5094
845.934	5155
846.07	5060
846.206	5128
846.342	5265
846.478	5204
846.614	5052
846.75	4987
846.886	4915
847.022	5136
847.158	5037
847.294	5090
847.429	5113
847.565	5079
847.701	5292
847.837	4820
847.972	4782
848.108	4946
848.244	4957
848.379	4774
848.515	4733
848.65	4736
848.786	4774
848.921	4816
849.057	4816
849.192	4934
849.328	4793
849.463	4854
849.598	4771
849.734	4763
849.869	4645
850.004	4656
850.14	4599
850.275	4611
850.41	4546
850.545	4596
850.68	4588
850.815	4634
850.95	4630
851.085	4858
851.22	4771
851.355	4691
851.49	4664
851.625	4596
851.76	4626
851.895	4573
852.03	4596
852.165	4649
852.299	4729
852.434	4759
852.569	4752
852.703	4767
852.838	4847
852.973	4946
853.107	4900
853.242	4679
853.376	4675
853.511	4531
853.645	4615
853.78	4839
853.914	4714
854.048	4694
854.183	4664
854.317	4691
854.451	4812
854.585	4714
854.72	4668
854.854	4752
854.988	4622
855.122	4622
855.256	4538
855.39	4637
855.524	4755
855.658	4778
855.792	4687
855.926	4714
856.06	4759
856.194	4801
856.327	4733
856.461	4630
856.595	4679
856.729	4641
856.862	4755
856.996	4672
857.13	4679
857.263	4729
857.397	4847
857.53	4664
857.664	4675
857.797	4744
857.931	4782
858.064	4698
858.197	4740
858.331	4626
858.464	4596
858.597	4538
858.731	4649
858.864	4668
858.997	4580
859.13	4637
859.263	4675
859.396	4687
859.529	4622
859.662	4611
859.795	4504
859.928	4596
860.061	4748
860.194	4771
860.327	4615
860.46	4577
860.592	4698
860.725	4702
860.858	4683
860.99	4592
861.123	4519
861.256	4512
861.388	4656
861.521	5292
861.653	4462
861.786	4424
861.918	4440
862.05	4485
862.183	4542
862.315	4618
862.447	4649
862.58	4527
862.712	4421
862.844	4371
862.976	4481
863.108	4455
863.24	4881
863.372	4341
863.504	4421
863.636	4409
863.768	4485
863.9	4424
864.032	4367
864.164	4371
864.296	4459
864.428	4550
864.559	4542
864.691	4561
864.823	4554
864.954	4523
865.086	4470
865.217	4466
865.349	4402
865.48	4459
865.612	4413
865.743	4615
865.875	4481
866.006	4402
866.137	4466
866.269	4489
866.4	4405
866.531	4379
866.662	4379
866.793	4386
866.924	4390
867.055	4493
867.186	4413
867.317	4390
867.448	4383
867.579	4409
867.71	4363
867.841	4348
867.972	4504
868.103	4443
868.233	4500
868.364	4497
868.495	4535
868.625	4668
868.756	4721
868.886	4565
869.017	4630
869.147	4755
869.278	4774
869.408	4634
869.539	4645
869.669	4729
869.799	4637
869.929	4778
870.06	4740
870.19	4976
870.32	4919
870.45	4873
870.58	4961
870.71	5079
870.84	5105
870.97	4968
871.1	4908
871.23	5121
871.36	5094
871.489	5033
871.619	5075
871.749	5109
871.879	5132
872.008	5201
872.138	5045
872.267	4961
872.397	4866
872.526	4858
872.656	4767
872.785	4793
872.915	4946
873.044	5048
873.173	4972
873.303	4949
873.432	4911
873.561	4934
873.69	4927
873.819	4843
873.948	4892
874.077	4854
874.206	4778
874.335	4797
874.464	4953
874.593	5075
874.722	5018
874.851	5083
874.979	5102
875.108	5018
875.237	4915
875.365	4923
875.494	4934
875.623	5014
875.751	4805
875.88	4870
876.008	5014
876.136	5014
876.265	5204
876.393	5334
876.521	5212
876.65	5223
876.778	5155
876.906	5052
877.034	5014
877.162	5071
877.29	4957
877.418	5090
877.546	5048
877.674	5075
877.802	5056
877.93	5014
878.058	4949
878.185	4881
878.313	4949
878.441	4980
878.568	4763
878.696	4870
878.824	4949
878.951	4972
879.079	5128
879.206	5303
879.333	5094
879.461	4965
879.588	5018
879.715	5132
879.842	5212
879.97	4995
880.097	4729
880.224	4736
880.351	4790
880.478	4850
880.605	4771
880.732	4793
880.859	5086
880.986	4892
881.112	4930
881.239	4786
881.366	4698
881.493	4641
881.619	4630
881.746	4675
881.872	4698
881.999	4687
882.125	4687
882.252	4759
882.378	4793
882.505	4965
882.631	4809
882.757	4691
882.883	4748
883.01	4702
883.136	4668
883.262	4596
883.388	4603
883.514	4801
883.64	4873
883.766	4740
883.892	4649
884.018	4714
884.143	4927
884.269	5037
884.395	4687
884.52	4607
884.646	4630
884.772	4580
884.897	4588
885.023	4656
885.148	4771
885.274	4843
885.399	4839
885.524	4767
885.65	4679
885.775	4767
885.9	4653
886.025	4839
886.15	4793
886.275	4744
886.4	4637
886.525	4706
886.65	4698
886.775	4694
886.9	4866
887.025	5003
887.149	4816
887.274	4664
887.399	4565
887.523	4561
887.648	4558
887.773	4569
887.897	4771
888.021	4801
888.146	4721
888.27	4797
888.395	4843
888.519	4790
888.643	4782
888.767	4801
888.891	4702
889.015	4569
889.139	4637
889.263	4622
889.387	4797
889.511	4877
889.635	4793
889.759	4622
889.883	4672
890.006	4733
890.13	4774
890.254	4634
890.377	4698
890.501	4535
890.624	4599
890.748	4653
890.871	4573
890.995	4409
891.118	4405
891.241	4466
891.364	4508
891.488	4580
891.611	4512
891.734	4531
891.857	4588
891.98	4558
892.103	4656
892.226	4596
892.349	4504
892.471	4417
892.594	4558
892.717	4573
892.839	4550
892.962	4596
893.085	4656
893.207	4637
893.33	4474
893.452	4497
893.575	4679
893.697	4546
893.819	4782
893.941	4816
894.064	4733
894.186	4523
894.308	4607
894.43	4725
894.552	4850
894.674	4786
894.796	4550
894.918	4618
895.04	4565
895.161	4664
895.283	4660
895.405	4580
895.526	4645
895.648	4683
895.769	4691
895.891	4710
896.012	4706
896.134	4710
896.255	4706
896.376	4615
896.498	4611
896.619	4672
896.74	4565
896.861	4641
896.982	4873
897.103	5045
897.224	4820
897.345	4744
897.466	4630
897.587	4740
897.708	4854
897.828	4805
897.949	4675
898.07	4573
898.19	4649
898.311	4831
898.431	4626
898.552	4733
898.672	4767
898.792	4824
898.913	4717
899.033	4607
899.153	4508
899.273	4455
899.393	4481
899.513	4512
899.633	4489
899.753	4565
899.873	4504
899.993	4538
900.113	4516
900.232	4546
900.352	4569
900.472	4538
900.591	4424
900.711	4462
900.83	4428
900.95	4626
901.069	4664
901.189	4538
901.308	4337
901.427	4291
901.546	4379
901.665	4443
901.784	4470
901.904	4383
902.023	4333
902.141	4223
902.26	4143
902.379	4287
902.498	4246
902.617	4207
902.735	4379
902.854	4405
902.973	4375
903.091	4196
903.21	4253
903.328	4299
903.446	4253
903.565	4200
903.683	4318
903.801	4219
903.919	4356
904.038	4447
904.156	4303
904.274	4489
904.392	4363
904.51	4402
904.627	4459
904.745	4592
904.863	4637
904.981	4424
905.098	4318
905.216	4333
905.334	4447
905.451	4436
905.569	4421
905.686	4577
905.803	4512
905.921	4440
906.038	4554
906.155	4451
906.272	4424
906.389	4500
906.506	4367
906.623	4379
906.74	4390
906.857	4341
906.974	4390
907.091	4550
907.208	4683
907.324	4561
907.441	4489
907.557	4344
907.674	4371
907.79	4333
907.907	4390
908.023	4474
908.139	4455
908.256	4421
908.372	4447
908.488	4402
908.604	4390
908.72	4363
908.836	4383
908.952	4383
909.068	4424
909.184	4577
909.3	4500
909.415	4611
909.531	4531
909.647	4386
909.762	4383
909.878	4348
909.993	4436
910.108	4405
910.224	4409
910.339	4481
910.454	4398
910.57	4303
910.685	4322
910.8	4641
910.915	4577
911.03	4512
911.145	4360
911.259	4287
911.374	4394
911.489	4246
911.604	4261
911.718	4177
911.833	4215
911.947	4055
912.062	3983
912.176	4173
912.291	4238
912.405	4253
912.519	4523
912.633	4516
912.748	4402
912.862	4383
912.976	4215
913.09	4097
913.204	4166
913.318	4246
913.431	4379
913.545	4329
913.659	4436
913.772	4379
913.886	4253
914	4227
914.113	4337
914.226	4383
914.34	4402
914.453	4234
914.566	4379
914.68	4280
914.793	4299
914.906	4166
915.019	4131
915.132	4090
915.245	4158
915.358	4219
915.47	4238
915.583	4276
915.696	4314
915.809	4421
915.921	4402
916.034	4215
916.146	4265
916.259	4169
916.371	4360
916.483	4379
916.595	4280
916.708	4303
916.82	4360
916.932	4318
917.044	4322
917.156	4341
917.268	4261
917.38	4265
917.491	4291
917.603	4356
917.715	4451
917.826	4451
917.938	4322
918.049	4185
918.161	4386
918.272	4542
918.384	4554
918.495	4455
918.606	4265
918.717	4238
918.828	4344
918.939	4371
919.05	4242
919.161	4310
919.272	4139
919.383	4227
919.494	4428
919.604	4645
919.715	4451
919.826	4337
919.936	4409
920.047	4504
920.157	4474
920.267	4698
920.378	4584
920.488	4493
920.598	4675
920.708	4862
920.818	4771
920.928	4736
921.038	4911
921.148	4976
921.258	4611
921.368	4535
921.477	4523
921.587	4455
921.697	4348
921.806	4512
921.916	4409
922.025	4272
922.134	4238
922.244	4207
922.353	4348
922.462	4185
922.571	4074
922.68	3991
922.789	3994
922.898	4078
923.007	3991
923.116	4124
923.224	4040
923.333	4090
923.442	3991
923.55	3991
923.659	4013
923.767	4120
923.876	3960
923.984	4120
924.092	3953
924.201	4082
924.309	4078
924.417	4131
924.525	4063
924.633	4139
924.741	5037
924.849	3880
924.956	4067
925.064	3998
925.172	3861
925.279	3949
925.387	3994
925.494	4059
925.602	4169
925.709	4139
925.816	3987
925.924	4139
926.031	4196
926.138	4211
926.245	4192
926.352	4169
926.459	4223
926.566	4287
926.673	4150
926.779	4063
926.886	4116
926.993	3975
927.099	3998
927.206	3960
927.312	3953
927.419	4025
927.525	4067
927.631	4086
927.737	3975
927.843	3941
927.95	3869
928.056	3915
928.162	4017
928.267	4025
928.373	4538
928.479	4109
928.585	3838
928.69	4010
928.796	4044
928.901	3979
929.007	3869
929.112	3983
929.218	3930
929.323	3930
929.428	3892
929.533	4112
929.638	3896
929.743	3953
929.848	4067
929.953	3949
930.058	3922
930.163	3812
930.267	3804
930.372	3998
930.477	3816
930.581	4105
930.685	3937
930.79	3842
930.894	3892
930.998	3888
931.103	4044
931.207	3717
931.311	3728
931.415	3644
931.519	3523
931.623	3526
