Data from test_V78500241_2769.txt Node
Date: Fri Mar 25 17:08:15 CST 2022
User: usil
Spectrometer: V785-0024
Trigger mode: 0
Integration Time (sec): 4.000000E-1
Scans to average: 1
Nonlinearity correction enabled: false
Boxcar width: 0
Storing dark spectrum: false
XAxis mode: Wavelengths
Number of Pixels in Spectrum: 1024
>>>>>Begin Spectral Data<<<<<
801.071	8008
801.214	8081
801.356	7898
801.499	7845
801.641	7841
801.783	7822
801.926	7986
802.068	7951
802.211	7978
802.353	7997
802.496	7868
802.638	7887
802.78	8020
802.923	7982
803.065	7887
803.208	7818
803.35	7978
803.492	8123
803.635	8111
803.777	8081
803.919	8180
804.061	8404
804.204	8168
804.346	8035
804.488	8005
804.63	8107
804.773	8012
804.915	8153
805.057	8294
805.199	8157
805.341	8240
805.483	8355
805.626	8221
805.768	8149
805.91	8206
806.052	8183
806.194	8126
806.336	8259
806.478	8046
806.62	8039
806.762	8043
806.904	8206
807.046	8404
807.188	8457
807.33	8351
807.472	8305
807.614	8168
807.756	8142
807.898	7970
808.04	7814
808.182	7856
808.324	7864
808.465	7928
808.607	8084
808.749	8111
808.891	8214
809.033	8294
809.174	8157
809.316	8126
809.458	8005
809.6	8039
809.741	8016
809.883	7997
810.025	8191
810.166	8088
810.308	8016
810.45	8031
810.591	7947
810.733	7727
810.875	7723
811.016	7529
811.158	7487
811.299	7609
811.441	7757
811.582	7689
811.724	7601
811.865	7578
812.007	7636
812.148	7582
812.29	7643
812.431	7769
812.573	7894
812.714	7925
812.855	8168
812.997	8240
813.138	8336
813.279	8157
813.421	8096
813.562	8001
813.703	7955
813.845	7811
813.986	7426
814.127	7266
814.268	7259
814.41	7160
814.551	7190
814.692	7183
814.833	7046
814.974	7103
815.115	7091
815.256	6985
815.397	6958
815.539	6973
815.68	6821
815.821	6791
815.962	6882
816.103	6821
816.244	6719
816.385	6604
816.526	6612
816.666	6498
816.807	6331
816.948	6399
817.089	6486
817.23	6418
817.371	6384
817.512	6372
817.653	6414
817.793	6346
817.934	6433
818.075	6517
818.216	6384
818.356	6437
818.497	6243
818.638	6136
818.778	6144
818.919	6167
819.06	6125
819.2	6334
819.341	6292
819.481	6361
819.622	6547
819.762	6753
819.903	6722
820.043	6639
820.184	6547
820.324	6559
820.465	6745
820.605	6677
820.746	6620
820.886	6498
821.026	6681
821.167	6719
821.307	6779
821.447	6738
821.588	6646
821.728	6578
821.868	6513
822.008	6365
822.149	6391
822.289	6414
822.429	6098
822.569	6068
822.709	6144
822.849	5920
822.99	5912
823.13	5923
823.27	5908
823.41	5821
823.55	5794
823.69	5775
823.83	5775
823.97	5680
824.11	5562
824.25	5486
824.389	5581
824.529	5528
824.669	5512
824.809	5627
824.949	5649
825.089	5615
825.228	5547
825.368	5410
825.508	5379
825.648	5368
825.787	5353
825.927	5406
826.067	5280
826.206	5303
826.346	5383
826.485	5421
826.625	5368
826.765	5524
826.904	5471
827.044	5269
827.183	5212
827.323	5132
827.462	5265
827.601	5170
827.741	5162
827.88	5216
828.02	5090
828.159	5307
828.298	5284
828.437	5318
828.577	5265
828.716	5482
828.855	5307
828.994	5151
829.134	5147
829.273	5212
829.412	5102
829.551	5098
829.69	5166
829.829	5220
829.968	5307
830.107	5250
830.246	5265
830.385	5166
830.524	5147
830.663	5064
830.802	5025
830.941	4919
831.08	4870
831.219	4965
831.357	4938
831.496	5178
831.635	4889
831.774	4873
831.913	4866
832.051	4774
832.19	4729
832.329	4843
832.467	4714
832.606	4607
832.744	4752
832.883	4748
833.022	4721
833.16	4797
833.299	4790
833.437	4839
833.576	4843
833.714	4854
833.852	4877
833.991	4877
834.129	4942
834.267	4953
834.406	4915
834.544	4987
834.682	4995
834.821	4957
834.959	5121
835.097	4972
835.235	5128
835.373	5079
835.511	5090
835.65	5018
835.788	5010
835.926	4831
836.064	4870
836.202	4923
836.34	5143
836.478	5204
836.615	5128
836.753	5220
836.891	5254
837.029	5239
837.167	5193
837.305	5147
837.443	5136
837.58	5109
837.718	5189
837.856	5185
837.993	5090
838.131	5220
838.269	5201
838.406	5212
838.544	5201
838.681	4961
838.819	5041
838.956	4885
839.094	4942
839.231	4976
839.369	5083
839.506	5474
839.643	5254
839.781	5079
839.918	5071
840.055	5083
840.193	5075
840.33	5143
840.467	5121
840.604	5151
840.742	5421
840.879	5075
841.016	5048
841.153	5109
841.29	5357
841.427	5330
841.564	5337
841.701	5379
841.838	5269
841.975	5231
842.112	5311
842.249	5083
842.385	5018
842.522	5326
842.659	5155
842.796	5014
842.933	5143
843.069	5189
843.206	5132
843.343	5337
843.479	5227
843.616	5277
843.752	4976
843.889	4987
844.025	5220
844.162	4999
844.298	5212
844.435	5102
844.571	5052
844.708	5189
844.844	5299
844.98	5311
845.117	5284
845.253	5086
845.389	5094
845.525	5124
845.661	5105
845.798	5010
845.934	5121
846.07	5029
846.206	5159
846.342	5296
846.478	5185
846.614	4984
846.75	4980
846.886	4892
847.022	5128
847.158	5033
847.294	5060
847.429	5067
847.565	5067
847.701	5364
847.837	4873
847.972	4801
848.108	4987
848.244	4980
848.379	4793
848.515	4744
848.65	4725
848.786	4714
848.921	4778
849.057	4881
849.192	4904
849.328	4797
849.463	4870
849.598	4786
849.734	4767
849.869	4683
850.004	4599
850.14	4683
850.275	4599
850.41	4565
850.545	4546
850.68	4637
850.815	4637
850.95	4641
851.085	4896
851.22	4767
851.355	4691
851.49	4630
851.625	4599
851.76	4634
851.895	4561
852.03	4531
852.165	4660
852.299	4714
852.434	4755
852.569	4710
852.703	4790
852.838	4847
852.973	4908
853.107	4919
853.242	4714
853.376	4668
853.511	4565
853.645	4622
853.78	4816
853.914	4694
854.048	4675
854.183	4645
854.317	4702
854.451	4778
854.585	4698
854.72	4649
854.854	4759
854.988	4584
855.122	4664
855.256	4569
855.39	4634
855.524	4748
855.658	4736
855.792	4683
855.926	4714
856.06	4774
856.194	4820
856.327	4672
856.461	4603
856.595	4618
856.729	4668
856.862	4733
856.996	4691
857.13	4725
857.263	4797
857.397	4812
857.53	4626
857.664	4691
857.797	4752
857.931	4786
858.064	4675
858.197	4721
858.331	4679
858.464	4599
858.597	4531
858.731	4634
858.864	4645
858.997	4607
859.13	4675
859.263	4691
859.396	4683
859.529	4596
859.662	4561
859.795	4485
859.928	4626
860.061	4755
860.194	4736
860.327	4569
860.46	4538
860.592	4763
860.725	4702
860.858	4706
860.99	4573
861.123	4561
861.256	4558
861.388	4626
861.521	5299
861.653	4500
861.786	4474
861.918	4462
862.05	4531
862.183	4535
862.315	4611
862.447	4634
862.58	4550
862.712	4383
862.844	4314
862.976	4508
863.108	4470
863.24	4729
863.372	4363
863.504	4390
863.636	4402
863.768	4497
863.9	4424
864.032	4363
864.164	4417
864.296	4497
864.428	4561
864.559	4573
864.691	4550
864.823	4554
864.954	4481
865.086	4516
865.217	4500
865.349	4390
865.48	4470
865.612	4500
865.743	4634
865.875	4459
866.006	4443
866.137	4466
866.269	4428
866.4	4424
866.531	4436
866.662	4413
866.793	4402
866.924	4440
867.055	4478
867.186	4398
867.317	4398
867.448	4360
867.579	4413
867.71	4413
867.841	4348
867.972	4478
868.103	4504
868.233	4493
868.364	4493
868.495	4462
868.625	4615
868.756	4759
868.886	4580
869.017	4653
869.147	4797
869.278	4793
869.408	4603
869.539	4626
869.669	4694
869.799	4592
869.929	4778
870.06	4733
870.19	4961
870.32	4900
870.45	4999
870.58	5067
870.71	5105
870.84	5151
870.97	4953
871.1	4919
871.23	5162
871.36	5132
871.489	5052
871.619	5052
871.749	5071
871.879	5098
872.008	5170
872.138	5037
872.267	4919
872.397	4820
872.526	4797
872.656	4710
872.785	4790
872.915	4991
873.044	5006
873.173	4927
873.303	4984
873.432	4991
873.561	4987
873.69	4946
873.819	4847
873.948	4915
874.077	4839
874.206	4736
874.335	4839
874.464	4968
874.593	5094
874.722	4946
874.851	5041
874.979	5075
875.108	5060
875.237	4946
875.365	4927
875.494	4938
875.623	5025
875.751	4862
875.88	4949
876.008	5022
876.136	5060
876.265	5189
876.393	5368
876.521	5258
876.65	5201
876.778	5147
876.906	5041
877.034	5052
877.162	5029
877.29	4968
877.418	5079
877.546	5083
877.674	5079
877.802	5018
877.93	4965
878.058	4953
878.185	4908
878.313	5003
878.441	4976
878.568	4870
878.696	4862
878.824	4957
878.951	4972
879.079	5181
879.206	5292
879.333	5098
879.461	4991
879.588	5037
879.715	5132
879.842	5201
879.97	5022
880.097	4824
880.224	4767
880.351	4843
880.478	4847
880.605	4816
880.732	4759
880.859	5048
880.986	4885
881.112	4908
881.239	4774
881.366	4691
881.493	4588
881.619	4615
881.746	4607
881.872	4649
881.999	4691
882.125	4733
882.252	4767
882.378	4854
882.505	4953
882.631	4847
882.757	4675
882.883	4748
883.01	4702
883.136	4630
883.262	4565
883.388	4607
883.514	4763
883.64	4877
883.766	4790
883.892	4653
884.018	4691
884.143	4873
884.269	5041
884.395	4630
884.52	4656
884.646	4698
884.772	4584
884.897	4569
885.023	4637
885.148	4782
885.274	4835
885.399	4824
885.524	4755
885.65	4706
885.775	4748
885.9	4740
886.025	4816
886.15	4805
886.275	4679
886.4	4645
886.525	4744
886.65	4675
886.775	4664
886.9	4896
887.025	5003
887.149	4824
887.274	4683
887.399	4592
887.523	4645
887.648	4550
887.773	4558
887.897	4763
888.021	4828
888.146	4634
888.27	4805
888.395	4915
888.519	4782
888.643	4786
888.767	4805
888.891	4691
889.015	4584
889.139	4584
889.263	4588
889.387	4790
889.511	4900
889.635	4790
889.759	4599
889.883	4618
890.006	4778
890.13	4786
890.254	4596
890.377	4649
890.501	4565
890.624	4527
890.748	4618
890.871	4489
890.995	4428
891.118	4402
891.241	4535
891.364	4565
891.488	4615
891.611	4493
891.734	4535
891.857	4592
891.98	4550
892.103	4622
892.226	4558
892.349	4535
892.471	4451
892.594	4523
892.717	4561
892.839	4577
892.962	4584
893.085	4599
893.207	4588
893.33	4436
893.452	4538
893.575	4679
893.697	4577
893.819	4767
893.941	4805
894.064	4763
894.186	4592
894.308	4580
894.43	4691
894.552	4816
894.674	4790
894.796	4535
894.918	4607
895.04	4558
895.161	4664
895.283	4668
895.405	4569
895.526	4615
895.648	4675
895.769	4706
895.891	4710
896.012	4786
896.134	4672
896.255	4683
896.376	4637
896.498	4603
896.619	4641
896.74	4588
896.861	4649
896.982	4949
897.103	5075
897.224	4835
897.345	4744
897.466	4637
897.587	4763
897.708	4850
897.828	4835
897.949	4656
898.07	4470
898.19	4660
898.311	4793
898.431	4687
898.552	4706
898.672	4824
898.792	4793
898.913	4759
899.033	4599
899.153	4500
899.273	4405
899.393	4508
899.513	4535
899.633	4500
899.753	4561
899.873	4527
899.993	4550
900.113	4527
900.232	4573
900.352	4554
900.472	4481
900.591	4417
900.711	4432
900.83	4428
900.95	4649
901.069	4679
901.189	4546
901.308	4356
901.427	4337
901.546	4386
901.665	4459
901.784	4516
901.904	4409
902.023	4348
902.141	4192
902.26	4154
902.379	4333
902.498	4223
902.617	4253
902.735	4383
902.854	4402
902.973	4348
903.091	4204
903.21	4249
903.328	4295
903.446	4291
903.565	4284
903.683	4333
903.801	4276
903.919	4356
904.038	4428
904.156	4310
904.274	4462
904.392	4390
904.51	4440
904.627	4497
904.745	4607
904.863	4649
904.981	4398
905.098	4295
905.216	4386
905.334	4424
905.451	4481
905.569	4428
905.686	4554
905.803	4603
905.921	4394
906.038	4535
906.155	4470
906.272	4363
906.389	4440
906.506	4310
906.623	4409
906.74	4379
906.857	4314
906.974	4398
907.091	4538
907.208	4675
907.324	4599
907.441	4485
907.557	4375
907.674	4367
907.79	4341
907.907	4417
908.023	4500
908.139	4470
908.256	4417
908.372	4440
908.488	4500
908.604	4322
908.72	4314
908.836	4386
908.952	4379
909.068	4459
909.184	4550
909.3	4519
909.415	4550
909.531	4592
909.647	4341
909.762	4379
909.878	4314
909.993	4417
910.108	4394
910.224	4375
910.339	4474
910.454	4398
910.57	4310
910.685	4284
910.8	4672
910.915	4580
911.03	4504
911.145	4371
911.259	4333
911.374	4367
911.489	4341
911.604	4200
911.718	4211
911.833	4234
911.947	4090
912.062	4017
912.176	4204
912.291	4249
912.405	4223
912.519	4440
912.633	4455
912.748	4337
912.862	4306
912.976	4204
913.09	4109
913.204	4196
913.318	4261
913.431	4367
913.545	4383
913.659	4421
913.772	4398
913.886	4234
914	4223
914.113	4386
914.226	4383
914.34	4390
914.453	4230
914.566	4394
914.68	4352
914.793	4303
914.906	4162
915.019	4124
915.132	4109
915.245	4181
915.358	4204
915.47	4207
915.583	4265
915.696	4287
915.809	4398
915.921	4421
916.034	4253
916.146	4276
916.259	4181
916.371	4363
916.483	4337
916.595	4234
916.708	4329
916.82	4318
916.932	4299
917.044	4329
917.156	4322
917.268	4238
917.38	4276
917.491	4261
917.603	4341
917.715	4413
917.826	4455
917.938	4402
918.049	4284
918.161	4386
918.272	4500
918.384	4538
918.495	4466
918.606	4265
918.717	4242
918.828	4287
918.939	4394
919.05	4284
919.161	4348
919.272	4158
919.383	4227
919.494	4470
919.604	4660
919.715	4436
919.826	4299
919.936	4390
920.047	4546
920.157	4485
920.267	4759
920.378	4500
920.488	4455
920.598	4702
920.708	4885
920.818	4812
920.928	4752
921.038	4930
921.148	4927
921.258	4607
921.368	4554
921.477	4451
921.587	4455
921.697	4337
921.806	4535
921.916	4424
922.025	4257
922.134	4295
922.244	4196
922.353	4325
922.462	4192
922.571	4158
922.68	3994
922.789	3994
922.898	4017
923.007	4013
923.116	4116
923.224	4010
923.333	4074
923.442	3987
923.55	4010
923.659	4010
923.767	4086
923.876	3983
923.984	4139
924.092	3934
924.201	4101
924.309	4097
924.417	4139
924.525	4097
924.633	4090
924.741	4885
924.849	3956
924.956	4135
925.064	3983
925.172	3888
925.279	3991
925.387	4082
925.494	4032
925.602	4238
925.709	4200
925.816	4017
925.924	4086
926.031	4249
926.138	4158
926.245	4211
926.352	4063
926.459	4268
926.566	4318
926.673	4162
926.779	4093
926.886	4109
926.993	3956
927.099	3953
927.206	3953
927.312	3953
927.419	4051
927.525	4036
927.631	4078
927.737	3926
927.843	3956
927.95	3831
928.056	3945
928.162	4029
928.267	4067
928.373	4698
928.479	4105
928.585	3869
928.69	4017
928.796	4063
928.901	4002
929.007	3831
929.112	3991
929.218	3983
929.323	3953
929.428	3975
929.533	4086
929.638	3915
929.743	3972
929.848	4021
929.953	4017
930.058	3934
930.163	3747
930.267	3831
930.372	3983
930.477	3812
930.581	4082
930.685	3941
930.79	3857
930.894	3911
930.998	3827
931.103	4021
931.207	3694
931.311	3698
931.415	3644
931.519	3542
931.623	3549
