Data from test_V78500241_1298.txt Node
Date: Fri Mar 25 16:58:01 CST 2022
User: usil
Spectrometer: V785-0024
Trigger mode: 0
Integration Time (sec): 4.000000E-1
Scans to average: 1
Nonlinearity correction enabled: false
Boxcar width: 0
Storing dark spectrum: false
XAxis mode: Wavelengths
Number of Pixels in Spectrum: 1024
>>>>>Begin Spectral Data<<<<<
801.071	8046
801.214	7970
801.356	7902
801.499	7837
801.641	7677
801.783	7731
801.926	7894
802.068	7883
802.211	7970
802.353	7982
802.496	7826
802.638	7860
802.78	7932
802.923	7898
803.065	7902
803.208	7852
803.35	7986
803.492	8073
803.635	8149
803.777	8012
803.919	8062
804.061	8454
804.204	8123
804.346	8058
804.488	7944
804.63	8100
804.773	7978
804.915	8134
805.057	8320
805.199	8195
805.341	8183
805.483	8256
805.626	8187
805.768	8149
805.91	8202
806.052	8172
806.194	8161
806.336	8324
806.478	8126
806.62	8039
806.762	8199
806.904	8267
807.046	8457
807.188	8298
807.33	8180
807.472	8298
807.614	8149
807.756	8077
807.898	8020
808.04	7902
808.182	7898
808.324	7909
808.465	7917
808.607	8069
808.749	8088
808.891	8214
809.033	8271
809.174	8206
809.316	8073
809.458	8001
809.6	8016
809.741	8069
809.883	8016
810.025	8012
810.166	8107
810.308	8020
810.45	7989
810.591	7852
810.733	7715
810.875	7655
811.016	7464
811.158	7548
811.299	7616
811.441	7742
811.582	7647
811.724	7639
811.865	7506
812.007	7559
812.148	7533
812.29	7658
812.431	7704
812.573	7887
812.714	7970
812.855	8130
812.997	8180
813.138	8381
813.279	8168
813.421	8062
813.562	7947
813.703	7883
813.845	7723
813.986	7430
814.127	7247
814.268	7183
814.41	7160
814.551	7145
814.692	7129
814.833	7050
814.974	7110
815.115	7084
815.256	6970
815.397	6916
815.539	6977
815.68	6840
815.821	6730
815.962	6863
816.103	6787
816.244	6711
816.385	6601
816.526	6604
816.666	6494
816.807	6319
816.948	6407
817.089	6456
817.23	6410
817.371	6353
817.512	6361
817.653	6346
817.793	6353
817.934	6452
818.075	6414
818.216	6380
818.356	6395
818.497	6266
818.638	6133
818.778	6121
818.919	6114
819.06	6144
819.2	6266
819.341	6228
819.481	6346
819.622	6483
819.762	6715
819.903	6722
820.043	6559
820.184	6566
820.324	6525
820.465	6673
820.605	6616
820.746	6654
820.886	6521
821.026	6585
821.167	6646
821.307	6719
821.447	6734
821.588	6696
821.728	6540
821.868	6475
822.008	6342
822.149	6300
822.289	6323
822.429	6133
822.569	6026
822.709	6060
822.849	5923
822.99	5939
823.13	5885
823.27	5901
823.41	5741
823.55	5737
823.69	5733
823.83	5748
823.97	5653
824.11	5501
824.25	5467
824.389	5589
824.529	5611
824.669	5524
824.809	5600
824.949	5680
825.089	5634
825.228	5562
825.368	5357
825.508	5360
825.648	5395
825.787	5383
825.927	5337
826.067	5318
826.206	5277
826.346	5368
826.485	5387
826.625	5463
826.765	5532
826.904	5474
827.044	5292
827.183	5235
827.323	5159
827.462	5246
827.601	5155
827.741	5181
827.88	5208
828.02	5174
828.159	5239
828.298	5330
828.437	5379
828.577	5296
828.716	5433
828.855	5280
828.994	5189
829.134	5185
829.273	5136
829.412	5212
829.551	5155
829.69	5151
829.829	5280
829.968	5349
830.107	5303
830.246	5265
830.385	5216
830.524	5143
830.663	5136
830.802	5045
830.941	4957
831.08	4923
831.219	4984
831.357	4980
831.496	5178
831.635	4972
831.774	4919
831.913	4866
832.051	4782
832.19	4790
832.329	4900
832.467	4687
832.606	4668
832.744	4729
832.883	4710
833.022	4759
833.16	4828
833.299	4858
833.437	4866
833.576	4858
833.714	4873
833.852	4885
833.991	4972
834.129	4999
834.267	4968
834.406	4923
834.544	5029
834.682	5083
834.821	5022
834.959	5178
835.097	4961
835.235	5155
835.373	5071
835.511	5140
835.65	5022
835.788	5083
835.926	4965
836.064	4904
836.202	4961
836.34	5181
836.478	5265
836.615	5147
836.753	5197
836.891	5296
837.029	5246
837.167	5223
837.305	5151
837.443	5174
837.58	5109
837.718	5288
837.856	5242
837.993	5140
838.131	5231
838.269	5208
838.406	5250
838.544	5166
838.681	5048
838.819	5029
838.956	4980
839.094	4908
839.231	5010
839.369	5109
839.506	5455
839.643	5292
839.781	5098
839.918	5029
840.055	5143
840.193	5083
840.33	5185
840.467	5143
840.604	5212
840.742	5501
840.879	5124
841.016	5102
841.153	5174
841.29	5357
841.427	5372
841.564	5307
841.701	5406
841.838	5288
841.975	5258
842.112	5322
842.249	5162
842.385	5151
842.522	5345
842.659	5201
842.796	5223
842.933	5204
843.069	5170
843.206	5178
843.343	5337
843.479	5299
843.616	5250
843.752	5052
843.889	5003
844.025	5242
844.162	5029
844.298	5227
844.435	5056
844.571	5071
844.708	5212
844.844	5322
844.98	5341
845.117	5311
845.253	5105
845.389	5071
845.525	5166
845.661	5147
845.798	5071
845.934	5151
846.07	5128
846.206	5181
846.342	5303
846.478	5204
846.614	5075
846.75	4968
846.886	4949
847.022	5174
847.158	5022
847.294	5086
847.429	5090
847.565	5025
847.701	5376
847.837	4889
847.972	4778
848.108	4995
848.244	4961
848.379	4774
848.515	4736
848.65	4767
848.786	4740
848.921	4850
849.057	4919
849.192	4889
849.328	4877
849.463	4847
849.598	4839
849.734	4828
849.869	4710
850.004	4637
850.14	4660
850.275	4649
850.41	4603
850.545	4577
850.68	4656
850.815	4641
850.95	4649
851.085	4854
851.22	4778
851.355	4687
851.49	4637
851.625	4679
851.76	4660
851.895	4561
852.03	4558
852.165	4664
852.299	4721
852.434	4778
852.569	4782
852.703	4831
852.838	4828
852.973	4953
853.107	4972
853.242	4816
853.376	4656
853.511	4527
853.645	4626
853.78	4782
853.914	4672
854.048	4687
854.183	4675
854.317	4744
854.451	4892
854.585	4675
854.72	4641
854.854	4824
854.988	4656
855.122	4584
855.256	4565
855.39	4691
855.524	4866
855.658	4698
855.792	4721
855.926	4763
856.06	4729
856.194	4839
856.327	4694
856.461	4637
856.595	4611
856.729	4622
856.862	4736
856.996	4733
857.13	4755
857.263	4801
857.397	4835
857.53	4714
857.664	4778
857.797	4831
857.931	4809
858.064	4672
858.197	4736
858.331	4672
858.464	4630
858.597	4546
858.731	4607
858.864	4672
858.997	4592
859.13	4660
859.263	4653
859.396	4759
859.529	4561
859.662	4577
859.795	4516
859.928	4641
860.061	4767
860.194	4767
860.327	4641
860.46	4592
860.592	4729
860.725	4740
860.858	4763
860.99	4630
861.123	4554
861.256	4519
861.388	4615
861.521	5204
861.653	4485
861.786	4432
861.918	4417
862.05	4573
862.183	4516
862.315	4637
862.447	4649
862.58	4508
862.712	4386
862.844	4314
862.976	4508
863.108	4436
863.24	4900
863.372	4386
863.504	4424
863.636	4421
863.768	4493
863.9	4462
864.032	4379
864.164	4402
864.296	4500
864.428	4577
864.559	4607
864.691	4523
864.823	4516
864.954	4535
865.086	4523
865.217	4470
865.349	4413
865.48	4485
865.612	4485
865.743	4603
865.875	4489
866.006	4497
866.137	4508
866.269	4428
866.4	4428
866.531	4436
866.662	4413
866.793	4443
866.924	4405
867.055	4462
867.186	4497
867.317	4470
867.448	4386
867.579	4409
867.71	4402
867.841	4424
867.972	4489
868.103	4436
868.233	4485
868.364	4489
868.495	4489
868.625	4691
868.756	4774
868.886	4634
869.017	4660
869.147	4782
869.278	4774
869.408	4679
869.539	4603
869.669	4733
869.799	4672
869.929	4767
870.06	4687
870.19	4911
870.32	4889
870.45	4957
870.58	5022
870.71	5090
870.84	5121
870.97	4949
871.1	4911
871.23	5132
871.36	5128
871.489	5022
871.619	5067
871.749	5060
871.879	5193
872.008	5162
872.138	5071
872.267	5109
872.397	4873
872.526	4866
872.656	4759
872.785	4812
872.915	4968
873.044	5052
873.173	4961
873.303	4987
873.432	4923
873.561	4949
873.69	4862
873.819	4824
873.948	4930
874.077	4831
874.206	4793
874.335	4786
874.464	4938
874.593	5086
874.722	4972
874.851	5109
874.979	5022
875.108	5010
875.237	4900
875.365	4885
875.494	4911
875.623	4968
875.751	4889
875.88	4885
876.008	4927
876.136	4991
876.265	5204
876.393	5417
876.521	5231
876.65	5220
876.778	5170
876.906	5067
877.034	5018
877.162	4987
877.29	5022
877.418	5113
877.546	5029
877.674	5045
877.802	5037
877.93	4987
878.058	4930
878.185	4900
878.313	4976
878.441	4984
878.568	4809
878.696	4896
878.824	4984
878.951	4987
879.079	5201
879.206	5288
879.333	5147
879.461	4949
879.588	5014
879.715	5174
879.842	5208
879.97	4976
880.097	4858
880.224	4744
880.351	4828
880.478	4835
880.605	4843
880.732	4790
880.859	5094
880.986	4915
881.112	4942
881.239	4790
881.366	4660
881.493	4550
881.619	4584
881.746	4675
881.872	4668
881.999	4691
882.125	4714
882.252	4771
882.378	4866
882.505	4949
882.631	4847
882.757	4698
882.883	4755
883.01	4736
883.136	4664
883.262	4603
883.388	4626
883.514	4797
883.64	4828
883.766	4805
883.892	4710
884.018	4748
884.143	4870
884.269	5003
884.395	4683
884.52	4637
884.646	4611
884.772	4554
884.897	4538
885.023	4687
885.148	4790
885.274	4889
885.399	4793
885.524	4736
885.65	4698
885.775	4740
885.9	4702
886.025	4873
886.15	4774
886.275	4767
886.4	4736
886.525	4736
886.65	4691
886.775	4714
886.9	4881
887.025	5052
887.149	4809
887.274	4637
887.399	4573
887.523	4634
887.648	4603
887.773	4596
887.897	4725
888.021	4797
888.146	4725
888.27	4854
888.395	4896
888.519	4812
888.643	4843
888.767	4847
888.891	4721
889.015	4603
889.139	4660
889.263	4679
889.387	4729
889.511	4904
889.635	4790
889.759	4687
889.883	4683
890.006	4748
890.13	4805
890.254	4637
890.377	4725
890.501	4588
890.624	4569
890.748	4653
890.871	4516
890.995	4485
891.118	4398
891.241	4512
891.364	4542
891.488	4675
891.611	4523
891.734	4546
891.857	4626
891.98	4565
892.103	4645
892.226	4554
892.349	4504
892.471	4398
892.594	4531
892.717	4573
892.839	4519
892.962	4596
893.085	4660
893.207	4603
893.33	4409
893.452	4538
893.575	4660
893.697	4519
893.819	4797
893.941	4816
894.064	4759
894.186	4569
894.308	4588
894.43	4736
894.552	4824
894.674	4721
894.796	4584
894.918	4599
895.04	4603
895.161	4744
895.283	4645
895.405	4542
895.526	4664
895.648	4706
895.769	4649
895.891	4736
896.012	4759
896.134	4706
896.255	4664
896.376	4615
896.498	4641
896.619	4672
896.74	4603
896.861	4630
896.982	4915
897.103	5025
897.224	4797
897.345	4771
897.466	4698
897.587	4763
897.708	4877
897.828	4801
897.949	4656
898.07	4561
898.19	4653
898.311	4843
898.431	4702
898.552	4645
898.672	4805
898.792	4774
898.913	4687
899.033	4637
899.153	4538
899.273	4443
899.393	4481
899.513	4516
899.633	4508
899.753	4531
899.873	4558
899.993	4580
900.113	4508
900.232	4580
900.352	4561
900.472	4466
900.591	4386
900.711	4481
900.83	4440
900.95	4592
901.069	4694
901.189	4580
901.308	4341
901.427	4337
901.546	4356
901.665	4504
901.784	4531
901.904	4363
902.023	4318
902.141	4204
902.26	4169
902.379	4314
902.498	4257
902.617	4257
902.735	4402
902.854	4421
902.973	4383
903.091	4238
903.21	4265
903.328	4375
903.446	4291
903.565	4257
903.683	4383
903.801	4318
903.919	4440
904.038	4405
904.156	4333
904.274	4409
904.392	4421
904.51	4500
904.627	4493
904.745	4611
904.863	4675
904.981	4436
905.098	4344
905.216	4383
905.334	4474
905.451	4504
905.569	4500
905.686	4569
905.803	4592
905.921	4451
906.038	4565
906.155	4546
906.272	4451
906.389	4500
906.506	4402
906.623	4402
906.74	4440
906.857	4363
906.974	4405
907.091	4649
907.208	4687
907.324	4607
907.441	4523
907.557	4421
907.674	4367
907.79	4348
907.907	4440
908.023	4527
908.139	4538
908.256	4470
908.372	4550
908.488	4527
908.604	4371
908.72	4398
908.836	4432
908.952	4421
909.068	4497
909.184	4573
909.3	4504
909.415	4641
909.531	4622
909.647	4375
909.762	4402
909.878	4379
909.993	4481
910.108	4462
910.224	4451
910.339	4535
910.454	4451
910.57	4394
910.685	4352
910.8	4675
910.915	4607
911.03	4504
911.145	4375
911.259	4386
911.374	4424
911.489	4322
911.604	4295
911.718	4188
911.833	4211
911.947	4116
912.062	4074
912.176	4223
912.291	4306
912.405	4268
912.519	4489
912.633	4554
912.748	4432
912.862	4383
912.976	4230
913.09	4131
913.204	4207
913.318	4344
913.431	4436
913.545	4371
913.659	4478
913.772	4413
913.886	4276
914	4227
914.113	4417
914.226	4462
914.34	4428
914.453	4280
914.566	4409
914.68	4348
914.793	4398
914.906	4181
915.019	4181
915.132	4074
915.245	4230
915.358	4257
915.47	4253
915.583	4299
915.696	4341
915.809	4432
915.921	4432
916.034	4318
916.146	4246
916.259	4272
916.371	4409
916.483	4386
916.595	4314
916.708	4348
916.82	4356
916.932	4375
917.044	4386
917.156	4394
917.268	4284
917.38	4325
917.491	4310
917.603	4398
917.715	4466
917.826	4508
917.938	4363
918.049	4272
918.161	4413
918.272	4592
918.384	4531
918.495	4531
918.606	4333
918.717	4253
918.828	4398
918.939	4417
919.05	4265
919.161	4386
919.272	4150
919.383	4299
919.494	4474
919.604	4660
919.715	4478
919.826	4428
919.936	4466
920.047	4535
920.157	4512
920.267	4797
920.378	4542
920.488	4516
920.598	4748
920.708	4923
920.818	4809
920.928	4755
921.038	4934
921.148	4957
921.258	4656
921.368	4615
921.477	4527
921.587	4516
921.697	4402
921.806	4603
921.916	4462
922.025	4303
922.134	4265
922.244	4246
922.353	4344
922.462	4204
922.571	4143
922.68	4071
922.789	4017
922.898	4055
923.007	4036
923.116	4128
923.224	4090
923.333	4128
923.442	3983
923.55	4021
923.659	4032
923.767	4093
923.876	4021
923.984	4109
924.092	4006
924.201	4101
924.309	4135
924.417	4143
924.525	4090
924.633	4116
924.741	5079
924.849	3941
924.956	4147
925.064	4006
925.172	3953
925.279	3994
925.387	4067
925.494	4067
925.602	4249
925.709	4253
925.816	4093
925.924	4147
926.031	4207
926.138	4196
926.245	4257
926.352	4086
926.459	4287
926.566	4344
926.673	4158
926.779	4074
926.886	4131
926.993	4029
927.099	3975
927.206	3975
927.312	3998
927.419	4093
927.525	4040
927.631	4112
927.737	3979
927.843	4010
927.95	3835
928.056	4002
928.162	4032
928.267	4063
928.373	4702
928.479	4124
928.585	3850
928.69	4059
928.796	4090
928.901	3983
929.007	3861
929.112	3998
929.218	3994
929.323	3930
929.428	3960
929.533	4131
929.638	3956
929.743	3975
929.848	4120
929.953	4044
930.058	3972
930.163	3797
930.267	3873
930.372	3975
930.477	3812
930.581	4112
930.685	3937
930.79	3896
930.894	3937
930.998	3911
931.103	4082
931.207	3736
931.311	3751
931.415	3690
931.519	3496
931.623	3629
