Data from test_V78500241_1282.txt Node
Date: Fri Mar 25 16:57:54 CST 2022
User: usil
Spectrometer: V785-0024
Trigger mode: 0
Integration Time (sec): 4.000000E-1
Scans to average: 1
Nonlinearity correction enabled: false
Boxcar width: 0
Storing dark spectrum: false
XAxis mode: Wavelengths
Number of Pixels in Spectrum: 1024
>>>>>Begin Spectral Data<<<<<
801.071	8008
801.214	8043
801.356	7875
801.499	7883
801.641	7799
801.783	7860
801.926	7944
802.068	7917
802.211	7997
802.353	7940
802.496	7856
802.638	7856
802.78	7852
802.923	7959
803.065	7921
803.208	7913
803.35	7974
803.492	8065
803.635	8233
803.777	8035
803.919	8126
804.061	8484
804.204	8176
804.346	8062
804.488	7951
804.63	8065
804.773	7917
804.915	8103
805.057	8244
805.199	8092
805.341	8191
805.483	8180
805.626	8168
805.768	8077
805.91	8233
806.052	8191
806.194	8065
806.336	8275
806.478	8126
806.62	8035
806.762	8126
806.904	8282
807.046	8530
807.188	8282
807.33	8294
807.472	8263
807.614	8168
807.756	8107
807.898	7989
808.04	7955
808.182	7906
808.324	7909
808.465	7951
808.607	8031
808.749	8153
808.891	8161
809.033	8317
809.174	8206
809.316	8012
809.458	8054
809.6	8046
809.741	8027
809.883	8092
810.025	8084
810.166	8100
810.308	8058
810.45	7986
810.591	7856
810.733	7738
810.875	7658
811.016	7521
811.158	7525
811.299	7639
811.441	7677
811.582	7765
811.724	7575
811.865	7495
812.007	7586
812.148	7540
812.29	7613
812.431	7700
812.573	7921
812.714	7947
812.855	8062
812.997	8180
813.138	8313
813.279	8199
813.421	8050
813.562	7993
813.703	7864
813.845	7753
813.986	7457
814.127	7240
814.268	7152
814.41	7190
814.551	7107
814.692	7183
814.833	7095
814.974	7065
815.115	7110
815.256	6935
815.397	6909
815.539	6924
815.68	6837
815.821	6760
815.962	6829
816.103	6802
816.244	6760
816.385	6639
816.526	6620
816.666	6437
816.807	6304
816.948	6361
817.089	6486
817.23	6429
817.371	6384
817.512	6418
817.653	6403
817.793	6334
817.934	6429
818.075	6422
818.216	6369
818.356	6369
818.497	6220
818.638	6076
818.778	6152
818.919	6125
819.06	6098
819.2	6289
819.341	6327
819.481	6331
819.622	6494
819.762	6738
819.903	6684
820.043	6597
820.184	6494
820.324	6593
820.465	6627
820.605	6696
820.746	6593
820.886	6410
821.026	6623
821.167	6688
821.307	6825
821.447	6779
821.588	6669
821.728	6616
821.868	6513
822.008	6315
822.149	6384
822.289	6376
822.429	6155
822.569	6114
822.709	6155
822.849	5908
822.99	5912
823.13	5866
823.27	5946
823.41	5786
823.55	5836
823.69	5703
823.83	5733
823.97	5638
824.11	5505
824.25	5459
824.389	5474
824.529	5589
824.669	5474
824.809	5600
824.949	5638
825.089	5615
825.228	5509
825.368	5345
825.508	5288
825.648	5372
825.787	5357
825.927	5379
826.067	5280
826.206	5303
826.346	5357
826.485	5383
826.625	5406
826.765	5482
826.904	5444
827.044	5250
827.183	5242
827.323	5132
827.462	5258
827.601	5132
827.741	5147
827.88	5239
828.02	5105
828.159	5254
828.298	5280
828.437	5322
828.577	5254
828.716	5493
828.855	5353
828.994	5151
829.134	5147
829.273	5185
829.412	5128
829.551	5071
829.69	5162
829.829	5280
829.968	5379
830.107	5277
830.246	5231
830.385	5162
830.524	5113
830.663	5048
830.802	4987
830.941	4892
831.08	4870
831.219	4984
831.357	4968
831.496	5124
831.635	4892
831.774	4793
831.913	4835
832.051	4744
832.19	4717
832.329	4839
832.467	4675
832.606	4668
832.744	4740
832.883	4717
833.022	4691
833.16	4759
833.299	4774
833.437	4824
833.576	4755
833.714	4850
833.852	4854
833.991	4904
834.129	4923
834.267	4949
834.406	4881
834.544	4987
834.682	4911
834.821	4980
834.959	5094
835.097	4957
835.235	5109
835.373	5151
835.511	5083
835.65	5022
835.788	4991
835.926	4911
836.064	4854
836.202	4885
836.34	5098
836.478	5162
836.615	5083
836.753	5201
836.891	5315
837.029	5170
837.167	5212
837.305	5140
837.443	5075
837.58	5098
837.718	5239
837.856	5197
837.993	5155
838.131	5193
838.269	5193
838.406	5147
838.544	5162
838.681	5022
838.819	4980
838.956	4923
839.094	4877
839.231	4946
839.369	5056
839.506	5425
839.643	5197
839.781	5037
839.918	5045
840.055	5117
840.193	5098
840.33	5079
840.467	5140
840.604	5174
840.742	5421
840.879	5052
841.016	5037
841.153	5162
841.29	5376
841.427	5353
841.564	5341
841.701	5341
841.838	5239
841.975	5235
842.112	5265
842.249	5147
842.385	5105
842.522	5258
842.659	5147
842.796	5162
842.933	5197
843.069	5113
843.206	5098
843.343	5242
843.479	5181
843.616	5273
843.752	5041
843.889	4995
844.025	5193
844.162	4999
844.298	5166
844.435	5067
844.571	5056
844.708	5193
844.844	5292
844.98	5345
845.117	5357
845.253	5143
845.389	5090
845.525	5136
845.661	5098
845.798	4968
845.934	5041
846.07	5006
846.206	5181
846.342	5265
846.478	5128
846.614	4942
846.75	4930
846.886	4961
847.022	5140
847.158	4946
847.294	5006
847.429	5014
847.565	5041
847.701	5307
847.837	4843
847.972	4835
848.108	4911
848.244	4927
848.379	4736
848.515	4729
848.65	4714
848.786	4755
848.921	4786
849.057	4812
849.192	4854
849.328	4816
849.463	4824
849.598	4801
849.734	4774
849.869	4683
850.004	4637
850.14	4660
850.275	4615
850.41	4546
850.545	4527
850.68	4580
850.815	4615
850.95	4615
851.085	4831
851.22	4702
851.355	4672
851.49	4577
851.625	4535
851.76	4641
851.895	4504
852.03	4554
852.165	4675
852.299	4733
852.434	4755
852.569	4721
852.703	4736
852.838	4828
852.973	4877
853.107	4919
853.242	4706
853.376	4683
853.511	4538
853.645	4607
853.78	4778
853.914	4721
854.048	4660
854.183	4634
854.317	4626
854.451	4771
854.585	4694
854.72	4618
854.854	4782
854.988	4607
855.122	4611
855.256	4485
855.39	4622
855.524	4774
855.658	4736
855.792	4675
855.926	4721
856.06	4725
856.194	4790
856.327	4664
856.461	4603
856.595	4596
856.729	4626
856.862	4725
856.996	4672
857.13	4736
857.263	4759
857.397	4778
857.53	4649
857.664	4740
857.797	4759
857.931	4714
858.064	4729
858.197	4710
858.331	4668
858.464	4569
858.597	4500
858.731	4603
858.864	4630
858.997	4596
859.13	4660
859.263	4714
859.396	4687
859.529	4569
859.662	4535
859.795	4500
859.928	4641
860.061	4755
860.194	4771
860.327	4611
860.46	4550
860.592	4683
860.725	4740
860.858	4748
860.99	4550
861.123	4542
861.256	4470
861.388	4599
861.521	5181
861.653	4459
861.786	4424
861.918	4432
862.05	4497
862.183	4558
862.315	4523
862.447	4607
862.58	4535
862.712	4402
862.844	4318
862.976	4455
863.108	4440
863.24	4885
863.372	4333
863.504	4417
863.636	4402
863.768	4497
863.9	4474
864.032	4386
864.164	4390
864.296	4500
864.428	4561
864.559	4558
864.691	4538
864.823	4500
864.954	4459
865.086	4508
865.217	4451
865.349	4466
865.48	4409
865.612	4417
865.743	4637
865.875	4504
866.006	4459
866.137	4462
866.269	4421
866.4	4405
866.531	4379
866.662	4383
866.793	4398
866.924	4398
867.055	4493
867.186	4455
867.317	4428
867.448	4409
867.579	4398
867.71	4348
867.841	4375
867.972	4459
868.103	4485
868.233	4455
868.364	4474
868.495	4516
868.625	4656
868.756	4744
868.886	4519
869.017	4649
869.147	4763
869.278	4778
869.408	4660
869.539	4588
869.669	4702
869.799	4607
869.929	4733
870.06	4733
870.19	4934
870.32	4911
870.45	4908
870.58	4987
870.71	5079
870.84	5075
870.97	4934
871.1	4900
871.23	5128
871.36	5147
871.489	4999
871.619	5048
871.749	5064
871.879	5075
872.008	5113
872.138	4999
872.267	4934
872.397	4870
872.526	4759
872.656	4687
872.785	4782
872.915	4953
873.044	5067
873.173	4946
873.303	4965
873.432	4953
873.561	4946
873.69	4896
873.819	4873
873.948	4938
874.077	4839
874.206	4755
874.335	4778
874.464	4885
874.593	5067
874.722	4946
874.851	5098
874.979	5071
875.108	4957
875.237	4938
875.365	4858
875.494	4870
875.623	4934
875.751	4774
875.88	4866
876.008	4961
876.136	5018
876.265	5147
876.393	5376
876.521	5223
876.65	5235
876.778	5143
876.906	5041
877.034	4991
877.162	5056
877.29	4965
877.418	5037
877.546	5060
877.674	5018
877.802	4972
877.93	5048
878.058	4915
878.185	4824
878.313	4911
878.441	4930
878.568	4782
878.696	4889
878.824	4900
878.951	4987
879.079	5155
879.206	5299
879.333	5128
879.461	4949
879.588	5018
879.715	5136
879.842	5220
879.97	4995
880.097	4786
880.224	4759
880.351	4816
880.478	4820
880.605	4790
880.732	4759
880.859	5079
880.986	4877
881.112	4873
881.239	4816
881.366	4645
881.493	4580
881.619	4603
881.746	4675
881.872	4637
881.999	4637
882.125	4675
882.252	4774
882.378	4858
882.505	4923
882.631	4763
882.757	4675
882.883	4725
883.01	4733
883.136	4649
883.262	4569
883.388	4622
883.514	4850
883.64	4858
883.766	4744
883.892	4622
884.018	4675
884.143	4854
884.269	5010
884.395	4698
884.52	4641
884.646	4668
884.772	4618
884.897	4599
885.023	4683
885.148	4752
885.274	4847
885.399	4839
885.524	4687
885.65	4736
885.775	4736
885.9	4736
886.025	4828
886.15	4835
886.275	4717
886.4	4634
886.525	4683
886.65	4672
886.775	4706
886.9	4881
887.025	5010
887.149	4809
887.274	4653
887.399	4577
887.523	4611
887.648	4535
887.773	4611
887.897	4721
888.021	4710
888.146	4660
888.27	4850
888.395	4892
888.519	4801
888.643	4835
888.767	4805
888.891	4725
889.015	4561
889.139	4649
889.263	4630
889.387	4740
889.511	4877
889.635	4767
889.759	4664
889.883	4630
890.006	4717
890.13	4828
890.254	4622
890.377	4660
890.501	4519
890.624	4542
890.748	4618
890.871	4504
890.995	4451
891.118	4405
891.241	4508
891.364	4512
891.488	4607
891.611	4508
891.734	4538
891.857	4630
891.98	4493
892.103	4626
892.226	4584
892.349	4508
892.471	4421
892.594	4580
892.717	4538
892.839	4535
892.962	4626
893.085	4691
893.207	4542
893.33	4417
893.452	4535
893.575	4714
893.697	4573
893.819	4809
893.941	4831
894.064	4801
894.186	4531
894.308	4535
894.43	4740
894.552	4778
894.674	4797
894.796	4554
894.918	4573
895.04	4573
895.161	4649
895.283	4687
895.405	4569
895.526	4580
895.648	4660
895.769	4630
895.891	4675
896.012	4733
896.134	4706
896.255	4698
896.376	4573
896.498	4603
896.619	4653
896.74	4622
896.861	4592
896.982	4923
897.103	5079
897.224	4805
897.345	4740
897.466	4691
897.587	4710
897.708	4843
897.828	4793
897.949	4691
898.07	4535
898.19	4618
898.311	4862
898.431	4668
898.552	4748
898.672	4778
898.792	4805
898.913	4740
899.033	4596
899.153	4512
899.273	4478
899.393	4493
899.513	4466
899.633	4500
899.753	4561
899.873	4500
899.993	4573
900.113	4546
900.232	4596
900.352	4527
900.472	4474
900.591	4413
900.711	4478
900.83	4409
900.95	4577
901.069	4698
901.189	4519
901.308	4360
901.427	4306
901.546	4379
901.665	4447
901.784	4500
901.904	4363
902.023	4352
902.141	4173
902.26	4166
902.379	4291
902.498	4246
902.617	4219
902.735	4363
902.854	4367
902.973	4341
903.091	4173
903.21	4238
903.328	4280
903.446	4325
903.565	4268
903.683	4348
903.801	4299
903.919	4413
904.038	4436
904.156	4291
904.274	4428
904.392	4371
904.51	4402
904.627	4474
904.745	4565
904.863	4599
904.981	4394
905.098	4318
905.216	4348
905.334	4436
905.451	4500
905.569	4443
905.686	4550
905.803	4550
905.921	4455
906.038	4569
906.155	4421
906.272	4390
906.389	4474
906.506	4344
906.623	4375
906.74	4363
906.857	4325
906.974	4371
907.091	4489
907.208	4645
907.324	4569
907.441	4493
907.557	4329
907.674	4360
907.79	4325
907.907	4356
908.023	4546
908.139	4504
908.256	4432
908.372	4436
908.488	4436
908.604	4356
908.72	4291
908.836	4398
908.952	4375
909.068	4386
909.184	4558
909.3	4470
909.415	4542
909.531	4527
909.647	4344
909.762	4356
909.878	4280
909.993	4432
910.108	4367
910.224	4413
910.339	4466
910.454	4413
910.57	4352
910.685	4310
910.8	4637
910.915	4592
911.03	4466
911.145	4306
911.259	4299
911.374	4325
911.489	4299
911.604	4284
911.718	4158
911.833	4192
911.947	4105
912.062	3998
912.176	4230
912.291	4219
912.405	4265
912.519	4455
912.633	4481
912.748	4363
912.862	4318
912.976	4211
913.09	4090
913.204	4211
913.318	4238
913.431	4405
913.545	4367
913.659	4394
913.772	4367
913.886	4268
914	4185
914.113	4352
914.226	4398
914.34	4363
914.453	4234
914.566	4402
914.68	4341
914.793	4341
914.906	4150
915.019	4105
915.132	4063
915.245	4173
915.358	4230
915.47	4204
915.583	4257
915.696	4329
915.809	4363
915.921	4436
916.034	4249
916.146	4253
916.259	4219
916.371	4341
916.483	4371
916.595	4325
916.708	4325
916.82	4314
916.932	4280
917.044	4341
917.156	4303
917.268	4223
917.38	4242
917.491	4295
917.603	4375
917.715	4386
917.826	4417
917.938	4303
918.049	4234
918.161	4356
918.272	4569
918.384	4538
918.495	4440
918.606	4280
918.717	4249
918.828	4295
918.939	4341
919.05	4238
919.161	4341
919.272	4128
919.383	4257
919.494	4428
919.604	4626
919.715	4390
919.826	4337
919.936	4383
920.047	4535
920.157	4523
920.267	4694
920.378	4447
920.488	4500
920.598	4710
920.708	4885
920.818	4710
920.928	4782
921.038	4927
921.148	4919
921.258	4615
921.368	4561
921.477	4516
921.587	4462
921.697	4371
921.806	4527
921.916	4413
922.025	4223
922.134	4215
922.244	4227
922.353	4356
922.462	4135
922.571	4154
922.68	3998
922.789	3949
922.898	4074
923.007	3975
923.116	4071
923.224	4036
923.333	4093
923.442	3987
923.55	3953
923.659	3983
923.767	4112
923.876	4013
923.984	4131
924.092	3953
924.201	4032
924.309	4093
924.417	4093
924.525	4044
924.633	4082
924.741	5041
924.849	3911
924.956	4074
925.064	3918
925.172	3857
925.279	3915
925.387	4029
925.494	4112
925.602	4173
925.709	4162
925.816	4010
925.924	4105
926.031	4234
926.138	4166
926.245	4204
926.352	4067
926.459	4249
926.566	4299
926.673	4120
926.779	4101
926.886	4120
926.993	3949
927.099	3998
927.206	3949
927.312	3922
927.419	4017
927.525	4025
927.631	4051
927.737	3968
927.843	3956
927.95	3842
928.056	3960
928.162	4002
928.267	4032
928.373	4740
928.479	4109
928.585	3876
928.69	4051
928.796	4048
928.901	3964
929.007	3823
929.112	3998
929.218	3937
929.323	3987
929.428	3941
929.533	4071
929.638	3945
929.743	3930
929.848	4067
929.953	4029
930.058	3892
930.163	3778
930.267	3823
930.372	3964
930.477	3816
930.581	4063
930.685	3915
930.79	3816
930.894	3911
930.998	3865
931.103	4032
931.207	3732
931.311	3698
931.415	3675
931.519	3553
931.623	3549
