Data from test_V78500241_1304.txt Node
Date: Fri Mar 25 16:58:04 CST 2022
User: usil
Spectrometer: V785-0024
Trigger mode: 0
Integration Time (sec): 4.000000E-1
Scans to average: 1
Nonlinearity correction enabled: false
Boxcar width: 0
Storing dark spectrum: false
XAxis mode: Wavelengths
Number of Pixels in Spectrum: 1024
>>>>>Begin Spectral Data<<<<<
801.071	7986
801.214	8027
801.356	7890
801.499	7837
801.641	7776
801.783	7795
801.926	7974
802.068	7871
802.211	7986
802.353	7944
802.496	7849
802.638	7868
802.78	7940
802.923	7928
803.065	7967
803.208	7860
803.35	8035
803.492	8134
803.635	8153
803.777	8001
803.919	8096
804.061	8442
804.204	8214
804.346	7997
804.488	7993
804.63	8130
804.773	8039
804.915	8142
805.057	8248
805.199	8164
805.341	8176
805.483	8195
805.626	8202
805.768	8119
805.91	8145
806.052	8195
806.194	8050
806.336	8275
806.478	8103
806.62	8001
806.762	8126
806.904	8256
807.046	8400
807.188	8347
807.33	8267
807.472	8286
807.614	8142
807.756	8138
807.898	7917
808.04	7879
808.182	7913
808.324	7852
808.465	7909
808.607	8069
808.749	8119
808.891	8168
809.033	8252
809.174	8161
809.316	8027
809.458	8096
809.6	7970
809.741	7982
809.883	8020
810.025	8016
810.166	8077
810.308	8039
810.45	7982
810.591	7928
810.733	7734
810.875	7628
811.016	7518
811.158	7544
811.299	7578
811.441	7712
811.582	7719
811.724	7651
811.865	7525
812.007	7590
812.148	7594
812.29	7636
812.431	7746
812.573	7947
812.714	7986
812.855	8001
812.997	8176
813.138	8286
813.279	8164
813.421	8096
813.562	7963
813.703	7864
813.845	7765
813.986	7388
814.127	7320
814.268	7236
814.41	7168
814.551	7107
814.692	7247
814.833	7057
814.974	7099
815.115	7091
815.256	6954
815.397	6932
815.539	6947
815.68	6806
815.821	6795
815.962	6867
816.103	6875
816.244	6726
816.385	6597
816.526	6700
816.666	6490
816.807	6273
816.948	6384
817.089	6486
817.23	6407
817.371	6441
817.512	6369
817.653	6380
817.793	6399
817.934	6391
818.075	6498
818.216	6422
818.356	6372
818.497	6277
818.638	6106
818.778	6114
818.919	6136
819.06	6133
819.2	6304
819.341	6342
819.481	6369
819.622	6525
819.762	6703
819.903	6703
820.043	6597
820.184	6551
820.324	6521
820.465	6665
820.605	6658
820.746	6608
820.886	6540
821.026	6566
821.167	6738
821.307	6795
821.447	6715
821.588	6631
821.728	6559
821.868	6498
822.008	6277
822.149	6369
822.289	6319
822.429	6209
822.569	6106
822.709	6098
822.849	5920
822.99	5863
823.13	5912
823.27	5920
823.41	5752
823.55	5710
823.69	5745
823.83	5741
823.97	5657
824.11	5478
824.25	5535
824.389	5539
824.529	5532
824.669	5547
824.809	5596
824.949	5608
825.089	5573
825.228	5570
825.368	5341
825.508	5299
825.648	5357
825.787	5334
825.927	5376
826.067	5318
826.206	5288
826.346	5410
826.485	5410
826.625	5376
826.765	5566
826.904	5436
827.044	5265
827.183	5216
827.323	5140
827.462	5201
827.601	5178
827.741	5181
827.88	5181
828.02	5071
828.159	5201
828.298	5334
828.437	5326
828.577	5277
828.716	5482
828.855	5318
828.994	5105
829.134	5136
829.273	5185
829.412	5102
829.551	5117
829.69	5162
829.829	5178
829.968	5425
830.107	5280
830.246	5212
830.385	5136
830.524	5178
830.663	5060
830.802	4904
830.941	4870
831.08	4847
831.219	4999
831.357	4961
831.496	5174
831.635	4938
831.774	4843
831.913	4858
832.051	4729
832.19	4733
832.329	4843
832.467	4717
832.606	4615
832.744	4752
832.883	4759
833.022	4706
833.16	4729
833.299	4797
833.437	4847
833.576	4870
833.714	4831
833.852	4881
833.991	4889
834.129	4896
834.267	4919
834.406	4850
834.544	4984
834.682	4934
834.821	4961
834.959	5155
835.097	4984
835.235	5109
835.373	5064
835.511	5083
835.65	5041
835.788	5045
835.926	4885
836.064	4873
836.202	4915
836.34	5155
836.478	5246
836.615	5090
836.753	5212
836.891	5288
837.029	5235
837.167	5185
837.305	5147
837.443	5117
837.58	5083
837.718	5277
837.856	5170
837.993	5155
838.131	5223
838.269	5181
838.406	5216
838.544	5181
838.681	5060
838.819	4961
838.956	4862
839.094	4885
839.231	5003
839.369	5071
839.506	5440
839.643	5212
839.781	5060
839.918	5025
840.055	5117
840.193	5064
840.33	5083
840.467	5174
840.604	5090
840.742	5421
840.879	5086
841.016	5052
841.153	5147
841.29	5406
841.427	5349
841.564	5322
841.701	5296
841.838	5284
841.975	5235
842.112	5299
842.249	5143
842.385	5098
842.522	5284
842.659	5143
842.796	5159
842.933	5151
843.069	5113
843.206	5140
843.343	5296
843.479	5193
843.616	5231
843.752	5041
843.889	5003
844.025	5208
844.162	4995
844.298	5174
844.435	5090
844.571	5025
844.708	5212
844.844	5303
844.98	5360
845.117	5273
845.253	5102
845.389	5098
845.525	5162
845.661	5121
845.798	5052
845.934	5166
846.07	5045
846.206	5193
846.342	5265
846.478	5204
846.614	4980
846.75	4923
846.886	4927
847.022	5113
847.158	5060
847.294	5022
847.429	5075
847.565	4980
847.701	5288
847.837	4854
847.972	4782
848.108	4946
848.244	4934
848.379	4759
848.515	4748
848.65	4698
848.786	4767
848.921	4748
849.057	4873
849.192	4873
849.328	4820
849.463	4809
849.598	4744
849.734	4710
849.869	4672
850.004	4626
850.14	4660
850.275	4550
850.41	4504
850.545	4599
850.68	4603
850.815	4668
850.95	4660
851.085	4854
851.22	4729
851.355	4683
851.49	4626
851.625	4634
851.76	4615
851.895	4546
852.03	4516
852.165	4630
852.299	4725
852.434	4805
852.569	4736
852.703	4725
852.838	4778
852.973	4900
853.107	4885
853.242	4752
853.376	4664
853.511	4554
853.645	4653
853.78	4771
853.914	4634
854.048	4687
854.183	4637
854.317	4733
854.451	4790
854.585	4649
854.72	4649
854.854	4736
854.988	4569
855.122	4649
855.256	4516
855.39	4618
855.524	4740
855.658	4668
855.792	4679
855.926	4698
856.06	4763
856.194	4778
856.327	4649
856.461	4596
856.595	4634
856.729	4577
856.862	4752
856.996	4649
857.13	4729
857.263	4767
857.397	4805
857.53	4653
857.664	4736
857.797	4736
857.931	4759
858.064	4714
858.197	4797
858.331	4603
858.464	4573
858.597	4516
858.731	4596
858.864	4641
858.997	4558
859.13	4653
859.263	4683
859.396	4622
859.529	4561
859.662	4554
859.795	4558
859.928	4615
860.061	4717
860.194	4767
860.327	4558
860.46	4558
860.592	4710
860.725	4691
860.858	4694
860.99	4535
861.123	4500
861.256	4504
861.388	4618
861.521	5220
861.653	4432
861.786	4424
861.918	4459
862.05	4523
862.183	4531
862.315	4523
862.447	4634
862.58	4561
862.712	4356
862.844	4371
862.976	4421
863.108	4409
863.24	4831
863.372	4344
863.504	4390
863.636	4402
863.768	4500
863.9	4421
864.032	4367
864.164	4432
864.296	4459
864.428	4542
864.559	4516
864.691	4508
864.823	4451
864.954	4489
865.086	4489
865.217	4451
865.349	4398
865.48	4405
865.612	4489
865.743	4592
865.875	4489
866.006	4455
866.137	4409
866.269	4402
866.4	4417
866.531	4409
866.662	4428
866.793	4390
866.924	4402
867.055	4485
867.186	4459
867.317	4413
867.448	4367
867.579	4356
867.71	4356
867.841	4352
867.972	4474
868.103	4405
868.233	4478
868.364	4451
868.495	4481
868.625	4653
868.756	4797
868.886	4542
869.017	4580
869.147	4748
869.278	4736
869.408	4637
869.539	4599
869.669	4660
869.799	4653
869.929	4755
870.06	4721
870.19	4949
870.32	4881
870.45	4927
870.58	4968
870.71	5079
870.84	5079
870.97	4904
871.1	4927
871.23	5079
871.36	5136
871.489	4995
871.619	5003
871.749	5090
871.879	5105
872.008	5174
872.138	5048
872.267	4965
872.397	4828
872.526	4797
872.656	4698
872.785	4793
872.915	4930
873.044	4987
873.173	4908
873.303	4942
873.432	4889
873.561	4923
873.69	4881
873.819	4858
873.948	4854
874.077	4858
874.206	4710
874.335	4755
874.464	4904
874.593	5067
874.722	5006
874.851	5079
874.979	5064
875.108	4999
875.237	4843
875.365	4930
875.494	4889
875.623	4942
875.751	4812
875.88	4843
876.008	4987
876.136	5018
876.265	5189
876.393	5318
876.521	5239
876.65	5170
876.778	5159
876.906	5010
877.034	4976
877.162	5064
877.29	4984
877.418	4999
877.546	5052
877.674	4995
877.802	5067
877.93	4961
878.058	4942
878.185	4881
878.313	4965
878.441	4885
878.568	4870
878.696	4843
878.824	4942
878.951	4999
879.079	5113
879.206	5299
879.333	5121
879.461	4946
879.588	5022
879.715	5109
879.842	5261
879.97	5006
880.097	4771
880.224	4729
880.351	4797
880.478	4744
880.605	4790
880.732	4744
880.859	5102
880.986	4866
881.112	4885
881.239	4771
881.366	4637
881.493	4615
881.619	4630
881.746	4584
881.872	4596
881.999	4637
882.125	4687
882.252	4748
882.378	4850
882.505	4911
882.631	4767
882.757	4664
882.883	4740
883.01	4740
883.136	4645
883.262	4596
883.388	4634
883.514	4870
883.64	4850
883.766	4752
883.892	4660
884.018	4698
884.143	4915
884.269	5018
884.395	4664
884.52	4592
884.646	4672
884.772	4577
884.897	4504
885.023	4672
885.148	4755
885.274	4866
885.399	4774
885.524	4694
885.65	4649
885.775	4763
885.9	4675
886.025	4904
886.15	4748
886.275	4668
886.4	4641
886.525	4763
886.65	4714
886.775	4683
886.9	4892
887.025	5067
887.149	4790
887.274	4664
887.399	4630
887.523	4599
887.648	4577
887.773	4584
887.897	4763
888.021	4793
888.146	4683
888.27	4847
888.395	4873
888.519	4767
888.643	4835
888.767	4816
888.891	4683
889.015	4626
889.139	4645
889.263	4611
889.387	4717
889.511	4854
889.635	4812
889.759	4622
889.883	4603
890.006	4702
890.13	4790
890.254	4634
890.377	4672
890.501	4592
890.624	4538
890.748	4618
890.871	4508
890.995	4394
891.118	4413
891.241	4493
891.364	4546
891.488	4641
891.611	4558
891.734	4550
891.857	4599
891.98	4516
892.103	4615
892.226	4592
892.349	4470
892.471	4417
892.594	4546
892.717	4615
892.839	4542
892.962	4592
893.085	4637
893.207	4592
893.33	4451
893.452	4512
893.575	4607
893.697	4607
893.819	4820
893.941	4843
894.064	4740
894.186	4592
894.308	4584
894.43	4763
894.552	4820
894.674	4721
894.796	4508
894.918	4573
895.04	4584
895.161	4641
895.283	4679
895.405	4554
895.526	4599
895.648	4721
895.769	4641
895.891	4714
896.012	4675
896.134	4649
896.255	4626
896.376	4637
896.498	4603
896.619	4687
896.74	4599
896.861	4721
896.982	4908
897.103	5060
897.224	4858
897.345	4763
897.466	4626
897.587	4740
897.708	4809
897.828	4778
897.949	4672
898.07	4558
898.19	4656
898.311	4790
898.431	4664
898.552	4691
898.672	4805
898.792	4763
898.913	4691
899.033	4618
899.153	4508
899.273	4386
899.393	4527
899.513	4523
899.633	4531
899.753	4538
899.873	4508
899.993	4542
900.113	4535
900.232	4538
900.352	4519
900.472	4451
900.591	4386
900.711	4504
900.83	4424
900.95	4592
901.069	4641
901.189	4523
901.308	4367
901.427	4284
901.546	4325
901.665	4459
901.784	4459
901.904	4398
902.023	4303
902.141	4169
902.26	4173
902.379	4303
902.498	4230
902.617	4181
902.735	4325
902.854	4390
902.973	4367
903.091	4188
903.21	4173
903.328	4295
903.446	4295
903.565	4280
903.683	4333
903.801	4276
903.919	4398
904.038	4402
904.156	4299
904.274	4443
904.392	4421
904.51	4436
904.627	4481
904.745	4584
904.863	4584
904.981	4352
905.098	4291
905.216	4337
905.334	4405
905.451	4394
905.569	4405
905.686	4550
905.803	4577
905.921	4436
906.038	4584
906.155	4481
906.272	4394
906.389	4443
906.506	4291
906.623	4360
906.74	4398
906.857	4249
906.974	4375
907.091	4561
907.208	4675
907.324	4561
907.441	4470
907.557	4322
907.674	4363
907.79	4337
907.907	4360
908.023	4481
908.139	4466
908.256	4440
908.372	4421
908.488	4443
908.604	4314
908.72	4299
908.836	4344
908.952	4386
909.068	4428
909.184	4508
909.3	4466
909.415	4546
909.531	4523
909.647	4341
909.762	4390
909.878	4329
909.993	4428
910.108	4421
910.224	4379
910.339	4474
910.454	4386
910.57	4371
910.685	4299
910.8	4664
910.915	4611
911.03	4489
911.145	4337
911.259	4348
911.374	4413
911.489	4291
911.604	4303
911.718	4158
911.833	4185
911.947	4074
912.062	4055
912.176	4200
912.291	4242
912.405	4246
912.519	4470
912.633	4500
912.748	4344
912.862	4318
912.976	4173
913.09	4074
913.204	4215
913.318	4215
913.431	4371
913.545	4318
913.659	4405
913.772	4348
913.886	4249
914	4204
914.113	4337
914.226	4440
914.34	4367
914.453	4219
914.566	4383
914.68	4306
914.793	4318
914.906	4135
915.019	4131
915.132	4067
915.245	4200
915.358	4200
915.47	4238
915.583	4230
915.696	4276
915.809	4394
915.921	4383
916.034	4246
916.146	4257
916.259	4185
916.371	4333
916.483	4318
916.595	4234
916.708	4295
916.82	4329
916.932	4257
917.044	4306
917.156	4352
917.268	4219
917.38	4276
917.491	4265
917.603	4291
917.715	4386
917.826	4443
917.938	4356
918.049	4230
918.161	4379
918.272	4550
918.384	4546
918.495	4417
918.606	4261
918.717	4173
918.828	4276
918.939	4367
919.05	4253
919.161	4280
919.272	4112
919.383	4223
919.494	4424
919.604	4645
919.715	4424
919.826	4360
919.936	4421
920.047	4500
920.157	4462
920.267	4706
920.378	4527
920.488	4527
920.598	4660
920.708	4862
920.818	4771
920.928	4744
921.038	4904
921.148	4953
921.258	4645
921.368	4523
921.477	4451
921.587	4405
921.697	4344
921.806	4592
921.916	4459
922.025	4253
922.134	4238
922.244	4204
922.353	4303
922.462	4143
922.571	4086
922.68	4025
922.789	3930
922.898	4010
923.007	3972
923.116	4093
923.224	4006
923.333	4032
923.442	3983
923.55	3987
923.659	3998
923.767	4063
923.876	3983
923.984	4097
924.092	3964
924.201	4082
924.309	4090
924.417	4112
924.525	4067
924.633	4071
924.741	5083
924.849	3888
924.956	4090
925.064	3960
925.172	3892
925.279	3911
925.387	4109
925.494	4032
925.602	4200
925.709	4196
925.816	4055
925.924	4128
926.031	4207
926.138	4169
926.245	4192
926.352	4074
926.459	4234
926.566	4280
926.673	4139
926.779	4032
926.886	4116
926.993	3956
927.099	3960
927.206	3956
927.312	3964
927.419	4010
927.525	4032
927.631	4090
927.737	3937
927.843	3922
927.95	3835
928.056	3991
928.162	3926
928.267	4013
928.373	4660
928.479	4105
928.585	3854
928.69	3991
928.796	4044
928.901	3975
929.007	3846
929.112	3987
929.218	3960
929.323	3964
929.428	3915
929.533	4093
929.638	3918
929.743	3964
929.848	4048
929.953	4010
930.058	3915
930.163	3778
930.267	3785
930.372	3956
930.477	3823
930.581	4082
930.685	3956
930.79	3774
930.894	3899
930.998	3785
931.103	4010
931.207	3732
931.311	3713
931.415	3671
931.519	3507
931.623	3526
