Data from test_V78500241_1439.txt Node
Date: Fri Mar 25 16:59:00 CST 2022
User: usil
Spectrometer: V785-0024
Trigger mode: 0
Integration Time (sec): 4.000000E-1
Scans to average: 1
Nonlinearity correction enabled: false
Boxcar width: 0
Storing dark spectrum: false
XAxis mode: Wavelengths
Number of Pixels in Spectrum: 1024
>>>>>Begin Spectral Data<<<<<
801.071	8005
801.214	8031
801.356	7902
801.499	7864
801.641	7849
801.783	7830
801.926	8008
802.068	7932
802.211	7913
802.353	7955
802.496	7803
802.638	7856
802.78	7906
802.923	7902
803.065	7765
803.208	7890
803.35	7963
803.492	8058
803.635	8126
803.777	7982
803.919	8103
804.061	8366
804.204	8134
804.346	8020
804.488	7947
804.63	8065
804.773	7970
804.915	8077
805.057	8263
805.199	8111
805.341	8168
805.483	8256
805.626	8172
805.768	8100
805.91	8202
806.052	8176
806.194	8039
806.336	8252
806.478	8172
806.62	8069
806.762	8107
806.904	8271
807.046	8461
807.188	8370
807.33	8286
807.472	8305
807.614	8157
807.756	8100
807.898	7997
808.04	7947
808.182	7887
808.324	7871
808.465	7925
808.607	8103
808.749	8039
808.891	8229
809.033	8328
809.174	8103
809.316	8054
809.458	8092
809.6	8031
809.741	7982
809.883	8069
810.025	8016
810.166	8043
810.308	8008
810.45	8001
810.591	7803
810.733	7765
810.875	7651
811.016	7559
811.158	7518
811.299	7662
811.441	7727
811.582	7693
811.724	7575
811.865	7571
812.007	7556
812.148	7571
812.29	7601
812.431	7746
812.573	7852
812.714	7864
812.855	8130
812.997	8225
813.138	8358
813.279	8183
813.421	8016
813.562	7951
813.703	7845
813.845	7670
813.986	7445
814.127	7240
814.268	7232
814.41	7171
814.551	7133
814.692	7244
814.833	7076
814.974	7114
815.115	7107
815.256	6989
815.397	6916
815.539	6909
815.68	6814
815.821	6818
815.962	6913
816.103	6757
816.244	6703
816.385	6627
816.526	6612
816.666	6513
816.807	6292
816.948	6410
817.089	6467
817.23	6426
817.371	6391
817.512	6338
817.653	6365
817.793	6289
817.934	6391
818.075	6410
818.216	6414
818.356	6357
818.497	6289
818.638	6155
818.778	6133
818.919	6148
819.06	6171
819.2	6254
819.341	6273
819.481	6346
819.622	6536
819.762	6757
819.903	6741
820.043	6635
820.184	6582
820.324	6544
820.465	6681
820.605	6677
820.746	6662
820.886	6540
821.026	6627
821.167	6681
821.307	6787
821.447	6707
821.588	6623
821.728	6555
821.868	6422
822.008	6327
822.149	6376
822.289	6327
822.429	6110
822.569	6098
822.709	6136
822.849	5885
822.99	5912
823.13	5908
823.27	5882
823.41	5767
823.55	5775
823.69	5760
823.83	5737
823.97	5657
824.11	5493
824.25	5505
824.389	5551
824.529	5570
824.669	5486
824.809	5608
824.949	5623
825.089	5634
825.228	5554
825.368	5414
825.508	5311
825.648	5341
825.787	5364
825.927	5311
826.067	5269
826.206	5261
826.346	5307
826.485	5376
826.625	5341
826.765	5562
826.904	5433
827.044	5220
827.183	5201
827.323	5132
827.462	5223
827.601	5170
827.741	5216
827.88	5277
828.02	5083
828.159	5212
828.298	5277
828.437	5398
828.577	5250
828.716	5440
828.855	5330
828.994	5117
829.134	5136
829.273	5166
829.412	5094
829.551	5151
829.69	5159
829.829	5269
829.968	5311
830.107	5242
830.246	5269
830.385	5151
830.524	5090
830.663	5041
830.802	4980
830.941	4873
831.08	4892
831.219	4980
831.357	4949
831.496	5197
831.635	4896
831.774	4824
831.913	4850
832.051	4740
832.19	4740
832.329	4816
832.467	4729
832.606	4660
832.744	4721
832.883	4744
833.022	4691
833.16	4763
833.299	4824
833.437	4862
833.576	4866
833.714	4812
833.852	4862
833.991	4949
834.129	4949
834.267	4934
834.406	4889
834.544	4961
834.682	4923
834.821	4919
834.959	5086
835.097	4961
835.235	5162
835.373	5010
835.511	5098
835.65	4991
835.788	4995
835.926	4908
836.064	4858
836.202	4919
836.34	5197
836.478	5216
836.615	5140
836.753	5166
836.891	5303
837.029	5239
837.167	5166
837.305	5162
837.443	5128
837.58	5113
837.718	5220
837.856	5181
837.993	5151
838.131	5269
838.269	5201
838.406	5143
838.544	5166
838.681	5052
838.819	4995
838.956	4828
839.094	4915
839.231	4991
839.369	5037
839.506	5398
839.643	5235
839.781	5018
839.918	5025
840.055	5071
840.193	5067
840.33	5094
840.467	5151
840.604	5174
840.742	5414
840.879	5083
841.016	5048
841.153	5113
841.29	5341
841.427	5337
841.564	5311
841.701	5349
841.838	5269
841.975	5258
842.112	5254
842.249	5166
842.385	5067
842.522	5315
842.659	5132
842.796	5113
842.933	5159
843.069	5140
843.206	5121
843.343	5315
843.479	5208
843.616	5254
843.752	5003
843.889	5014
844.025	5166
844.162	4987
844.298	5250
844.435	5105
844.571	5041
844.708	5159
844.844	5284
844.98	5311
845.117	5307
845.253	5178
845.389	5045
845.525	5197
845.661	5086
845.798	5006
845.934	5121
846.07	5075
846.206	5185
846.342	5242
846.478	5128
846.614	5029
846.75	4984
846.886	4923
847.022	5102
847.158	5014
847.294	5064
847.429	5052
847.565	5022
847.701	5269
847.837	4820
847.972	4805
848.108	4953
848.244	4957
848.379	4740
848.515	4725
848.65	4683
848.786	4736
848.921	4744
849.057	4927
849.192	4930
849.328	4831
849.463	4793
849.598	4736
849.734	4759
849.869	4660
850.004	4694
850.14	4641
850.275	4630
850.41	4504
850.545	4603
850.68	4584
850.815	4603
850.95	4634
851.085	4801
851.22	4763
851.355	4691
851.49	4592
851.625	4641
851.76	4645
851.895	4527
852.03	4546
852.165	4630
852.299	4710
852.434	4782
852.569	4736
852.703	4710
852.838	4843
852.973	4900
853.107	4904
853.242	4755
853.376	4645
853.511	4538
853.645	4607
853.78	4782
853.914	4702
854.048	4634
854.183	4615
854.317	4702
854.451	4889
854.585	4694
854.72	4615
854.854	4740
854.988	4569
855.122	4637
855.256	4512
855.39	4641
855.524	4759
855.658	4664
855.792	4702
855.926	4755
856.06	4778
856.194	4782
856.327	4630
856.461	4611
856.595	4615
856.729	4607
856.862	4771
856.996	4668
857.13	4717
857.263	4706
857.397	4774
857.53	4573
857.664	4717
857.797	4725
857.931	4744
858.064	4664
858.197	4729
858.331	4691
858.464	4592
858.597	4546
858.731	4569
858.864	4611
858.997	4626
859.13	4615
859.263	4683
859.396	4710
859.529	4565
859.662	4588
859.795	4538
859.928	4622
860.061	4725
860.194	4744
860.327	4531
860.46	4569
860.592	4698
860.725	4702
860.858	4694
860.99	4569
861.123	4508
861.256	4550
861.388	4596
861.521	5414
861.653	4470
861.786	4390
861.918	4455
862.05	4504
862.183	4558
862.315	4615
862.447	4649
862.58	4546
862.712	4417
862.844	4352
862.976	4424
863.108	4409
863.24	4870
863.372	4295
863.504	4443
863.636	4383
863.768	4432
863.9	4432
864.032	4341
864.164	4398
864.296	4478
864.428	4542
864.559	4580
864.691	4535
864.823	4462
864.954	4478
865.086	4451
865.217	4470
865.349	4421
865.48	4421
865.612	4436
865.743	4637
865.875	4459
866.006	4428
866.137	4466
866.269	4436
866.4	4409
866.531	4424
866.662	4379
866.793	4383
866.924	4424
867.055	4481
867.186	4421
867.317	4409
867.448	4386
867.579	4363
867.71	4371
867.841	4390
867.972	4440
868.103	4413
868.233	4493
868.364	4455
868.495	4459
868.625	4668
868.756	4687
868.886	4618
869.017	4660
869.147	4778
869.278	4729
869.408	4653
869.539	4622
869.669	4675
869.799	4641
869.929	4771
870.06	4736
870.19	4911
870.32	4870
870.45	4927
870.58	5006
870.71	5048
870.84	5075
870.97	4953
871.1	4866
871.23	5151
871.36	5079
871.489	5006
871.619	5098
871.749	5075
871.879	5048
872.008	5170
872.138	5071
872.267	4957
872.397	4820
872.526	4790
872.656	4698
872.785	4774
872.915	4881
873.044	5113
873.173	4980
873.303	4934
873.432	4949
873.561	4965
873.69	4862
873.819	4892
873.948	4885
874.077	4847
874.206	4729
874.335	4805
874.464	4889
874.593	5025
874.722	4919
874.851	5075
874.979	5052
875.108	5014
875.237	4847
875.365	4866
875.494	4839
875.623	4965
875.751	4812
875.88	4847
876.008	5006
876.136	5075
876.265	5151
876.393	5265
876.521	5178
876.65	5254
876.778	5121
876.906	5079
877.034	5048
877.162	5056
877.29	4980
877.418	5079
877.546	5041
877.674	5010
877.802	5010
877.93	4999
878.058	4942
878.185	4889
878.313	4968
878.441	4946
878.568	4763
878.696	4858
878.824	4904
878.951	4953
879.079	5098
879.206	5220
879.333	5098
879.461	5037
879.588	4972
879.715	5090
879.842	5193
879.97	4991
880.097	4812
880.224	4702
880.351	4812
880.478	4782
880.605	4752
880.732	4771
880.859	5075
880.986	4892
881.112	4900
881.239	4809
881.366	4675
881.493	4603
881.619	4588
881.746	4649
881.872	4603
881.999	4577
882.125	4637
882.252	4790
882.378	4816
882.505	4938
882.631	4812
882.757	4637
882.883	4733
883.01	4672
883.136	4672
883.262	4580
883.388	4630
883.514	4767
883.64	4873
883.766	4771
883.892	4660
884.018	4698
884.143	4866
884.269	5018
884.395	4630
884.52	4615
884.646	4672
884.772	4592
884.897	4561
885.023	4679
885.148	4786
885.274	4881
885.399	4797
885.524	4717
885.65	4672
885.775	4694
885.9	4656
886.025	4820
886.15	4755
886.275	4664
886.4	4626
886.525	4702
886.65	4679
886.775	4694
886.9	4889
887.025	4999
887.149	4782
887.274	4683
887.399	4527
887.523	4615
887.648	4546
887.773	4565
887.897	4759
888.021	4714
888.146	4683
888.27	4809
888.395	4942
888.519	4801
888.643	4824
888.767	4801
888.891	4675
889.015	4558
889.139	4637
889.263	4596
889.387	4714
889.511	4900
889.635	4782
889.759	4649
889.883	4656
890.006	4672
890.13	4771
890.254	4618
890.377	4630
890.501	4558
890.624	4535
890.748	4596
890.871	4447
890.995	4478
891.118	4390
891.241	4523
891.364	4519
891.488	4592
891.611	4516
891.734	4550
891.857	4558
891.98	4523
892.103	4630
892.226	4592
892.349	4497
892.471	4390
892.594	4569
892.717	4622
892.839	4580
892.962	4599
893.085	4634
893.207	4569
893.33	4447
893.452	4531
893.575	4630
893.697	4558
893.819	4790
893.941	4759
894.064	4736
894.186	4538
894.308	4500
894.43	4691
894.552	4816
894.674	4767
894.796	4542
894.918	4580
895.04	4561
895.161	4683
895.283	4626
895.405	4561
895.526	4660
895.648	4687
895.769	4611
895.891	4691
896.012	4656
896.134	4698
896.255	4653
896.376	4603
896.498	4622
896.619	4664
896.74	4607
896.861	4649
896.982	4934
897.103	5109
897.224	4774
897.345	4736
897.466	4691
897.587	4687
897.708	4885
897.828	4763
897.949	4714
898.07	4554
898.19	4599
898.311	4812
898.431	4645
898.552	4706
898.672	4782
898.792	4782
898.913	4733
899.033	4645
899.153	4512
899.273	4405
899.393	4493
899.513	4558
899.633	4443
899.753	4481
899.873	4577
899.993	4546
900.113	4512
900.232	4519
900.352	4527
900.472	4421
900.591	4379
900.711	4474
900.83	4443
900.95	4607
901.069	4660
901.189	4550
901.308	4322
901.427	4310
901.546	4348
901.665	4459
901.784	4508
901.904	4367
902.023	4314
902.141	4234
902.26	4200
902.379	4291
902.498	4249
902.617	4223
902.735	4375
902.854	4379
902.973	4303
903.091	4219
903.21	4207
903.328	4261
903.446	4276
903.565	4246
903.683	4344
903.801	4291
903.919	4390
904.038	4424
904.156	4287
904.274	4390
904.392	4337
904.51	4402
904.627	4466
904.745	4599
904.863	4607
904.981	4356
905.098	4363
905.216	4379
905.334	4417
905.451	4402
905.569	4455
905.686	4584
905.803	4569
905.921	4394
906.038	4535
906.155	4455
906.272	4436
906.389	4462
906.506	4348
906.623	4344
906.74	4398
906.857	4291
906.974	4383
907.091	4565
907.208	4683
907.324	4634
907.441	4527
907.557	4337
907.674	4371
907.79	4325
907.907	4390
908.023	4508
908.139	4481
908.256	4481
908.372	4489
908.488	4508
908.604	4371
908.72	4367
908.836	4428
908.952	4481
909.068	4474
909.184	4649
909.3	4527
909.415	4626
909.531	4596
909.647	4421
909.762	4409
909.878	4428
909.993	4455
910.108	4455
910.224	4474
910.339	4519
910.454	4485
910.57	4383
910.685	4341
910.8	4691
910.915	4664
911.03	4535
911.145	4386
911.259	4363
911.374	4436
911.489	4360
911.604	4322
911.718	4196
911.833	4227
911.947	4120
912.062	4063
912.176	4207
912.291	4280
912.405	4253
912.519	4542
912.633	4527
912.748	4421
912.862	4367
912.976	4257
913.09	4074
913.204	4188
913.318	4287
913.431	4386
913.545	4424
913.659	4440
913.772	4424
913.886	4306
914	4261
914.113	4421
914.226	4474
914.34	4462
914.453	4295
914.566	4497
914.68	4333
914.793	4386
914.906	4166
915.019	4177
915.132	4135
915.245	4223
915.358	4257
915.47	4253
915.583	4303
915.696	4337
915.809	4421
915.921	4421
916.034	4227
916.146	4291
916.259	4261
916.371	4432
916.483	4356
916.595	4261
916.708	4329
916.82	4360
916.932	4379
917.044	4379
917.156	4356
917.268	4242
917.38	4299
917.491	4272
917.603	4360
917.715	4455
917.826	4523
917.938	4356
918.049	4268
918.161	4436
918.272	4569
918.384	4592
918.495	4523
918.606	4322
918.717	4276
918.828	4337
918.939	4409
919.05	4261
919.161	4329
919.272	4154
919.383	4284
919.494	4481
919.604	4626
919.715	4436
919.826	4409
919.936	4424
920.047	4554
920.157	4542
920.267	4740
920.378	4550
920.488	4516
920.598	4744
920.708	4866
920.818	4839
920.928	4820
921.038	4999
921.148	5010
921.258	4664
921.368	4607
921.477	4504
921.587	4466
921.697	4394
921.806	4565
921.916	4485
922.025	4322
922.134	4257
922.244	4257
922.353	4306
922.462	4204
922.571	4116
922.68	4010
922.789	3991
922.898	4082
923.007	3983
923.116	4101
923.224	4109
923.333	4112
923.442	3994
923.55	4013
923.659	4048
923.767	4128
923.876	4006
923.984	4124
924.092	3998
924.201	4086
924.309	4078
924.417	4166
924.525	4116
924.633	4128
924.741	5113
924.849	3934
924.956	4169
925.064	4002
925.172	3922
925.279	3991
925.387	4101
925.494	4120
925.602	4303
925.709	4177
925.816	4006
925.924	4223
926.031	4261
926.138	4196
926.245	4192
926.352	4188
926.459	4261
926.566	4284
926.673	4227
926.779	4097
926.886	4143
926.993	3991
927.099	3956
927.206	3937
927.312	3956
927.419	4051
927.525	4036
927.631	4139
927.737	3972
927.843	3994
927.95	3907
928.056	3968
928.162	4006
928.267	4105
928.373	4615
928.479	4162
928.585	3892
928.69	4051
928.796	4177
928.901	3983
929.007	3865
929.112	4025
929.218	4029
929.323	3964
929.428	3934
929.533	4185
929.638	3960
929.743	4010
929.848	4059
929.953	3979
930.058	3934
930.163	3804
930.267	3884
930.372	3979
930.477	3812
930.581	4128
930.685	4021
930.79	3823
930.894	3915
930.998	3869
931.103	4101
931.207	3705
931.311	3732
931.415	3690
931.519	3603
931.623	3553
