Data from test_V78500241_1709.txt Node
Date: Fri Mar 25 17:00:53 CST 2022
User: usil
Spectrometer: V785-0024
Trigger mode: 0
Integration Time (sec): 4.000000E-1
Scans to average: 1
Nonlinearity correction enabled: false
Boxcar width: 0
Storing dark spectrum: false
XAxis mode: Wavelengths
Number of Pixels in Spectrum: 1024
>>>>>Begin Spectral Data<<<<<
801.071	8016
801.214	8031
801.356	7849
801.499	7890
801.641	7833
801.783	7917
801.926	7932
802.068	7951
802.211	7917
802.353	8012
802.496	7833
802.638	7833
802.78	7909
802.923	7978
803.065	7868
803.208	7898
803.35	7978
803.492	8100
803.635	8164
803.777	8008
803.919	8107
804.061	8461
804.204	8202
804.346	8027
804.488	7906
804.63	8031
804.773	7967
804.915	8115
805.057	8252
805.199	8157
805.341	8199
805.483	8172
805.626	8214
805.768	8103
805.91	8210
806.052	8191
806.194	8046
806.336	8324
806.478	8088
806.62	8126
806.762	8161
806.904	8339
807.046	8537
807.188	8355
807.33	8347
807.472	8282
807.614	8138
807.756	8187
807.898	8012
808.04	7875
808.182	7837
808.324	7902
808.465	7959
808.607	8069
808.749	8119
808.891	8214
809.033	8267
809.174	8199
809.316	8054
809.458	8016
809.6	8005
809.741	8046
809.883	8077
810.025	8092
810.166	8088
810.308	8054
810.45	7917
810.591	7868
810.733	7715
810.875	7670
811.016	7495
811.158	7499
811.299	7578
811.441	7734
811.582	7677
811.724	7628
811.865	7552
812.007	7556
812.148	7609
812.29	7628
812.431	7795
812.573	7852
812.714	8012
812.855	8126
812.997	8271
813.138	8298
813.279	8187
813.421	8138
813.562	7944
813.703	7799
813.845	7712
813.986	7411
814.127	7259
814.268	7160
814.41	7183
814.551	7232
814.692	7225
814.833	7126
814.974	7061
815.115	7133
815.256	7038
815.397	6981
815.539	6977
815.68	6871
815.821	6825
815.962	6802
816.103	6821
816.244	6673
816.385	6578
816.526	6604
816.666	6475
816.807	6311
816.948	6422
817.089	6471
817.23	6407
817.371	6418
817.512	6372
817.653	6369
817.793	6338
817.934	6346
818.075	6456
818.216	6448
818.356	6426
818.497	6171
818.638	6098
818.778	6178
818.919	6144
819.06	6095
819.2	6319
819.341	6296
819.481	6338
819.622	6555
819.762	6703
819.903	6703
820.043	6597
820.184	6612
820.324	6585
820.465	6719
820.605	6684
820.746	6650
820.886	6513
821.026	6662
821.167	6730
821.307	6802
821.447	6776
821.588	6654
821.728	6635
821.868	6467
822.008	6304
822.149	6365
822.289	6384
822.429	6190
822.569	6098
822.709	6114
822.849	5889
822.99	5901
823.13	5927
823.27	5920
823.41	5802
823.55	5767
823.69	5764
823.83	5802
823.97	5646
824.11	5547
824.25	5463
824.389	5539
824.529	5585
824.669	5532
824.809	5604
824.949	5668
825.089	5623
825.228	5543
825.368	5383
825.508	5353
825.648	5334
825.787	5345
825.927	5395
826.067	5322
826.206	5322
826.346	5376
826.485	5360
826.625	5398
826.765	5528
826.904	5459
827.044	5216
827.183	5216
827.323	5090
827.462	5258
827.601	5121
827.741	5147
827.88	5159
828.02	5128
828.159	5216
828.298	5261
828.437	5402
828.577	5231
828.716	5444
828.855	5334
828.994	5174
829.134	5098
829.273	5170
829.412	5147
829.551	5124
829.69	5166
829.829	5242
829.968	5379
830.107	5277
830.246	5239
830.385	5239
830.524	5124
830.663	5041
830.802	4961
830.941	4881
831.08	4839
831.219	5025
831.357	4938
831.496	5121
831.635	4911
831.774	4843
831.913	4828
832.051	4717
832.19	4729
832.329	4843
832.467	4675
832.606	4672
832.744	4778
832.883	4748
833.022	4733
833.16	4752
833.299	4805
833.437	4797
833.576	4831
833.714	4889
833.852	4892
833.991	4877
834.129	5006
834.267	4930
834.406	4942
834.544	4942
834.682	4957
834.821	4968
834.959	5140
835.097	4987
835.235	5185
835.373	5067
835.511	5102
835.65	5022
835.788	4984
835.926	4862
836.064	4854
836.202	4923
836.34	5132
836.478	5178
836.615	5090
836.753	5208
836.891	5246
837.029	5208
837.167	5220
837.305	5147
837.443	5143
837.58	5075
837.718	5235
837.856	5151
837.993	5124
838.131	5208
838.269	5170
838.406	5185
838.544	5166
838.681	5033
838.819	5033
838.956	4835
839.094	4946
839.231	4953
839.369	4995
839.506	5372
839.643	5318
839.781	5064
839.918	5003
840.055	5124
840.193	5105
840.33	5037
840.467	5140
840.604	5174
840.742	5429
840.879	5067
841.016	5048
841.153	5140
841.29	5360
841.427	5341
841.564	5296
841.701	5330
841.838	5239
841.975	5189
842.112	5254
842.249	5132
842.385	5079
842.522	5322
842.659	5147
842.796	5098
842.933	5136
843.069	5105
843.206	5166
843.343	5311
843.479	5227
843.616	5258
843.752	5010
843.889	4980
844.025	5265
844.162	4999
844.298	5193
844.435	5079
844.571	5071
844.708	5132
844.844	5265
844.98	5322
845.117	5235
845.253	5102
845.389	5075
845.525	5159
845.661	5128
845.798	5052
845.934	5136
846.07	5071
846.206	5128
846.342	5265
846.478	5174
846.614	5022
846.75	5018
846.886	4904
847.022	5178
847.158	4953
847.294	5067
847.429	5086
847.565	5105
847.701	5311
847.837	4820
847.972	4778
848.108	4942
848.244	4953
848.379	4759
848.515	4744
848.65	4637
848.786	4740
848.921	4797
849.057	4824
849.192	4896
849.328	4790
849.463	4877
849.598	4801
849.734	4744
849.869	4744
850.004	4630
850.14	4634
850.275	4554
850.41	4519
850.545	4599
850.68	4611
850.815	4592
850.95	4641
851.085	4786
851.22	4824
851.355	4687
851.49	4630
851.625	4626
851.76	4675
851.895	4569
852.03	4561
852.165	4626
852.299	4778
852.434	4801
852.569	4752
852.703	4782
852.838	4847
852.973	4923
853.107	4908
853.242	4740
853.376	4702
853.511	4573
853.645	4607
853.78	4771
853.914	4698
854.048	4679
854.183	4656
854.317	4717
854.451	4812
854.585	4687
854.72	4702
854.854	4782
854.988	4596
855.122	4649
855.256	4519
855.39	4660
855.524	4759
855.658	4710
855.792	4687
855.926	4778
856.06	4752
856.194	4782
856.327	4687
856.461	4592
856.595	4588
856.729	4626
856.862	4774
856.996	4675
857.13	4763
857.263	4786
857.397	4755
857.53	4584
857.664	4698
857.797	4774
857.931	4786
858.064	4691
858.197	4752
858.331	4618
858.464	4577
858.597	4489
858.731	4603
858.864	4618
858.997	4630
859.13	4618
859.263	4656
859.396	4630
859.529	4565
859.662	4554
859.795	4580
859.928	4634
860.061	4797
860.194	4725
860.327	4599
860.46	4538
860.592	4660
860.725	4702
860.858	4694
860.99	4599
861.123	4462
861.256	4519
861.388	4641
861.521	5162
861.653	4478
861.786	4455
861.918	4455
862.05	4478
862.183	4519
862.315	4660
862.447	4615
862.58	4565
862.712	4436
862.844	4322
862.976	4497
863.108	4417
863.24	4812
863.372	4299
863.504	4474
863.636	4390
863.768	4485
863.9	4421
864.032	4322
864.164	4386
864.296	4436
864.428	4535
864.559	4584
864.691	4592
864.823	4474
864.954	4497
865.086	4508
865.217	4421
865.349	4409
865.48	4451
865.612	4489
865.743	4656
865.875	4481
866.006	4432
866.137	4432
866.269	4455
866.4	4405
866.531	4405
866.662	4443
866.793	4386
866.924	4371
867.055	4497
867.186	4440
867.317	4405
867.448	4363
867.579	4402
867.71	4432
867.841	4318
867.972	4478
868.103	4462
868.233	4440
868.364	4443
868.495	4478
868.625	4660
868.756	4778
868.886	4519
869.017	4630
869.147	4786
869.278	4782
869.408	4679
869.539	4618
869.669	4702
869.799	4611
869.929	4717
870.06	4736
870.19	4961
870.32	4953
870.45	4915
870.58	5041
870.71	5083
870.84	5045
870.97	4957
871.1	4923
871.23	5159
871.36	5132
871.489	5045
871.619	5105
871.749	5117
871.879	5079
872.008	5155
872.138	5025
872.267	4957
872.397	4896
872.526	4759
872.656	4702
872.785	4801
872.915	4942
873.044	5033
873.173	4957
873.303	4965
873.432	4919
873.561	4938
873.69	4915
873.819	4812
873.948	4885
874.077	4824
874.206	4752
874.335	4820
874.464	4911
874.593	5094
874.722	4942
874.851	5056
874.979	4987
875.108	5083
875.237	4915
875.365	4881
875.494	4862
875.623	4972
875.751	4790
875.88	4911
876.008	4968
876.136	5064
876.265	5197
876.393	5368
876.521	5261
876.65	5246
876.778	5159
876.906	5086
877.034	5041
877.162	5022
877.29	5045
877.418	5071
877.546	5048
877.674	5041
877.802	5018
877.93	5003
878.058	4946
878.185	4892
878.313	4972
878.441	4953
878.568	4809
878.696	4934
878.824	4938
878.951	5003
879.079	5117
879.206	5296
879.333	5094
879.461	4991
879.588	4999
879.715	5102
879.842	5220
879.97	5006
880.097	4748
880.224	4752
880.351	4835
880.478	4801
880.605	4771
880.732	4763
880.859	5117
880.986	4927
881.112	4862
881.239	4759
881.366	4691
881.493	4615
881.619	4569
881.746	4634
881.872	4622
881.999	4626
882.125	4771
882.252	4744
882.378	4793
882.505	4934
882.631	4767
882.757	4645
882.883	4698
883.01	4725
883.136	4675
883.262	4573
883.388	4588
883.514	4782
883.64	4843
883.766	4748
883.892	4641
884.018	4706
884.143	4866
884.269	5018
884.395	4660
884.52	4626
884.646	4603
884.772	4558
884.897	4531
885.023	4637
885.148	4771
885.274	4858
885.399	4820
885.524	4691
885.65	4672
885.775	4687
885.9	4721
886.025	4858
886.15	4771
886.275	4717
886.4	4630
886.525	4683
886.65	4653
886.775	4698
886.9	4870
887.025	5006
887.149	4774
887.274	4656
887.399	4538
887.523	4588
887.648	4569
887.773	4622
887.897	4725
888.021	4778
888.146	4675
888.27	4805
888.395	4896
888.519	4755
888.643	4790
888.767	4820
888.891	4672
889.015	4596
889.139	4596
889.263	4592
889.387	4767
889.511	4900
889.635	4839
889.759	4664
889.883	4626
890.006	4683
890.13	4873
890.254	4626
890.377	4710
890.501	4561
890.624	4512
890.748	4599
890.871	4474
890.995	4417
891.118	4428
891.241	4485
891.364	4531
891.488	4630
891.611	4466
891.734	4577
891.857	4577
891.98	4561
892.103	4626
892.226	4611
892.349	4550
892.471	4428
892.594	4554
892.717	4584
892.839	4546
892.962	4569
893.085	4637
893.207	4603
893.33	4478
893.452	4493
893.575	4660
893.697	4592
893.819	4782
893.941	4793
894.064	4771
894.186	4565
894.308	4592
894.43	4683
894.552	4805
894.674	4748
894.796	4535
894.918	4569
895.04	4584
895.161	4694
895.283	4660
895.405	4592
895.526	4626
895.648	4683
895.769	4679
895.891	4710
896.012	4687
896.134	4717
896.255	4649
896.376	4641
896.498	4603
896.619	4675
896.74	4607
896.861	4622
896.982	4946
897.103	5086
897.224	4831
897.345	4740
897.466	4656
897.587	4736
897.708	4774
897.828	4755
897.949	4725
898.07	4546
898.19	4622
898.311	4809
898.431	4649
898.552	4702
898.672	4843
898.792	4771
898.913	4778
899.033	4615
899.153	4481
899.273	4424
899.393	4478
899.513	4546
899.633	4542
899.753	4538
899.873	4508
899.993	4588
900.113	4538
900.232	4558
900.352	4519
900.472	4489
900.591	4443
900.711	4470
900.83	4440
900.95	4637
901.069	4683
901.189	4500
901.308	4363
901.427	4306
901.546	4379
901.665	4421
901.784	4538
901.904	4375
902.023	4325
902.141	4211
902.26	4124
902.379	4314
902.498	4192
902.617	4211
902.735	4413
902.854	4390
902.973	4390
903.091	4211
903.21	4223
903.328	4280
903.446	4246
903.565	4215
903.683	4299
903.801	4223
903.919	4390
904.038	4428
904.156	4303
904.274	4386
904.392	4386
904.51	4459
904.627	4447
904.745	4573
904.863	4653
904.981	4390
905.098	4276
905.216	4386
905.334	4436
905.451	4417
905.569	4459
905.686	4538
905.803	4592
905.921	4440
906.038	4519
906.155	4440
906.272	4379
906.389	4470
906.506	4322
906.623	4390
906.74	4386
906.857	4341
906.974	4375
907.091	4573
907.208	4687
907.324	4580
907.441	4417
907.557	4303
907.674	4363
907.79	4291
907.907	4402
908.023	4466
908.139	4459
908.256	4451
908.372	4436
908.488	4451
908.604	4383
908.72	4306
908.836	4402
908.952	4367
909.068	4432
909.184	4573
909.3	4493
909.415	4573
909.531	4523
909.647	4341
909.762	4314
909.878	4325
909.993	4455
910.108	4398
910.224	4379
910.339	4436
910.454	4417
910.57	4383
910.685	4310
910.8	4626
910.915	4599
911.03	4481
911.145	4265
911.259	4284
911.374	4390
911.489	4268
911.604	4268
911.718	4135
911.833	4173
911.947	4071
912.062	4017
912.176	4227
912.291	4227
912.405	4261
912.519	4455
912.633	4504
912.748	4405
912.862	4268
912.976	4173
913.09	4097
913.204	4173
913.318	4295
913.431	4383
913.545	4394
913.659	4462
913.772	4325
913.886	4265
914	4219
914.113	4356
914.226	4424
914.34	4386
914.453	4219
914.566	4402
914.68	4284
914.793	4329
914.906	4147
915.019	4090
915.132	4093
915.245	4124
915.358	4249
915.47	4227
915.583	4249
915.696	4299
915.809	4367
915.921	4428
916.034	4280
916.146	4261
916.259	4207
916.371	4371
916.483	4344
916.595	4227
916.708	4287
916.82	4352
916.932	4310
917.044	4303
917.156	4329
917.268	4265
917.38	4299
917.491	4261
917.603	4352
917.715	4398
917.826	4432
917.938	4306
918.049	4227
918.161	4436
918.272	4527
918.384	4508
918.495	4462
918.606	4299
918.717	4246
918.828	4352
918.939	4310
919.05	4265
919.161	4333
919.272	4154
919.383	4227
919.494	4432
919.604	4637
919.715	4417
919.826	4344
919.936	4432
920.047	4531
920.157	4497
920.267	4702
920.378	4535
920.488	4558
920.598	4691
920.708	4862
920.818	4767
920.928	4706
921.038	4942
921.148	4908
921.258	4588
921.368	4527
921.477	4516
921.587	4440
921.697	4333
921.806	4481
921.916	4447
922.025	4261
922.134	4284
922.244	4207
922.353	4379
922.462	4192
922.571	4105
922.68	4002
922.789	3979
922.898	4044
923.007	3979
923.116	4074
923.224	4051
923.333	4086
923.442	3934
923.55	3945
923.659	4044
923.767	4059
923.876	4010
923.984	4120
924.092	3987
924.201	4040
924.309	4059
924.417	4154
924.525	4029
924.633	4109
924.741	4885
924.849	3945
924.956	4131
925.064	3975
925.172	3899
925.279	3975
925.387	4067
925.494	4071
925.602	4181
925.709	4173
925.816	4029
925.924	4097
926.031	4234
926.138	4150
926.245	4150
926.352	4063
926.459	4246
926.566	4287
926.673	4124
926.779	4074
926.886	4063
926.993	3937
927.099	3991
927.206	3941
927.312	3953
927.419	4048
927.525	4025
927.631	4090
927.737	3953
927.843	3945
927.95	3770
928.056	3934
928.162	3983
928.267	4051
928.373	4641
928.479	4128
928.585	3838
928.69	4029
928.796	4063
928.901	3987
929.007	3854
929.112	3991
929.218	3975
929.323	3979
929.428	3915
929.533	4090
929.638	3903
929.743	4013
929.848	4025
929.953	4002
930.058	3915
930.163	3770
930.267	3835
930.372	3953
930.477	3808
930.581	4109
930.685	3968
930.79	3827
930.894	3903
930.998	3876
931.103	4006
931.207	3728
931.311	3713
931.415	3679
931.519	3496
931.623	3553
