Data from test_V78500241_827.txt Node
Date: Fri Mar 25 16:54:45 CST 2022
User: usil
Spectrometer: V785-0024
Trigger mode: 0
Integration Time (sec): 4.000000E-1
Scans to average: 1
Nonlinearity correction enabled: false
Boxcar width: 0
Storing dark spectrum: false
XAxis mode: Wavelengths
Number of Pixels in Spectrum: 1024
>>>>>Begin Spectral Data<<<<<
801.071	7974
801.214	7955
801.356	7772
801.499	7887
801.641	7772
801.783	7822
801.926	7932
802.068	7879
802.211	7898
802.353	7913
802.496	7849
802.638	7864
802.78	7963
802.923	7890
803.065	7845
803.208	7879
803.35	7917
803.492	8043
803.635	8225
803.777	8012
803.919	8069
804.061	8393
804.204	8103
804.346	8035
804.488	7890
804.63	8157
804.773	8020
804.915	8084
805.057	8252
805.199	8263
805.341	8168
805.483	8298
805.626	8225
805.768	8039
805.91	8164
806.052	8199
806.194	8065
806.336	8218
806.478	8092
806.62	8043
806.762	8206
806.904	8218
807.046	8393
807.188	8362
807.33	8320
807.472	8286
807.614	8256
807.756	8153
807.898	7978
808.04	7898
808.182	7811
808.324	7917
808.465	7856
808.607	8062
808.749	7989
808.891	8210
809.033	8252
809.174	8168
809.316	8073
809.458	8024
809.6	8027
809.741	7989
809.883	8119
810.025	8119
810.166	8084
810.308	7982
810.45	7993
810.591	7906
810.733	7746
810.875	7677
811.016	7552
811.158	7502
811.299	7582
811.441	7723
811.582	7632
811.724	7533
811.865	7506
812.007	7563
812.148	7537
812.29	7559
812.431	7700
812.573	7887
812.714	8027
812.855	8107
812.997	8149
813.138	8309
813.279	8145
813.421	8103
813.562	7970
813.703	7826
813.845	7795
813.986	7453
814.127	7270
814.268	7190
814.41	7171
814.551	7122
814.692	7183
814.833	7084
814.974	7095
815.115	7053
815.256	6909
815.397	6905
815.539	7031
815.68	6833
815.821	6787
815.962	6863
816.103	6741
816.244	6738
816.385	6646
816.526	6608
816.666	6494
816.807	6273
816.948	6372
817.089	6456
817.23	6418
817.371	6338
817.512	6410
817.653	6407
817.793	6380
817.934	6403
818.075	6410
818.216	6422
818.356	6369
818.497	6220
818.638	6117
818.778	6133
818.919	6125
819.06	6117
819.2	6327
819.341	6319
819.481	6365
819.622	6540
819.762	6749
819.903	6726
820.043	6589
820.184	6532
820.324	6551
820.465	6684
820.605	6646
820.746	6601
820.886	6498
821.026	6669
821.167	6627
821.307	6787
821.447	6726
821.588	6612
821.728	6574
821.868	6445
822.008	6319
822.149	6331
822.289	6391
822.429	6125
822.569	6095
822.709	6060
822.849	5897
822.99	5855
823.13	5889
823.27	5832
823.41	5783
823.55	5745
823.69	5779
823.83	5745
823.97	5684
824.11	5570
824.25	5501
824.389	5501
824.529	5558
824.669	5509
824.809	5630
824.949	5634
825.089	5589
825.228	5581
825.368	5341
825.508	5318
825.648	5334
825.787	5372
825.927	5349
826.067	5307
826.206	5258
826.346	5341
826.485	5433
826.625	5421
826.765	5520
826.904	5520
827.044	5299
827.183	5178
827.323	5147
827.462	5273
827.601	5151
827.741	5216
827.88	5216
828.02	5105
828.159	5204
828.298	5265
828.437	5341
828.577	5269
828.716	5486
828.855	5337
828.994	5174
829.134	5086
829.273	5181
829.412	5159
829.551	5140
829.69	5162
829.829	5231
829.968	5383
830.107	5223
830.246	5277
830.385	5178
830.524	5079
830.663	5079
830.802	4980
830.941	4915
831.08	4858
831.219	4946
831.357	4968
831.496	5117
831.635	4946
831.774	4839
831.913	4862
832.051	4687
832.19	4714
832.329	4850
832.467	4656
832.606	4649
832.744	4710
832.883	4733
833.022	4717
833.16	4790
833.299	4809
833.437	4843
833.576	4839
833.714	4870
833.852	4854
833.991	4877
834.129	4919
834.267	4961
834.406	4927
834.544	4984
834.682	4946
834.821	4995
834.959	5136
835.097	4999
835.235	5109
835.373	5124
835.511	5083
835.65	5075
835.788	4972
835.926	4957
836.064	4828
836.202	4957
836.34	5170
836.478	5239
836.615	5105
836.753	5193
836.891	5284
837.029	5220
837.167	5208
837.305	5174
837.443	5132
837.58	5083
837.718	5231
837.856	5170
837.993	5086
838.131	5204
838.269	5166
838.406	5178
838.544	5181
838.681	5025
838.819	5018
838.956	4862
839.094	4812
839.231	4968
839.369	5124
839.506	5421
839.643	5280
839.781	5083
839.918	5052
840.055	5083
840.193	5060
840.33	5124
840.467	5170
840.604	5140
840.742	5448
840.879	5079
841.016	5094
841.153	5113
841.29	5368
841.427	5326
841.564	5311
841.701	5364
841.838	5231
841.975	5193
842.112	5265
842.249	5147
842.385	5086
842.522	5341
842.659	5166
842.796	5105
842.933	5181
843.069	5151
843.206	5117
843.343	5296
843.479	5242
843.616	5280
843.752	5041
843.889	5022
844.025	5223
844.162	4995
844.298	5201
844.435	5029
844.571	5056
844.708	5227
844.844	5280
844.98	5265
845.117	5288
845.253	5105
845.389	5124
845.525	5189
845.661	5128
845.798	4980
845.934	5117
846.07	5090
846.206	5109
846.342	5250
846.478	5090
846.614	4976
846.75	4942
846.886	4957
847.022	5155
847.158	5010
847.294	5056
847.429	5064
847.565	5067
847.701	5292
847.837	4881
847.972	4774
848.108	4919
848.244	4949
848.379	4767
848.515	4748
848.65	4706
848.786	4740
848.921	4736
849.057	4809
849.192	4870
849.328	4782
849.463	4870
849.598	4793
849.734	4729
849.869	4702
850.004	4622
850.14	4679
850.275	4641
850.41	4542
850.545	4523
850.68	4561
850.815	4599
850.95	4607
851.085	4824
851.22	4767
851.355	4679
851.49	4645
851.625	4637
851.76	4599
851.895	4527
852.03	4508
852.165	4668
852.299	4740
852.434	4801
852.569	4774
852.703	4767
852.838	4850
852.973	4896
853.107	4965
853.242	4694
853.376	4675
853.511	4531
853.645	4592
853.78	4801
853.914	4664
854.048	4618
854.183	4634
854.317	4656
854.451	4835
854.585	4694
854.72	4630
854.854	4729
854.988	4630
855.122	4577
855.256	4535
855.39	4656
855.524	4767
855.658	4668
855.792	4653
855.926	4748
856.06	4778
856.194	4809
856.327	4710
856.461	4618
856.595	4668
856.729	4687
856.862	4702
856.996	4656
857.13	4725
857.263	4725
857.397	4786
857.53	4649
857.664	4702
857.797	4721
857.931	4744
858.064	4683
858.197	4801
858.331	4626
858.464	4580
858.597	4516
858.731	4592
858.864	4622
858.997	4596
859.13	4615
859.263	4618
859.396	4675
859.529	4569
859.662	4592
859.795	4489
859.928	4603
860.061	4744
860.194	4763
860.327	4565
860.46	4542
860.592	4721
860.725	4736
860.858	4694
860.99	4569
861.123	4485
861.256	4451
861.388	4630
861.521	5334
861.653	4462
861.786	4424
861.918	4462
862.05	4542
862.183	4497
862.315	4577
862.447	4660
862.58	4592
862.712	4402
862.844	4341
862.976	4527
863.108	4485
863.24	4691
863.372	4348
863.504	4405
863.636	4367
863.768	4535
863.9	4424
864.032	4337
864.164	4398
864.296	4390
864.428	4554
864.559	4531
864.691	4497
864.823	4504
864.954	4481
865.086	4466
865.217	4421
865.349	4394
865.48	4466
865.612	4527
865.743	4645
865.875	4474
866.006	4440
866.137	4447
866.269	4443
866.4	4424
866.531	4390
866.662	4360
866.793	4424
866.924	4363
867.055	4462
867.186	4413
867.317	4394
867.448	4333
867.579	4363
867.71	4398
867.841	4322
867.972	4459
868.103	4432
868.233	4432
868.364	4436
868.495	4504
868.625	4622
868.756	4744
868.886	4558
869.017	4615
869.147	4793
869.278	4725
869.408	4641
869.539	4630
869.669	4710
869.799	4577
869.929	4740
870.06	4740
870.19	4957
870.32	4885
870.45	4908
870.58	5003
870.71	5086
870.84	5094
870.97	4949
871.1	4873
871.23	5147
871.36	5067
871.489	5022
871.619	5075
871.749	5041
871.879	5189
872.008	5174
872.138	5018
872.267	4976
872.397	4870
872.526	4778
872.656	4721
872.785	4767
872.915	4965
873.044	5022
873.173	4934
873.303	4949
873.432	4953
873.561	4934
873.69	4850
873.819	4816
873.948	4892
874.077	4854
874.206	4740
874.335	4790
874.464	4881
874.593	5056
874.722	5010
874.851	5098
874.979	5075
875.108	5018
875.237	4896
875.365	4862
875.494	4839
875.623	4965
875.751	4862
875.88	4908
876.008	4968
876.136	4987
876.265	5143
876.393	5364
876.521	5166
876.65	5223
876.778	5178
876.906	5003
877.034	4991
877.162	5052
877.29	4995
877.418	5010
877.546	4980
877.674	5025
877.802	5014
877.93	4991
878.058	4881
878.185	4896
878.313	4961
878.441	4942
878.568	4843
878.696	4850
878.824	5003
878.951	4999
879.079	5105
879.206	5250
879.333	5056
879.461	4919
879.588	4976
879.715	5105
879.842	5261
879.97	5025
880.097	4790
880.224	4725
880.351	4816
880.478	4763
880.605	4771
880.732	4752
880.859	5033
880.986	4866
881.112	4877
881.239	4752
881.366	4653
881.493	4584
881.619	4580
881.746	4622
881.872	4611
881.999	4630
882.125	4714
882.252	4755
882.378	4824
882.505	4957
882.631	4797
882.757	4649
882.883	4702
883.01	4752
883.136	4634
883.262	4588
883.388	4588
883.514	4771
883.64	4831
883.766	4740
883.892	4668
884.018	4660
884.143	4862
884.269	4995
884.395	4649
884.52	4618
884.646	4649
884.772	4580
884.897	4554
885.023	4672
885.148	4771
885.274	4877
885.399	4790
885.524	4683
885.65	4653
885.775	4748
885.9	4721
886.025	4828
886.15	4778
886.275	4740
886.4	4626
886.525	4710
886.65	4675
886.775	4691
886.9	4923
887.025	5014
887.149	4809
887.274	4645
887.399	4603
887.523	4569
887.648	4569
887.773	4588
887.897	4752
888.021	4801
888.146	4611
888.27	4828
888.395	4892
888.519	4782
888.643	4831
888.767	4801
888.891	4675
889.015	4596
889.139	4637
889.263	4577
889.387	4725
889.511	4870
889.635	4812
889.759	4641
889.883	4630
890.006	4763
890.13	4828
890.254	4626
890.377	4675
890.501	4512
890.624	4504
890.748	4626
890.871	4508
890.995	4405
891.118	4428
891.241	4500
891.364	4519
891.488	4630
891.611	4478
891.734	4485
891.857	4603
891.98	4569
892.103	4672
892.226	4588
892.349	4500
892.471	4398
892.594	4531
892.717	4580
892.839	4569
892.962	4577
893.085	4656
893.207	4622
893.33	4424
893.452	4546
893.575	4630
893.697	4577
893.819	4752
893.941	4790
894.064	4725
894.186	4561
894.308	4584
894.43	4725
894.552	4782
894.674	4748
894.796	4569
894.918	4580
895.04	4573
895.161	4744
895.283	4588
895.405	4558
895.526	4622
895.648	4683
895.769	4687
895.891	4679
896.012	4748
896.134	4706
896.255	4630
896.376	4626
896.498	4592
896.619	4596
896.74	4637
896.861	4637
896.982	4953
897.103	5113
897.224	4839
897.345	4752
897.466	4653
897.587	4694
897.708	4850
897.828	4831
897.949	4641
898.07	4569
898.19	4653
898.311	4843
898.431	4675
898.552	4706
898.672	4790
898.792	4782
898.913	4759
899.033	4580
899.153	4489
899.273	4436
899.393	4478
899.513	4538
899.633	4474
899.753	4577
899.873	4504
899.993	4607
900.113	4519
900.232	4561
900.352	4527
900.472	4470
900.591	4409
900.711	4459
900.83	4413
900.95	4607
901.069	4679
901.189	4558
901.308	4356
901.427	4276
901.546	4379
901.665	4500
901.784	4500
901.904	4386
902.023	4318
902.141	4169
902.26	4147
902.379	4303
902.498	4280
902.617	4177
902.735	4360
902.854	4417
902.973	4348
903.091	4188
903.21	4215
903.328	4261
903.446	4246
903.565	4249
903.683	4333
903.801	4230
903.919	4341
904.038	4432
904.156	4299
904.274	4409
904.392	4386
904.51	4413
904.627	4447
904.745	4550
904.863	4637
904.981	4424
905.098	4284
905.216	4348
905.334	4447
905.451	4485
905.569	4421
905.686	4546
905.803	4561
905.921	4402
906.038	4527
906.155	4489
906.272	4379
906.389	4474
906.506	4344
906.623	4344
906.74	4383
906.857	4306
906.974	4383
907.091	4577
907.208	4630
907.324	4546
907.441	4455
907.557	4322
907.674	4337
907.79	4310
907.907	4356
908.023	4436
908.139	4481
908.256	4421
908.372	4421
908.488	4390
908.604	4318
908.72	4299
908.836	4356
908.952	4341
909.068	4443
909.184	4599
909.3	4470
909.415	4580
909.531	4565
909.647	4363
909.762	4360
909.878	4363
909.993	4428
910.108	4413
910.224	4398
910.339	4489
910.454	4363
910.57	4356
910.685	4261
910.8	4668
910.915	4550
911.03	4516
911.145	4284
911.259	4360
911.374	4344
911.489	4299
911.604	4276
911.718	4150
911.833	4211
911.947	4128
912.062	3968
912.176	4188
912.291	4234
912.405	4246
912.519	4470
912.633	4512
912.748	4352
912.862	4344
912.976	4215
913.09	4105
913.204	4200
913.318	4234
913.431	4333
913.545	4386
913.659	4451
913.772	4341
913.886	4249
914	4276
914.113	4371
914.226	4402
914.34	4386
914.453	4242
914.566	4371
914.68	4314
914.793	4276
914.906	4185
915.019	4093
915.132	4044
915.245	4162
915.358	4246
915.47	4230
915.583	4246
915.696	4276
915.809	4379
915.921	4451
916.034	4242
916.146	4200
916.259	4188
916.371	4394
916.483	4318
916.595	4299
916.708	4314
916.82	4280
916.932	4322
917.044	4306
917.156	4325
917.268	4223
917.38	4291
917.491	4234
917.603	4352
917.715	4462
917.826	4451
917.938	4344
918.049	4257
918.161	4383
918.272	4489
918.384	4554
918.495	4485
918.606	4242
918.717	4246
918.828	4337
918.939	4363
919.05	4249
919.161	4257
919.272	4124
919.383	4234
919.494	4451
919.604	4634
919.715	4436
919.826	4360
919.936	4363
920.047	4527
920.157	4523
920.267	4683
920.378	4550
920.488	4516
920.598	4706
920.708	4881
920.818	4729
920.928	4721
921.038	4896
921.148	4915
921.258	4573
921.368	4565
921.477	4470
921.587	4466
921.697	4405
921.806	4531
921.916	4455
922.025	4242
922.134	4303
922.244	4211
922.353	4272
922.462	4154
922.571	4124
922.68	3975
922.789	3979
922.898	4044
923.007	3979
923.116	4086
923.224	4067
923.333	4078
923.442	3994
923.55	3994
923.659	3991
923.767	4143
923.876	3994
923.984	4082
924.092	4055
924.201	4059
924.309	4071
924.417	4116
924.525	4040
924.633	4120
924.741	4896
924.849	3937
924.956	4120
925.064	3937
925.172	3922
925.279	3937
925.387	4074
925.494	4055
925.602	4181
925.709	4154
925.816	4010
925.924	4124
926.031	4200
926.138	4166
926.245	4192
926.352	4090
926.459	4215
926.566	4333
926.673	4131
926.779	4032
926.886	4086
926.993	3998
927.099	3941
927.206	3968
927.312	3945
927.419	4086
927.525	4029
927.631	4074
927.737	3987
927.843	3922
927.95	3819
928.056	3922
928.162	3983
928.267	4021
928.373	4710
928.479	4143
928.585	3899
928.69	4048
928.796	4044
928.901	3953
929.007	3857
929.112	3983
929.218	3998
929.323	3934
929.428	3922
929.533	4067
929.638	3896
929.743	3926
929.848	4071
929.953	3949
930.058	3911
930.163	3759
930.267	3812
930.372	4010
930.477	3785
930.581	4135
930.685	3918
930.79	3819
930.894	3865
930.998	3816
931.103	3987
931.207	3724
931.311	3694
931.415	3682
931.519	3534
931.623	3538
