Data from test_V78500241_2474.txt Node
Date: Fri Mar 25 17:06:12 CST 2022
User: usil
Spectrometer: V785-0024
Trigger mode: 0
Integration Time (sec): 4.000000E-1
Scans to average: 1
Nonlinearity correction enabled: false
Boxcar width: 0
Storing dark spectrum: false
XAxis mode: Wavelengths
Number of Pixels in Spectrum: 1024
>>>>>Begin Spectral Data<<<<<
801.071	7947
801.214	7944
801.356	7879
801.499	7849
801.641	7803
801.783	7841
801.926	7982
802.068	7955
802.211	8039
802.353	7989
802.496	7833
802.638	7917
802.78	7925
802.923	7906
803.065	7913
803.208	7890
803.35	7978
803.492	7997
803.635	8164
803.777	8088
803.919	8164
804.061	8347
804.204	8157
804.346	8107
804.488	8001
804.63	8149
804.773	7951
804.915	8111
805.057	8279
805.199	8157
805.341	8206
805.483	8267
805.626	8233
805.768	8134
805.91	8164
806.052	8187
806.194	8138
806.336	8328
806.478	8065
806.62	8092
806.762	8107
806.904	8202
807.046	8492
807.188	8385
807.33	8244
807.472	8415
807.614	8183
807.756	8195
807.898	8024
808.04	7917
808.182	7852
808.324	7856
808.465	7959
808.607	8046
808.749	8088
808.891	8172
809.033	8366
809.174	8229
809.316	7974
809.458	8164
809.6	8069
809.741	8062
809.883	8039
810.025	8115
810.166	8088
810.308	7993
810.45	7993
810.591	7833
810.733	7769
810.875	7662
811.016	7491
811.158	7464
811.299	7575
811.441	7704
811.582	7700
811.724	7590
811.865	7552
812.007	7575
812.148	7586
812.29	7677
812.431	7723
812.573	7849
812.714	7963
812.855	8145
812.997	8180
813.138	8320
813.279	8252
813.421	8100
813.562	7970
813.703	7837
813.845	7731
813.986	7422
814.127	7213
814.268	7221
814.41	7145
814.551	7225
814.692	7217
814.833	7065
814.974	7069
815.115	7072
815.256	6966
815.397	6916
815.539	6962
815.68	6783
815.821	6818
815.962	6909
816.103	6852
816.244	6734
816.385	6646
816.526	6582
816.666	6494
816.807	6365
816.948	6433
817.089	6456
817.23	6414
817.371	6399
817.512	6391
817.653	6372
817.793	6369
817.934	6441
818.075	6441
818.216	6452
818.356	6426
818.497	6224
818.638	6076
818.778	6178
818.919	6110
819.06	6167
819.2	6331
819.341	6384
819.481	6350
819.622	6532
819.762	6711
819.903	6684
820.043	6589
820.184	6536
820.324	6662
820.465	6806
820.605	6741
820.746	6665
820.886	6555
821.026	6669
821.167	6684
821.307	6749
821.447	6753
821.588	6688
821.728	6635
821.868	6536
822.008	6338
822.149	6407
822.289	6342
822.429	6136
822.569	6095
822.709	6114
822.849	5935
822.99	5908
823.13	5912
823.27	5844
823.41	5813
823.55	5722
823.69	5798
823.83	5783
823.97	5615
824.11	5566
824.25	5505
824.389	5589
824.529	5581
824.669	5528
824.809	5608
824.949	5615
825.089	5562
825.228	5535
825.368	5421
825.508	5341
825.648	5372
825.787	5425
825.927	5387
826.067	5341
826.206	5341
826.346	5349
826.485	5421
826.625	5425
826.765	5581
826.904	5493
827.044	5307
827.183	5231
827.323	5147
827.462	5299
827.601	5193
827.741	5246
827.88	5242
828.02	5170
828.159	5277
828.298	5349
828.437	5440
828.577	5261
828.716	5505
828.855	5360
828.994	5212
829.134	5178
829.273	5189
829.412	5178
829.551	5159
829.69	5227
829.829	5315
829.968	5410
830.107	5307
830.246	5273
830.385	5170
830.524	5166
830.663	5067
830.802	5029
830.941	4930
831.08	4900
831.219	5014
831.357	5079
831.496	5223
831.635	4968
831.774	4911
831.913	4896
832.051	4790
832.19	4793
832.329	4908
832.467	4755
832.606	4698
832.744	4801
832.883	4828
833.022	4752
833.16	4805
833.299	4892
833.437	4854
833.576	4847
833.714	4877
833.852	4858
833.991	4949
834.129	5022
834.267	5006
834.406	4927
834.544	5018
834.682	5025
834.821	4995
834.959	5216
835.097	5029
835.235	5227
835.373	5090
835.511	5201
835.65	5006
835.788	5079
835.926	4965
836.064	4900
836.202	4980
836.34	5193
836.478	5296
836.615	5181
836.753	5284
836.891	5330
837.029	5322
837.167	5223
837.305	5181
837.443	5197
837.58	5124
837.718	5254
837.856	5261
837.993	5185
838.131	5288
838.269	5227
838.406	5288
838.544	5227
838.681	5117
838.819	5048
838.956	4923
839.094	4911
839.231	4984
839.369	5071
839.506	5493
839.643	5277
839.781	5136
839.918	5003
840.055	5143
840.193	5136
840.33	5143
840.467	5124
840.604	5296
840.742	5490
840.879	5136
841.016	5105
841.153	5197
841.29	5322
841.427	5406
841.564	5410
841.701	5353
841.838	5296
841.975	5235
842.112	5299
842.249	5162
842.385	5185
842.522	5360
842.659	5201
842.796	5124
842.933	5254
843.069	5216
843.206	5185
843.343	5372
843.479	5280
843.616	5334
843.752	5025
843.889	5048
844.025	5303
844.162	5075
844.298	5242
844.435	5121
844.571	5086
844.708	5162
844.844	5326
844.98	5398
845.117	5322
845.253	5204
845.389	5140
845.525	5185
845.661	5181
845.798	5121
845.934	5166
846.07	5136
846.206	5242
846.342	5330
846.478	5246
846.614	5079
846.75	5025
846.886	4991
847.022	5185
847.158	5067
847.294	5105
847.429	5151
847.565	5079
847.701	5425
847.837	4900
847.972	4847
848.108	5022
848.244	5029
848.379	4790
848.515	4778
848.65	4767
848.786	4767
848.921	4805
849.057	4870
849.192	4949
849.328	4866
849.463	4892
849.598	4820
849.734	4820
849.869	4717
850.004	4698
850.14	4672
850.275	4607
850.41	4565
850.545	4569
850.68	4584
850.815	4668
850.95	4649
851.085	4889
851.22	4820
851.355	4653
851.49	4702
851.625	4702
851.76	4694
851.895	4611
852.03	4603
852.165	4637
852.299	4797
852.434	4850
852.569	4721
852.703	4835
852.838	4870
852.973	4972
853.107	4961
853.242	4767
853.376	4714
853.511	4607
853.645	4637
853.78	4816
853.914	4698
854.048	4721
854.183	4691
854.317	4733
854.451	4889
854.585	4763
854.72	4714
854.854	4782
854.988	4649
855.122	4710
855.256	4523
855.39	4691
855.524	4824
855.658	4763
855.792	4710
855.926	4729
856.06	4870
856.194	4831
856.327	4698
856.461	4683
856.595	4649
856.729	4637
856.862	4809
856.996	4744
857.13	4786
857.263	4786
857.397	4873
857.53	4679
857.664	4778
857.797	4733
857.931	4805
858.064	4710
858.197	4843
858.331	4706
858.464	4596
858.597	4599
858.731	4618
858.864	4641
858.997	4664
859.13	4694
859.263	4717
859.396	4740
859.529	4634
859.662	4565
859.795	4527
859.928	4691
860.061	4809
860.194	4797
860.327	4649
860.46	4588
860.592	4782
860.725	4721
860.858	4736
860.99	4630
861.123	4512
861.256	4573
861.388	4630
861.521	5239
861.653	4516
861.786	4447
861.918	4428
862.05	4565
862.183	4569
862.315	4653
862.447	4668
862.58	4615
862.712	4409
862.844	4352
862.976	4485
863.108	4485
863.24	4866
863.372	4303
863.504	4428
863.636	4440
863.768	4519
863.9	4440
864.032	4413
864.164	4436
864.296	4512
864.428	4554
864.559	4546
864.691	4542
864.823	4546
864.954	4542
865.086	4550
865.217	4455
865.349	4428
865.48	4428
865.612	4512
865.743	4649
865.875	4493
866.006	4424
866.137	4500
866.269	4485
866.4	4459
866.531	4440
866.662	4413
866.793	4470
866.924	4428
867.055	4455
867.186	4497
867.317	4413
867.448	4371
867.579	4409
867.71	4459
867.841	4371
867.972	4455
868.103	4504
868.233	4470
868.364	4447
868.495	4512
868.625	4710
868.756	4812
868.886	4630
869.017	4634
869.147	4828
869.278	4782
869.408	4698
869.539	4653
869.669	4740
869.799	4675
869.929	4793
870.06	4771
870.19	4965
870.32	4957
870.45	5022
870.58	5041
870.71	5056
870.84	5136
870.97	4984
871.1	4923
871.23	5098
871.36	5155
871.489	5041
871.619	5079
871.749	5105
871.879	5159
872.008	5246
872.138	5102
872.267	5041
872.397	4892
872.526	4824
872.656	4771
872.785	4824
872.915	4995
873.044	5041
873.173	5003
873.303	5025
873.432	4999
873.561	4976
873.69	4953
873.819	4881
873.948	4946
874.077	4866
874.206	4797
874.335	4850
874.464	4949
874.593	5029
874.722	4984
874.851	5105
874.979	5071
875.108	5094
875.237	4889
875.365	4930
875.494	4919
875.623	4976
875.751	4843
875.88	4923
876.008	5003
876.136	5029
876.265	5231
876.393	5395
876.521	5242
876.65	5250
876.778	5193
876.906	5098
877.034	5010
877.162	5052
877.29	5014
877.418	5113
877.546	4980
877.674	5067
877.802	5094
877.93	5056
878.058	4968
878.185	4911
878.313	4999
878.441	4995
878.568	4858
878.696	4866
878.824	4987
878.951	4984
879.079	5185
879.206	5303
879.333	5113
879.461	4995
879.588	5045
879.715	5105
879.842	5231
879.97	5094
880.097	4767
880.224	4786
880.351	4820
880.478	4828
880.605	4797
880.732	4828
880.859	5117
880.986	4900
881.112	4942
881.239	4767
881.366	4721
881.493	4634
881.619	4550
881.746	4664
881.872	4675
881.999	4649
882.125	4660
882.252	4812
882.378	4877
882.505	4991
882.631	4801
882.757	4698
882.883	4702
883.01	4744
883.136	4698
883.262	4634
883.388	4672
883.514	4847
883.64	4892
883.766	4793
883.892	4675
884.018	4706
884.143	4896
884.269	5056
884.395	4717
884.52	4615
884.646	4687
884.772	4626
884.897	4580
885.023	4698
885.148	4805
885.274	4896
885.399	4828
885.524	4733
885.65	4714
885.775	4805
885.9	4759
886.025	4850
886.15	4831
886.275	4717
886.4	4702
886.525	4721
886.65	4714
886.775	4721
886.9	4885
887.025	5064
887.149	4824
887.274	4710
887.399	4554
887.523	4637
887.648	4592
887.773	4596
887.897	4801
888.021	4820
888.146	4744
888.27	4889
888.395	4892
888.519	4801
888.643	4870
888.767	4812
888.891	4683
889.015	4626
889.139	4687
889.263	4622
889.387	4809
889.511	4870
889.635	4805
889.759	4660
889.883	4698
890.006	4755
890.13	4870
890.254	4615
890.377	4653
890.501	4554
890.624	4527
890.748	4691
890.871	4493
890.995	4462
891.118	4383
891.241	4550
891.364	4569
891.488	4637
891.611	4497
891.734	4550
891.857	4565
891.98	4542
892.103	4641
892.226	4653
892.349	4527
892.471	4459
892.594	4542
892.717	4615
892.839	4649
892.962	4592
893.085	4668
893.207	4580
893.33	4504
893.452	4542
893.575	4622
893.697	4592
893.819	4809
893.941	4847
894.064	4740
894.186	4573
894.308	4546
894.43	4706
894.552	4843
894.674	4744
894.796	4592
894.918	4584
895.04	4588
895.161	4714
895.283	4694
895.405	4622
895.526	4645
895.648	4740
895.769	4752
895.891	4672
896.012	4748
896.134	4748
896.255	4714
896.376	4694
896.498	4664
896.619	4668
896.74	4634
896.861	4698
896.982	4949
897.103	5128
897.224	4835
897.345	4774
897.466	4687
897.587	4763
897.708	4885
897.828	4778
897.949	4668
898.07	4584
898.19	4694
898.311	4835
898.431	4660
898.552	4748
898.672	4797
898.792	4812
898.913	4771
899.033	4618
899.153	4523
899.273	4409
899.393	4481
899.513	4531
899.633	4538
899.753	4527
899.873	4558
899.993	4599
900.113	4523
900.232	4611
900.352	4497
900.472	4466
900.591	4478
900.711	4489
900.83	4413
900.95	4622
901.069	4698
901.189	4558
901.308	4344
901.427	4291
901.546	4356
901.665	4478
901.784	4550
901.904	4394
902.023	4348
902.141	4200
902.26	4150
902.379	4318
902.498	4261
902.617	4238
902.735	4363
902.854	4447
902.973	4348
903.091	4211
903.21	4207
903.328	4318
903.446	4295
903.565	4261
903.683	4348
903.801	4318
903.919	4409
904.038	4451
904.156	4276
904.274	4489
904.392	4428
904.51	4493
904.627	4493
904.745	4626
904.863	4653
904.981	4432
905.098	4318
905.216	4405
905.334	4432
905.451	4443
905.569	4493
905.686	4584
905.803	4584
905.921	4440
906.038	4535
906.155	4451
906.272	4436
906.389	4493
906.506	4375
906.623	4379
906.74	4428
906.857	4322
906.974	4421
907.091	4550
907.208	4687
907.324	4630
907.441	4550
907.557	4352
907.674	4375
907.79	4371
907.907	4428
908.023	4523
908.139	4508
908.256	4440
908.372	4535
908.488	4508
908.604	4383
908.72	4348
908.836	4348
908.952	4383
909.068	4421
909.184	4596
909.3	4470
909.415	4596
909.531	4554
909.647	4367
909.762	4409
909.878	4337
909.993	4447
910.108	4455
910.224	4409
910.339	4470
910.454	4413
910.57	4352
910.685	4287
910.8	4702
910.915	4645
911.03	4497
911.145	4348
911.259	4352
911.374	4398
911.489	4303
911.604	4268
911.718	4154
911.833	4211
911.947	4109
912.062	4044
912.176	4192
912.291	4238
912.405	4276
912.519	4478
912.633	4497
912.748	4402
912.862	4352
912.976	4219
913.09	4086
913.204	4173
913.318	4242
913.431	4363
913.545	4398
913.659	4436
913.772	4367
913.886	4265
914	4223
914.113	4405
914.226	4485
914.34	4379
914.453	4234
914.566	4428
914.68	4325
914.793	4322
914.906	4207
915.019	4147
915.132	4101
915.245	4207
915.358	4207
915.47	4249
915.583	4257
915.696	4291
915.809	4432
915.921	4417
916.034	4246
916.146	4268
916.259	4227
916.371	4375
916.483	4352
916.595	4310
916.708	4306
916.82	4344
916.932	4341
917.044	4314
917.156	4379
917.268	4207
917.38	4329
917.491	4284
917.603	4390
917.715	4405
917.826	4436
917.938	4379
918.049	4249
918.161	4386
918.272	4531
918.384	4569
918.495	4478
918.606	4276
918.717	4242
918.828	4356
918.939	4371
919.05	4344
919.161	4371
919.272	4143
919.383	4219
919.494	4405
919.604	4634
919.715	4443
919.826	4440
919.936	4470
920.047	4596
920.157	4500
920.267	4759
920.378	4554
920.488	4527
920.598	4702
920.708	4904
920.818	4744
920.928	4774
921.038	4972
921.148	4965
921.258	4649
921.368	4584
921.477	4489
921.587	4436
921.697	4409
921.806	4550
921.916	4421
922.025	4261
922.134	4242
922.244	4227
922.353	4329
922.462	4185
922.571	4124
922.68	4036
922.789	3953
922.898	4040
923.007	4010
923.116	4109
923.224	4078
923.333	4048
923.442	4017
923.55	3964
923.659	4021
923.767	4116
923.876	4013
923.984	4112
924.092	3972
924.201	4074
924.309	4101
924.417	4109
924.525	4093
924.633	4116
924.741	5060
924.849	3930
924.956	4101
925.064	3956
925.172	3918
925.279	3956
925.387	4044
925.494	4086
925.602	4192
925.709	4166
925.816	4051
925.924	4147
926.031	4215
926.138	4177
926.245	4230
926.352	4090
926.459	4295
926.566	4363
926.673	4166
926.779	4086
926.886	4071
926.993	3975
927.099	3934
927.206	3945
927.312	3972
927.419	4051
927.525	4032
927.631	4097
927.737	3964
927.843	3956
927.95	3861
928.056	3949
928.162	4025
928.267	4101
928.373	4733
928.479	4120
928.585	3892
928.69	4002
928.796	4025
928.901	3983
929.007	3888
929.112	3956
929.218	3960
929.323	3945
929.428	3949
929.533	4090
929.638	3907
929.743	3968
929.848	4071
929.953	3998
930.058	3896
930.163	3770
930.267	3823
930.372	4006
930.477	3854
930.581	4116
930.685	3945
930.79	3854
930.894	3903
930.998	3865
931.103	4048
931.207	3740
931.311	3751
931.415	3701
931.519	3534
931.623	3610
