Data from test_V78500241_168.txt Node
Date: Fri Mar 25 16:50:10 CST 2022
User: usil
Spectrometer: V785-0024
Trigger mode: 0
Integration Time (sec): 4.000000E-1
Scans to average: 1
Nonlinearity correction enabled: false
Boxcar width: 0
Storing dark spectrum: false
XAxis mode: Wavelengths
Number of Pixels in Spectrum: 1024
>>>>>Begin Spectral Data<<<<<
801.071	7947
801.214	7986
801.356	7864
801.499	7814
801.641	7811
801.783	7776
801.926	7925
802.068	7951
802.211	7989
802.353	8031
802.496	7978
802.638	7906
802.78	7974
802.923	7959
803.065	7830
803.208	7875
803.35	7925
803.492	8111
803.635	8096
803.777	7986
803.919	8100
804.061	8412
804.204	8073
804.346	8020
804.488	7917
804.63	8020
804.773	7925
804.915	8084
805.057	8290
805.199	8077
805.341	8084
805.483	8290
805.626	8115
805.768	8096
805.91	8202
806.052	8199
806.194	8199
806.336	8362
806.478	8100
806.62	8058
806.762	8123
806.904	8206
807.046	8442
807.188	8324
807.33	8195
807.472	8225
807.614	8157
807.756	8100
807.898	8012
808.04	7852
808.182	7986
808.324	7871
808.465	7868
808.607	8001
808.749	8107
808.891	8218
809.033	8328
809.174	8199
809.316	8039
809.458	8043
809.6	7898
809.741	7982
809.883	8081
810.025	8142
810.166	8035
810.308	7955
810.45	7974
810.591	7894
810.733	7784
810.875	7651
811.016	7559
811.158	7571
811.299	7571
811.441	7753
811.582	7628
811.724	7582
811.865	7571
812.007	7620
812.148	7613
812.29	7681
812.431	7738
812.573	7894
812.714	8005
812.855	8210
812.997	8263
813.138	8377
813.279	8221
813.421	8142
813.562	8012
813.703	7871
813.845	7795
813.986	7510
814.127	7320
814.268	7244
814.41	7175
814.551	7164
814.692	7301
814.833	7137
814.974	7133
815.115	7187
815.256	6966
815.397	6901
815.539	6901
815.68	6814
815.821	6795
815.962	6882
816.103	6814
816.244	6738
816.385	6677
816.526	6627
816.666	6479
816.807	6331
816.948	6448
817.089	6464
817.23	6483
817.371	6441
817.512	6410
817.653	6418
817.793	6380
817.934	6452
818.075	6448
818.216	6475
818.356	6399
818.497	6175
818.638	6091
818.778	6144
818.919	6110
819.06	6114
819.2	6323
819.341	6327
819.481	6384
819.622	6502
819.762	6726
819.903	6662
820.043	6540
820.184	6589
820.324	6654
820.465	6719
820.605	6658
820.746	6635
820.886	6544
821.026	6681
821.167	6749
821.307	6795
821.447	6745
821.588	6635
821.728	6665
821.868	6517
822.008	6311
822.149	6403
822.289	6388
822.429	6171
822.569	6045
822.709	6106
822.849	5923
822.99	5859
823.13	5912
823.27	5920
823.41	5817
823.55	5786
823.69	5783
823.83	5767
823.97	5661
824.11	5509
824.25	5535
824.389	5562
824.529	5558
824.669	5558
824.809	5665
824.949	5726
825.089	5558
825.228	5589
825.368	5402
825.508	5368
825.648	5360
825.787	5368
825.927	5341
826.067	5296
826.206	5246
826.346	5326
826.485	5379
826.625	5372
826.765	5558
826.904	5524
827.044	5292
827.183	5204
827.323	5124
827.462	5235
827.601	5181
827.741	5220
827.88	5220
828.02	5132
828.159	5239
828.298	5307
828.437	5364
828.577	5307
828.716	5512
828.855	5318
828.994	5166
829.134	5166
829.273	5204
829.412	5174
829.551	5155
829.69	5189
829.829	5231
829.968	5402
830.107	5220
830.246	5292
830.385	5136
830.524	5178
830.663	5117
830.802	5010
830.941	4900
831.08	4858
831.219	4984
831.357	4984
831.496	5140
831.635	4957
831.774	4854
831.913	4835
832.051	4752
832.19	4717
832.329	4911
832.467	4664
832.606	4645
832.744	4721
832.883	4733
833.022	4733
833.16	4793
833.299	4816
833.437	4816
833.576	4850
833.714	4862
833.852	4850
833.991	4862
834.129	4965
834.267	4961
834.406	4862
834.544	5006
834.682	5003
834.821	5029
834.959	5174
835.097	4984
835.235	5143
835.373	5113
835.511	5147
835.65	5045
835.788	5056
835.926	4934
836.064	4843
836.202	4942
836.34	5174
836.478	5227
836.615	5143
836.753	5246
836.891	5334
837.029	5242
837.167	5231
837.305	5185
837.443	5162
837.58	5083
837.718	5231
837.856	5166
837.993	5140
838.131	5265
838.269	5201
838.406	5273
838.544	5216
838.681	5060
838.819	5037
838.956	4919
839.094	4896
839.231	4919
839.369	5075
839.506	5444
839.643	5246
839.781	5102
839.918	5067
840.055	5083
840.193	5086
840.33	5064
840.467	5132
840.604	5197
840.742	5455
840.879	5102
841.016	5071
841.153	5159
841.29	5379
841.427	5379
841.564	5311
841.701	5292
841.838	5330
841.975	5231
842.112	5258
842.249	5124
842.385	5140
842.522	5334
842.659	5143
842.796	5204
842.933	5143
843.069	5193
843.206	5136
843.343	5318
843.479	5235
843.616	5227
843.752	5025
843.889	4987
844.025	5223
844.162	5006
844.298	5143
844.435	5102
844.571	5079
844.708	5181
844.844	5299
844.98	5318
845.117	5326
845.253	5143
845.389	5045
845.525	5189
845.661	5098
845.798	5064
845.934	5102
846.07	5067
846.206	5250
846.342	5303
846.478	5170
846.614	5079
846.75	4995
846.886	4904
847.022	5197
847.158	4984
847.294	5098
847.429	5124
847.565	5048
847.701	5284
847.837	4892
847.972	4782
848.108	4957
848.244	4923
848.379	4771
848.515	4694
848.65	4752
848.786	4702
848.921	4778
849.057	4866
849.192	4889
849.328	4850
849.463	4858
849.598	4793
849.734	4687
849.869	4649
850.004	4675
850.14	4645
850.275	4599
850.41	4561
850.545	4664
850.68	4615
850.815	4607
850.95	4664
851.085	4820
851.22	4774
851.355	4675
851.49	4611
851.625	4649
851.76	4656
851.895	4577
852.03	4527
852.165	4634
852.299	4706
852.434	4801
852.569	4786
852.703	4778
852.838	4885
852.973	4915
853.107	4923
853.242	4725
853.376	4710
853.511	4516
853.645	4607
853.78	4816
853.914	4687
854.048	4691
854.183	4630
854.317	4660
854.451	4866
854.585	4649
854.72	4672
854.854	4752
854.988	4577
855.122	4656
855.256	4558
855.39	4729
855.524	4786
855.658	4752
855.792	4702
855.926	4744
856.06	4744
856.194	4771
856.327	4679
856.461	4672
856.595	4637
856.729	4611
856.862	4771
856.996	4641
857.13	4714
857.263	4774
857.397	4790
857.53	4702
857.664	4729
857.797	4797
857.931	4744
858.064	4687
858.197	4752
858.331	4694
858.464	4641
858.597	4508
858.731	4691
858.864	4675
858.997	4592
859.13	4603
859.263	4710
859.396	4675
859.529	4558
859.662	4516
859.795	4542
859.928	4634
860.061	4782
860.194	4748
860.327	4611
860.46	4592
860.592	4714
860.725	4714
860.858	4717
860.99	4615
861.123	4516
861.256	4493
861.388	4630
861.521	5349
861.653	4497
861.786	4451
861.918	4516
862.05	4500
862.183	4565
862.315	4580
862.447	4649
862.58	4569
862.712	4402
862.844	4333
862.976	4485
863.108	4497
863.24	4866
863.372	4329
863.504	4474
863.636	4398
863.768	4474
863.9	4432
864.032	4394
864.164	4386
864.296	4489
864.428	4599
864.559	4580
864.691	4554
864.823	4554
864.954	4516
865.086	4561
865.217	4493
865.349	4424
865.48	4462
865.612	4474
865.743	4630
865.875	4481
866.006	4428
866.137	4500
866.269	4485
866.4	4443
866.531	4424
866.662	4421
866.793	4428
866.924	4462
867.055	4546
867.186	4424
867.317	4417
867.448	4337
867.579	4428
867.71	4413
867.841	4413
867.972	4436
868.103	4474
868.233	4413
868.364	4447
868.495	4478
868.625	4691
868.756	4714
868.886	4622
869.017	4622
869.147	4752
869.278	4748
869.408	4736
869.539	4607
869.669	4710
869.799	4603
869.929	4748
870.06	4767
870.19	4961
870.32	5010
870.45	4930
870.58	5060
870.71	5037
870.84	5048
870.97	4957
871.1	4904
871.23	5170
871.36	5117
871.489	4991
871.619	5121
871.749	5098
871.879	5174
872.008	5166
872.138	5067
872.267	5006
872.397	4862
872.526	4862
872.656	4740
872.785	4793
872.915	5022
873.044	5037
873.173	4953
873.303	4965
873.432	4984
873.561	4961
873.69	4877
873.819	4801
873.948	4927
874.077	4809
874.206	4778
874.335	4790
874.464	4972
874.593	5098
874.722	4999
874.851	5124
874.979	5075
875.108	5018
875.237	4965
875.365	4839
875.494	4889
875.623	4961
875.751	4820
875.88	4915
876.008	4953
876.136	5029
876.265	5204
876.393	5357
876.521	5254
876.65	5216
876.778	5159
876.906	5105
877.034	5006
877.162	5025
877.29	5018
877.418	5045
877.546	5033
877.674	5029
877.802	5022
877.93	5048
878.058	4953
878.185	4873
878.313	4949
878.441	4968
878.568	4816
878.696	4873
878.824	4976
878.951	4968
879.079	5136
879.206	5303
879.333	5121
879.461	4946
879.588	4972
879.715	5140
879.842	5239
879.97	4995
880.097	4805
880.224	4809
880.351	4858
880.478	4858
880.605	4790
880.732	4801
880.859	5102
880.986	4915
881.112	4942
881.239	4812
881.366	4672
881.493	4622
881.619	4592
881.746	4683
881.872	4660
881.999	4687
882.125	4687
882.252	4782
882.378	4793
882.505	4957
882.631	4820
882.757	4626
882.883	4710
883.01	4755
883.136	4702
883.262	4607
883.388	4649
883.514	4839
883.64	4862
883.766	4801
883.892	4694
884.018	4714
884.143	4900
884.269	5041
884.395	4637
884.52	4637
884.646	4653
884.772	4664
884.897	4558
885.023	4691
885.148	4828
885.274	4843
885.399	4850
885.524	4702
885.65	4687
885.775	4812
885.9	4736
886.025	4839
886.15	4831
886.275	4740
886.4	4702
886.525	4717
886.65	4702
886.775	4691
886.9	4881
887.025	5083
887.149	4843
887.274	4679
887.399	4565
887.523	4622
887.648	4550
887.773	4561
887.897	4793
888.021	4759
888.146	4687
888.27	4858
888.395	4896
888.519	4843
888.643	4771
888.767	4816
888.891	4721
889.015	4607
889.139	4649
889.263	4599
889.387	4725
889.511	4892
889.635	4801
889.759	4634
889.883	4630
890.006	4759
890.13	4835
890.254	4664
890.377	4683
890.501	4565
890.624	4500
890.748	4660
890.871	4489
890.995	4424
891.118	4428
891.241	4542
891.364	4561
891.488	4679
891.611	4535
891.734	4588
891.857	4641
891.98	4554
892.103	4675
892.226	4596
892.349	4535
892.471	4424
892.594	4599
892.717	4599
892.839	4580
892.962	4615
893.085	4733
893.207	4664
893.33	4508
893.452	4523
893.575	4733
893.697	4664
893.819	4797
893.941	4835
894.064	4820
894.186	4634
894.308	4592
894.43	4786
894.552	4866
894.674	4847
894.796	4641
894.918	4687
895.04	4599
895.161	4778
895.283	4687
895.405	4694
895.526	4702
895.648	4786
895.769	4793
895.891	4752
896.012	4767
896.134	4797
896.255	4698
896.376	4672
896.498	4706
896.619	4748
896.74	4660
896.861	4702
896.982	4961
897.103	5124
897.224	4927
897.345	4824
897.466	4710
897.587	4790
897.708	4942
897.828	4790
897.949	4736
898.07	4596
898.19	4710
898.311	4889
898.431	4691
898.552	4809
898.672	4873
898.792	4850
898.913	4797
899.033	4660
899.153	4527
899.273	4500
899.393	4542
899.513	4573
899.633	4588
899.753	4596
899.873	4565
899.993	4660
900.113	4546
900.232	4645
900.352	4626
900.472	4531
900.591	4462
900.711	4538
900.83	4504
900.95	4660
901.069	4759
901.189	4558
901.308	4436
901.427	4390
901.546	4428
901.665	4508
901.784	4546
901.904	4428
902.023	4371
902.141	4234
902.26	4196
902.379	4375
902.498	4284
902.617	4249
902.735	4405
902.854	4417
902.973	4356
903.091	4249
903.21	4291
903.328	4367
903.446	4318
903.565	4325
903.683	4360
903.801	4329
903.919	4432
904.038	4500
904.156	4417
904.274	4459
904.392	4447
904.51	4516
904.627	4523
904.745	4577
904.863	4672
904.981	4428
905.098	4352
905.216	4367
905.334	4508
905.451	4500
905.569	4504
905.686	4615
905.803	4634
905.921	4497
906.038	4630
906.155	4523
906.272	4421
906.389	4485
906.506	4417
906.623	4443
906.74	4451
906.857	4337
906.974	4409
907.091	4611
907.208	4774
907.324	4656
907.441	4603
907.557	4394
907.674	4344
907.79	4371
907.907	4424
908.023	4508
908.139	4554
908.256	4485
908.372	4493
908.488	4531
908.604	4440
908.72	4363
908.836	4428
908.952	4409
909.068	4474
909.184	4580
909.3	4592
909.415	4615
909.531	4596
909.647	4383
909.762	4405
909.878	4409
909.993	4447
910.108	4436
910.224	4497
910.339	4519
910.454	4424
910.57	4440
910.685	4356
910.8	4702
910.915	4618
911.03	4546
911.145	4363
911.259	4360
911.374	4424
911.489	4333
911.604	4341
911.718	4242
911.833	4272
911.947	4166
912.062	4048
912.176	4284
912.291	4291
912.405	4249
912.519	4512
912.633	4531
912.748	4417
912.862	4363
912.976	4230
913.09	4143
913.204	4230
913.318	4291
913.431	4421
913.545	4379
913.659	4489
913.772	4417
913.886	4303
914	4291
914.113	4424
914.226	4474
914.34	4455
914.453	4284
914.566	4500
914.68	4386
914.793	4371
914.906	4287
915.019	4143
915.132	4090
915.245	4188
915.358	4230
915.47	4295
915.583	4333
915.696	4371
915.809	4466
915.921	4447
916.034	4322
916.146	4295
916.259	4268
916.371	4436
916.483	4383
916.595	4303
916.708	4352
916.82	4375
916.932	4379
917.044	4337
917.156	4356
917.268	4272
917.38	4337
917.491	4310
917.603	4394
917.715	4440
917.826	4523
917.938	4386
918.049	4261
918.161	4451
918.272	4592
918.384	4569
918.495	4516
918.606	4325
918.717	4348
918.828	4424
918.939	4459
919.05	4299
919.161	4348
919.272	4169
919.383	4284
919.494	4535
919.604	4687
919.715	4470
919.826	4386
919.936	4436
920.047	4580
920.157	4523
920.267	4717
920.378	4668
920.488	4550
920.598	4755
920.708	4908
920.818	4809
920.928	4790
921.038	4991
921.148	4957
921.258	4672
921.368	4546
921.477	4504
921.587	4497
921.697	4394
921.806	4611
921.916	4508
922.025	4306
922.134	4299
922.244	4276
922.353	4367
922.462	4223
922.571	4185
922.68	4074
922.789	3983
922.898	4059
923.007	4006
923.116	4131
923.224	4074
923.333	4086
923.442	4063
923.55	4063
923.659	4090
923.767	4124
923.876	4032
923.984	4166
924.092	4029
924.201	4139
924.309	4120
924.417	4147
924.525	4139
924.633	4143
924.741	4934
924.849	3956
924.956	4139
925.064	4040
925.172	3991
925.279	4002
925.387	4067
925.494	4109
925.602	4204
925.709	4215
925.816	4055
925.924	4177
926.031	4242
926.138	4215
926.245	4268
926.352	4093
926.459	4280
926.566	4348
926.673	4185
926.779	4101
926.886	4166
926.993	3972
927.099	4021
927.206	3949
927.312	4017
927.419	4071
927.525	4048
927.631	4090
927.737	3953
927.843	3934
927.95	3888
928.056	3968
928.162	4036
928.267	4082
928.373	4740
928.479	4158
928.585	3915
928.69	4010
928.796	4086
928.901	4059
929.007	3861
929.112	4048
929.218	3987
929.323	3918
929.428	3979
929.533	4166
929.638	3930
929.743	3994
929.848	4055
929.953	4021
930.058	3972
930.163	3785
930.267	3869
930.372	4048
930.477	3857
930.581	4109
930.685	3960
930.79	3861
930.894	3918
930.998	3918
931.103	4093
931.207	3781
931.311	3709
931.415	3720
931.519	3534
931.623	3584
