Data from test_V78500241_715.txt Node
Date: Fri Mar 25 16:53:58 CST 2022
User: usil
Spectrometer: V785-0024
Trigger mode: 0
Integration Time (sec): 4.000000E-1
Scans to average: 1
Nonlinearity correction enabled: false
Boxcar width: 0
Storing dark spectrum: false
XAxis mode: Wavelengths
Number of Pixels in Spectrum: 1024
>>>>>Begin Spectral Data<<<<<
801.071	8073
801.214	8012
801.356	7799
801.499	7894
801.641	7746
801.783	7894
801.926	7970
802.068	7974
802.211	7967
802.353	7928
802.496	7841
802.638	7894
802.78	7928
802.923	7902
803.065	7845
803.208	7841
803.35	7909
803.492	8153
803.635	8073
803.777	8031
803.919	8115
804.061	8355
804.204	8111
804.346	7986
804.488	7921
804.63	8187
804.773	7989
804.915	8054
805.057	8290
805.199	8195
805.341	8168
805.483	8233
805.626	8248
805.768	8103
805.91	8191
806.052	8187
806.194	8126
806.336	8309
806.478	8088
806.62	7982
806.762	8115
806.904	8240
807.046	8419
807.188	8324
807.33	8332
807.472	8271
807.614	8153
807.756	8100
807.898	7989
808.04	7928
808.182	7871
808.324	7868
808.465	7940
808.607	7989
808.749	8100
808.891	8115
809.033	8290
809.174	8130
809.316	8008
809.458	7986
809.6	7986
809.741	7963
809.883	7928
810.025	8043
810.166	8111
810.308	8054
810.45	7997
810.591	7909
810.733	7696
810.875	7700
811.016	7582
811.158	7480
811.299	7529
811.441	7670
811.582	7704
811.724	7537
811.865	7521
812.007	7586
812.148	7559
812.29	7613
812.431	7746
812.573	7826
812.714	7887
812.855	8111
812.997	8149
813.138	8248
813.279	8161
813.421	8084
813.562	8065
813.703	7792
813.845	7792
813.986	7491
814.127	7190
814.268	7270
814.41	7217
814.551	7050
814.692	7152
814.833	7065
814.974	7091
815.115	7091
815.256	6916
815.397	6916
815.539	6932
815.68	6802
815.821	6760
815.962	6840
816.103	6818
816.244	6700
816.385	6547
816.526	6642
816.666	6502
816.807	6258
816.948	6448
817.089	6483
817.23	6490
817.371	6388
817.512	6353
817.653	6407
817.793	6384
817.934	6399
818.075	6422
818.216	6380
818.356	6380
818.497	6262
818.638	6064
818.778	6159
818.919	6098
819.06	6110
819.2	6258
819.341	6342
819.481	6331
819.622	6547
819.762	6730
819.903	6654
820.043	6612
820.184	6570
820.324	6540
820.465	6620
820.605	6601
820.746	6635
820.886	6528
821.026	6658
821.167	6719
821.307	6783
821.447	6734
821.588	6665
821.728	6494
821.868	6467
822.008	6308
822.149	6350
822.289	6353
822.429	6140
822.569	6098
822.709	6079
822.849	5859
822.99	5927
823.13	5908
823.27	5931
823.41	5764
823.55	5786
823.69	5775
823.83	5767
823.97	5688
824.11	5486
824.25	5535
824.389	5486
824.529	5551
824.669	5478
824.809	5653
824.949	5657
825.089	5611
825.228	5535
825.368	5357
825.508	5303
825.648	5349
825.787	5364
825.927	5402
826.067	5318
826.206	5269
826.346	5349
826.485	5349
826.625	5448
826.765	5539
826.904	5429
827.044	5269
827.183	5223
827.323	5174
827.462	5246
827.601	5155
827.741	5151
827.88	5178
828.02	5109
828.159	5155
828.298	5322
828.437	5307
828.577	5273
828.716	5429
828.855	5326
828.994	5155
829.134	5090
829.273	5136
829.412	5124
829.551	5151
829.69	5220
829.829	5216
829.968	5353
830.107	5269
830.246	5246
830.385	5216
830.524	5117
830.663	5067
830.802	4968
830.941	4915
831.08	4881
831.219	4972
831.357	4991
831.496	5117
831.635	4934
831.774	4835
831.913	4828
832.051	4679
832.19	4717
832.329	4797
832.467	4706
832.606	4618
832.744	4691
832.883	4740
833.022	4717
833.16	4782
833.299	4812
833.437	4793
833.576	4782
833.714	4881
833.852	4866
833.991	4858
834.129	4957
834.267	4965
834.406	4930
834.544	4919
834.682	4949
834.821	4961
834.959	5121
835.097	5029
835.235	5113
835.373	5071
835.511	5083
835.65	5029
835.788	4984
835.926	4934
836.064	4858
836.202	4866
836.34	5143
836.478	5181
836.615	5113
836.753	5208
836.891	5299
837.029	5284
837.167	5178
837.305	5128
837.443	5121
837.58	5075
837.718	5174
837.856	5151
837.993	5132
838.131	5193
838.269	5189
838.406	5261
838.544	5140
838.681	5018
838.819	5064
838.956	4915
839.094	4915
839.231	4965
839.369	5086
839.506	5425
839.643	5277
839.781	5064
839.918	5029
840.055	5159
840.193	5060
840.33	5102
840.467	5162
840.604	5231
840.742	5402
840.879	5067
841.016	5067
841.153	5166
841.29	5391
841.427	5341
841.564	5303
841.701	5330
841.838	5258
841.975	5204
842.112	5254
842.249	5124
842.385	5102
842.522	5326
842.659	5193
842.796	5113
842.933	5223
843.069	5162
843.206	5170
843.343	5299
843.479	5223
843.616	5254
843.752	4987
843.889	5010
844.025	5193
844.162	5037
844.298	5170
844.435	5079
844.571	5067
844.708	5162
844.844	5273
844.98	5357
845.117	5261
845.253	5105
845.389	5071
845.525	5132
845.661	5170
845.798	5045
845.934	5109
846.07	5079
846.206	5159
846.342	5299
846.478	5140
846.614	5033
846.75	4968
846.886	4980
847.022	5124
847.158	4968
847.294	5041
847.429	5151
847.565	5041
847.701	5318
847.837	4870
847.972	4820
848.108	4900
848.244	4946
848.379	4767
848.515	4752
848.65	4679
848.786	4721
848.921	4767
849.057	4828
849.192	4892
849.328	4801
849.463	4839
849.598	4790
849.734	4702
849.869	4683
850.004	4630
850.14	4641
850.275	4607
850.41	4500
850.545	4538
850.68	4607
850.815	4603
850.95	4565
851.085	4809
851.22	4691
851.355	4687
851.49	4603
851.625	4645
851.76	4649
851.895	4516
852.03	4554
852.165	4626
852.299	4782
852.434	4786
852.569	4733
852.703	4763
852.838	4786
852.973	4896
853.107	4915
853.242	4748
853.376	4668
853.511	4542
853.645	4603
853.78	4771
853.914	4714
854.048	4672
854.183	4687
854.317	4698
854.451	4850
854.585	4653
854.72	4649
854.854	4744
854.988	4599
855.122	4634
855.256	4527
855.39	4653
855.524	4767
855.658	4740
855.792	4698
855.926	4740
856.06	4725
856.194	4812
856.327	4672
856.461	4588
856.595	4618
856.729	4618
856.862	4752
856.996	4660
857.13	4759
857.263	4725
857.397	4763
857.53	4641
857.664	4752
857.797	4740
857.931	4790
858.064	4714
858.197	4771
858.331	4672
858.464	4615
858.597	4523
858.731	4584
858.864	4675
858.997	4558
859.13	4660
859.263	4691
859.396	4698
859.529	4577
859.662	4527
859.795	4538
859.928	4599
860.061	4759
860.194	4744
860.327	4573
860.46	4577
860.592	4691
860.725	4733
860.858	4694
860.99	4588
861.123	4451
861.256	4569
861.388	4588
861.521	5402
861.653	4443
861.786	4409
861.918	4455
862.05	4489
862.183	4523
862.315	4569
862.447	4634
862.58	4558
862.712	4386
862.844	4280
862.976	4462
863.108	4440
863.24	4919
863.372	4337
863.504	4402
863.636	4375
863.768	4447
863.9	4455
864.032	4322
864.164	4371
864.296	4508
864.428	4535
864.559	4607
864.691	4478
864.823	4542
864.954	4516
865.086	4485
865.217	4485
865.349	4383
865.48	4459
865.612	4481
865.743	4611
865.875	4462
866.006	4440
866.137	4478
866.269	4402
866.4	4390
866.531	4383
866.662	4432
866.793	4417
866.924	4402
867.055	4512
867.186	4455
867.317	4367
867.448	4379
867.579	4409
867.71	4333
867.841	4360
867.972	4405
868.103	4432
868.233	4447
868.364	4413
868.495	4455
868.625	4653
868.756	4733
868.886	4603
869.017	4607
869.147	4752
869.278	4744
869.408	4634
869.539	4603
869.669	4660
869.799	4672
869.929	4774
870.06	4702
870.19	4972
870.32	4885
870.45	4953
870.58	5025
870.71	5079
870.84	5094
870.97	4946
871.1	4885
871.23	5102
871.36	5155
871.489	5014
871.619	5064
871.749	5067
871.879	5109
872.008	5189
872.138	4976
872.267	4965
872.397	4843
872.526	4755
872.656	4721
872.785	4824
872.915	4930
873.044	4991
873.173	4946
873.303	4980
873.432	4949
873.561	4953
873.69	4854
873.819	4809
873.948	4881
874.077	4793
874.206	4733
874.335	4790
874.464	4949
874.593	5025
874.722	4923
874.851	5098
874.979	5033
875.108	5060
875.237	4911
875.365	4892
875.494	4835
875.623	4984
875.751	4866
875.88	4850
876.008	4953
876.136	5071
876.265	5162
876.393	5303
876.521	5265
876.65	5212
876.778	5143
876.906	5071
877.034	5006
877.162	5048
877.29	4934
877.418	5045
877.546	5048
877.674	5037
877.802	5025
877.93	5003
878.058	4919
878.185	4862
878.313	4972
878.441	4908
878.568	4816
878.696	4889
878.824	4938
878.951	4984
879.079	5102
879.206	5265
879.333	5121
879.461	4953
879.588	4995
879.715	5181
879.842	5197
879.97	5022
880.097	4733
880.224	4767
880.351	4843
880.478	4809
880.605	4790
880.732	4736
880.859	5155
880.986	4881
881.112	4896
881.239	4771
881.366	4660
881.493	4599
881.619	4615
881.746	4626
881.872	4622
881.999	4668
882.125	4660
882.252	4763
882.378	4809
882.505	4911
882.631	4828
882.757	4679
882.883	4710
883.01	4752
883.136	4706
883.262	4599
883.388	4618
883.514	4786
883.64	4911
883.766	4790
883.892	4710
884.018	4691
884.143	4911
884.269	4968
884.395	4687
884.52	4645
884.646	4675
884.772	4561
884.897	4607
885.023	4687
885.148	4820
885.274	4782
885.399	4816
885.524	4675
885.65	4683
885.775	4710
885.9	4653
886.025	4843
886.15	4774
886.275	4641
886.4	4630
886.525	4694
886.65	4694
886.775	4675
886.9	4900
887.025	5056
887.149	4835
887.274	4691
887.399	4630
887.523	4596
887.648	4569
887.773	4615
887.897	4771
888.021	4774
888.146	4653
888.27	4831
888.395	4927
888.519	4816
888.643	4816
888.767	4805
888.891	4622
889.015	4618
889.139	4630
889.263	4550
889.387	4759
889.511	4927
889.635	4778
889.759	4596
889.883	4645
890.006	4714
890.13	4809
890.254	4599
890.377	4702
890.501	4512
890.624	4508
890.748	4607
890.871	4527
890.995	4405
891.118	4394
891.241	4531
891.364	4584
891.488	4607
891.611	4493
891.734	4538
891.857	4607
891.98	4542
892.103	4637
892.226	4561
892.349	4500
892.471	4413
892.594	4584
892.717	4577
892.839	4580
892.962	4611
893.085	4622
893.207	4630
893.33	4443
893.452	4481
893.575	4679
893.697	4573
893.819	4805
893.941	4801
894.064	4793
894.186	4561
894.308	4573
894.43	4725
894.552	4854
894.674	4774
894.796	4584
894.918	4618
895.04	4592
895.161	4656
895.283	4656
895.405	4554
895.526	4607
895.648	4637
895.769	4653
895.891	4702
896.012	4698
896.134	4679
896.255	4687
896.376	4653
896.498	4607
896.619	4679
896.74	4656
896.861	4656
896.982	4915
897.103	5056
897.224	4831
897.345	4744
897.466	4664
897.587	4706
897.708	4889
897.828	4786
897.949	4675
898.07	4565
898.19	4618
898.311	4843
898.431	4641
898.552	4679
898.672	4801
898.792	4812
898.913	4721
899.033	4626
899.153	4485
899.273	4436
899.393	4478
899.513	4485
899.633	4542
899.753	4561
899.873	4512
899.993	4592
900.113	4531
900.232	4615
900.352	4550
900.472	4481
900.591	4398
900.711	4519
900.83	4421
900.95	4611
901.069	4660
901.189	4489
901.308	4348
901.427	4329
901.546	4341
901.665	4485
901.784	4546
901.904	4348
902.023	4280
902.141	4112
902.26	4154
902.379	4291
902.498	4284
902.617	4223
902.735	4329
902.854	4432
902.973	4344
903.091	4219
903.21	4238
903.328	4268
903.446	4265
903.565	4223
903.683	4398
903.801	4261
903.919	4409
904.038	4451
904.156	4310
904.274	4421
904.392	4371
904.51	4504
904.627	4474
904.745	4584
904.863	4634
904.981	4432
905.098	4329
905.216	4371
905.334	4379
905.451	4409
905.569	4462
905.686	4603
905.803	4577
905.921	4405
906.038	4523
906.155	4523
906.272	4409
906.389	4466
906.506	4363
906.623	4379
906.74	4348
906.857	4257
906.974	4341
907.091	4561
907.208	4656
907.324	4599
907.441	4497
907.557	4363
907.674	4356
907.79	4303
907.907	4344
908.023	4493
908.139	4466
908.256	4383
908.372	4527
908.488	4436
908.604	4344
908.72	4303
908.836	4341
908.952	4375
909.068	4424
909.184	4542
909.3	4470
909.415	4577
909.531	4550
909.647	4341
909.762	4394
909.878	4329
909.993	4489
910.108	4409
910.224	4390
910.339	4443
910.454	4402
910.57	4367
910.685	4344
910.8	4637
910.915	4630
911.03	4470
911.145	4322
911.259	4337
911.374	4371
911.489	4268
911.604	4276
911.718	4162
911.833	4219
911.947	4105
912.062	4021
912.176	4227
912.291	4215
912.405	4238
912.519	4390
912.633	4523
912.748	4371
912.862	4287
912.976	4215
913.09	4124
913.204	4166
913.318	4253
913.431	4344
913.545	4413
913.659	4432
913.772	4344
913.886	4265
914	4230
914.113	4341
914.226	4436
914.34	4402
914.453	4230
914.566	4417
914.68	4299
914.793	4329
914.906	4173
915.019	4120
915.132	4059
915.245	4181
915.358	4234
915.47	4246
915.583	4276
915.696	4291
915.809	4394
915.921	4398
916.034	4234
916.146	4249
916.259	4166
916.371	4375
916.483	4329
916.595	4261
916.708	4356
916.82	4341
916.932	4295
917.044	4325
917.156	4341
917.268	4238
917.38	4276
917.491	4291
917.603	4348
917.715	4432
917.826	4409
917.938	4390
918.049	4242
918.161	4394
918.272	4523
918.384	4550
918.495	4451
918.606	4253
918.717	4185
918.828	4367
918.939	4371
919.05	4238
919.161	4344
919.272	4131
919.383	4215
919.494	4428
919.604	4618
919.715	4478
919.826	4341
919.936	4417
920.047	4516
920.157	4538
920.267	4679
920.378	4535
920.488	4519
920.598	4717
920.708	4862
920.818	4729
920.928	4752
921.038	4934
921.148	4877
921.258	4618
921.368	4531
921.477	4474
921.587	4459
921.697	4375
921.806	4588
921.916	4383
922.025	4215
922.134	4268
922.244	4246
922.353	4306
922.462	4154
922.571	4173
922.68	4010
922.789	3937
922.898	4055
923.007	3949
923.116	4090
923.224	4059
923.333	4055
923.442	3987
923.55	3983
923.659	4010
923.767	4128
923.876	3998
923.984	4131
924.092	3964
924.201	4055
924.309	4097
924.417	4059
924.525	4040
924.633	4097
924.741	4957
924.849	3937
924.956	4120
925.064	3975
925.172	3899
925.279	3945
925.387	4010
925.494	4055
925.602	4207
925.709	4166
925.816	4051
925.924	4090
926.031	4211
926.138	4158
926.245	4185
926.352	4120
926.459	4265
926.566	4310
926.673	4154
926.779	4010
926.886	4086
926.993	3956
927.099	3953
927.206	3968
927.312	3949
927.419	4124
927.525	4013
927.631	4067
927.737	3991
927.843	3899
927.95	3850
928.056	3960
928.162	3991
928.267	4006
928.373	4656
928.479	4154
928.585	3896
928.69	3991
928.796	4078
928.901	3937
929.007	3869
929.112	3987
929.218	3983
929.323	3934
929.428	3915
929.533	4101
929.638	3884
929.743	3953
929.848	4078
929.953	3937
930.058	3922
930.163	3812
930.267	3846
930.372	3956
930.477	3823
930.581	4071
930.685	3915
930.79	3850
930.894	3854
930.998	3823
931.103	4010
931.207	3732
931.311	3701
931.415	3663
931.519	3488
931.623	3557
