Data from test_V78500241_2691.txt Node
Date: Fri Mar 25 17:07:42 CST 2022
User: usil
Spectrometer: V785-0024
Trigger mode: 0
Integration Time (sec): 4.000000E-1
Scans to average: 1
Nonlinearity correction enabled: false
Boxcar width: 0
Storing dark spectrum: false
XAxis mode: Wavelengths
Number of Pixels in Spectrum: 1024
>>>>>Begin Spectral Data<<<<<
801.071	8046
801.214	8043
801.356	7932
801.499	7925
801.641	7852
801.783	7871
801.926	8065
802.068	7989
802.211	8039
802.353	8050
802.496	7883
802.638	7887
802.78	7974
802.923	7997
803.065	7940
803.208	7879
803.35	7982
803.492	8134
803.635	8218
803.777	8088
803.919	8180
804.061	8461
804.204	8206
804.346	8016
804.488	7982
804.63	8153
804.773	8069
804.915	8149
805.057	8233
805.199	8123
805.341	8271
805.483	8324
805.626	8256
805.768	8123
805.91	8221
806.052	8157
806.194	8145
806.336	8275
806.478	8130
806.62	8073
806.762	8153
806.904	8237
807.046	8457
807.188	8389
807.33	8328
807.472	8393
807.614	8252
807.756	8157
807.898	8107
808.04	7837
808.182	7887
808.324	7898
808.465	7997
808.607	8081
808.749	8107
808.891	8225
809.033	8286
809.174	8206
809.316	8119
809.458	8096
809.6	7978
809.741	8012
809.883	8126
810.025	8123
810.166	8065
810.308	8054
810.45	8046
810.591	7928
810.733	7753
810.875	7685
811.016	7594
811.158	7518
811.299	7597
811.441	7788
811.582	7712
811.724	7578
811.865	7636
812.007	7616
812.148	7605
812.29	7723
812.431	7731
812.573	7989
812.714	7974
812.855	8145
812.997	8187
813.138	8320
813.279	8172
813.421	8103
813.562	8039
813.703	7940
813.845	7765
813.986	7472
814.127	7259
814.268	7270
814.41	7179
814.551	7198
814.692	7251
814.833	7057
814.974	7133
815.115	7107
815.256	6958
815.397	6951
815.539	6928
815.68	6852
815.821	6795
815.962	6878
816.103	6875
816.244	6738
816.385	6665
816.526	6631
816.666	6479
816.807	6285
816.948	6441
817.089	6471
817.23	6460
817.371	6418
817.512	6395
817.653	6357
817.793	6342
817.934	6464
818.075	6456
818.216	6445
818.356	6422
818.497	6311
818.638	6140
818.778	6148
818.919	6163
819.06	6095
819.2	6296
819.341	6346
819.481	6403
819.622	6528
819.762	6753
819.903	6745
820.043	6620
820.184	6604
820.324	6658
820.465	6711
820.605	6795
820.746	6684
820.886	6555
821.026	6753
821.167	6768
821.307	6795
821.447	6787
821.588	6715
821.728	6563
821.868	6563
822.008	6346
822.149	6369
822.289	6319
822.429	6201
822.569	6087
822.709	6102
822.849	5916
822.99	5931
823.13	6022
823.27	5939
823.41	5805
823.55	5824
823.69	5798
823.83	5752
823.97	5718
824.11	5570
824.25	5543
824.389	5589
824.529	5570
824.669	5573
824.809	5638
824.949	5627
825.089	5623
825.228	5562
825.368	5387
825.508	5376
825.648	5402
825.787	5421
825.927	5376
826.067	5288
826.206	5307
826.346	5364
826.485	5402
826.625	5417
826.765	5543
826.904	5478
827.044	5223
827.183	5204
827.323	5178
827.462	5235
827.601	5170
827.741	5212
827.88	5185
828.02	5121
828.159	5216
828.298	5337
828.437	5402
828.577	5318
828.716	5463
828.855	5311
828.994	5201
829.134	5185
829.273	5193
829.412	5174
829.551	5174
829.69	5227
829.829	5242
829.968	5372
830.107	5299
830.246	5288
830.385	5223
830.524	5178
830.663	5094
830.802	5006
830.941	4870
831.08	4881
831.219	5018
831.357	4953
831.496	5197
831.635	4930
831.774	4870
831.913	4835
832.051	4755
832.19	4767
832.329	4881
832.467	4717
832.606	4664
832.744	4733
832.883	4767
833.022	4672
833.16	4774
833.299	4831
833.437	4835
833.576	4831
833.714	4858
833.852	4854
833.991	4854
834.129	4965
834.267	4980
834.406	4900
834.544	4968
834.682	4999
834.821	4961
834.959	5197
835.097	5037
835.235	5083
835.373	5098
835.511	5094
835.65	5014
835.788	5094
835.926	4896
836.064	4881
836.202	4923
836.34	5201
836.478	5265
836.615	5151
836.753	5174
836.891	5292
837.029	5231
837.167	5220
837.305	5189
837.443	5159
837.58	5060
837.718	5242
837.856	5201
837.993	5189
838.131	5220
838.269	5208
838.406	5258
838.544	5151
838.681	5064
838.819	5018
838.956	4908
839.094	4938
839.231	5003
839.369	5083
839.506	5452
839.643	5284
839.781	5025
839.918	4999
840.055	5079
840.193	5086
840.33	5071
840.467	5151
840.604	5216
840.742	5459
840.879	5079
841.016	5132
841.153	5174
841.29	5364
841.427	5341
841.564	5258
841.701	5337
841.838	5261
841.975	5231
842.112	5269
842.249	5094
842.385	5117
842.522	5341
842.659	5181
842.796	5136
842.933	5143
843.069	5132
843.206	5143
843.343	5330
843.479	5212
843.616	5280
843.752	5048
843.889	4984
844.025	5216
844.162	5060
844.298	5231
844.435	5109
844.571	5006
844.708	5223
844.844	5326
844.98	5376
845.117	5345
845.253	5143
845.389	5075
845.525	5166
845.661	5136
845.798	5045
845.934	5178
846.07	5067
846.206	5185
846.342	5273
846.478	5162
846.614	5029
846.75	5006
846.886	5006
847.022	5132
847.158	5048
847.294	5086
847.429	5105
847.565	5064
847.701	5353
847.837	4915
847.972	4824
848.108	4927
848.244	4927
848.379	4839
848.515	4748
848.65	4710
848.786	4721
848.921	4805
849.057	4881
849.192	4927
849.328	4812
849.463	4862
849.598	4790
849.734	4786
849.869	4744
850.004	4645
850.14	4694
850.275	4649
850.41	4504
850.545	4577
850.68	4634
850.815	4637
850.95	4634
851.085	4889
851.22	4759
851.355	4675
851.49	4630
851.625	4649
851.76	4649
851.895	4538
852.03	4592
852.165	4618
852.299	4771
852.434	4809
852.569	4759
852.703	4812
852.838	4820
852.973	4927
853.107	4927
853.242	4755
853.376	4645
853.511	4554
853.645	4618
853.78	4809
853.914	4706
854.048	4683
854.183	4649
854.317	4698
854.451	4934
854.585	4725
854.72	4645
854.854	4767
854.988	4630
855.122	4710
855.256	4531
855.39	4645
855.524	4755
855.658	4691
855.792	4729
855.926	4729
856.06	4801
856.194	4828
856.327	4714
856.461	4637
856.595	4637
856.729	4596
856.862	4782
856.996	4702
857.13	4736
857.263	4778
857.397	4839
857.53	4637
857.664	4729
857.797	4793
857.931	4744
858.064	4679
858.197	4786
858.331	4618
858.464	4596
858.597	4565
858.731	4584
858.864	4615
858.997	4599
859.13	4634
859.263	4687
859.396	4694
859.529	4573
859.662	4546
859.795	4584
859.928	4660
860.061	4812
860.194	4797
860.327	4599
860.46	4542
860.592	4683
860.725	4706
860.858	4778
860.99	4554
861.123	4599
861.256	4561
861.388	4603
861.521	5273
861.653	4493
861.786	4462
861.918	4455
862.05	4516
862.183	4504
862.315	4592
862.447	4630
862.58	4470
862.712	4451
862.844	4322
862.976	4493
863.108	4500
863.24	4793
863.372	4352
863.504	4451
863.636	4424
863.768	4474
863.9	4428
864.032	4363
864.164	4459
864.296	4516
864.428	4554
864.559	4592
864.691	4508
864.823	4584
864.954	4516
865.086	4493
865.217	4466
865.349	4424
865.48	4447
865.612	4542
865.743	4672
865.875	4478
866.006	4447
866.137	4443
866.269	4398
866.4	4455
866.531	4455
866.662	4390
866.793	4421
866.924	4402
867.055	4519
867.186	4451
867.317	4413
867.448	4360
867.579	4409
867.71	4428
867.841	4360
867.972	4443
868.103	4481
868.233	4466
868.364	4421
868.495	4455
868.625	4649
868.756	4752
868.886	4538
869.017	4618
869.147	4816
869.278	4725
869.408	4649
869.539	4641
869.669	4672
869.799	4618
869.929	4793
870.06	4759
870.19	4908
870.32	4953
870.45	4942
870.58	5003
870.71	5098
870.84	5083
870.97	4930
871.1	4934
871.23	5208
871.36	5102
871.489	5029
871.619	5064
871.749	5102
871.879	5079
872.008	5124
872.138	5064
872.267	4927
872.397	4843
872.526	4820
872.656	4755
872.785	4816
872.915	4930
873.044	5067
873.173	4942
873.303	4953
873.432	4957
873.561	4953
873.69	4896
873.819	4831
873.948	4908
874.077	4774
874.206	4729
874.335	4793
874.464	4938
874.593	5079
874.722	4953
874.851	5102
874.979	5052
875.108	5018
875.237	4873
875.365	4866
875.494	4866
875.623	4904
875.751	4824
875.88	4870
876.008	5010
876.136	5003
876.265	5220
876.393	5353
876.521	5261
876.65	5212
876.778	5121
876.906	5060
877.034	5048
877.162	5105
877.29	4930
877.418	5067
877.546	5102
877.674	4972
877.802	5037
877.93	5064
878.058	4900
878.185	4896
878.313	4976
878.441	4949
878.568	4824
878.696	4843
878.824	4904
878.951	4995
879.079	5090
879.206	5360
879.333	5086
879.461	5010
879.588	4984
879.715	5086
879.842	5235
879.97	5018
880.097	4729
880.224	4721
880.351	4782
880.478	4831
880.605	4816
880.732	4805
880.859	5079
880.986	4881
881.112	4923
881.239	4786
881.366	4660
881.493	4569
881.619	4615
881.746	4641
881.872	4683
881.999	4656
882.125	4649
882.252	4828
882.378	4816
882.505	4934
882.631	4786
882.757	4675
882.883	4771
883.01	4740
883.136	4679
883.262	4641
883.388	4599
883.514	4843
883.64	4847
883.766	4786
883.892	4622
884.018	4706
884.143	4942
884.269	5033
884.395	4664
884.52	4641
884.646	4679
884.772	4569
884.897	4558
885.023	4668
885.148	4733
885.274	4900
885.399	4790
885.524	4691
885.65	4721
885.775	4782
885.9	4698
886.025	4847
886.15	4801
886.275	4706
886.4	4668
886.525	4755
886.65	4675
886.775	4668
886.9	4870
887.025	4980
887.149	4866
887.274	4615
887.399	4577
887.523	4611
887.648	4565
887.773	4584
887.897	4774
888.021	4763
888.146	4755
888.27	4847
888.395	4892
888.519	4771
888.643	4839
888.767	4820
888.891	4653
889.015	4580
889.139	4679
889.263	4580
889.387	4752
889.511	4923
889.635	4812
889.759	4660
889.883	4603
890.006	4744
890.13	4862
890.254	4656
890.377	4641
890.501	4561
890.624	4523
890.748	4622
890.871	4497
890.995	4421
891.118	4367
891.241	4485
891.364	4558
891.488	4649
891.611	4497
891.734	4500
891.857	4607
891.98	4561
892.103	4630
892.226	4554
892.349	4531
892.471	4462
892.594	4527
892.717	4641
892.839	4584
892.962	4584
893.085	4694
893.207	4577
893.33	4466
893.452	4504
893.575	4626
893.697	4558
893.819	4752
893.941	4820
894.064	4721
894.186	4630
894.308	4573
894.43	4752
894.552	4858
894.674	4797
894.796	4535
894.918	4542
895.04	4592
895.161	4687
895.283	4664
895.405	4615
895.526	4637
895.648	4656
895.769	4672
895.891	4729
896.012	4790
896.134	4717
896.255	4660
896.376	4634
896.498	4615
896.619	4618
896.74	4615
896.861	4615
896.982	4942
897.103	5064
897.224	4828
897.345	4763
897.466	4653
897.587	4767
897.708	4850
897.828	4736
897.949	4664
898.07	4554
898.19	4618
898.311	4831
898.431	4714
898.552	4793
898.672	4809
898.792	4782
898.913	4763
899.033	4599
899.153	4497
899.273	4424
899.393	4474
899.513	4546
899.633	4519
899.753	4596
899.873	4527
899.993	4607
900.113	4527
900.232	4599
900.352	4573
900.472	4470
900.591	4348
900.711	4481
900.83	4428
900.95	4615
901.069	4641
901.189	4523
901.308	4375
901.427	4291
901.546	4424
901.665	4440
901.784	4523
901.904	4405
902.023	4295
902.141	4192
902.26	4181
902.379	4306
902.498	4242
902.617	4249
902.735	4398
902.854	4402
902.973	4440
903.091	4200
903.21	4192
903.328	4303
903.446	4276
903.565	4257
903.683	4360
903.801	4280
903.919	4413
904.038	4409
904.156	4322
904.274	4451
904.392	4413
904.51	4421
904.627	4493
904.745	4588
904.863	4634
904.981	4394
905.098	4261
905.216	4360
905.334	4455
905.451	4436
905.569	4436
905.686	4577
905.803	4596
905.921	4451
906.038	4546
906.155	4470
906.272	4398
906.389	4417
906.506	4295
906.623	4367
906.74	4436
906.857	4322
906.974	4398
907.091	4504
907.208	4729
907.324	4542
907.441	4500
907.557	4341
907.674	4344
907.79	4314
907.907	4379
908.023	4485
908.139	4474
908.256	4428
908.372	4443
908.488	4402
908.604	4344
908.72	4341
908.836	4390
908.952	4348
909.068	4402
909.184	4558
909.3	4512
909.415	4596
909.531	4527
909.647	4363
909.762	4360
909.878	4318
909.993	4447
910.108	4424
910.224	4436
910.339	4451
910.454	4417
910.57	4348
910.685	4276
910.8	4672
910.915	4641
911.03	4493
911.145	4329
911.259	4337
911.374	4379
911.489	4322
911.604	4291
911.718	4154
911.833	4238
911.947	4059
912.062	4071
912.176	4242
912.291	4246
912.405	4246
912.519	4489
912.633	4462
912.748	4367
912.862	4303
912.976	4253
913.09	4135
913.204	4150
913.318	4246
913.431	4337
913.545	4367
913.659	4417
913.772	4341
913.886	4227
914	4234
914.113	4379
914.226	4432
914.34	4398
914.453	4223
914.566	4413
914.68	4348
914.793	4325
914.906	4139
915.019	4135
915.132	4063
915.245	4185
915.358	4219
915.47	4227
915.583	4249
915.696	4318
915.809	4405
915.921	4440
916.034	4204
916.146	4272
916.259	4215
916.371	4386
916.483	4379
916.595	4268
916.708	4299
916.82	4303
916.932	4352
917.044	4325
917.156	4318
917.268	4253
917.38	4284
917.491	4276
917.603	4375
917.715	4402
917.826	4436
917.938	4356
918.049	4227
918.161	4367
918.272	4535
918.384	4489
918.495	4489
918.606	4306
918.717	4234
918.828	4341
918.939	4375
919.05	4211
919.161	4272
919.272	4093
919.383	4227
919.494	4470
919.604	4607
919.715	4409
919.826	4344
919.936	4402
920.047	4519
920.157	4466
920.267	4664
920.378	4554
920.488	4561
920.598	4660
920.708	4889
920.818	4752
920.928	4755
921.038	4953
921.148	4934
921.258	4645
921.368	4535
921.477	4527
921.587	4478
921.697	4348
921.806	4542
921.916	4440
922.025	4306
922.134	4223
922.244	4242
922.353	4310
922.462	4169
922.571	4143
922.68	4032
922.789	3937
922.898	4029
923.007	3994
923.116	4101
923.224	4048
923.333	4051
923.442	3994
923.55	3983
923.659	3994
923.767	4074
923.876	3983
923.984	4078
924.092	3991
924.201	4086
924.309	4090
924.417	4147
924.525	4067
924.633	4101
924.741	5045
924.849	3915
924.956	4158
925.064	3972
925.172	3880
925.279	3964
925.387	4040
925.494	4093
925.602	4207
925.709	4181
925.816	4101
925.924	4116
926.031	4253
926.138	4207
926.245	4200
926.352	4055
926.459	4230
926.566	4352
926.673	4112
926.779	4120
926.886	4112
926.993	3930
927.099	3956
927.206	3968
927.312	3987
927.419	4040
927.525	4063
927.631	4078
927.737	3960
927.843	4006
927.95	3816
928.056	3949
928.162	3972
928.267	4017
928.373	4580
928.479	4071
928.585	3896
928.69	4021
928.796	4101
928.901	3930
929.007	3827
929.112	4059
929.218	3968
929.323	3915
929.428	3934
929.533	4093
929.638	3934
929.743	3937
929.848	4032
929.953	3994
930.058	3941
930.163	3793
930.267	3793
930.372	3972
930.477	3793
930.581	4120
930.685	3994
930.79	3861
930.894	3865
930.998	3865
931.103	4010
931.207	3717
931.311	3717
931.415	3686
931.519	3530
931.623	3538
