Data from test_V78500241_1581.txt Node
Date: Fri Mar 25 16:59:59 CST 2022
User: usil
Spectrometer: V785-0024
Trigger mode: 0
Integration Time (sec): 4.000000E-1
Scans to average: 1
Nonlinearity correction enabled: false
Boxcar width: 0
Storing dark spectrum: false
XAxis mode: Wavelengths
Number of Pixels in Spectrum: 1024
>>>>>Begin Spectral Data<<<<<
801.071	7989
801.214	7963
801.356	7868
801.499	7868
801.641	7784
801.783	7837
801.926	7932
802.068	7917
802.211	8001
802.353	7970
802.496	7826
802.638	7811
802.78	7898
802.923	7921
803.065	7928
803.208	7890
803.35	7947
803.492	7978
803.635	8103
803.777	7989
803.919	8073
804.061	8450
804.204	8161
804.346	8035
804.488	7921
804.63	8058
804.773	8008
804.915	8115
805.057	8324
805.199	8202
805.341	8202
805.483	8267
805.626	8180
805.768	8138
805.91	8237
806.052	8153
806.194	8084
806.336	8301
806.478	8031
806.62	8073
806.762	8084
806.904	8271
807.046	8492
807.188	8347
807.33	8336
807.472	8256
807.614	8210
807.756	8126
807.898	7967
808.04	7906
808.182	7890
808.324	7902
808.465	7864
808.607	8126
808.749	8115
808.891	8157
809.033	8305
809.174	8286
809.316	8077
809.458	8050
809.6	7955
809.741	8020
809.883	8062
810.025	8077
810.166	8001
810.308	8027
810.45	7955
810.591	7841
810.733	7693
810.875	7666
811.016	7540
811.158	7468
811.299	7567
811.441	7719
811.582	7655
811.724	7563
811.865	7559
812.007	7597
812.148	7582
812.29	7628
812.431	7715
812.573	7887
812.714	8039
812.855	8092
812.997	8202
813.138	8343
813.279	8176
813.421	8054
813.562	7951
813.703	7753
813.845	7689
813.986	7449
814.127	7289
814.268	7187
814.41	7160
814.551	7129
814.692	7187
814.833	7057
814.974	7107
815.115	7095
815.256	7008
815.397	6939
815.539	6913
815.68	6798
815.821	6745
815.962	6913
816.103	6760
816.244	6688
816.385	6616
816.526	6654
816.666	6486
816.807	6296
816.948	6452
817.089	6433
817.23	6441
817.371	6369
817.512	6327
817.653	6357
817.793	6342
817.934	6441
818.075	6498
818.216	6414
818.356	6403
818.497	6224
818.638	6121
818.778	6121
818.919	6125
819.06	6140
819.2	6331
819.341	6327
819.481	6353
819.622	6513
819.762	6741
819.903	6627
820.043	6582
820.184	6578
820.324	6597
820.465	6776
820.605	6707
820.746	6646
820.886	6525
821.026	6654
821.167	6650
821.307	6806
821.447	6772
821.588	6658
821.728	6582
821.868	6502
822.008	6331
822.149	6388
822.289	6376
822.429	6216
822.569	6102
822.709	6190
822.849	5916
822.99	5844
823.13	5942
823.27	5908
823.41	5771
823.55	5752
823.69	5710
823.83	5764
823.97	5611
824.11	5501
824.25	5554
824.389	5528
824.529	5535
824.669	5516
824.809	5630
824.949	5684
825.089	5589
825.228	5532
825.368	5383
825.508	5326
825.648	5326
825.787	5410
825.927	5379
826.067	5250
826.206	5292
826.346	5398
826.485	5334
826.625	5421
826.765	5535
826.904	5551
827.044	5242
827.183	5162
827.323	5075
827.462	5242
827.601	5121
827.741	5159
827.88	5193
828.02	5060
828.159	5193
828.298	5258
828.437	5353
828.577	5273
828.716	5493
828.855	5292
828.994	5136
829.134	5155
829.273	5227
829.412	5124
829.551	5113
829.69	5197
829.829	5220
829.968	5334
830.107	5258
830.246	5303
830.385	5193
830.524	5121
830.663	5052
830.802	4991
830.941	4923
831.08	4889
831.219	4976
831.357	4938
831.496	5147
831.635	4908
831.774	4793
831.913	4847
832.051	4675
832.19	4717
832.329	4870
832.467	4714
832.606	4596
832.744	4752
832.883	4702
833.022	4729
833.16	4763
833.299	4801
833.437	4816
833.576	4831
833.714	4843
833.852	4839
833.991	4850
834.129	4904
834.267	4892
834.406	4877
834.544	4961
834.682	5018
834.821	4984
834.959	5083
835.097	4976
835.235	5132
835.373	5086
835.511	5041
835.65	5064
835.788	4999
835.926	4889
836.064	4862
836.202	4889
836.34	5094
836.478	5212
836.615	5105
836.753	5197
836.891	5296
837.029	5239
837.167	5204
837.305	5178
837.443	5143
837.58	5033
837.718	5220
837.856	5178
837.993	5136
838.131	5212
838.269	5227
838.406	5208
838.544	5147
838.681	5022
838.819	5014
838.956	4862
839.094	4911
839.231	4957
839.369	5105
839.506	5402
839.643	5258
839.781	5060
839.918	4968
840.055	5128
840.193	5006
840.33	5094
840.467	5094
840.604	5162
840.742	5444
840.879	5071
841.016	5086
841.153	5128
841.29	5353
841.427	5299
841.564	5334
841.701	5330
841.838	5315
841.975	5227
842.112	5273
842.249	5132
842.385	5102
842.522	5326
842.659	5178
842.796	5124
842.933	5128
843.069	5132
843.206	5170
843.343	5258
843.479	5220
843.616	5292
843.752	4965
843.889	4999
844.025	5204
844.162	4991
844.298	5185
844.435	5105
844.571	5014
844.708	5227
844.844	5280
844.98	5315
845.117	5277
845.253	5159
845.389	5041
845.525	5208
845.661	5147
845.798	4991
845.934	5121
846.07	4972
846.206	5174
846.342	5273
846.478	5136
846.614	4995
846.75	4949
846.886	4957
847.022	5075
847.158	5003
847.294	5052
847.429	5067
847.565	5025
847.701	5296
847.837	4839
847.972	4801
848.108	4908
848.244	4946
848.379	4767
848.515	4755
848.65	4729
848.786	4755
848.921	4748
849.057	4831
849.192	4900
849.328	4778
849.463	4824
849.598	4812
849.734	4725
849.869	4679
850.004	4653
850.14	4656
850.275	4630
850.41	4500
850.545	4542
850.68	4596
850.815	4588
850.95	4653
851.085	4889
851.22	4729
851.355	4675
851.49	4584
851.625	4656
851.76	4653
851.895	4554
852.03	4569
852.165	4645
852.299	4710
852.434	4790
852.569	4774
852.703	4702
852.838	4870
852.973	4908
853.107	4892
853.242	4710
853.376	4683
853.511	4531
853.645	4599
853.78	4839
853.914	4653
854.048	4653
854.183	4653
854.317	4687
854.451	4812
854.585	4679
854.72	4630
854.854	4717
854.988	4565
855.122	4580
855.256	4531
855.39	4622
855.524	4733
855.658	4721
855.792	4672
855.926	4714
856.06	4721
856.194	4801
856.327	4706
856.461	4546
856.595	4584
856.729	4630
856.862	4733
856.996	4683
857.13	4714
857.263	4771
857.397	4801
857.53	4634
857.664	4733
857.797	4740
857.931	4778
858.064	4656
858.197	4725
858.331	4588
858.464	4626
858.597	4512
858.731	4656
858.864	4668
858.997	4588
859.13	4668
859.263	4653
859.396	4725
859.529	4558
859.662	4546
859.795	4565
859.928	4615
860.061	4744
860.194	4748
860.327	4622
860.46	4588
860.592	4683
860.725	4691
860.858	4691
860.99	4554
861.123	4527
861.256	4565
861.388	4573
861.521	5269
861.653	4455
861.786	4459
861.918	4443
862.05	4546
862.183	4554
862.315	4561
862.447	4634
862.58	4512
862.712	4402
862.844	4314
862.976	4474
863.108	4470
863.24	4820
863.372	4360
863.504	4432
863.636	4367
863.768	4527
863.9	4413
864.032	4348
864.164	4409
864.296	4462
864.428	4531
864.559	4558
864.691	4531
864.823	4481
864.954	4455
865.086	4478
865.217	4459
865.349	4383
865.48	4451
865.612	4474
865.743	4622
865.875	4516
866.006	4421
866.137	4466
866.269	4413
866.4	4459
866.531	4379
866.662	4386
866.793	4402
866.924	4390
867.055	4489
867.186	4504
867.317	4432
867.448	4337
867.579	4363
867.71	4405
867.841	4360
867.972	4432
868.103	4436
868.233	4413
868.364	4443
868.495	4455
868.625	4660
868.756	4736
868.886	4561
869.017	4596
869.147	4744
869.278	4729
869.408	4603
869.539	4618
869.669	4759
869.799	4615
869.929	4759
870.06	4702
870.19	4900
870.32	4938
870.45	4927
870.58	4999
870.71	5086
870.84	5094
870.97	4919
871.1	4866
871.23	5174
871.36	5045
871.489	5006
871.619	5018
871.749	5105
871.879	5090
872.008	5162
872.138	5003
872.267	4999
872.397	4828
872.526	4759
872.656	4725
872.785	4774
872.915	4953
873.044	4999
873.173	4908
873.303	4968
873.432	4930
873.561	4961
873.69	4873
873.819	4854
873.948	4953
874.077	4824
874.206	4702
874.335	4801
874.464	4984
874.593	5113
874.722	4934
874.851	5086
874.979	5010
875.108	5090
875.237	4900
875.365	4839
875.494	4877
875.623	4953
875.751	4805
875.88	4885
876.008	4957
876.136	4999
876.265	5178
876.393	5330
876.521	5242
876.65	5201
876.778	5181
876.906	5025
877.034	4999
877.162	5083
877.29	4934
877.418	4999
877.546	5075
877.674	5090
877.802	5022
877.93	5079
878.058	4870
878.185	4892
878.313	4949
878.441	4957
878.568	4786
878.696	4839
878.824	4980
878.951	4999
879.079	5117
879.206	5315
879.333	5075
879.461	4987
879.588	4980
879.715	5143
879.842	5159
879.97	5014
880.097	4759
880.224	4744
880.351	4820
880.478	4793
880.605	4782
880.732	4755
880.859	5048
880.986	4881
881.112	4847
881.239	4797
881.366	4698
881.493	4653
881.619	4561
881.746	4596
881.872	4611
881.999	4630
882.125	4706
882.252	4755
882.378	4805
882.505	4930
882.631	4782
882.757	4714
882.883	4698
883.01	4687
883.136	4668
883.262	4622
883.388	4577
883.514	4805
883.64	4824
883.766	4774
883.892	4687
884.018	4691
884.143	4892
884.269	5025
884.395	4694
884.52	4626
884.646	4637
884.772	4615
884.897	4535
885.023	4694
885.148	4710
885.274	4839
885.399	4778
885.524	4687
885.65	4668
885.775	4706
885.9	4691
886.025	4831
886.15	4831
886.275	4679
886.4	4691
886.525	4702
886.65	4596
886.775	4675
886.9	4900
887.025	5006
887.149	4812
887.274	4637
887.399	4542
887.523	4596
887.648	4561
887.773	4569
887.897	4797
888.021	4755
888.146	4698
888.27	4805
888.395	4873
888.519	4805
888.643	4824
888.767	4831
888.891	4622
889.015	4630
889.139	4698
889.263	4584
889.387	4748
889.511	4835
889.635	4839
889.759	4672
889.883	4649
890.006	4740
890.13	4847
890.254	4618
890.377	4717
890.501	4504
890.624	4519
890.748	4656
890.871	4535
890.995	4428
891.118	4421
891.241	4497
891.364	4569
891.488	4641
891.611	4474
891.734	4531
891.857	4565
891.98	4573
892.103	4615
892.226	4569
892.349	4516
892.471	4409
892.594	4561
892.717	4538
892.839	4546
892.962	4607
893.085	4679
893.207	4592
893.33	4459
893.452	4481
893.575	4637
893.697	4584
893.819	4759
893.941	4828
894.064	4778
894.186	4622
894.308	4554
894.43	4740
894.552	4782
894.674	4763
894.796	4542
894.918	4588
895.04	4550
895.161	4702
895.283	4649
895.405	4535
895.526	4653
895.648	4687
895.769	4668
895.891	4664
896.012	4755
896.134	4774
896.255	4611
896.376	4618
896.498	4596
896.619	4649
896.74	4588
896.861	4634
896.982	4915
897.103	5075
897.224	4835
897.345	4725
897.466	4694
897.587	4714
897.708	4858
897.828	4752
897.949	4687
898.07	4523
898.19	4611
898.311	4824
898.431	4668
898.552	4714
898.672	4774
898.792	4801
898.913	4755
899.033	4577
899.153	4497
899.273	4405
899.393	4512
899.513	4538
899.633	4546
899.753	4554
899.873	4493
899.993	4565
900.113	4462
900.232	4569
900.352	4550
900.472	4538
900.591	4421
900.711	4481
900.83	4386
900.95	4630
901.069	4668
901.189	4542
901.308	4344
901.427	4310
901.546	4413
901.665	4424
901.784	4504
901.904	4394
902.023	4310
902.141	4166
902.26	4147
902.379	4272
902.498	4200
902.617	4211
902.735	4379
902.854	4394
902.973	4325
903.091	4158
903.21	4211
903.328	4310
903.446	4287
903.565	4246
903.683	4386
903.801	4230
903.919	4363
904.038	4428
904.156	4325
904.274	4405
904.392	4417
904.51	4379
904.627	4455
904.745	4580
904.863	4664
904.981	4428
905.098	4295
905.216	4314
905.334	4432
905.451	4440
905.569	4409
905.686	4519
905.803	4573
905.921	4398
906.038	4546
906.155	4462
906.272	4409
906.389	4440
906.506	4341
906.623	4379
906.74	4360
906.857	4303
906.974	4394
907.091	4573
907.208	4637
907.324	4538
907.441	4440
907.557	4333
907.674	4337
907.79	4329
907.907	4413
908.023	4478
908.139	4443
908.256	4421
908.372	4421
908.488	4432
908.604	4363
908.72	4291
908.836	4360
908.952	4375
909.068	4443
909.184	4558
909.3	4451
909.415	4569
909.531	4558
909.647	4356
909.762	4318
909.878	4344
909.993	4402
910.108	4440
910.224	4394
910.339	4485
910.454	4367
910.57	4341
910.685	4268
910.8	4660
910.915	4622
911.03	4459
911.145	4310
911.259	4284
911.374	4306
911.489	4268
911.604	4299
911.718	4131
911.833	4227
911.947	4112
912.062	4013
912.176	4219
912.291	4219
912.405	4185
912.519	4466
912.633	4478
912.748	4333
912.862	4306
912.976	4162
913.09	4074
913.204	4188
913.318	4306
913.431	4337
913.545	4421
913.659	4417
913.772	4348
913.886	4246
914	4185
914.113	4375
914.226	4462
914.34	4432
914.453	4238
914.566	4424
914.68	4276
914.793	4352
914.906	4158
915.019	4093
915.132	4116
915.245	4147
915.358	4192
915.47	4242
915.583	4276
915.696	4276
915.809	4375
915.921	4394
916.034	4238
916.146	4234
916.259	4261
916.371	4421
916.483	4375
916.595	4246
916.708	4375
916.82	4333
916.932	4303
917.044	4299
917.156	4375
917.268	4230
917.38	4257
917.491	4284
917.603	4310
917.715	4352
917.826	4413
917.938	4314
918.049	4238
918.161	4375
918.272	4535
918.384	4546
918.495	4409
918.606	4310
918.717	4227
918.828	4375
918.939	4371
919.05	4242
919.161	4322
919.272	4143
919.383	4181
919.494	4447
919.604	4649
919.715	4443
919.826	4363
919.936	4386
920.047	4535
920.157	4512
920.267	4729
920.378	4535
920.488	4516
920.598	4683
920.708	4870
920.818	4725
920.928	4736
921.038	4968
921.148	4942
921.258	4596
921.368	4546
921.477	4474
921.587	4428
921.697	4383
921.806	4504
921.916	4447
922.025	4261
922.134	4253
922.244	4215
922.353	4272
922.462	4128
922.571	4120
922.68	3987
922.789	3994
922.898	4029
923.007	4025
923.116	4071
923.224	4105
923.333	4071
923.442	4010
923.55	3987
923.659	4086
923.767	4078
923.876	3979
923.984	4105
924.092	3964
924.201	4021
924.309	4086
924.417	4082
924.525	4082
924.633	4059
924.741	4870
924.849	3915
924.956	4131
925.064	3972
925.172	3915
925.279	3926
925.387	4036
925.494	4021
925.602	4185
925.709	4242
925.816	4010
925.924	4169
926.031	4242
926.138	4162
926.245	4185
926.352	4059
926.459	4253
926.566	4265
926.673	4078
926.779	4082
926.886	4086
926.993	3956
927.099	3953
927.206	3903
927.312	3934
927.419	4048
927.525	3991
927.631	4097
927.737	3949
927.843	3911
927.95	3816
928.056	3956
928.162	3983
928.267	4055
928.373	4573
928.479	4101
928.585	3854
928.69	4044
928.796	4074
928.901	3937
929.007	3857
929.112	4051
929.218	3983
929.323	3937
929.428	3941
929.533	4124
929.638	3926
929.743	3941
929.848	4017
929.953	4010
930.058	3918
930.163	3778
930.267	3793
930.372	3975
930.477	3789
930.581	4082
930.685	3930
930.79	3789
930.894	3888
930.998	3854
931.103	4063
931.207	3709
931.311	3690
931.415	3663
931.519	3477
931.623	3549
