Data from test_V78500241_148.txt Node
Date: Fri Mar 25 16:50:01 CST 2022
User: usil
Spectrometer: V785-0024
Trigger mode: 0
Integration Time (sec): 4.000000E-1
Scans to average: 1
Nonlinearity correction enabled: false
Boxcar width: 0
Storing dark spectrum: false
XAxis mode: Wavelengths
Number of Pixels in Spectrum: 1024
>>>>>Begin Spectral Data<<<<<
801.071	8020
801.214	8039
801.356	7940
801.499	7974
801.641	7811
801.783	7852
801.926	8073
802.068	7955
802.211	7974
802.353	8058
802.496	7864
802.638	7970
802.78	8062
802.923	7982
803.065	7913
803.208	7879
803.35	8016
803.492	8111
803.635	8161
803.777	7955
803.919	8103
804.061	8370
804.204	8145
804.346	8043
804.488	7944
804.63	8058
804.773	8027
804.915	8142
805.057	8233
805.199	8157
805.341	8183
805.483	8271
805.626	8168
805.768	8084
805.91	8142
806.052	8202
806.194	8100
806.336	8301
806.478	8119
806.62	8058
806.762	8138
806.904	8225
807.046	8488
807.188	8343
807.33	8317
807.472	8324
807.614	8126
807.756	8138
807.898	8054
808.04	7959
808.182	7887
808.324	7955
808.465	7913
808.607	8088
808.749	8126
808.891	8176
809.033	8328
809.174	8267
809.316	8069
809.458	8111
809.6	7955
809.741	8069
809.883	8081
810.025	8103
810.166	8218
810.308	8024
810.45	8058
810.591	7909
810.733	7765
810.875	7696
811.016	7552
811.158	7540
811.299	7628
811.441	7792
811.582	7734
811.724	7616
811.865	7586
812.007	7712
812.148	7723
812.29	7727
812.431	7875
812.573	7921
812.714	8088
812.855	8267
812.997	8324
813.138	8370
813.279	8286
813.421	8172
813.562	8081
813.703	7955
813.845	7772
813.986	7506
814.127	7316
814.268	7331
814.41	7266
814.551	7175
814.692	7270
814.833	7137
814.974	7091
815.115	7175
815.256	7038
815.397	7000
815.539	7023
815.68	6863
815.821	6806
815.962	6897
816.103	6837
816.244	6779
816.385	6715
816.526	6669
816.666	6563
816.807	6331
816.948	6506
817.089	6448
817.23	6490
817.371	6384
817.512	6441
817.653	6433
817.793	6403
817.934	6456
818.075	6490
818.216	6429
818.356	6452
818.497	6311
818.638	6201
818.778	6155
818.919	6167
819.06	6159
819.2	6334
819.341	6357
819.481	6414
819.622	6593
819.762	6795
819.903	6734
820.043	6623
820.184	6620
820.324	6620
820.465	6772
820.605	6749
820.746	6654
820.886	6570
821.026	6719
821.167	6730
821.307	6776
821.447	6802
821.588	6700
821.728	6639
821.868	6467
822.008	6331
822.149	6407
822.289	6464
822.429	6175
822.569	6102
822.709	6178
822.849	5958
822.99	5874
823.13	5946
823.27	5958
823.41	5817
823.55	5836
823.69	5779
823.83	5790
823.97	5691
824.11	5562
824.25	5512
824.389	5558
824.529	5585
824.669	5493
824.809	5638
824.949	5707
825.089	5699
825.228	5547
825.368	5406
825.508	5341
825.648	5406
825.787	5395
825.927	5357
826.067	5364
826.206	5277
826.346	5429
826.485	5414
826.625	5444
826.765	5558
826.904	5547
827.044	5246
827.183	5223
827.323	5143
827.462	5322
827.601	5143
827.741	5265
827.88	5231
828.02	5109
828.159	5250
828.298	5315
828.437	5414
828.577	5239
828.716	5490
828.855	5398
828.994	5208
829.134	5220
829.273	5220
829.412	5083
829.551	5151
829.69	5174
829.829	5299
829.968	5410
830.107	5296
830.246	5307
830.385	5258
830.524	5147
830.663	5098
830.802	5010
830.941	4904
831.08	4953
831.219	4995
831.357	5003
831.496	5174
831.635	4995
831.774	4854
831.913	4854
832.051	4763
832.19	4744
832.329	4866
832.467	4710
832.606	4622
832.744	4721
832.883	4733
833.022	4729
833.16	4831
833.299	4790
833.437	4839
833.576	4870
833.714	4831
833.852	4873
833.991	4911
834.129	4961
834.267	4995
834.406	4889
834.544	5006
834.682	4976
834.821	5014
834.959	5193
835.097	5041
835.235	5189
835.373	5086
835.511	5166
835.65	5064
835.788	5018
835.926	4930
836.064	4923
836.202	4972
836.34	5162
836.478	5277
836.615	5201
836.753	5239
836.891	5288
837.029	5311
837.167	5181
837.305	5208
837.443	5151
837.58	5121
837.718	5265
837.856	5261
837.993	5105
838.131	5265
838.269	5330
838.406	5223
838.544	5170
838.681	5090
838.819	5003
838.956	4938
839.094	4911
839.231	4984
839.369	5094
839.506	5463
839.643	5284
839.781	5094
839.918	5041
840.055	5128
840.193	5147
840.33	5143
840.467	5140
840.604	5235
840.742	5467
840.879	5037
841.016	5109
841.153	5140
841.29	5425
841.427	5341
841.564	5311
841.701	5360
841.838	5292
841.975	5223
842.112	5204
842.249	5147
842.385	5132
842.522	5288
842.659	5239
842.796	5143
842.933	5242
843.069	5181
843.206	5124
843.343	5360
843.479	5277
843.616	5311
843.752	5048
843.889	5029
844.025	5261
844.162	5018
844.298	5216
844.435	5094
844.571	5041
844.708	5239
844.844	5326
844.98	5349
845.117	5296
845.253	5143
845.389	5124
845.525	5147
845.661	5147
845.798	5102
845.934	5162
846.07	5037
846.206	5227
846.342	5265
846.478	5250
846.614	5056
846.75	4957
846.886	5033
847.022	5174
847.158	5022
847.294	5102
847.429	5174
847.565	5079
847.701	5303
847.837	4870
847.972	4847
848.108	4984
848.244	4946
848.379	4824
848.515	4748
848.65	4733
848.786	4771
848.921	4801
849.057	4892
849.192	4881
849.328	4820
849.463	4850
849.598	4767
849.734	4755
849.869	4733
850.004	4637
850.14	4656
850.275	4668
850.41	4493
850.545	4573
850.68	4603
850.815	4645
850.95	4618
851.085	4881
851.22	4793
851.355	4702
851.49	4645
851.625	4630
851.76	4691
851.895	4531
852.03	4550
852.165	4641
852.299	4748
852.434	4854
852.569	4710
852.703	4824
852.838	4866
852.973	4968
853.107	4972
853.242	4786
853.376	4672
853.511	4611
853.645	4630
853.78	4831
853.914	4668
854.048	4641
854.183	4653
854.317	4706
854.451	4801
854.585	4748
854.72	4618
854.854	4774
854.988	4630
855.122	4668
855.256	4497
855.39	4725
855.524	4809
855.658	4725
855.792	4725
855.926	4740
856.06	4725
856.194	4793
856.327	4752
856.461	4641
856.595	4615
856.729	4637
856.862	4771
856.996	4702
857.13	4714
857.263	4820
857.397	4801
857.53	4637
857.664	4755
857.797	4862
857.931	4809
858.064	4714
858.197	4786
858.331	4694
858.464	4592
858.597	4588
858.731	4615
858.864	4641
858.997	4607
859.13	4698
859.263	4679
859.396	4733
859.529	4599
859.662	4588
859.795	4565
859.928	4683
860.061	4774
860.194	4752
860.327	4630
860.46	4558
860.592	4736
860.725	4702
860.858	4748
860.99	4653
861.123	4527
861.256	4538
861.388	4588
861.521	5429
861.653	4531
861.786	4519
861.918	4485
862.05	4554
862.183	4577
862.315	4649
862.447	4675
862.58	4542
862.712	4394
862.844	4329
862.976	4497
863.108	4508
863.24	4892
863.372	4386
863.504	4459
863.636	4390
863.768	4500
863.9	4455
864.032	4383
864.164	4405
864.296	4504
864.428	4546
864.559	4561
864.691	4504
864.823	4569
864.954	4558
865.086	4527
865.217	4466
865.349	4428
865.48	4470
865.612	4504
865.743	4618
865.875	4432
866.006	4447
866.137	4481
866.269	4493
866.4	4428
866.531	4409
866.662	4432
866.793	4436
866.924	4489
867.055	4489
867.186	4493
867.317	4451
867.448	4402
867.579	4421
867.71	4402
867.841	4383
867.972	4527
868.103	4481
868.233	4462
868.364	4489
868.495	4481
868.625	4721
868.756	4752
868.886	4626
869.017	4664
869.147	4763
869.278	4767
869.408	4672
869.539	4668
869.669	4736
869.799	4649
869.929	4714
870.06	4759
870.19	4946
870.32	4953
870.45	4949
870.58	5071
870.71	5090
870.84	5109
870.97	4995
871.1	4889
871.23	5166
871.36	5113
871.489	5018
871.619	5048
871.749	5098
871.879	5132
872.008	5220
872.138	5075
872.267	5003
872.397	4858
872.526	4820
872.656	4744
872.785	4767
872.915	4984
873.044	5014
873.173	4911
873.303	4999
873.432	4946
873.561	4900
873.69	4900
873.819	4873
873.948	4938
874.077	4805
874.206	4782
874.335	4835
874.464	4930
874.593	5071
874.722	4984
874.851	5128
874.979	5086
875.108	5037
875.237	4927
875.365	4923
875.494	4949
875.623	5010
875.751	4828
875.88	4889
876.008	4957
876.136	5083
876.265	5254
876.393	5383
876.521	5250
876.65	5227
876.778	5143
876.906	5022
877.034	5003
877.162	5056
877.29	5003
877.418	5052
877.546	5056
877.674	5067
877.802	5029
877.93	5056
878.058	4987
878.185	4862
878.313	5014
878.441	4972
878.568	4763
878.696	4892
878.824	4995
878.951	4991
879.079	5143
879.206	5284
879.333	5136
879.461	5006
879.588	4984
879.715	5113
879.842	5231
879.97	5033
880.097	4866
880.224	4755
880.351	4797
880.478	4797
880.605	4816
880.732	4782
880.859	5094
880.986	4881
881.112	4972
881.239	4831
881.366	4706
881.493	4660
881.619	4577
881.746	4660
881.872	4645
881.999	4694
882.125	4702
882.252	4771
882.378	4835
882.505	4953
882.631	4824
882.757	4641
882.883	4748
883.01	4759
883.136	4637
883.262	4641
883.388	4653
883.514	4793
883.64	4847
883.766	4767
883.892	4679
884.018	4725
884.143	4904
884.269	5018
884.395	4683
884.52	4656
884.646	4679
884.772	4565
884.897	4637
885.023	4702
885.148	4828
885.274	4908
885.399	4812
885.524	4748
885.65	4660
885.775	4774
885.9	4714
886.025	4885
886.15	4801
886.275	4687
886.4	4702
886.525	4767
886.65	4679
886.775	4733
886.9	4889
887.025	5102
887.149	4801
887.274	4672
887.399	4580
887.523	4584
887.648	4615
887.773	4622
887.897	4771
888.021	4809
888.146	4725
888.27	4831
888.395	4904
888.519	4816
888.643	4809
888.767	4877
888.891	4729
889.015	4630
889.139	4618
889.263	4634
889.387	4740
889.511	4889
889.635	4850
889.759	4626
889.883	4672
890.006	4782
890.13	4858
890.254	4618
890.377	4653
890.501	4546
890.624	4558
890.748	4675
890.871	4519
890.995	4459
891.118	4386
891.241	4512
891.364	4573
891.488	4645
891.611	4516
891.734	4554
891.857	4622
891.98	4596
892.103	4653
892.226	4634
892.349	4531
892.471	4440
892.594	4580
892.717	4611
892.839	4538
892.962	4641
893.085	4694
893.207	4611
893.33	4500
893.452	4516
893.575	4679
893.697	4577
893.819	4831
893.941	4854
894.064	4778
894.186	4622
894.308	4596
894.43	4736
894.552	4850
894.674	4778
894.796	4554
894.918	4596
895.04	4599
895.161	4725
895.283	4668
895.405	4653
895.526	4672
895.648	4675
895.769	4721
895.891	4740
896.012	4752
896.134	4725
896.255	4691
896.376	4645
896.498	4649
896.619	4717
896.74	4622
896.861	4679
896.982	4915
897.103	5071
897.224	4862
897.345	4752
897.466	4679
897.587	4744
897.708	4862
897.828	4797
897.949	4702
898.07	4588
898.19	4637
898.311	4881
898.431	4710
898.552	4721
898.672	4889
898.792	4793
898.913	4816
899.033	4588
899.153	4516
899.273	4421
899.393	4478
899.513	4523
899.633	4508
899.753	4554
899.873	4558
899.993	4622
900.113	4531
900.232	4607
900.352	4558
900.472	4531
900.591	4417
900.711	4554
900.83	4474
900.95	4630
901.069	4740
901.189	4538
901.308	4405
901.427	4352
901.546	4394
901.665	4523
901.784	4558
901.904	4390
902.023	4337
902.141	4261
902.26	4192
902.379	4329
902.498	4246
902.617	4242
902.735	4379
902.854	4432
902.973	4383
903.091	4265
903.21	4268
903.328	4325
903.446	4284
903.565	4284
903.683	4341
903.801	4333
903.919	4398
904.038	4440
904.156	4341
904.274	4485
904.392	4409
904.51	4478
904.627	4535
904.745	4596
904.863	4672
904.981	4409
905.098	4284
905.216	4417
905.334	4383
905.451	4421
905.569	4508
905.686	4558
905.803	4546
905.921	4436
906.038	4554
906.155	4558
906.272	4409
906.389	4462
906.506	4344
906.623	4379
906.74	4432
906.857	4337
906.974	4405
907.091	4519
907.208	4672
907.324	4630
907.441	4500
907.557	4322
907.674	4333
907.79	4325
907.907	4428
908.023	4451
908.139	4500
908.256	4428
908.372	4485
908.488	4451
908.604	4344
908.72	4356
908.836	4409
908.952	4417
909.068	4481
909.184	4577
909.3	4428
909.415	4573
909.531	4508
909.647	4344
909.762	4333
909.878	4367
909.993	4470
910.108	4379
910.224	4428
910.339	4459
910.454	4424
910.57	4318
910.685	4314
910.8	4691
910.915	4596
911.03	4508
911.145	4344
911.259	4379
911.374	4363
911.489	4299
911.604	4348
911.718	4185
911.833	4207
911.947	4093
912.062	4074
912.176	4211
912.291	4249
912.405	4257
912.519	4466
912.633	4535
912.748	4398
912.862	4337
912.976	4268
913.09	4112
913.204	4200
913.318	4284
913.431	4390
913.545	4329
913.659	4440
913.772	4390
913.886	4219
914	4246
914.113	4405
914.226	4478
914.34	4386
914.453	4238
914.566	4451
914.68	4398
914.793	4303
914.906	4196
915.019	4101
915.132	4082
915.245	4192
915.358	4215
915.47	4253
915.583	4272
915.696	4333
915.809	4417
915.921	4428
916.034	4284
916.146	4314
916.259	4242
916.371	4405
916.483	4337
916.595	4268
916.708	4303
916.82	4329
916.932	4329
917.044	4333
917.156	4329
917.268	4196
917.38	4272
917.491	4295
917.603	4333
917.715	4383
917.826	4481
917.938	4371
918.049	4253
918.161	4428
918.272	4577
918.384	4554
918.495	4466
918.606	4318
918.717	4246
918.828	4325
918.939	4455
919.05	4257
919.161	4352
919.272	4181
919.383	4242
919.494	4428
919.604	4641
919.715	4432
919.826	4398
919.936	4424
920.047	4523
920.157	4546
920.267	4687
920.378	4558
920.488	4508
920.598	4717
920.708	4889
920.818	4714
920.928	4805
921.038	4927
921.148	4984
921.258	4626
921.368	4558
921.477	4523
921.587	4451
921.697	4363
921.806	4580
921.916	4440
922.025	4249
922.134	4257
922.244	4249
922.353	4348
922.462	4200
922.571	4139
922.68	4021
922.789	4002
922.898	4036
923.007	4021
923.116	4116
923.224	4093
923.333	4025
923.442	4044
923.55	4036
923.659	4025
923.767	4097
923.876	3994
923.984	4116
924.092	4002
924.201	4097
924.309	4074
924.417	4135
924.525	4090
924.633	4116
924.741	4881
924.849	3922
924.956	4188
925.064	3964
925.172	3953
925.279	3956
925.387	4040
925.494	4090
925.602	4192
925.709	4169
925.816	4067
925.924	4135
926.031	4215
926.138	4188
926.245	4227
926.352	4120
926.459	4272
926.566	4314
926.673	4200
926.779	4055
926.886	4074
926.993	4021
927.099	3979
927.206	4006
927.312	3941
927.419	4097
927.525	4029
927.631	4116
927.737	3991
927.843	3953
927.95	3842
928.056	3972
928.162	4013
928.267	4055
928.373	4717
928.479	4112
928.585	3911
928.69	4048
928.796	4097
928.901	3896
929.007	3869
929.112	4036
929.218	4002
929.323	3972
929.428	3991
929.533	4128
929.638	3937
929.743	3956
929.848	4116
929.953	3968
930.058	3968
930.163	3800
930.267	3819
930.372	4006
930.477	3816
930.581	4109
930.685	3968
930.79	3812
930.894	3896
930.998	3892
931.103	4051
931.207	3751
931.311	3709
931.415	3690
931.519	3545
931.623	3553
