Data from test_V78500241_1604.txt Node
Date: Fri Mar 25 17:00:09 CST 2022
User: usil
Spectrometer: V785-0024
Trigger mode: 0
Integration Time (sec): 4.000000E-1
Scans to average: 1
Nonlinearity correction enabled: false
Boxcar width: 0
Storing dark spectrum: false
XAxis mode: Wavelengths
Number of Pixels in Spectrum: 1024
>>>>>Begin Spectral Data<<<<<
801.071	8001
801.214	7947
801.356	7788
801.499	7830
801.641	7734
801.783	7811
801.926	7909
802.068	7936
802.211	7936
802.353	7932
802.496	7822
802.638	7822
802.78	7837
802.923	7917
803.065	7814
803.208	7856
803.35	7959
803.492	8046
803.635	8115
803.777	7925
803.919	8081
804.061	8385
804.204	8172
804.346	8069
804.488	7963
804.63	8115
804.773	8043
804.915	8073
805.057	8305
805.199	8130
805.341	8218
805.483	8256
805.626	8199
805.768	8062
805.91	8172
806.052	8172
806.194	8183
806.336	8229
806.478	8065
806.62	8027
806.762	8103
806.904	8240
807.046	8438
807.188	8343
807.33	8381
807.472	8324
807.614	8161
807.756	8149
807.898	7982
808.04	7875
808.182	7871
808.324	7845
808.465	7879
808.607	8073
808.749	8035
808.891	8138
809.033	8240
809.174	8210
809.316	7982
809.458	8073
809.6	8005
809.741	8027
809.883	8065
810.025	8054
810.166	8054
810.308	7993
810.45	7928
810.591	7845
810.733	7780
810.875	7624
811.016	7495
811.158	7476
811.299	7540
811.441	7655
811.582	7662
811.724	7552
811.865	7525
812.007	7632
812.148	7616
812.29	7613
812.431	7689
812.573	7837
812.714	7841
812.855	8084
812.997	8202
813.138	8286
813.279	8130
813.421	8111
813.562	7864
813.703	7871
813.845	7715
813.986	7411
814.127	7190
814.268	7198
814.41	7179
814.551	7149
814.692	7225
814.833	7088
814.974	7065
815.115	7065
815.256	6951
815.397	6924
815.539	6909
815.68	6859
815.821	6741
815.962	6825
816.103	6802
816.244	6749
816.385	6559
816.526	6608
816.666	6467
816.807	6254
816.948	6467
817.089	6506
817.23	6357
817.371	6388
817.512	6410
817.653	6380
817.793	6315
817.934	6384
818.075	6452
818.216	6471
818.356	6384
818.497	6251
818.638	6178
818.778	6095
818.919	6144
819.06	6247
819.2	6346
819.341	6338
819.481	6338
819.622	6525
819.762	6681
819.903	6639
820.043	6612
820.184	6563
820.324	6593
820.465	6703
820.605	6696
820.746	6627
820.886	6540
821.026	6623
821.167	6662
821.307	6882
821.447	6703
821.588	6692
821.728	6612
821.868	6467
822.008	6319
822.149	6369
822.289	6346
822.429	6083
822.569	6064
822.709	6117
822.849	5904
822.99	5904
823.13	5851
823.27	5939
823.41	5802
823.55	5737
823.69	5760
823.83	5779
823.97	5615
824.11	5547
824.25	5535
824.389	5516
824.529	5570
824.669	5535
824.809	5589
824.949	5630
825.089	5649
825.228	5554
825.368	5353
825.508	5330
825.648	5326
825.787	5391
825.927	5315
826.067	5250
826.206	5273
826.346	5353
826.485	5402
826.625	5376
826.765	5539
826.904	5478
827.044	5208
827.183	5204
827.323	5113
827.462	5193
827.601	5159
827.741	5140
827.88	5201
828.02	5155
828.159	5246
828.298	5284
828.437	5376
828.577	5296
828.716	5520
828.855	5299
828.994	5143
829.134	5132
829.273	5189
829.412	5166
829.551	5147
829.69	5166
829.829	5239
829.968	5368
830.107	5239
830.246	5223
830.385	5151
830.524	5094
830.663	5117
830.802	4930
830.941	4877
831.08	4870
831.219	4938
831.357	4972
831.496	5147
831.635	4968
831.774	4835
831.913	4835
832.051	4694
832.19	4729
832.329	4839
832.467	4668
832.606	4630
832.744	4672
832.883	4714
833.022	4687
833.16	4763
833.299	4774
833.437	4850
833.576	4812
833.714	4839
833.852	4854
833.991	4900
834.129	4946
834.267	4949
834.406	4889
834.544	4991
834.682	4987
834.821	4953
834.959	5143
835.097	4915
835.235	5155
835.373	5083
835.511	5071
835.65	4984
835.788	4991
835.926	4919
836.064	4877
836.202	4900
836.34	5181
836.478	5197
836.615	5147
836.753	5216
836.891	5284
837.029	5223
837.167	5189
837.305	5197
837.443	5124
837.58	5075
837.718	5254
837.856	5166
837.993	5124
838.131	5250
838.269	5212
838.406	5189
838.544	5155
838.681	4968
838.819	4984
838.956	4885
839.094	4892
839.231	4946
839.369	5060
839.506	5433
839.643	5216
839.781	5045
839.918	5014
840.055	5018
840.193	5086
840.33	5121
840.467	5151
840.604	5197
840.742	5410
840.879	5121
841.016	5094
841.153	5102
841.29	5292
841.427	5288
841.564	5315
841.701	5318
841.838	5254
841.975	5223
842.112	5261
842.249	5109
842.385	5162
842.522	5265
842.659	5166
842.796	5159
842.933	5242
843.069	5136
843.206	5140
843.343	5296
843.479	5227
843.616	5216
843.752	5037
843.889	4999
844.025	5212
844.162	4957
844.298	5235
844.435	5029
844.571	5079
844.708	5170
844.844	5250
844.98	5296
845.117	5288
845.253	5090
845.389	5052
845.525	5124
845.661	5117
845.798	5014
845.934	5048
846.07	5045
846.206	5181
846.342	5303
846.478	5128
846.614	5033
846.75	5018
846.886	4892
847.022	5170
847.158	5010
847.294	5041
847.429	5086
847.565	5025
847.701	5322
847.837	4862
847.972	4793
848.108	4896
848.244	4938
848.379	4816
848.515	4691
848.65	4714
848.786	4782
848.921	4763
849.057	4847
849.192	4862
849.328	4778
849.463	4915
849.598	4759
849.734	4793
849.869	4729
850.004	4580
850.14	4630
850.275	4603
850.41	4519
850.545	4569
850.68	4603
850.815	4630
850.95	4622
851.085	4862
851.22	4774
851.355	4710
851.49	4656
851.625	4637
851.76	4672
851.895	4538
852.03	4550
852.165	4618
852.299	4710
852.434	4793
852.569	4687
852.703	4812
852.838	4820
852.973	4877
853.107	4850
853.242	4736
853.376	4637
853.511	4584
853.645	4580
853.78	4801
853.914	4694
854.048	4679
854.183	4626
854.317	4698
854.451	4839
854.585	4672
854.72	4660
854.854	4706
854.988	4550
855.122	4641
855.256	4558
855.39	4634
855.524	4752
855.658	4721
855.792	4660
855.926	4698
856.06	4748
856.194	4767
856.327	4672
856.461	4611
856.595	4637
856.729	4580
856.862	4778
856.996	4687
857.13	4736
857.263	4748
857.397	4824
857.53	4660
857.664	4687
857.797	4759
857.931	4797
858.064	4710
858.197	4752
858.331	4607
858.464	4558
858.597	4516
858.731	4603
858.864	4622
858.997	4618
859.13	4691
859.263	4645
859.396	4702
859.529	4588
859.662	4523
859.795	4546
859.928	4630
860.061	4744
860.194	4797
860.327	4607
860.46	4577
860.592	4721
860.725	4679
860.858	4687
860.99	4569
861.123	4504
861.256	4546
861.388	4588
861.521	5170
861.653	4500
861.786	4371
861.918	4405
862.05	4417
862.183	4519
862.315	4519
862.447	4618
862.58	4508
862.712	4409
862.844	4341
862.976	4451
863.108	4455
863.24	4729
863.372	4314
863.504	4394
863.636	4394
863.768	4493
863.9	4424
864.032	4348
864.164	4421
864.296	4447
864.428	4523
864.559	4558
864.691	4485
864.823	4504
864.954	4504
865.086	4470
865.217	4447
865.349	4436
865.48	4447
865.612	4462
865.743	4664
865.875	4417
866.006	4390
866.137	4478
866.269	4394
866.4	4413
866.531	4398
866.662	4405
866.793	4383
866.924	4394
867.055	4478
867.186	4516
867.317	4417
867.448	4352
867.579	4440
867.71	4371
867.841	4371
867.972	4489
868.103	4447
868.233	4474
868.364	4451
868.495	4493
868.625	4660
868.756	4763
868.886	4565
869.017	4653
869.147	4820
869.278	4748
869.408	4668
869.539	4596
869.669	4717
869.799	4679
869.929	4702
870.06	4759
870.19	4987
870.32	4934
870.45	4976
870.58	5048
870.71	5132
870.84	5136
870.97	4957
871.1	4965
871.23	5140
871.36	5124
871.489	5102
871.619	5071
871.749	5124
871.879	5094
872.008	5216
872.138	5090
872.267	4995
872.397	4858
872.526	4866
872.656	4752
872.785	4858
872.915	4987
873.044	5064
873.173	5025
873.303	5060
873.432	5010
873.561	4942
873.69	4870
873.819	4873
873.948	4976
874.077	4850
874.206	4793
874.335	4828
874.464	4976
874.593	5121
874.722	4923
874.851	5075
874.979	5083
875.108	5029
875.237	4984
875.365	4900
875.494	5014
875.623	4980
875.751	4873
875.88	4919
876.008	5003
876.136	5064
876.265	5220
876.393	5311
876.521	5296
876.65	5189
876.778	5235
876.906	5098
877.034	5010
877.162	5086
877.29	5037
877.418	5105
877.546	5045
877.674	5033
877.802	5079
877.93	5086
878.058	4987
878.185	4919
878.313	5037
878.441	4965
878.568	4809
878.696	4862
878.824	4976
878.951	5071
879.079	5147
879.206	5299
879.333	5124
879.461	5075
879.588	4980
879.715	5124
879.842	5242
879.97	5052
880.097	4843
880.224	4797
880.351	4854
880.478	4835
880.605	4816
880.732	4805
880.859	5151
880.986	4930
881.112	4949
881.239	4843
881.366	4763
881.493	4645
881.619	4592
881.746	4664
881.872	4683
881.999	4675
882.125	4687
882.252	4847
882.378	4877
882.505	4938
882.631	4820
882.757	4683
882.883	4733
883.01	4740
883.136	4683
883.262	4641
883.388	4622
883.514	4858
883.64	4870
883.766	4862
883.892	4706
884.018	4786
884.143	4923
884.269	5060
884.395	4725
884.52	4634
884.646	4740
884.772	4603
884.897	4546
885.023	4710
885.148	4816
885.274	4908
885.399	4831
885.524	4771
885.65	4687
885.775	4774
885.9	4744
886.025	4889
886.15	4793
886.275	4736
886.4	4668
886.525	4752
886.65	4744
886.775	4717
886.9	4930
887.025	5041
887.149	4809
887.274	4702
887.399	4554
887.523	4592
887.648	4561
887.773	4641
887.897	4778
888.021	4790
888.146	4736
888.27	4850
888.395	4938
888.519	4816
888.643	4858
888.767	4858
888.891	4706
889.015	4588
889.139	4691
889.263	4607
889.387	4790
889.511	4858
889.635	4809
889.759	4653
889.883	4653
890.006	4771
890.13	4892
890.254	4584
890.377	4653
890.501	4592
890.624	4584
890.748	4675
890.871	4497
890.995	4436
891.118	4447
891.241	4550
891.364	4626
891.488	4702
891.611	4569
891.734	4592
891.857	4607
891.98	4637
892.103	4710
892.226	4611
892.349	4577
892.471	4500
892.594	4580
892.717	4573
892.839	4618
892.962	4634
893.085	4672
893.207	4630
893.33	4478
893.452	4550
893.575	4736
893.697	4615
893.819	4816
893.941	4877
894.064	4744
894.186	4565
894.308	4622
894.43	4721
894.552	4866
894.674	4790
894.796	4573
894.918	4596
895.04	4592
895.161	4744
895.283	4710
895.405	4573
895.526	4645
895.648	4740
895.769	4691
895.891	4729
896.012	4752
896.134	4729
896.255	4714
896.376	4687
896.498	4645
896.619	4748
896.74	4607
896.861	4687
896.982	4957
897.103	5102
897.224	4847
897.345	4759
897.466	4683
897.587	4759
897.708	4881
897.828	4809
897.949	4675
898.07	4596
898.19	4675
898.311	4858
898.431	4653
898.552	4736
898.672	4839
898.792	4839
898.913	4759
899.033	4672
899.153	4519
899.273	4432
899.393	4546
899.513	4580
899.633	4531
899.753	4565
899.873	4497
899.993	4580
900.113	4577
900.232	4596
900.352	4592
900.472	4538
900.591	4405
900.711	4500
900.83	4466
900.95	4634
901.069	4725
901.189	4550
901.308	4329
901.427	4333
901.546	4402
901.665	4523
901.784	4531
901.904	4424
902.023	4306
902.141	4280
902.26	4173
902.379	4344
902.498	4280
902.617	4253
902.735	4428
902.854	4386
902.973	4367
903.091	4219
903.21	4249
903.328	4310
903.446	4280
903.565	4268
903.683	4390
903.801	4352
903.919	4447
904.038	4432
904.156	4333
904.274	4447
904.392	4409
904.51	4413
904.627	4493
904.745	4584
904.863	4672
904.981	4409
905.098	4322
905.216	4398
905.334	4436
905.451	4466
905.569	4451
905.686	4558
905.803	4554
905.921	4470
906.038	4561
906.155	4512
906.272	4379
906.389	4500
906.506	4386
906.623	4398
906.74	4379
906.857	4299
906.974	4421
907.091	4565
907.208	4675
907.324	4618
907.441	4516
907.557	4322
907.674	4424
907.79	4348
907.907	4402
908.023	4508
908.139	4497
908.256	4451
908.372	4481
908.488	4504
908.604	4344
908.72	4348
908.836	4390
908.952	4409
909.068	4440
909.184	4603
909.3	4432
909.415	4580
909.531	4618
909.647	4371
909.762	4402
909.878	4299
909.993	4497
910.108	4405
910.224	4405
910.339	4481
910.454	4459
910.57	4356
910.685	4402
910.8	4660
910.915	4611
911.03	4508
911.145	4329
911.259	4371
911.374	4402
911.489	4344
911.604	4333
911.718	4242
911.833	4181
911.947	4116
912.062	4044
912.176	4204
912.291	4284
912.405	4291
912.519	4519
912.633	4516
912.748	4371
912.862	4344
912.976	4265
913.09	4082
913.204	4173
913.318	4265
913.431	4379
913.545	4371
913.659	4455
913.772	4356
913.886	4280
914	4219
914.113	4363
914.226	4493
914.34	4443
914.453	4272
914.566	4451
914.68	4325
914.793	4356
914.906	4227
915.019	4162
915.132	4120
915.245	4177
915.358	4238
915.47	4295
915.583	4287
915.696	4299
915.809	4421
915.921	4443
916.034	4253
916.146	4227
916.259	4291
916.371	4432
916.483	4356
916.595	4268
916.708	4375
916.82	4360
916.932	4333
917.044	4295
917.156	4318
917.268	4268
917.38	4303
917.491	4303
917.603	4371
917.715	4409
917.826	4470
917.938	4383
918.049	4230
918.161	4413
918.272	4550
918.384	4573
918.495	4527
918.606	4295
918.717	4280
918.828	4318
918.939	4352
919.05	4234
919.161	4367
919.272	4150
919.383	4234
919.494	4455
919.604	4656
919.715	4428
919.826	4344
919.936	4402
920.047	4527
920.157	4508
920.267	4710
920.378	4599
920.488	4542
920.598	4717
920.708	4923
920.818	4725
920.928	4793
921.038	4987
921.148	4870
921.258	4649
921.368	4588
921.477	4512
921.587	4508
921.697	4386
921.806	4615
921.916	4436
922.025	4265
922.134	4287
922.244	4215
922.353	4322
922.462	4215
922.571	4128
922.68	4025
922.789	3960
922.898	4059
923.007	3991
923.116	4101
923.224	4074
923.333	4078
923.442	4010
923.55	3964
923.659	4029
923.767	4101
923.876	4021
923.984	4181
924.092	3983
924.201	4097
924.309	4093
924.417	4124
924.525	4074
924.633	4112
924.741	4908
924.849	3937
924.956	4158
925.064	3983
925.172	3896
925.279	3998
925.387	4071
925.494	4002
925.602	4230
925.709	4181
925.816	4105
925.924	4188
926.031	4253
926.138	4143
926.245	4249
926.352	4097
926.459	4234
926.566	4329
926.673	4150
926.779	4082
926.886	4124
926.993	3956
927.099	3941
927.206	3972
927.312	3953
927.419	4078
927.525	4067
927.631	4055
927.737	3994
927.843	3960
927.95	3861
928.056	3949
928.162	4013
928.267	4055
928.373	4561
928.479	4101
928.585	3899
928.69	4032
928.796	4097
928.901	4029
929.007	3812
929.112	4017
929.218	4021
929.323	3934
929.428	3968
929.533	4143
929.638	3907
929.743	4010
929.848	4017
929.953	4002
930.058	3918
930.163	3785
930.267	3819
930.372	3972
930.477	3846
930.581	4093
930.685	3949
930.79	3854
930.894	3903
930.998	3869
931.103	4055
931.207	3701
931.311	3652
931.415	3667
931.519	3492
931.623	3515
