Data from test_V78500241_2566.txt Node
Date: Fri Mar 25 17:06:50 CST 2022
User: usil
Spectrometer: V785-0024
Trigger mode: 0
Integration Time (sec): 4.000000E-1
Scans to average: 1
Nonlinearity correction enabled: false
Boxcar width: 0
Storing dark spectrum: false
XAxis mode: Wavelengths
Number of Pixels in Spectrum: 1024
>>>>>Begin Spectral Data<<<<<
801.071	8012
801.214	7993
801.356	7913
801.499	7807
801.641	7769
801.783	7830
801.926	7955
802.068	7913
802.211	8008
802.353	7940
802.496	7826
802.638	7875
802.78	7868
802.923	7898
803.065	7811
803.208	7871
803.35	7940
803.492	8119
803.635	8180
803.777	8054
803.919	8164
804.061	8431
804.204	8153
804.346	7925
804.488	7955
804.63	8142
804.773	7986
804.915	8069
805.057	8347
805.199	8096
805.341	8195
805.483	8267
805.626	8206
805.768	8161
805.91	8195
806.052	8115
806.194	8111
806.336	8267
806.478	8103
806.62	8027
806.762	8077
806.904	8218
807.046	8381
807.188	8389
807.33	8252
807.472	8290
807.614	8153
807.756	8164
807.898	7989
808.04	7807
808.182	7830
808.324	7845
808.465	7826
808.607	8107
808.749	8096
808.891	8221
809.033	8320
809.174	8202
809.316	8043
809.458	8103
809.6	8001
809.741	8077
809.883	8039
810.025	8077
810.166	8069
810.308	8008
810.45	7951
810.591	7845
810.733	7689
810.875	7681
811.016	7533
811.158	7487
811.299	7582
811.441	7719
811.582	7655
811.724	7533
811.865	7514
812.007	7601
812.148	7601
812.29	7594
812.431	7689
812.573	7830
812.714	7917
812.855	8115
812.997	8176
813.138	8309
813.279	8161
813.421	8031
813.562	8043
813.703	7811
813.845	7689
813.986	7438
814.127	7240
814.268	7187
814.41	7198
814.551	7110
814.692	7183
814.833	7095
814.974	7072
815.115	7110
815.256	6966
815.397	6928
815.539	6973
815.68	6779
815.821	6814
815.962	6840
816.103	6844
816.244	6696
816.385	6654
816.526	6616
816.666	6494
816.807	6277
816.948	6418
817.089	6513
817.23	6433
817.371	6407
817.512	6369
817.653	6369
817.793	6334
817.934	6391
818.075	6403
818.216	6414
818.356	6369
818.497	6266
818.638	6133
818.778	6178
818.919	6133
819.06	6091
819.2	6323
819.341	6342
819.481	6445
819.622	6536
819.762	6726
819.903	6734
820.043	6662
820.184	6631
820.324	6642
820.465	6677
820.605	6692
820.746	6650
820.886	6551
821.026	6715
821.167	6779
821.307	6871
821.447	6779
821.588	6669
821.728	6593
821.868	6566
822.008	6311
822.149	6353
822.289	6350
822.429	6148
822.569	6159
822.709	6133
822.849	5999
822.99	5935
823.13	5870
823.27	5980
823.41	5802
823.55	5798
823.69	5756
823.83	5741
823.97	5707
824.11	5532
824.25	5493
824.389	5505
824.529	5573
824.669	5512
824.809	5619
824.949	5661
825.089	5627
825.228	5532
825.368	5440
825.508	5337
825.648	5326
825.787	5341
825.927	5406
826.067	5292
826.206	5284
826.346	5379
826.485	5372
826.625	5444
826.765	5543
826.904	5497
827.044	5250
827.183	5170
827.323	5147
827.462	5273
827.601	5174
827.741	5193
827.88	5181
828.02	5094
828.159	5288
828.298	5280
828.437	5349
828.577	5299
828.716	5474
828.855	5315
828.994	5181
829.134	5128
829.273	5181
829.412	5162
829.551	5121
829.69	5178
829.829	5242
829.968	5353
830.107	5239
830.246	5288
830.385	5201
830.524	5151
830.663	5033
830.802	4976
830.941	4858
831.08	4885
831.219	4972
831.357	4991
831.496	5132
831.635	4968
831.774	4873
831.913	4889
832.051	4702
832.19	4759
832.329	4805
832.467	4637
832.606	4603
832.744	4725
832.883	4687
833.022	4729
833.16	4782
833.299	4839
833.437	4847
833.576	4858
833.714	4824
833.852	4843
833.991	4896
834.129	4873
834.267	4904
834.406	4892
834.544	4957
834.682	4942
834.821	4927
834.959	5147
835.097	4995
835.235	5151
835.373	5094
835.511	5113
835.65	5052
835.788	5056
835.926	4858
836.064	4881
836.202	4892
836.34	5185
836.478	5231
836.615	5090
836.753	5151
836.891	5258
837.029	5239
837.167	5212
837.305	5181
837.443	5105
837.58	5060
837.718	5231
837.856	5231
837.993	5155
838.131	5265
838.269	5208
838.406	5220
838.544	5170
838.681	5045
838.819	5003
838.956	4866
839.094	4892
839.231	4976
839.369	5105
839.506	5387
839.643	5288
839.781	5067
839.918	4987
840.055	5105
840.193	5075
840.33	5079
840.467	5128
840.604	5239
840.742	5448
840.879	5060
841.016	5113
841.153	5132
841.29	5379
841.427	5330
841.564	5315
841.701	5326
841.838	5258
841.975	5204
842.112	5246
842.249	5140
842.385	5128
842.522	5318
842.659	5132
842.796	5166
842.933	5170
843.069	5174
843.206	5166
843.343	5284
843.479	5223
843.616	5235
843.752	5052
843.889	4995
844.025	5189
844.162	4953
844.298	5197
844.435	5075
844.571	5102
844.708	5201
844.844	5296
844.98	5368
845.117	5269
845.253	5105
845.389	5064
845.525	5136
845.661	5124
845.798	5029
845.934	5136
846.07	5056
846.206	5170
846.342	5223
846.478	5159
846.614	5003
846.75	4965
846.886	4915
847.022	5109
847.158	5018
847.294	5075
847.429	5083
847.565	5056
847.701	5315
847.837	4858
847.972	4778
848.108	4923
848.244	4949
848.379	4778
848.515	4752
848.65	4717
848.786	4714
848.921	4733
849.057	4843
849.192	4870
849.328	4774
849.463	4862
849.598	4774
849.734	4702
849.869	4679
850.004	4603
850.14	4656
850.275	4622
850.41	4550
850.545	4508
850.68	4538
850.815	4649
850.95	4653
851.085	4866
851.22	4729
851.355	4660
851.49	4592
851.625	4637
851.76	4622
851.895	4516
852.03	4516
852.165	4656
852.299	4698
852.434	4767
852.569	4759
852.703	4748
852.838	4843
852.973	4946
853.107	4930
853.242	4729
853.376	4672
853.511	4512
853.645	4592
853.78	4786
853.914	4672
854.048	4660
854.183	4637
854.317	4706
854.451	4858
854.585	4660
854.72	4641
854.854	4717
854.988	4577
855.122	4626
855.256	4561
855.39	4672
855.524	4763
855.658	4710
855.792	4714
855.926	4698
856.06	4744
856.194	4805
856.327	4694
856.461	4588
856.595	4603
856.729	4615
856.862	4736
856.996	4637
857.13	4725
857.263	4744
857.397	4767
857.53	4668
857.664	4736
857.797	4733
857.931	4797
858.064	4691
858.197	4691
858.331	4577
858.464	4577
858.597	4516
858.731	4630
858.864	4622
858.997	4580
859.13	4634
859.263	4675
859.396	4672
859.529	4542
859.662	4580
859.795	4550
859.928	4672
860.061	4782
860.194	4710
860.327	4618
860.46	4527
860.592	4683
860.725	4759
860.858	4721
860.99	4584
861.123	4523
861.256	4489
861.388	4630
861.521	5280
861.653	4474
861.786	4440
861.918	4451
862.05	4512
862.183	4542
862.315	4626
862.447	4660
862.58	4535
862.712	4402
862.844	4344
862.976	4474
863.108	4394
863.24	4771
863.372	4344
863.504	4447
863.636	4367
863.768	4440
863.9	4363
864.032	4344
864.164	4386
864.296	4535
864.428	4538
864.559	4573
864.691	4523
864.823	4504
864.954	4497
865.086	4500
865.217	4519
865.349	4398
865.48	4459
865.612	4493
865.743	4596
865.875	4459
866.006	4402
866.137	4462
866.269	4447
866.4	4405
866.531	4386
866.662	4379
866.793	4413
866.924	4402
867.055	4436
867.186	4497
867.317	4443
867.448	4417
867.579	4371
867.71	4356
867.841	4371
867.972	4481
868.103	4478
868.233	4428
868.364	4455
868.495	4516
868.625	4660
868.756	4736
868.886	4577
869.017	4588
869.147	4782
869.278	4725
869.408	4637
869.539	4660
869.669	4717
869.799	4653
869.929	4771
870.06	4752
870.19	4968
870.32	4885
870.45	4927
870.58	5045
870.71	5136
870.84	5056
870.97	4892
871.1	4850
871.23	5113
871.36	5143
871.489	4972
871.619	5090
871.749	5094
871.879	5155
872.008	5208
872.138	5003
872.267	4987
872.397	4862
872.526	4847
872.656	4740
872.785	4824
872.915	4961
873.044	4946
873.173	4980
873.303	4965
873.432	5006
873.561	4938
873.69	4900
873.819	4824
873.948	4908
874.077	4843
874.206	4759
874.335	4831
874.464	4900
874.593	5071
874.722	5003
874.851	5105
874.979	5052
875.108	5048
875.237	4870
875.365	4927
875.494	4870
875.623	4961
875.751	4824
875.88	4877
876.008	4984
876.136	5064
876.265	5201
876.393	5299
876.521	5292
876.65	5204
876.778	5170
876.906	5025
877.034	4961
877.162	5056
877.29	5010
877.418	5052
877.546	5090
877.674	5052
877.802	5048
877.93	4984
878.058	4930
878.185	4908
878.313	5006
878.441	4957
878.568	4774
878.696	4904
878.824	5022
878.951	4980
879.079	5136
879.206	5277
879.333	5098
879.461	4961
879.588	4999
879.715	5128
879.842	5197
879.97	5033
880.097	4790
880.224	4736
880.351	4793
880.478	4820
880.605	4793
880.732	4782
880.859	5071
880.986	4885
881.112	4904
881.239	4790
881.366	4687
881.493	4649
881.619	4565
881.746	4611
881.872	4653
881.999	4569
882.125	4691
882.252	4790
882.378	4797
882.505	4938
882.631	4782
882.757	4622
882.883	4733
883.01	4733
883.136	4706
883.262	4596
883.388	4596
883.514	4809
883.64	4839
883.766	4809
883.892	4660
884.018	4675
884.143	4870
884.269	4984
884.395	4694
884.52	4603
884.646	4626
884.772	4550
884.897	4546
885.023	4649
885.148	4744
885.274	4828
885.399	4790
885.524	4774
885.65	4687
885.775	4759
885.9	4721
886.025	4839
886.15	4771
886.275	4698
886.4	4649
886.525	4733
886.65	4763
886.775	4687
886.9	4923
887.025	5029
887.149	4793
887.274	4656
887.399	4561
887.523	4516
887.648	4592
887.773	4577
887.897	4759
888.021	4774
888.146	4687
888.27	4816
888.395	4915
888.519	4809
888.643	4816
888.767	4782
888.891	4717
889.015	4603
889.139	4637
889.263	4577
889.387	4740
889.511	4911
889.635	4767
889.759	4637
889.883	4622
890.006	4714
890.13	4778
890.254	4641
890.377	4672
890.501	4573
890.624	4527
890.748	4603
890.871	4485
890.995	4409
891.118	4379
891.241	4500
891.364	4565
891.488	4611
891.611	4500
891.734	4531
891.857	4584
891.98	4558
892.103	4630
892.226	4558
892.349	4561
892.471	4383
892.594	4512
892.717	4580
892.839	4565
892.962	4588
893.085	4634
893.207	4615
893.33	4470
893.452	4417
893.575	4622
893.697	4546
893.819	4748
893.941	4782
894.064	4752
894.186	4542
894.308	4538
894.43	4744
894.552	4793
894.674	4736
894.796	4538
894.918	4607
895.04	4558
895.161	4725
895.283	4668
895.405	4573
895.526	4630
895.648	4691
895.769	4744
895.891	4725
896.012	4740
896.134	4710
896.255	4660
896.376	4649
896.498	4618
896.619	4725
896.74	4603
896.861	4653
896.982	4942
897.103	5102
897.224	4850
897.345	4774
897.466	4706
897.587	4748
897.708	4919
897.828	4797
897.949	4744
898.07	4611
898.19	4694
898.311	4854
898.431	4740
898.552	4740
898.672	4831
898.792	4843
898.913	4786
899.033	4675
899.153	4550
899.273	4455
899.393	4542
899.513	4554
899.633	4542
899.753	4603
899.873	4565
899.993	4630
900.113	4618
900.232	4664
900.352	4607
900.472	4542
900.591	4459
900.711	4531
900.83	4485
900.95	4656
901.069	4702
901.189	4569
901.308	4459
901.427	4360
901.546	4375
901.665	4443
901.784	4485
901.904	4451
902.023	4341
902.141	4249
902.26	4211
902.379	4325
902.498	4276
902.617	4276
902.735	4390
902.854	4390
902.973	4402
903.091	4280
903.21	4287
903.328	4337
903.446	4306
903.565	4310
903.683	4375
903.801	4363
903.919	4405
904.038	4542
904.156	4405
904.274	4466
904.392	4440
904.51	4436
904.627	4497
904.745	4618
904.863	4672
904.981	4413
905.098	4341
905.216	4447
905.334	4508
905.451	4447
905.569	4466
905.686	4637
905.803	4592
905.921	4443
906.038	4615
906.155	4561
906.272	4432
906.389	4485
906.506	4352
906.623	4402
906.74	4451
906.857	4341
906.974	4379
907.091	4577
907.208	4672
907.324	4630
907.441	4561
907.557	4402
907.674	4417
907.79	4356
907.907	4481
908.023	4516
908.139	4519
908.256	4493
908.372	4481
908.488	4481
908.604	4348
908.72	4352
908.836	4424
908.952	4421
909.068	4481
909.184	4611
909.3	4550
909.415	4603
909.531	4588
909.647	4394
909.762	4360
909.878	4360
909.993	4432
910.108	4466
910.224	4485
910.339	4489
910.454	4409
910.57	4386
910.685	4344
910.8	4710
910.915	4634
911.03	4535
911.145	4360
911.259	4352
911.374	4386
911.489	4337
911.604	4303
911.718	4200
911.833	4227
911.947	4112
912.062	4097
912.176	4204
912.291	4268
912.405	4322
912.519	4508
912.633	4561
912.748	4432
912.862	4310
912.976	4249
913.09	4124
913.204	4238
913.318	4246
913.431	4360
913.545	4413
913.659	4470
913.772	4409
913.886	4299
914	4242
914.113	4383
914.226	4436
914.34	4417
914.453	4287
914.566	4436
914.68	4367
914.793	4310
914.906	4230
915.019	4158
915.132	4101
915.245	4242
915.358	4234
915.47	4268
915.583	4295
915.696	4367
915.809	4455
915.921	4447
916.034	4287
916.146	4234
916.259	4287
916.371	4436
916.483	4386
916.595	4246
916.708	4383
916.82	4325
916.932	4352
917.044	4371
917.156	4363
917.268	4257
917.38	4276
917.491	4253
917.603	4383
917.715	4451
917.826	4455
917.938	4394
918.049	4295
918.161	4383
918.272	4523
918.384	4569
918.495	4462
918.606	4291
918.717	4246
918.828	4329
918.939	4436
919.05	4265
919.161	4333
919.272	4150
919.383	4230
919.494	4493
919.604	4649
919.715	4462
919.826	4428
919.936	4428
920.047	4565
920.157	4573
920.267	4752
920.378	4577
920.488	4523
920.598	4733
920.708	4953
920.818	4771
920.928	4774
921.038	5029
921.148	4957
921.258	4603
921.368	4603
921.477	4565
921.587	4466
921.697	4413
921.806	4558
921.916	4428
922.025	4257
922.134	4299
922.244	4238
922.353	4341
922.462	4188
922.571	4162
922.68	4082
922.789	4025
922.898	4090
923.007	4051
923.116	4105
923.224	4116
923.333	4124
923.442	4032
923.55	4013
923.659	4032
923.767	4162
923.876	4017
923.984	4200
924.092	3998
924.201	4078
924.309	4139
924.417	4162
924.525	4109
924.633	4158
924.741	5060
924.849	3937
924.956	4128
925.064	3987
925.172	3937
925.279	3953
925.387	4074
925.494	4109
925.602	4223
925.709	4166
925.816	4059
925.924	4177
926.031	4280
926.138	4181
926.245	4230
926.352	4109
926.459	4299
926.566	4352
926.673	4169
926.779	4105
926.886	4143
926.993	3972
927.099	4032
927.206	3994
927.312	3983
927.419	4044
927.525	4105
927.631	4177
927.737	3987
927.843	4006
927.95	3846
928.056	3937
928.162	4006
928.267	4093
928.373	4630
928.479	4112
928.585	3945
928.69	4067
928.796	4124
928.901	4017
929.007	3892
929.112	4044
929.218	4013
929.323	3979
929.428	3953
929.533	4128
929.638	3953
929.743	4032
929.848	4097
929.953	3991
930.058	3956
930.163	3797
930.267	3846
930.372	4002
930.477	3838
930.581	4131
930.685	3945
930.79	3884
930.894	3911
930.998	3880
931.103	4055
931.207	3766
931.311	3694
931.415	3671
931.519	3511
931.623	3610
