Data from test_V78500241_1287.txt Node
Date: Fri Mar 25 16:57:57 CST 2022
User: usil
Spectrometer: V785-0024
Trigger mode: 0
Integration Time (sec): 4.000000E-1
Scans to average: 1
Nonlinearity correction enabled: false
Boxcar width: 0
Storing dark spectrum: false
XAxis mode: Wavelengths
Number of Pixels in Spectrum: 1024
>>>>>Begin Spectral Data<<<<<
801.071	8031
801.214	7925
801.356	7909
801.499	7913
801.641	7769
801.783	7814
801.926	7955
802.068	7944
802.211	7967
802.353	7936
802.496	7890
802.638	7830
802.78	7871
802.923	7917
803.065	7860
803.208	7833
803.35	7906
803.492	8046
803.635	8138
803.777	7993
803.919	8134
804.061	8419
804.204	8149
804.346	8096
804.488	7909
804.63	8096
804.773	8001
804.915	8119
805.057	8248
805.199	8180
805.341	8221
805.483	8347
805.626	8275
805.768	8161
805.91	8248
806.052	8233
806.194	8187
806.336	8282
806.478	8126
806.62	8008
806.762	8103
806.904	8248
807.046	8511
807.188	8336
807.33	8267
807.472	8343
807.614	8145
807.756	8126
807.898	7928
808.04	7818
808.182	7940
808.324	7860
808.465	7932
808.607	8024
808.749	8103
808.891	8168
809.033	8248
809.174	8119
809.316	8065
809.458	8119
809.6	7959
809.741	8031
809.883	8035
810.025	8092
810.166	8043
810.308	8065
810.45	7993
810.591	7837
810.733	7674
810.875	7643
811.016	7514
811.158	7495
811.299	7597
811.441	7715
811.582	7715
811.724	7575
811.865	7533
812.007	7597
812.148	7578
812.29	7636
812.431	7727
812.573	7875
812.714	7974
812.855	8100
812.997	8107
813.138	8355
813.279	8176
813.421	8130
813.562	7986
813.703	7814
813.845	7788
813.986	7487
814.127	7255
814.268	7198
814.41	7187
814.551	7080
814.692	7171
814.833	7118
814.974	7065
815.115	7015
815.256	6939
815.397	6894
815.539	6947
815.68	6779
815.821	6795
815.962	6806
816.103	6795
816.244	6703
816.385	6620
816.526	6642
816.666	6475
816.807	6285
816.948	6456
817.089	6471
817.23	6433
817.371	6369
817.512	6456
817.653	6403
817.793	6395
817.934	6395
818.075	6395
818.216	6414
818.356	6391
818.497	6178
818.638	6098
818.778	6072
818.919	6125
819.06	6110
819.2	6285
819.341	6380
819.481	6388
819.622	6559
819.762	6669
819.903	6684
820.043	6574
820.184	6555
820.324	6616
820.465	6741
820.605	6696
820.746	6635
820.886	6517
821.026	6623
821.167	6749
821.307	6722
821.447	6772
821.588	6700
821.728	6540
821.868	6479
822.008	6361
822.149	6350
822.289	6311
822.429	6079
822.569	6091
822.709	6136
822.849	5866
822.99	5931
823.13	5927
823.27	5954
823.41	5764
823.55	5752
823.69	5722
823.83	5745
823.97	5619
824.11	5554
824.25	5505
824.389	5547
824.529	5539
824.669	5501
824.809	5558
824.949	5668
825.089	5592
825.228	5573
825.368	5387
825.508	5337
825.648	5334
825.787	5341
825.927	5322
826.067	5311
826.206	5280
826.346	5376
826.485	5387
826.625	5376
826.765	5562
826.904	5444
827.044	5284
827.183	5201
827.323	5124
827.462	5220
827.601	5098
827.741	5166
827.88	5201
828.02	5140
828.159	5216
828.298	5269
828.437	5376
828.577	5250
828.716	5486
828.855	5299
828.994	5201
829.134	5166
829.273	5197
829.412	5075
829.551	5102
829.69	5151
829.829	5193
829.968	5337
830.107	5212
830.246	5239
830.385	5174
830.524	5140
830.663	5045
830.802	5003
830.941	4858
831.08	4892
831.219	4965
831.357	4984
831.496	5136
831.635	4892
831.774	4831
831.913	4828
832.051	4717
832.19	4725
832.329	4793
832.467	4637
832.606	4649
832.744	4702
832.883	4717
833.022	4687
833.16	4816
833.299	4801
833.437	4831
833.576	4831
833.714	4786
833.852	4831
833.991	4881
834.129	4961
834.267	4915
834.406	4908
834.544	4961
834.682	4953
834.821	4968
834.959	5151
835.097	4984
835.235	5113
835.373	5090
835.511	5105
835.65	5029
835.788	5022
835.926	4946
836.064	4881
836.202	4900
836.34	5132
836.478	5216
836.615	5102
836.753	5231
836.891	5242
837.029	5254
837.167	5151
837.305	5155
837.443	5075
837.58	5037
837.718	5254
837.856	5189
837.993	5109
838.131	5208
838.269	5170
838.406	5178
838.544	5151
838.681	5048
838.819	4995
838.956	4843
839.094	4915
839.231	4938
839.369	5056
839.506	5406
839.643	5227
839.781	5010
839.918	5014
840.055	5041
840.193	5102
840.33	5086
840.467	5079
840.604	5212
840.742	5421
840.879	5083
841.016	5109
841.153	5140
841.29	5364
841.427	5322
841.564	5280
841.701	5315
841.838	5246
841.975	5254
842.112	5315
842.249	5113
842.385	5041
842.522	5318
842.659	5178
842.796	5140
842.933	5147
843.069	5189
843.206	5159
843.343	5273
843.479	5189
843.616	5265
843.752	5056
843.889	4965
844.025	5212
844.162	5018
844.298	5197
844.435	5067
844.571	5010
844.708	5189
844.844	5288
844.98	5277
845.117	5307
845.253	5094
845.389	5086
845.525	5132
845.661	5086
845.798	5033
845.934	5147
846.07	5022
846.206	5201
846.342	5242
846.478	5143
846.614	4972
846.75	4934
846.886	4927
847.022	5090
847.158	5018
847.294	5025
847.429	5056
847.565	5060
847.701	5330
847.837	4828
847.972	4755
848.108	4953
848.244	4900
848.379	4771
848.515	4721
848.65	4698
848.786	4733
848.921	4786
849.057	4850
849.192	4881
849.328	4797
849.463	4847
849.598	4763
849.734	4729
849.869	4698
850.004	4569
850.14	4645
850.275	4607
850.41	4500
850.545	4577
850.68	4592
850.815	4611
850.95	4580
851.085	4839
851.22	4725
851.355	4649
851.49	4588
851.625	4569
851.76	4645
851.895	4485
852.03	4519
852.165	4630
852.299	4687
852.434	4740
852.569	4759
852.703	4759
852.838	4839
852.973	4908
853.107	4866
853.242	4774
853.376	4683
853.511	4508
853.645	4584
853.78	4771
853.914	4672
854.048	4634
854.183	4634
854.317	4683
854.451	4797
854.585	4645
854.72	4626
854.854	4733
854.988	4592
855.122	4637
855.256	4523
855.39	4653
855.524	4729
855.658	4691
855.792	4683
855.926	4736
856.06	4717
856.194	4774
856.327	4706
856.461	4546
856.595	4550
856.729	4634
856.862	4706
856.996	4706
857.13	4717
857.263	4740
857.397	4759
857.53	4656
857.664	4736
857.797	4714
857.931	4725
858.064	4660
858.197	4721
858.331	4634
858.464	4596
858.597	4531
858.731	4584
858.864	4592
858.997	4584
859.13	4618
859.263	4637
859.396	4717
859.529	4558
859.662	4569
859.795	4516
859.928	4599
860.061	4729
860.194	4786
860.327	4588
860.46	4542
860.592	4717
860.725	4752
860.858	4694
860.99	4516
861.123	4558
861.256	4588
861.388	4592
861.521	5166
861.653	4462
861.786	4409
861.918	4428
862.05	4474
862.183	4584
862.315	4580
862.447	4630
862.58	4542
862.712	4383
862.844	4268
862.976	4440
863.108	4432
863.24	4850
863.372	4333
863.504	4428
863.636	4352
863.768	4466
863.9	4421
864.032	4375
864.164	4383
864.296	4421
864.428	4573
864.559	4493
864.691	4459
864.823	4516
864.954	4443
865.086	4531
865.217	4440
865.349	4413
865.48	4436
865.612	4459
865.743	4573
865.875	4481
866.006	4405
866.137	4413
866.269	4424
866.4	4466
866.531	4405
866.662	4360
866.793	4405
866.924	4367
867.055	4500
867.186	4428
867.317	4466
867.448	4341
867.579	4390
867.71	4318
867.841	4367
867.972	4405
868.103	4470
868.233	4432
868.364	4436
868.495	4485
868.625	4630
868.756	4752
868.886	4565
869.017	4607
869.147	4744
869.278	4717
869.408	4637
869.539	4565
869.669	4672
869.799	4645
869.929	4729
870.06	4694
870.19	4957
870.32	4938
870.45	4927
870.58	4961
870.71	5094
870.84	5075
870.97	4946
871.1	4904
871.23	5132
871.36	5109
871.489	5025
871.619	4984
871.749	5033
871.879	5094
872.008	5208
872.138	5075
872.267	4991
872.397	4797
872.526	4820
872.656	4717
872.785	4793
872.915	4915
873.044	4984
873.173	4946
873.303	4927
873.432	4938
873.561	4923
873.69	4862
873.819	4854
873.948	4889
874.077	4786
874.206	4778
874.335	4877
874.464	4885
874.593	5010
874.722	5010
874.851	5105
874.979	5037
875.108	5029
875.237	4881
875.365	4858
875.494	4866
875.623	4968
875.751	4793
875.88	4889
876.008	4942
876.136	5010
876.265	5174
876.393	5322
876.521	5242
876.65	5242
876.778	5143
876.906	5006
877.034	5003
877.162	5029
877.29	4942
877.418	5025
877.546	5048
877.674	5014
877.802	5045
877.93	4961
878.058	4953
878.185	4843
878.313	4942
878.441	4900
878.568	4782
878.696	4877
878.824	4908
878.951	4968
879.079	5181
879.206	5277
879.333	5079
879.461	4942
879.588	4946
879.715	5079
879.842	5201
879.97	4953
880.097	4786
880.224	4725
880.351	4816
880.478	4782
880.605	4801
880.732	4755
880.859	5113
880.986	4850
881.112	4896
881.239	4824
881.366	4668
881.493	4577
881.619	4641
881.746	4580
881.872	4668
881.999	4656
882.125	4721
882.252	4812
882.378	4797
882.505	4873
882.631	4755
882.757	4721
882.883	4740
883.01	4698
883.136	4660
883.262	4580
883.388	4607
883.514	4797
883.64	4873
883.766	4729
883.892	4634
884.018	4729
884.143	4862
884.269	4968
884.395	4672
884.52	4561
884.646	4672
884.772	4569
884.897	4497
885.023	4637
885.148	4790
885.274	4873
885.399	4774
885.524	4645
885.65	4664
885.775	4759
885.9	4717
886.025	4790
886.15	4744
886.275	4717
886.4	4599
886.525	4675
886.65	4675
886.775	4668
886.9	4873
887.025	5003
887.149	4714
887.274	4675
887.399	4580
887.523	4588
887.648	4580
887.773	4558
887.897	4778
888.021	4782
888.146	4637
888.27	4774
888.395	4911
888.519	4744
888.643	4820
888.767	4797
888.891	4664
889.015	4596
889.139	4675
889.263	4634
889.387	4767
889.511	4824
889.635	4786
889.759	4577
889.883	4622
890.006	4717
890.13	4820
890.254	4630
890.377	4622
890.501	4512
890.624	4516
890.748	4550
890.871	4462
890.995	4443
891.118	4367
891.241	4485
891.364	4527
891.488	4607
891.611	4493
891.734	4550
891.857	4554
891.98	4550
892.103	4615
892.226	4603
892.349	4440
892.471	4413
892.594	4489
892.717	4599
892.839	4565
892.962	4584
893.085	4626
893.207	4580
893.33	4443
893.452	4474
893.575	4664
893.697	4519
893.819	4797
893.941	4782
894.064	4721
894.186	4546
894.308	4561
894.43	4748
894.552	4812
894.674	4725
894.796	4512
894.918	4542
895.04	4531
895.161	4717
895.283	4573
895.405	4550
895.526	4645
895.648	4637
895.769	4660
895.891	4698
896.012	4698
896.134	4691
896.255	4687
896.376	4615
896.498	4607
896.619	4656
896.74	4599
896.861	4637
896.982	4919
897.103	5045
897.224	4778
897.345	4714
897.466	4603
897.587	4721
897.708	4809
897.828	4729
897.949	4641
898.07	4550
898.19	4649
898.311	4778
898.431	4656
898.552	4759
898.672	4771
898.792	4748
898.913	4740
899.033	4634
899.153	4512
899.273	4329
899.393	4512
899.513	4535
899.633	4508
899.753	4542
899.873	4516
899.993	4584
900.113	4538
900.232	4599
900.352	4584
900.472	4470
900.591	4398
900.711	4462
900.83	4417
900.95	4607
901.069	4694
901.189	4535
901.308	4379
901.427	4394
901.546	4390
901.665	4523
901.784	4531
901.904	4409
902.023	4348
902.141	4200
902.26	4158
902.379	4352
902.498	4291
902.617	4253
902.735	4371
902.854	4428
902.973	4375
903.091	4249
903.21	4272
903.328	4352
903.446	4272
903.565	4303
903.683	4386
903.801	4348
903.919	4417
904.038	4462
904.156	4322
904.274	4481
904.392	4459
904.51	4508
904.627	4523
904.745	4599
904.863	4710
904.981	4447
905.098	4352
905.216	4421
905.334	4497
905.451	4462
905.569	4485
905.686	4596
905.803	4584
905.921	4409
906.038	4588
906.155	4519
906.272	4409
906.389	4481
906.506	4363
906.623	4371
906.74	4424
906.857	4344
906.974	4352
907.091	4558
907.208	4691
907.324	4603
907.441	4500
907.557	4386
907.674	4375
907.79	4344
907.907	4432
908.023	4523
908.139	4538
908.256	4478
908.372	4481
908.488	4474
908.604	4375
908.72	4314
908.836	4402
908.952	4413
909.068	4485
909.184	4592
909.3	4538
909.415	4603
909.531	4569
909.647	4405
909.762	4409
909.878	4390
909.993	4447
910.108	4447
910.224	4478
910.339	4512
910.454	4462
910.57	4421
910.685	4394
910.8	4679
910.915	4653
911.03	4573
911.145	4367
911.259	4379
911.374	4413
911.489	4333
911.604	4325
911.718	4188
911.833	4234
911.947	4055
912.062	4021
912.176	4207
912.291	4272
912.405	4306
912.519	4527
912.633	4485
912.748	4390
912.862	4314
912.976	4284
913.09	4135
913.204	4207
913.318	4185
913.431	4402
913.545	4363
913.659	4489
913.772	4386
913.886	4272
914	4242
914.113	4394
914.226	4489
914.34	4402
914.453	4268
914.566	4478
914.68	4287
914.793	4360
914.906	4211
915.019	4158
915.132	4063
915.245	4249
915.358	4192
915.47	4265
915.583	4291
915.696	4303
915.809	4436
915.921	4481
916.034	4306
916.146	4253
916.259	4242
916.371	4352
916.483	4348
916.595	4246
916.708	4310
916.82	4344
916.932	4325
917.044	4341
917.156	4348
917.268	4295
917.38	4318
917.491	4295
917.603	4363
917.715	4402
917.826	4493
917.938	4375
918.049	4249
918.161	4421
918.272	4523
918.384	4603
918.495	4451
918.606	4272
918.717	4223
918.828	4322
918.939	4402
919.05	4261
919.161	4352
919.272	4173
919.383	4242
919.494	4481
919.604	4649
919.715	4466
919.826	4394
919.936	4421
920.047	4565
920.157	4459
920.267	4698
920.378	4580
920.488	4573
920.598	4755
920.708	4862
920.818	4736
920.928	4740
921.038	4968
921.148	4938
921.258	4641
921.368	4558
921.477	4516
921.587	4481
921.697	4405
921.806	4558
921.916	4466
922.025	4280
922.134	4287
922.244	4219
922.353	4341
922.462	4181
922.571	4150
922.68	4029
922.789	4029
922.898	4093
923.007	4021
923.116	4147
923.224	4112
923.333	4090
923.442	4029
923.55	4017
923.659	4025
923.767	4158
923.876	4021
923.984	4181
924.092	4067
924.201	4150
924.309	4143
924.417	4204
924.525	4071
924.633	4105
924.741	5064
924.849	3960
924.956	4131
925.064	3968
925.172	3911
925.279	3964
925.387	4055
925.494	4112
925.602	4219
925.709	4185
925.816	4036
925.924	4143
926.031	4242
926.138	4219
926.245	4265
926.352	4150
926.459	4310
926.566	4322
926.673	4200
926.779	4086
926.886	4101
926.993	3991
927.099	3983
927.206	3998
927.312	3937
927.419	4048
927.525	4090
927.631	4158
927.737	3998
927.843	3934
927.95	3835
928.056	3994
928.162	4048
928.267	4097
928.373	4729
928.479	4131
928.585	3937
928.69	3998
928.796	4082
928.901	4002
929.007	3838
929.112	3994
929.218	4002
929.323	3983
929.428	3930
929.533	4116
929.638	3975
929.743	3983
929.848	4051
929.953	4055
930.058	3934
930.163	3842
930.267	3812
930.372	4017
930.477	3823
930.581	4086
930.685	4029
930.79	3831
930.894	3937
930.998	3854
931.103	4067
931.207	3755
931.311	3740
931.415	3694
931.519	3542
931.623	3576
