Data from test_V78500241_2639.txt Node
Date: Fri Mar 25 17:07:21 CST 2022
User: usil
Spectrometer: V785-0024
Trigger mode: 0
Integration Time (sec): 4.000000E-1
Scans to average: 1
Nonlinearity correction enabled: false
Boxcar width: 0
Storing dark spectrum: false
XAxis mode: Wavelengths
Number of Pixels in Spectrum: 1024
>>>>>Begin Spectral Data<<<<<
801.071	8050
801.214	7997
801.356	7864
801.499	7875
801.641	7769
801.783	7822
801.926	7963
802.068	7883
802.211	7967
802.353	7936
802.496	7894
802.638	7875
802.78	7875
802.923	7955
803.065	7868
803.208	7795
803.35	8031
803.492	8046
803.635	8218
803.777	8043
803.919	8058
804.061	8469
804.204	8168
804.346	8069
804.488	7955
804.63	8142
804.773	8001
804.915	8126
805.057	8237
805.199	8103
805.341	8187
805.483	8256
805.626	8218
805.768	8172
805.91	8187
806.052	8138
806.194	8123
806.336	8256
806.478	8050
806.62	8024
806.762	8149
806.904	8221
807.046	8454
807.188	8381
807.33	8324
807.472	8336
807.614	8195
807.756	8176
807.898	7993
808.04	7894
808.182	7890
808.324	7841
808.465	7883
808.607	8126
808.749	8088
808.891	8172
809.033	8248
809.174	8263
809.316	8107
809.458	8103
809.6	7909
809.741	8024
809.883	7993
810.025	8126
810.166	8039
810.308	8035
810.45	7989
810.591	7871
810.733	7719
810.875	7628
811.016	7525
811.158	7438
811.299	7544
811.441	7734
811.582	7681
811.724	7540
811.865	7510
812.007	7616
812.148	7590
812.29	7643
812.431	7807
812.573	7894
812.714	7925
812.855	8115
812.997	8221
813.138	8370
813.279	8149
813.421	8096
813.562	7982
813.703	7833
813.845	7761
813.986	7453
814.127	7247
814.268	7244
814.41	7190
814.551	7190
814.692	7278
814.833	7053
814.974	7103
815.115	7137
815.256	6985
815.397	6928
815.539	6985
815.68	6795
815.821	6787
815.962	6875
816.103	6829
816.244	6738
816.385	6608
816.526	6650
816.666	6486
816.807	6350
816.948	6498
817.089	6437
817.23	6437
817.371	6391
817.512	6342
817.653	6315
817.793	6369
817.934	6414
818.075	6486
818.216	6448
818.356	6407
818.497	6251
818.638	6110
818.778	6121
818.919	6163
819.06	6194
819.2	6460
819.341	6319
819.481	6357
819.622	6544
819.762	6665
819.903	6719
820.043	6654
820.184	6490
820.324	6528
820.465	6730
820.605	6673
820.746	6669
820.886	6528
821.026	6684
821.167	6768
821.307	6840
821.447	6757
821.588	6658
821.728	6601
821.868	6521
822.008	6296
822.149	6407
822.289	6388
822.429	6232
822.569	6064
822.709	6144
822.849	5931
822.99	5961
823.13	5916
823.27	5935
823.41	5813
823.55	5824
823.69	5775
823.83	5794
823.97	5676
824.11	5577
824.25	5478
824.389	5520
824.529	5577
824.669	5532
824.809	5611
824.949	5657
825.089	5691
825.228	5554
825.368	5349
825.508	5372
825.648	5383
825.787	5349
825.927	5387
826.067	5269
826.206	5296
826.346	5337
826.485	5391
826.625	5383
826.765	5554
826.904	5478
827.044	5296
827.183	5223
827.323	5098
827.462	5246
827.601	5128
827.741	5185
827.88	5166
828.02	5075
828.159	5235
828.298	5341
828.437	5330
828.577	5265
828.716	5478
828.855	5311
828.994	5201
829.134	5143
829.273	5155
829.412	5208
829.551	5086
829.69	5136
829.829	5242
829.968	5360
830.107	5280
830.246	5280
830.385	5220
830.524	5136
830.663	5025
830.802	5006
830.941	4904
831.08	4870
831.219	5003
831.357	4923
831.496	5151
831.635	4930
831.774	4843
831.913	4820
832.051	4736
832.19	4744
832.329	4850
832.467	4710
832.606	4672
832.744	4714
832.883	4710
833.022	4698
833.16	4793
833.299	4805
833.437	4828
833.576	4873
833.714	4850
833.852	4919
833.991	4889
834.129	4991
834.267	4987
834.406	4881
834.544	4949
834.682	4972
834.821	4949
834.959	5155
835.097	4991
835.235	5117
835.373	5067
835.511	5098
835.65	5090
835.788	5022
835.926	4915
836.064	4873
836.202	4946
836.34	5166
836.478	5246
836.615	5102
836.753	5216
836.891	5292
837.029	5242
837.167	5201
837.305	5181
837.443	5143
837.58	5060
837.718	5239
837.856	5204
837.993	5128
838.131	5227
838.269	5162
838.406	5185
838.544	5143
838.681	5060
838.819	5014
838.956	4892
839.094	4877
839.231	4984
839.369	5098
839.506	5417
839.643	5261
839.781	5109
839.918	5010
840.055	5064
840.193	5079
840.33	5048
840.467	5140
840.604	5159
840.742	5417
840.879	5041
841.016	5083
841.153	5189
841.29	5299
841.427	5326
841.564	5345
841.701	5315
841.838	5326
841.975	5208
842.112	5261
842.249	5140
842.385	5094
842.522	5292
842.659	5109
842.796	5094
842.933	5223
843.069	5121
843.206	5140
843.343	5277
843.479	5235
843.616	5239
843.752	5086
843.889	4961
844.025	5258
844.162	4995
844.298	5166
844.435	5048
844.571	5052
844.708	5265
844.844	5284
844.98	5364
845.117	5330
845.253	5121
845.389	5075
845.525	5185
845.661	5159
845.798	5045
845.934	5109
846.07	5052
846.206	5223
846.342	5269
846.478	5178
846.614	5022
846.75	4957
846.886	4953
847.022	5170
847.158	4999
847.294	5052
847.429	5094
847.565	5090
847.701	5303
847.837	4908
847.972	4809
848.108	4957
848.244	4999
848.379	4782
848.515	4752
848.65	4683
848.786	4744
848.921	4755
849.057	4885
849.192	4961
849.328	4755
849.463	4858
849.598	4740
849.734	4744
849.869	4744
850.004	4653
850.14	4687
850.275	4637
850.41	4542
850.545	4527
850.68	4615
850.815	4596
850.95	4588
851.085	4820
851.22	4752
851.355	4626
851.49	4645
851.625	4596
851.76	4641
851.895	4538
852.03	4558
852.165	4649
852.299	4733
852.434	4774
852.569	4774
852.703	4801
852.838	4824
852.973	4930
853.107	4896
853.242	4790
853.376	4694
853.511	4535
853.645	4611
853.78	4805
853.914	4675
854.048	4675
854.183	4622
854.317	4698
854.451	4831
854.585	4698
854.72	4660
854.854	4763
854.988	4622
855.122	4660
855.256	4535
855.39	4645
855.524	4763
855.658	4698
855.792	4729
855.926	4744
856.06	4752
856.194	4835
856.327	4656
856.461	4615
856.595	4607
856.729	4672
856.862	4763
856.996	4691
857.13	4710
857.263	4721
857.397	4831
857.53	4664
857.664	4752
857.797	4744
857.931	4786
858.064	4698
858.197	4744
858.331	4660
858.464	4618
858.597	4535
858.731	4630
858.864	4558
858.997	4592
859.13	4664
859.263	4691
859.396	4729
859.529	4580
859.662	4542
859.795	4565
859.928	4645
860.061	4759
860.194	4763
860.327	4588
860.46	4550
860.592	4656
860.725	4698
860.858	4717
860.99	4546
861.123	4497
861.256	4489
861.388	4664
861.521	5383
861.653	4489
861.786	4455
861.918	4462
862.05	4504
862.183	4580
862.315	4592
862.447	4660
862.58	4542
862.712	4447
862.844	4322
862.976	4478
863.108	4455
863.24	4736
863.372	4333
863.504	4428
863.636	4386
863.768	4516
863.9	4405
864.032	4344
864.164	4398
864.296	4497
864.428	4546
864.559	4588
864.691	4573
864.823	4523
864.954	4455
865.086	4508
865.217	4443
865.349	4432
865.48	4493
865.612	4485
865.743	4634
865.875	4459
866.006	4428
866.137	4436
866.269	4500
866.4	4462
866.531	4424
866.662	4379
866.793	4398
866.924	4417
867.055	4451
867.186	4459
867.317	4356
867.448	4379
867.579	4428
867.71	4398
867.841	4386
867.972	4462
868.103	4493
868.233	4443
868.364	4455
868.495	4504
868.625	4668
868.756	4733
868.886	4558
869.017	4569
869.147	4805
869.278	4729
869.408	4660
869.539	4691
869.669	4733
869.799	4649
869.929	4771
870.06	4698
870.19	4961
870.32	4896
870.45	4934
870.58	5006
870.71	5109
870.84	5109
870.97	4995
871.1	4877
871.23	5117
871.36	5132
871.489	5018
871.619	5052
871.749	5140
871.879	5117
872.008	5189
872.138	5022
872.267	4987
872.397	4801
872.526	4793
872.656	4721
872.785	4763
872.915	4968
873.044	4995
873.173	4991
873.303	4938
873.432	4942
873.561	4987
873.69	4908
873.819	4870
873.948	4889
874.077	4759
874.206	4767
874.335	4797
874.464	4923
874.593	5060
874.722	4980
874.851	5102
874.979	5075
875.108	5037
875.237	4881
875.365	4919
875.494	4896
875.623	5010
875.751	4809
875.88	4881
876.008	5014
876.136	5086
876.265	5216
876.393	5322
876.521	5246
876.65	5318
876.778	5147
876.906	5033
877.034	5045
877.162	5014
877.29	5018
877.418	5041
877.546	5041
877.674	5018
877.802	5018
877.93	4991
878.058	4915
878.185	4873
878.313	5010
878.441	4915
878.568	4831
878.696	4862
878.824	4968
878.951	5045
879.079	5136
879.206	5269
879.333	5075
879.461	5003
879.588	5014
879.715	5151
879.842	5242
879.97	4999
880.097	4710
880.224	4736
880.351	4797
880.478	4774
880.605	4790
880.732	4793
880.859	5098
880.986	4889
881.112	4877
881.239	4793
881.366	4694
881.493	4653
881.619	4618
881.746	4634
881.872	4660
881.999	4660
882.125	4714
882.252	4809
882.378	4854
882.505	4976
882.631	4790
882.757	4683
882.883	4664
883.01	4755
883.136	4691
883.262	4645
883.388	4588
883.514	4805
883.64	4858
883.766	4824
883.892	4668
884.018	4729
884.143	4854
884.269	5014
884.395	4710
884.52	4630
884.646	4603
884.772	4599
884.897	4519
885.023	4664
885.148	4771
885.274	4820
885.399	4790
885.524	4714
885.65	4710
885.775	4736
885.9	4729
886.025	4824
886.15	4752
886.275	4706
886.4	4679
886.525	4752
886.65	4668
886.775	4687
886.9	4946
887.025	5014
887.149	4801
887.274	4702
887.399	4565
887.523	4580
887.648	4561
887.773	4611
887.897	4752
888.021	4748
888.146	4687
888.27	4835
888.395	4889
888.519	4793
888.643	4797
888.767	4835
888.891	4653
889.015	4607
889.139	4687
889.263	4618
889.387	4752
889.511	4870
889.635	4805
889.759	4615
889.883	4664
890.006	4698
890.13	4831
890.254	4622
890.377	4656
890.501	4535
890.624	4546
890.748	4664
890.871	4512
890.995	4421
891.118	4440
891.241	4554
891.364	4535
891.488	4672
891.611	4459
891.734	4542
891.857	4607
891.98	4546
892.103	4653
892.226	4588
892.349	4535
892.471	4402
892.594	4542
892.717	4569
892.839	4599
892.962	4577
893.085	4672
893.207	4573
893.33	4462
893.452	4561
893.575	4637
893.697	4523
893.819	4793
893.941	4877
894.064	4771
894.186	4561
894.308	4603
894.43	4717
894.552	4809
894.674	4752
894.796	4561
894.918	4607
895.04	4573
895.161	4672
895.283	4645
895.405	4519
895.526	4603
895.648	4641
895.769	4634
895.891	4691
896.012	4706
896.134	4664
896.255	4717
896.376	4645
896.498	4630
896.619	4653
896.74	4653
896.861	4714
896.982	4892
897.103	5025
897.224	4824
897.345	4786
897.466	4668
897.587	4729
897.708	4824
897.828	4839
897.949	4653
898.07	4580
898.19	4611
898.311	4805
898.431	4660
898.552	4702
898.672	4790
898.792	4843
898.913	4714
899.033	4641
899.153	4481
899.273	4447
899.393	4493
899.513	4474
899.633	4516
899.753	4497
899.873	4493
899.993	4584
900.113	4569
900.232	4607
900.352	4508
900.472	4485
900.591	4356
900.711	4516
900.83	4466
900.95	4561
901.069	4679
901.189	4512
901.308	4348
901.427	4314
901.546	4356
901.665	4474
901.784	4470
901.904	4360
902.023	4356
902.141	4200
902.26	4169
902.379	4325
902.498	4249
902.617	4223
902.735	4367
902.854	4398
902.973	4329
903.091	4188
903.21	4268
903.328	4246
903.446	4272
903.565	4261
903.683	4348
903.801	4261
903.919	4379
904.038	4459
904.156	4341
904.274	4455
904.392	4367
904.51	4421
904.627	4500
904.745	4531
904.863	4592
904.981	4398
905.098	4318
905.216	4352
905.334	4371
905.451	4424
905.569	4428
905.686	4542
905.803	4584
905.921	4455
906.038	4538
906.155	4485
906.272	4383
906.389	4493
906.506	4375
906.623	4383
906.74	4383
906.857	4318
906.974	4363
907.091	4577
907.208	4679
907.324	4592
907.441	4504
907.557	4371
907.674	4375
907.79	4360
907.907	4375
908.023	4497
908.139	4485
908.256	4440
908.372	4481
908.488	4455
908.604	4367
908.72	4333
908.836	4386
908.952	4363
909.068	4451
909.184	4580
909.3	4485
909.415	4535
909.531	4538
909.647	4367
909.762	4363
909.878	4333
909.993	4409
910.108	4443
910.224	4436
910.339	4489
910.454	4417
910.57	4390
910.685	4318
910.8	4664
910.915	4573
911.03	4546
911.145	4295
911.259	4333
911.374	4367
911.489	4295
911.604	4284
911.718	4200
911.833	4185
911.947	4074
912.062	4036
912.176	4200
912.291	4257
912.405	4253
912.519	4462
912.633	4481
912.748	4329
912.862	4284
912.976	4227
913.09	4112
913.204	4215
913.318	4253
913.431	4337
913.545	4394
913.659	4424
913.772	4322
913.886	4280
914	4211
914.113	4421
914.226	4409
914.34	4348
914.453	4207
914.566	4405
914.68	4299
914.793	4337
914.906	4147
915.019	4090
915.132	4086
915.245	4131
915.358	4223
915.47	4177
915.583	4295
915.696	4310
915.809	4394
915.921	4371
916.034	4215
916.146	4261
916.259	4230
916.371	4371
916.483	4348
916.595	4249
916.708	4322
916.82	4348
916.932	4344
917.044	4314
917.156	4333
917.268	4207
917.38	4257
917.491	4253
917.603	4306
917.715	4440
917.826	4443
917.938	4341
918.049	4230
918.161	4398
918.272	4523
918.384	4569
918.495	4440
918.606	4325
918.717	4223
918.828	4348
918.939	4398
919.05	4246
919.161	4360
919.272	4128
919.383	4227
919.494	4462
919.604	4668
919.715	4447
919.826	4360
919.936	4371
920.047	4565
920.157	4478
920.267	4698
920.378	4634
920.488	4485
920.598	4714
920.708	4942
920.818	4733
920.928	4755
921.038	4934
921.148	4908
921.258	4618
921.368	4531
921.477	4440
921.587	4485
921.697	4348
921.806	4523
921.916	4409
922.025	4234
922.134	4249
922.244	4215
922.353	4314
922.462	4181
922.571	4181
922.68	4006
922.789	3956
922.898	4044
923.007	3983
923.116	4097
923.224	4101
923.333	4097
923.442	3949
923.55	3960
923.659	3998
923.767	4128
923.876	4025
923.984	4116
924.092	4025
924.201	4051
924.309	4116
924.417	4135
924.525	4013
924.633	4131
924.741	5075
924.849	3956
924.956	4166
925.064	3953
925.172	3907
925.279	3953
925.387	4086
925.494	4032
925.602	4211
925.709	4181
925.816	4029
925.924	4097
926.031	4234
926.138	4200
926.245	4207
926.352	4131
926.459	4249
926.566	4318
926.673	4116
926.779	4143
926.886	4109
926.993	3983
927.099	3945
927.206	3953
927.312	3926
927.419	4021
927.525	4025
927.631	4124
927.737	3949
927.843	3949
927.95	3835
928.056	3979
928.162	3968
928.267	4029
928.373	4580
928.479	4128
928.585	3819
928.69	4055
928.796	4082
928.901	3956
929.007	3861
929.112	3991
929.218	3941
929.323	3880
929.428	3945
929.533	4116
929.638	3899
929.743	3979
929.848	4013
929.953	4013
930.058	3953
930.163	3770
930.267	3838
930.372	4010
930.477	3762
930.581	4086
930.685	3918
930.79	3835
930.894	3880
930.998	3823
931.103	4044
931.207	3713
931.311	3732
931.415	3660
931.519	3519
931.623	3545
