Data from test_V78500241_2781.txt Node
Date: Fri Mar 25 17:08:20 CST 2022
User: usil
Spectrometer: V785-0024
Trigger mode: 0
Integration Time (sec): 4.000000E-1
Scans to average: 1
Nonlinearity correction enabled: false
Boxcar width: 0
Storing dark spectrum: false
XAxis mode: Wavelengths
Number of Pixels in Spectrum: 1024
>>>>>Begin Spectral Data<<<<<
801.071	8046
801.214	7963
801.356	7906
801.499	7890
801.641	7784
801.783	7841
801.926	7944
802.068	7978
802.211	7955
802.353	8027
802.496	7993
802.638	7814
802.78	7875
802.923	7864
803.065	7868
803.208	7852
803.35	7963
803.492	8092
803.635	8225
803.777	8100
803.919	8202
804.061	8480
804.204	8195
804.346	8039
804.488	7944
804.63	8142
804.773	8054
804.915	8092
805.057	8229
805.199	8187
805.341	8214
805.483	8362
805.626	8244
805.768	8164
805.91	8142
806.052	8229
806.194	8123
806.336	8298
806.478	8107
806.62	8058
806.762	8130
806.904	8240
807.046	8427
807.188	8370
807.33	8370
807.472	8317
807.614	8180
807.756	8164
807.898	8069
808.04	7879
808.182	7898
808.324	7898
808.465	7970
808.607	8111
808.749	8202
808.891	8290
809.033	8218
809.174	8206
809.316	8073
809.458	8096
809.6	7989
809.741	8031
809.883	7940
810.025	8164
810.166	8077
810.308	8012
810.45	8043
810.591	7841
810.733	7708
810.875	7719
811.016	7552
811.158	7491
811.299	7616
811.441	7727
811.582	7727
811.724	7605
811.865	7525
812.007	7613
812.148	7628
812.29	7582
812.431	7757
812.573	7917
812.714	7986
812.855	8142
812.997	8229
813.138	8313
813.279	8221
813.421	8081
813.562	8084
813.703	7875
813.845	7719
813.986	7430
814.127	7228
814.268	7221
814.41	7194
814.551	7202
814.692	7228
814.833	7061
814.974	7091
815.115	7141
815.256	6932
815.397	6897
815.539	6935
815.68	6863
815.821	6852
815.962	6867
816.103	6818
816.244	6684
816.385	6669
816.526	6665
816.666	6483
816.807	6289
816.948	6460
817.089	6464
817.23	6414
817.371	6380
817.512	6353
817.653	6300
817.793	6342
817.934	6350
818.075	6475
818.216	6414
818.356	6452
818.497	6232
818.638	6114
818.778	6178
818.919	6106
819.06	6152
819.2	6342
819.341	6350
819.481	6418
819.622	6509
819.762	6757
819.903	6760
820.043	6574
820.184	6616
820.324	6570
820.465	6715
820.605	6650
820.746	6662
820.886	6456
821.026	6681
821.167	6681
821.307	6783
821.447	6757
821.588	6677
821.728	6540
821.868	6456
822.008	6304
822.149	6365
822.289	6350
822.429	6136
822.569	6068
822.709	6155
822.849	5977
822.99	5969
823.13	5942
823.27	5927
823.41	5802
823.55	5756
823.69	5802
823.83	5786
823.97	5634
824.11	5535
824.25	5493
824.389	5520
824.529	5600
824.669	5535
824.809	5604
824.949	5630
825.089	5653
825.228	5520
825.368	5368
825.508	5379
825.648	5345
825.787	5410
825.927	5353
826.067	5273
826.206	5322
826.346	5421
826.485	5349
826.625	5406
826.765	5554
826.904	5474
827.044	5254
827.183	5197
827.323	5140
827.462	5235
827.601	5151
827.741	5250
827.88	5242
828.02	5083
828.159	5216
828.298	5341
828.437	5357
828.577	5273
828.716	5425
828.855	5337
828.994	5159
829.134	5166
829.273	5189
829.412	5128
829.551	5128
829.69	5128
829.829	5258
829.968	5383
830.107	5273
830.246	5288
830.385	5128
830.524	5102
830.663	5098
830.802	5010
830.941	4911
831.08	4862
831.219	4987
831.357	4995
831.496	5143
831.635	4949
831.774	4847
831.913	4862
832.051	4759
832.19	4714
832.329	4839
832.467	4698
832.606	4596
832.744	4733
832.883	4759
833.022	4725
833.16	4793
833.299	4843
833.437	4816
833.576	4778
833.714	4831
833.852	4854
833.991	4919
834.129	4938
834.267	5010
834.406	4843
834.544	4980
834.682	4911
834.821	4984
834.959	5170
835.097	4980
835.235	5105
835.373	5159
835.511	5071
835.65	4968
835.788	5006
835.926	4942
836.064	4854
836.202	4889
836.34	5155
836.478	5239
836.615	5064
836.753	5189
836.891	5311
837.029	5269
837.167	5189
837.305	5204
837.443	5128
837.58	5045
837.718	5284
837.856	5147
837.993	5113
838.131	5223
838.269	5223
838.406	5185
838.544	5193
838.681	5014
838.819	5014
838.956	4892
839.094	4908
839.231	4934
839.369	5037
839.506	5478
839.643	5261
839.781	4980
839.918	5033
840.055	5090
840.193	5060
840.33	5109
840.467	5105
840.604	5143
840.742	5444
840.879	5067
841.016	5090
841.153	5151
841.29	5387
841.427	5303
841.564	5307
841.701	5318
841.838	5280
841.975	5223
842.112	5246
842.249	5140
842.385	5105
842.522	5341
842.659	5124
842.796	5166
842.933	5204
843.069	5136
843.206	5113
843.343	5349
843.479	5208
843.616	5315
843.752	5006
843.889	5010
844.025	5204
844.162	5010
844.298	5159
844.435	5064
844.571	5094
844.708	5162
844.844	5307
844.98	5311
845.117	5318
845.253	5105
845.389	5079
845.525	5132
845.661	5140
845.798	5045
845.934	5147
846.07	5079
846.206	5197
846.342	5265
846.478	5159
846.614	5003
846.75	5014
846.886	4942
847.022	5140
847.158	5010
847.294	5094
847.429	5117
847.565	5041
847.701	5357
847.837	4866
847.972	4774
848.108	4904
848.244	4900
848.379	4774
848.515	4733
848.65	4683
848.786	4725
848.921	4755
849.057	4862
849.192	4896
849.328	4801
849.463	4858
849.598	4778
849.734	4752
849.869	4733
850.004	4603
850.14	4702
850.275	4592
850.41	4527
850.545	4558
850.68	4603
850.815	4580
850.95	4615
851.085	4786
851.22	4767
851.355	4691
851.49	4656
851.625	4626
851.76	4603
851.895	4546
852.03	4569
852.165	4622
852.299	4706
852.434	4740
852.569	4740
852.703	4801
852.838	4858
852.973	4961
853.107	4927
853.242	4691
853.376	4675
853.511	4546
853.645	4641
853.78	4816
853.914	4672
854.048	4626
854.183	4641
854.317	4672
854.451	4820
854.585	4649
854.72	4599
854.854	4748
854.988	4603
855.122	4675
855.256	4508
855.39	4656
855.524	4767
855.658	4706
855.792	4694
855.926	4744
856.06	4767
856.194	4771
856.327	4687
856.461	4626
856.595	4626
856.729	4618
856.862	4793
856.996	4691
857.13	4744
857.263	4748
857.397	4790
857.53	4622
857.664	4717
857.797	4752
857.931	4805
858.064	4679
858.197	4748
858.331	4706
858.464	4637
858.597	4523
858.731	4603
858.864	4656
858.997	4626
859.13	4687
859.263	4664
859.396	4729
859.529	4603
859.662	4573
859.795	4596
859.928	4675
860.061	4755
860.194	4736
860.327	4641
860.46	4538
860.592	4721
860.725	4717
860.858	4740
860.99	4580
861.123	4523
861.256	4523
861.388	4668
861.521	5284
861.653	4440
861.786	4432
861.918	4470
862.05	4527
862.183	4573
862.315	4618
862.447	4672
862.58	4561
862.712	4417
862.844	4325
862.976	4508
863.108	4470
863.24	4672
863.372	4379
863.504	4466
863.636	4428
863.768	4443
863.9	4455
864.032	4344
864.164	4386
864.296	4451
864.428	4527
864.559	4554
864.691	4523
864.823	4462
864.954	4504
865.086	4550
865.217	4478
865.349	4360
865.48	4436
865.612	4462
865.743	4618
865.875	4462
866.006	4413
866.137	4489
866.269	4421
866.4	4424
866.531	4447
866.662	4375
866.793	4363
866.924	4398
867.055	4466
867.186	4428
867.317	4417
867.448	4375
867.579	4367
867.71	4379
867.841	4371
867.972	4447
868.103	4424
868.233	4440
868.364	4462
868.495	4489
868.625	4710
868.756	4740
868.886	4580
869.017	4573
869.147	4748
869.278	4744
869.408	4607
869.539	4637
869.669	4717
869.799	4679
869.929	4736
870.06	4721
870.19	4953
870.32	4923
870.45	4889
870.58	5010
870.71	5048
870.84	5098
870.97	4908
871.1	4923
871.23	5128
871.36	5029
871.489	5060
871.619	5071
871.749	5102
871.879	5098
872.008	5132
872.138	5006
872.267	4984
872.397	4847
872.526	4824
872.656	4714
872.785	4809
872.915	4911
873.044	5037
873.173	4930
873.303	4968
873.432	4965
873.561	4942
873.69	4854
873.819	4885
873.948	4949
874.077	4854
874.206	4755
874.335	4820
874.464	4942
874.593	5086
874.722	4984
874.851	5090
874.979	5041
875.108	5037
875.237	4949
875.365	4858
875.494	4866
875.623	4930
875.751	4854
875.88	4885
876.008	4972
876.136	5003
876.265	5189
876.393	5311
876.521	5254
876.65	5254
876.778	5170
876.906	5033
877.034	5006
877.162	5098
877.29	4965
877.418	5029
877.546	5052
877.674	5109
877.802	5022
877.93	5064
878.058	4942
878.185	4854
878.313	4965
878.441	4965
878.568	4847
878.696	4900
878.824	4957
878.951	4987
879.079	5102
879.206	5296
879.333	5060
879.461	4972
879.588	4953
879.715	5048
879.842	5261
879.97	4976
880.097	4801
880.224	4767
880.351	4778
880.478	4786
880.605	4816
880.732	4793
880.859	5124
880.986	4896
881.112	4965
881.239	4805
881.366	4641
881.493	4569
881.619	4592
881.746	4607
881.872	4660
881.999	4660
882.125	4664
882.252	4771
882.378	4812
882.505	4930
882.631	4809
882.757	4645
882.883	4717
883.01	4721
883.136	4691
883.262	4535
883.388	4603
883.514	4812
883.64	4862
883.766	4793
883.892	4691
884.018	4706
884.143	4854
884.269	4999
884.395	4694
884.52	4607
884.646	4664
884.772	4596
884.897	4622
885.023	4645
885.148	4767
885.274	4915
885.399	4790
885.524	4672
885.65	4637
885.775	4797
885.9	4755
886.025	4839
886.15	4793
886.275	4675
886.4	4634
886.525	4736
886.65	4653
886.775	4710
886.9	4877
887.025	5052
887.149	4801
887.274	4675
887.399	4561
887.523	4573
887.648	4588
887.773	4596
887.897	4782
888.021	4820
888.146	4645
888.27	4790
888.395	4889
888.519	4805
888.643	4870
888.767	4866
888.891	4687
889.015	4618
889.139	4596
889.263	4615
889.387	4774
889.511	4858
889.635	4778
889.759	4653
889.883	4660
890.006	4706
890.13	4866
890.254	4603
890.377	4714
890.501	4569
890.624	4546
890.748	4668
890.871	4497
890.995	4474
891.118	4371
891.241	4554
891.364	4523
891.488	4672
891.611	4504
891.734	4542
891.857	4656
891.98	4592
892.103	4706
892.226	4603
892.349	4554
892.471	4459
892.594	4588
892.717	4622
892.839	4611
892.962	4675
893.085	4706
893.207	4691
893.33	4504
893.452	4516
893.575	4687
893.697	4607
893.819	4858
893.941	4866
894.064	4755
894.186	4611
894.308	4634
894.43	4763
894.552	4904
894.674	4778
894.796	4592
894.918	4634
895.04	4645
895.161	4714
895.283	4706
895.405	4577
895.526	4656
895.648	4755
895.769	4714
895.891	4771
896.012	4771
896.134	4786
896.255	4660
896.376	4679
896.498	4634
896.619	4679
896.74	4653
896.861	4675
896.982	4930
897.103	5117
897.224	4862
897.345	4816
897.466	4744
897.587	4774
897.708	4881
897.828	4809
897.949	4706
898.07	4588
898.19	4714
898.311	4889
898.431	4740
898.552	4774
898.672	4862
898.792	4816
898.913	4744
899.033	4637
899.153	4565
899.273	4443
899.393	4535
899.513	4558
899.633	4538
899.753	4584
899.873	4577
899.993	4565
900.113	4558
900.232	4641
900.352	4554
900.472	4493
900.591	4421
900.711	4512
900.83	4497
900.95	4645
901.069	4752
901.189	4546
901.308	4421
901.427	4341
901.546	4436
901.665	4512
901.784	4573
901.904	4432
902.023	4386
902.141	4230
902.26	4207
902.379	4337
902.498	4318
902.617	4276
902.735	4409
902.854	4436
902.973	4371
903.091	4227
903.21	4257
903.328	4352
903.446	4306
903.565	4287
903.683	4375
903.801	4333
903.919	4432
904.038	4451
904.156	4341
904.274	4451
904.392	4443
904.51	4424
904.627	4558
904.745	4622
904.863	4691
904.981	4451
905.098	4367
905.216	4348
905.334	4428
905.451	4474
905.569	4493
905.686	4580
905.803	4584
905.921	4443
906.038	4607
906.155	4500
906.272	4451
906.389	4481
906.506	4402
906.623	4367
906.74	4440
906.857	4367
906.974	4443
907.091	4554
907.208	4691
907.324	4584
907.441	4531
907.557	4356
907.674	4348
907.79	4344
907.907	4413
908.023	4516
908.139	4493
908.256	4432
908.372	4443
908.488	4493
908.604	4375
908.72	4306
908.836	4394
908.952	4485
909.068	4451
909.184	4599
909.3	4500
909.415	4622
909.531	4649
909.647	4375
909.762	4390
909.878	4413
909.993	4447
910.108	4413
910.224	4462
910.339	4561
910.454	4436
910.57	4421
910.685	4394
910.8	4645
910.915	4641
911.03	4523
911.145	4375
911.259	4337
911.374	4443
911.489	4322
911.604	4348
911.718	4230
911.833	4230
911.947	4192
912.062	4071
912.176	4246
912.291	4280
912.405	4287
912.519	4504
912.633	4565
912.748	4417
912.862	4344
912.976	4238
913.09	4131
913.204	4192
913.318	4265
913.431	4363
913.545	4402
913.659	4478
913.772	4390
913.886	4299
914	4295
914.113	4447
914.226	4459
914.34	4402
914.453	4249
914.566	4474
914.68	4344
914.793	4348
914.906	4234
915.019	4158
915.132	4120
915.245	4207
915.358	4227
915.47	4272
915.583	4287
915.696	4295
915.809	4440
915.921	4455
916.034	4242
916.146	4348
916.259	4284
916.371	4405
916.483	4360
916.595	4291
916.708	4299
916.82	4379
916.932	4344
917.044	4341
917.156	4371
917.268	4287
917.38	4299
917.491	4310
917.603	4344
917.715	4451
917.826	4459
917.938	4383
918.049	4261
918.161	4478
918.272	4561
918.384	4592
918.495	4451
918.606	4303
918.717	4238
918.828	4375
918.939	4421
919.05	4284
919.161	4337
919.272	4177
919.383	4234
919.494	4440
919.604	4672
919.715	4432
919.826	4413
919.936	4455
920.047	4550
920.157	4497
920.267	4702
920.378	4599
920.488	4512
920.598	4797
920.708	4911
920.818	4805
920.928	4767
921.038	4976
921.148	4934
921.258	4691
921.368	4577
921.477	4523
921.587	4478
921.697	4390
921.806	4630
921.916	4478
922.025	4318
922.134	4280
922.244	4253
922.353	4390
922.462	4230
922.571	4124
922.68	4078
922.789	4006
922.898	4063
923.007	3979
923.116	4150
923.224	4051
923.333	4074
923.442	4017
923.55	4006
923.659	4101
923.767	4131
923.876	4040
923.984	4147
924.092	3991
924.201	4116
924.309	4101
924.417	4150
924.525	4112
924.633	4139
924.741	4923
924.849	3937
924.956	4154
925.064	3987
925.172	3979
925.279	3975
925.387	4120
925.494	4059
925.602	4207
925.709	4215
925.816	4051
925.924	4166
926.031	4234
926.138	4207
926.245	4234
926.352	4120
926.459	4246
926.566	4318
926.673	4169
926.779	4101
926.886	4105
926.993	3998
927.099	4006
927.206	3987
927.312	3956
927.419	4067
927.525	4078
927.631	4059
927.737	3964
927.843	3972
927.95	3922
928.056	3991
928.162	3994
928.267	4150
928.373	4740
928.479	4154
928.585	3865
928.69	4063
928.796	4109
928.901	4025
929.007	3850
929.112	4025
929.218	4021
929.323	3941
929.428	4010
929.533	4124
929.638	3911
929.743	3953
929.848	4055
929.953	4078
930.058	3930
930.163	3789
930.267	3861
930.372	3979
930.477	3808
930.581	4071
930.685	3994
930.79	3876
930.894	3873
930.998	3857
931.103	4067
931.207	3751
931.311	3724
931.415	3705
931.519	3530
931.623	3603
