Data from test_V78500241_797.txt Node
Date: Fri Mar 25 16:54:32 CST 2022
User: usil
Spectrometer: V785-0024
Trigger mode: 0
Integration Time (sec): 4.000000E-1
Scans to average: 1
Nonlinearity correction enabled: false
Boxcar width: 0
Storing dark spectrum: false
XAxis mode: Wavelengths
Number of Pixels in Spectrum: 1024
>>>>>Begin Spectral Data<<<<<
801.071	8046
801.214	8062
801.356	7932
801.499	7849
801.641	7765
801.783	7845
801.926	8035
802.068	7913
802.211	7932
802.353	7921
802.496	7845
802.638	7799
802.78	7944
802.923	7925
803.065	7883
803.208	7917
803.35	8027
803.492	8107
803.635	8191
803.777	8039
803.919	8123
804.061	8332
804.204	8050
804.346	7978
804.488	8043
804.63	8100
804.773	8020
804.915	8096
805.057	8248
805.199	8195
805.341	8202
805.483	8294
805.626	8214
805.768	8069
805.91	8225
806.052	8240
806.194	8081
806.336	8343
806.478	8069
806.62	8020
806.762	8183
806.904	8301
807.046	8427
807.188	8362
807.33	8324
807.472	8358
807.614	8252
807.756	8062
807.898	7989
808.04	7944
808.182	7860
808.324	7871
808.465	7921
808.607	8024
808.749	8027
808.891	8191
809.033	8324
809.174	8164
809.316	8081
809.458	8024
809.6	8031
809.741	8001
809.883	8020
810.025	8024
810.166	8103
810.308	8073
810.45	8043
810.591	7928
810.733	7704
810.875	7693
811.016	7559
811.158	7556
811.299	7605
811.441	7776
811.582	7643
811.724	7552
811.865	7483
812.007	7544
812.148	7518
812.29	7624
812.431	7761
812.573	7830
812.714	7959
812.855	8187
812.997	8225
813.138	8320
813.279	8157
813.421	8138
813.562	8073
813.703	7955
813.845	7776
813.986	7476
814.127	7240
814.268	7263
814.41	7145
814.551	7099
814.692	7175
814.833	7084
814.974	7114
815.115	7095
815.256	6928
815.397	6905
815.539	6943
815.68	6783
815.821	6779
815.962	6897
816.103	6764
816.244	6642
816.385	6681
816.526	6623
816.666	6475
816.807	6342
816.948	6429
817.089	6452
817.23	6486
817.371	6346
817.512	6422
817.653	6391
817.793	6327
817.934	6441
818.075	6445
818.216	6399
818.356	6445
818.497	6228
818.638	6140
818.778	6125
818.919	6197
819.06	6114
819.2	6262
819.341	6308
819.481	6319
819.622	6517
819.762	6700
819.903	6681
820.043	6582
820.184	6540
820.324	6612
820.465	6677
820.605	6654
820.746	6654
820.886	6486
821.026	6604
821.167	6707
821.307	6791
821.447	6738
821.588	6722
821.728	6555
821.868	6464
822.008	6323
822.149	6407
822.289	6304
822.429	6140
822.569	6072
822.709	6110
822.849	5946
822.99	5927
823.13	5908
823.27	5946
823.41	5786
823.55	5718
823.69	5809
823.83	5783
823.97	5695
824.11	5512
824.25	5455
824.389	5547
824.529	5600
824.669	5547
824.809	5592
824.949	5672
825.089	5600
825.228	5543
825.368	5376
825.508	5273
825.648	5334
825.787	5391
825.927	5383
826.067	5269
826.206	5273
826.346	5337
826.485	5383
826.625	5444
826.765	5535
826.904	5455
827.044	5280
827.183	5242
827.323	5098
827.462	5223
827.601	5166
827.741	5254
827.88	5155
828.02	5102
828.159	5250
828.298	5277
828.437	5372
828.577	5231
828.716	5493
828.855	5280
828.994	5155
829.134	5166
829.273	5155
829.412	5140
829.551	5162
829.69	5170
829.829	5258
829.968	5349
830.107	5277
830.246	5246
830.385	5201
830.524	5136
830.663	5113
830.802	4984
830.941	4870
831.08	4911
831.219	4961
831.357	4972
831.496	5170
831.635	4987
831.774	4873
831.913	4862
832.051	4687
832.19	4740
832.329	4835
832.467	4660
832.606	4641
832.744	4691
832.883	4725
833.022	4736
833.16	4774
833.299	4828
833.437	4801
833.576	4820
833.714	4820
833.852	4854
833.991	4896
834.129	4919
834.267	4942
834.406	4900
834.544	5003
834.682	4949
834.821	4957
834.959	5151
835.097	4976
835.235	5147
835.373	5025
835.511	5098
835.65	4987
835.788	5006
835.926	4854
836.064	4850
836.202	4919
836.34	5143
836.478	5254
836.615	5151
836.753	5178
836.891	5250
837.029	5216
837.167	5246
837.305	5155
837.443	5147
837.58	5128
837.718	5261
837.856	5216
837.993	5140
838.131	5265
838.269	5189
838.406	5201
838.544	5170
838.681	5041
838.819	5052
838.956	4892
839.094	4858
839.231	4965
839.369	5086
839.506	5398
839.643	5269
839.781	5052
839.918	5018
840.055	5113
840.193	5083
840.33	5117
840.467	5128
840.604	5121
840.742	5448
840.879	5109
841.016	5105
841.153	5189
841.29	5383
841.427	5341
841.564	5307
841.701	5368
841.838	5242
841.975	5170
842.112	5246
842.249	5147
842.385	5159
842.522	5364
842.659	5181
842.796	5155
842.933	5147
843.069	5166
843.206	5113
843.343	5292
843.479	5208
843.616	5330
843.752	5003
843.889	4949
844.025	5220
844.162	5006
844.298	5159
844.435	5075
844.571	5025
844.708	5181
844.844	5292
844.98	5337
845.117	5280
845.253	5178
845.389	5037
845.525	5162
845.661	5151
845.798	5029
845.934	5128
846.07	5067
846.206	5181
846.342	5261
846.478	5178
846.614	5090
846.75	4976
846.886	4900
847.022	5151
847.158	5014
847.294	5033
847.429	5071
847.565	5037
847.701	5360
847.837	4843
847.972	4755
848.108	4942
848.244	4923
848.379	4759
848.515	4702
848.65	4729
848.786	4763
848.921	4790
849.057	4843
849.192	4892
849.328	4854
849.463	4816
849.598	4774
849.734	4759
849.869	4649
850.004	4683
850.14	4714
850.275	4596
850.41	4561
850.545	4554
850.68	4565
850.815	4717
850.95	4634
851.085	4843
851.22	4721
851.355	4649
851.49	4550
851.625	4599
851.76	4622
851.895	4527
852.03	4519
852.165	4615
852.299	4702
852.434	4771
852.569	4771
852.703	4740
852.838	4790
852.973	4889
853.107	4976
853.242	4740
853.376	4675
853.511	4538
853.645	4615
853.78	4805
853.914	4710
854.048	4714
854.183	4672
854.317	4721
854.451	4866
854.585	4729
854.72	4672
854.854	4733
854.988	4607
855.122	4630
855.256	4527
855.39	4630
855.524	4752
855.658	4702
855.792	4744
855.926	4694
856.06	4717
856.194	4774
856.327	4691
856.461	4603
856.595	4584
856.729	4588
856.862	4706
856.996	4672
857.13	4710
857.263	4771
857.397	4744
857.53	4615
857.664	4717
857.797	4767
857.931	4752
858.064	4679
858.197	4733
858.331	4675
858.464	4592
858.597	4470
858.731	4611
858.864	4618
858.997	4641
859.13	4618
859.263	4656
859.396	4714
859.529	4592
859.662	4538
859.795	4535
859.928	4622
860.061	4771
860.194	4759
860.327	4573
860.46	4558
860.592	4702
860.725	4675
860.858	4698
860.99	4573
861.123	4531
861.256	4531
861.388	4611
861.521	5265
861.653	4478
861.786	4386
861.918	4485
862.05	4523
862.183	4565
862.315	4603
862.447	4656
862.58	4531
862.712	4417
862.844	4337
862.976	4504
863.108	4485
863.24	4904
863.372	4314
863.504	4428
863.636	4390
863.768	4489
863.9	4447
864.032	4417
864.164	4367
864.296	4474
864.428	4588
864.559	4516
864.691	4535
864.823	4573
864.954	4459
865.086	4497
865.217	4447
865.349	4402
865.48	4417
865.612	4470
865.743	4626
865.875	4443
866.006	4428
866.137	4440
866.269	4417
866.4	4417
866.531	4432
866.662	4390
866.793	4383
866.924	4436
867.055	4489
867.186	4432
867.317	4367
867.448	4390
867.579	4386
867.71	4375
867.841	4398
867.972	4386
868.103	4462
868.233	4451
868.364	4436
868.495	4478
868.625	4622
868.756	4771
868.886	4584
869.017	4618
869.147	4797
869.278	4797
869.408	4656
869.539	4656
869.669	4672
869.799	4656
869.929	4763
870.06	4733
870.19	4904
870.32	4908
870.45	4938
870.58	4965
870.71	5109
870.84	5102
870.97	4911
871.1	4885
871.23	5090
871.36	5098
871.489	5010
871.619	5045
871.749	5086
871.879	5094
872.008	5147
872.138	5033
872.267	5006
872.397	4805
872.526	4733
872.656	4721
872.785	4767
872.915	4934
873.044	4987
873.173	4927
873.303	4965
873.432	4946
873.561	4976
873.69	4904
873.819	4862
873.948	4866
874.077	4835
874.206	4755
874.335	4820
874.464	4877
874.593	5086
874.722	4991
874.851	5067
874.979	5090
875.108	4991
875.237	4881
875.365	4866
875.494	4923
875.623	4987
875.751	4828
875.88	4835
876.008	4968
876.136	5060
876.265	5174
876.393	5349
876.521	5261
876.65	5193
876.778	5109
876.906	5010
877.034	5056
877.162	5071
877.29	5010
877.418	5090
877.546	5025
877.674	5064
877.802	4999
877.93	4968
878.058	4965
878.185	4854
878.313	4961
878.441	4934
878.568	4820
878.696	4820
878.824	4995
878.951	5022
879.079	5128
879.206	5277
879.333	5079
879.461	4923
879.588	4942
879.715	5079
879.842	5181
879.97	4980
880.097	4790
880.224	4721
880.351	4801
880.478	4843
880.605	4790
880.732	4778
880.859	5033
880.986	4835
881.112	4934
881.239	4786
881.366	4698
881.493	4615
881.619	4569
881.746	4637
881.872	4645
881.999	4653
882.125	4702
882.252	4778
882.378	4896
882.505	4934
882.631	4801
882.757	4687
882.883	4725
883.01	4736
883.136	4683
883.262	4554
883.388	4599
883.514	4839
883.64	4816
883.766	4774
883.892	4634
884.018	4675
884.143	4873
884.269	5029
884.395	4668
884.52	4580
884.646	4611
884.772	4615
884.897	4565
885.023	4596
885.148	4755
885.274	4847
885.399	4786
885.524	4721
885.65	4687
885.775	4733
885.9	4664
886.025	4877
886.15	4748
886.275	4729
886.4	4622
886.525	4679
886.65	4698
886.775	4683
886.9	4885
887.025	5041
887.149	4835
887.274	4687
887.399	4550
887.523	4615
887.648	4531
887.773	4592
887.897	4782
888.021	4752
888.146	4694
888.27	4759
888.395	4938
888.519	4831
888.643	4812
888.767	4854
888.891	4717
889.015	4618
889.139	4687
889.263	4634
889.387	4721
889.511	4843
889.635	4797
889.759	4599
889.883	4634
890.006	4725
890.13	4843
890.254	4626
890.377	4660
890.501	4550
890.624	4481
890.748	4637
890.871	4523
890.995	4451
891.118	4398
891.241	4546
891.364	4550
891.488	4615
891.611	4481
891.734	4535
891.857	4596
891.98	4546
892.103	4653
892.226	4569
892.349	4512
892.471	4417
892.594	4531
892.717	4584
892.839	4580
892.962	4542
893.085	4668
893.207	4630
893.33	4485
893.452	4478
893.575	4660
893.697	4599
893.819	4767
893.941	4835
894.064	4755
894.186	4558
894.308	4558
894.43	4740
894.552	4805
894.674	4717
894.796	4523
894.918	4618
895.04	4569
895.161	4694
895.283	4664
895.405	4558
895.526	4588
895.648	4714
895.769	4721
895.891	4710
896.012	4717
896.134	4729
896.255	4672
896.376	4634
896.498	4637
896.619	4702
896.74	4611
896.861	4679
896.982	4911
897.103	5075
897.224	4824
897.345	4717
897.466	4672
897.587	4733
897.708	4816
897.828	4782
897.949	4660
898.07	4584
898.19	4683
898.311	4812
898.431	4668
898.552	4778
898.672	4820
898.792	4805
898.913	4698
899.033	4577
899.153	4500
899.273	4455
899.393	4516
899.513	4466
899.633	4531
899.753	4489
899.873	4512
899.993	4561
900.113	4546
900.232	4584
900.352	4550
900.472	4451
900.591	4402
900.711	4451
900.83	4440
900.95	4599
901.069	4717
901.189	4531
901.308	4352
901.427	4341
901.546	4341
901.665	4417
901.784	4542
901.904	4375
902.023	4356
902.141	4169
902.26	4143
902.379	4265
902.498	4261
902.617	4211
902.735	4379
902.854	4360
902.973	4329
903.091	4227
903.21	4185
903.328	4276
903.446	4295
903.565	4234
903.683	4360
903.801	4318
903.919	4398
904.038	4421
904.156	4318
904.274	4398
904.392	4394
904.51	4390
904.627	4462
904.745	4592
904.863	4588
904.981	4409
905.098	4261
905.216	4314
905.334	4409
905.451	4447
905.569	4474
905.686	4592
905.803	4558
905.921	4413
906.038	4535
906.155	4493
906.272	4402
906.389	4474
906.506	4363
906.623	4363
906.74	4375
906.857	4265
906.974	4352
907.091	4519
907.208	4649
907.324	4554
907.441	4451
907.557	4325
907.674	4299
907.79	4280
907.907	4348
908.023	4485
908.139	4466
908.256	4424
908.372	4497
908.488	4432
908.604	4356
908.72	4303
908.836	4363
908.952	4337
909.068	4455
909.184	4531
909.3	4462
909.415	4607
909.531	4470
909.647	4329
909.762	4341
909.878	4333
909.993	4485
910.108	4402
910.224	4421
910.339	4470
910.454	4390
910.57	4394
910.685	4276
910.8	4596
910.915	4561
911.03	4478
911.145	4348
911.259	4303
911.374	4379
911.489	4268
911.604	4238
911.718	4185
911.833	4211
911.947	4071
912.062	4021
912.176	4181
912.291	4188
912.405	4230
912.519	4447
912.633	4470
912.748	4409
912.862	4341
912.976	4192
913.09	4063
913.204	4173
913.318	4246
913.431	4386
913.545	4379
913.659	4432
913.772	4348
913.886	4284
914	4207
914.113	4375
914.226	4417
914.34	4341
914.453	4284
914.566	4443
914.68	4272
914.793	4261
914.906	4158
915.019	4067
915.132	4109
915.245	4185
915.358	4272
915.47	4207
915.583	4249
915.696	4295
915.809	4383
915.921	4379
916.034	4253
916.146	4280
916.259	4234
916.371	4325
916.483	4375
916.595	4196
916.708	4306
916.82	4299
916.932	4257
917.044	4299
917.156	4295
917.268	4181
917.38	4265
917.491	4295
917.603	4287
917.715	4474
917.826	4447
917.938	4383
918.049	4207
918.161	4375
918.272	4535
918.384	4535
918.495	4440
918.606	4280
918.717	4227
918.828	4310
918.939	4344
919.05	4234
919.161	4322
919.272	4097
919.383	4162
919.494	4462
919.604	4596
919.715	4424
919.826	4352
919.936	4424
920.047	4523
920.157	4493
920.267	4717
920.378	4554
920.488	4516
920.598	4706
920.708	4870
920.818	4721
920.928	4744
921.038	4923
921.148	4946
921.258	4634
921.368	4519
921.477	4512
921.587	4455
921.697	4363
921.806	4550
921.916	4409
922.025	4303
922.134	4276
922.244	4223
922.353	4318
922.462	4204
922.571	4139
922.68	4048
922.789	3975
922.898	4036
923.007	3987
923.116	4128
923.224	4036
923.333	4093
923.442	3987
923.55	3994
923.659	4002
923.767	4090
923.876	3975
923.984	4143
924.092	4006
924.201	4116
924.309	4135
924.417	4090
924.525	4025
924.633	4105
924.741	4870
924.849	3922
924.956	4158
925.064	3941
925.172	3884
925.279	3972
925.387	4029
925.494	4074
925.602	4215
925.709	4219
925.816	4017
925.924	4143
926.031	4219
926.138	4188
926.245	4188
926.352	4059
926.459	4242
926.566	4280
926.673	4169
926.779	4109
926.886	4051
926.993	4010
927.099	4002
927.206	3956
927.312	3983
927.419	4036
927.525	3979
927.631	4131
927.737	3964
927.843	3941
927.95	3884
928.056	3953
928.162	3987
928.267	4044
928.373	4660
928.479	4097
928.585	3850
928.69	4055
928.796	4059
928.901	3983
929.007	3842
929.112	3994
929.218	3960
929.323	3884
929.428	3953
929.533	4090
929.638	3884
929.743	3926
929.848	4090
929.953	4010
930.058	3892
930.163	3808
930.267	3816
930.372	3956
930.477	3823
930.581	4120
930.685	3991
930.79	3857
930.894	3888
930.998	3865
931.103	4044
931.207	3705
931.311	3671
931.415	3675
931.519	3477
931.623	3549
