Data from test_V78500241_2340.txt Node
Date: Fri Mar 25 17:05:16 CST 2022
User: usil
Spectrometer: V785-0024
Trigger mode: 0
Integration Time (sec): 4.000000E-1
Scans to average: 1
Nonlinearity correction enabled: false
Boxcar width: 0
Storing dark spectrum: false
XAxis mode: Wavelengths
Number of Pixels in Spectrum: 1024
>>>>>Begin Spectral Data<<<<<
801.071	8069
801.214	8027
801.356	7883
801.499	7830
801.641	7814
801.783	7841
801.926	7997
802.068	8005
802.211	8031
802.353	8031
802.496	7906
802.638	7902
802.78	7928
802.923	7871
803.065	7951
803.208	7902
803.35	7970
803.492	8016
803.635	8161
803.777	8016
803.919	8054
804.061	8450
804.204	8172
804.346	8126
804.488	8016
804.63	8111
804.773	7986
804.915	8077
805.057	8282
805.199	8145
805.341	8153
805.483	8244
805.626	8294
805.768	8183
805.91	8240
806.052	8240
806.194	8100
806.336	8332
806.478	8103
806.62	8058
806.762	8115
806.904	8317
807.046	8423
807.188	8347
807.33	8347
807.472	8332
807.614	8191
807.756	8199
807.898	7997
808.04	7868
808.182	7864
808.324	7856
808.465	7955
808.607	8054
808.749	8088
808.891	8221
809.033	8301
809.174	8225
809.316	8168
809.458	8103
809.6	8027
809.741	7974
809.883	8035
810.025	8130
810.166	8016
810.308	8073
810.45	8046
810.591	7906
810.733	7799
810.875	7704
811.016	7544
811.158	7411
811.299	7567
811.441	7704
811.582	7708
811.724	7597
811.865	7499
812.007	7647
812.148	7571
812.29	7636
812.431	7757
812.573	7871
812.714	8005
812.855	8115
812.997	8161
813.138	8343
813.279	8145
813.421	8081
813.562	7944
813.703	7856
813.845	7750
813.986	7502
814.127	7293
814.268	7225
814.41	7259
814.551	7164
814.692	7206
814.833	7091
814.974	7137
815.115	7168
815.256	6993
815.397	6924
815.539	6935
815.68	6798
815.821	6798
815.962	6867
816.103	6856
816.244	6734
816.385	6646
816.526	6646
816.666	6486
816.807	6342
816.948	6429
817.089	6509
817.23	6486
817.371	6426
817.512	6391
817.653	6441
817.793	6361
817.934	6441
818.075	6437
818.216	6410
818.356	6407
818.497	6262
818.638	6136
818.778	6114
818.919	6159
819.06	6178
819.2	6391
819.341	6380
819.481	6350
819.622	6532
819.762	6738
819.903	6681
820.043	6544
820.184	6582
820.324	6642
820.465	6707
820.605	6703
820.746	6707
820.886	6452
821.026	6669
821.167	6738
821.307	6802
821.447	6783
821.588	6719
821.728	6589
821.868	6498
822.008	6369
822.149	6365
822.289	6407
822.429	6136
822.569	6133
822.709	6152
822.849	5935
822.99	5939
823.13	5927
823.27	5874
823.41	5790
823.55	5783
823.69	5714
823.83	5802
823.97	5680
824.11	5577
824.25	5547
824.389	5547
824.529	5596
824.669	5611
824.809	5608
824.949	5748
825.089	5665
825.228	5573
825.368	5387
825.508	5337
825.648	5395
825.787	5425
825.927	5421
826.067	5341
826.206	5318
826.346	5376
826.485	5474
826.625	5425
826.765	5539
826.904	5535
827.044	5292
827.183	5246
827.323	5181
827.462	5284
827.601	5201
827.741	5223
827.88	5265
828.02	5102
828.159	5254
828.298	5315
828.437	5452
828.577	5311
828.716	5490
828.855	5368
828.994	5181
829.134	5174
829.273	5208
829.412	5235
829.551	5174
829.69	5204
829.829	5299
829.968	5383
830.107	5284
830.246	5353
830.385	5231
830.524	5197
830.663	5094
830.802	4995
830.941	4934
831.08	4949
831.219	5083
831.357	5022
831.496	5109
831.635	4946
831.774	4881
831.913	4885
832.051	4782
832.19	4786
832.329	4873
832.467	4725
832.606	4660
832.744	4759
832.883	4729
833.022	4744
833.16	4828
833.299	4923
833.437	4881
833.576	4835
833.714	4908
833.852	4908
833.991	4938
834.129	5006
834.267	5006
834.406	4976
834.544	4991
834.682	5075
834.821	5041
834.959	5143
835.097	5029
835.235	5159
835.373	5124
835.511	5132
835.65	5037
835.788	5079
835.926	4938
836.064	4938
836.202	4965
836.34	5261
836.478	5239
836.615	5174
836.753	5311
836.891	5284
837.029	5311
837.167	5292
837.305	5189
837.443	5147
837.58	5121
837.718	5296
837.856	5231
837.993	5231
838.131	5330
838.269	5261
838.406	5242
838.544	5231
838.681	5079
838.819	5045
838.956	4889
839.094	4953
839.231	5018
839.369	5140
839.506	5497
839.643	5303
839.781	5151
839.918	5041
840.055	5181
840.193	5166
840.33	5162
840.467	5151
840.604	5212
840.742	5421
840.879	5083
841.016	5071
841.153	5201
841.29	5372
841.427	5360
841.564	5364
841.701	5372
841.838	5261
841.975	5296
842.112	5341
842.249	5208
842.385	5151
842.522	5379
842.659	5151
842.796	5181
842.933	5235
843.069	5170
843.206	5170
843.343	5322
843.479	5254
843.616	5318
843.752	5056
843.889	5064
844.025	5261
844.162	5060
844.298	5235
844.435	5109
844.571	5075
844.708	5223
844.844	5303
844.98	5341
845.117	5345
845.253	5121
845.389	5159
845.525	5220
845.661	5193
845.798	5128
845.934	5155
846.07	5079
846.206	5265
846.342	5326
846.478	5201
846.614	5045
846.75	5003
846.886	4946
847.022	5178
847.158	5010
847.294	5117
847.429	5117
847.565	5052
847.701	5322
847.837	4911
847.972	4847
848.108	4953
848.244	4953
848.379	4809
848.515	4778
848.65	4778
848.786	4793
848.921	4831
849.057	4923
849.192	4953
849.328	4816
849.463	4881
849.598	4866
849.734	4831
849.869	4679
850.004	4596
850.14	4702
850.275	4596
850.41	4569
850.545	4611
850.68	4664
850.815	4649
850.95	4637
851.085	4824
851.22	4729
851.355	4717
851.49	4679
851.625	4618
851.76	4630
851.895	4592
852.03	4569
852.165	4706
852.299	4755
852.434	4820
852.569	4774
852.703	4767
852.838	4870
852.973	4991
853.107	4972
853.242	4748
853.376	4664
853.511	4573
853.645	4634
853.78	4904
853.914	4679
854.048	4702
854.183	4656
854.317	4748
854.451	4870
854.585	4664
854.72	4668
854.854	4786
854.988	4611
855.122	4672
855.256	4569
855.39	4752
855.524	4790
855.658	4721
855.792	4714
855.926	4763
856.06	4816
856.194	4790
856.327	4706
856.461	4637
856.595	4641
856.729	4660
856.862	4771
856.996	4721
857.13	4759
857.263	4786
857.397	4854
857.53	4729
857.664	4729
857.797	4744
857.931	4801
858.064	4714
858.197	4786
858.331	4672
858.464	4653
858.597	4611
858.731	4630
858.864	4664
858.997	4622
859.13	4687
859.263	4748
859.396	4793
859.529	4596
859.662	4580
859.795	4603
859.928	4653
860.061	4786
860.194	4767
860.327	4603
860.46	4599
860.592	4748
860.725	4820
860.858	4736
860.99	4611
861.123	4527
861.256	4580
861.388	4618
861.521	5387
861.653	4508
861.786	4466
861.918	4451
862.05	4546
862.183	4538
862.315	4618
862.447	4672
862.58	4611
862.712	4432
862.844	4352
862.976	4508
863.108	4523
863.24	4900
863.372	4363
863.504	4443
863.636	4478
863.768	4497
863.9	4474
864.032	4383
864.164	4371
864.296	4474
864.428	4588
864.559	4554
864.691	4558
864.823	4565
864.954	4489
865.086	4554
865.217	4462
865.349	4413
865.48	4493
865.612	4535
865.743	4668
865.875	4504
866.006	4504
866.137	4516
866.269	4478
866.4	4447
866.531	4462
866.662	4386
866.793	4428
866.924	4432
867.055	4531
867.186	4527
867.317	4478
867.448	4428
867.579	4451
867.71	4386
867.841	4379
867.972	4516
868.103	4462
868.233	4459
868.364	4470
868.495	4500
868.625	4672
868.756	4778
868.886	4588
869.017	4584
869.147	4782
869.278	4812
869.408	4717
869.539	4691
869.669	4740
869.799	4706
869.929	4793
870.06	4755
870.19	5010
870.32	4946
870.45	4957
870.58	5060
870.71	5071
870.84	5117
870.97	4972
871.1	4908
871.23	5132
871.36	5147
871.489	5067
871.619	5136
871.749	5136
871.879	5170
872.008	5212
872.138	5067
872.267	5037
872.397	4892
872.526	4835
872.656	4736
872.785	4812
872.915	4934
873.044	5083
873.173	4919
873.303	5006
873.432	5022
873.561	4972
873.69	4873
873.819	4850
873.948	4919
874.077	4816
874.206	4778
874.335	4839
874.464	4938
874.593	5060
874.722	5018
874.851	5162
874.979	5064
875.108	5064
875.237	4946
875.365	4873
875.494	4923
875.623	5022
875.751	4889
875.88	4885
876.008	5022
876.136	5113
876.265	5204
876.393	5402
876.521	5277
876.65	5220
876.778	5174
876.906	5083
877.034	5048
877.162	5071
877.29	5071
877.418	5086
877.546	5075
877.674	5041
877.802	5064
877.93	5071
878.058	4942
878.185	4938
878.313	5018
878.441	4980
878.568	4850
878.696	4892
878.824	4999
878.951	4980
879.079	5174
879.206	5322
879.333	5075
879.461	5014
879.588	5052
879.715	5136
879.842	5265
879.97	5003
880.097	4797
880.224	4767
880.351	4801
880.478	4831
880.605	4824
880.732	4793
880.859	5128
880.986	4934
881.112	4949
881.239	4850
881.366	4683
881.493	4592
881.619	4611
881.746	4626
881.872	4664
881.999	4649
882.125	4736
882.252	4778
882.378	4850
882.505	5006
882.631	4858
882.757	4630
882.883	4733
883.01	4767
883.136	4717
883.262	4618
883.388	4664
883.514	4809
883.64	4866
883.766	4763
883.892	4714
884.018	4736
884.143	4896
884.269	4949
884.395	4683
884.52	4634
884.646	4683
884.772	4607
884.897	4577
885.023	4729
885.148	4790
885.274	4850
885.399	4850
885.524	4740
885.65	4710
885.775	4790
885.9	4759
886.025	4892
886.15	4774
886.275	4694
886.4	4675
886.525	4816
886.65	4733
886.775	4736
886.9	4961
887.025	5045
887.149	4820
887.274	4656
887.399	4592
887.523	4664
887.648	4626
887.773	4626
887.897	4816
888.021	4831
888.146	4744
888.27	4816
888.395	4927
888.519	4824
888.643	4793
888.767	4873
888.891	4706
889.015	4603
889.139	4687
889.263	4599
889.387	4809
889.511	4850
889.635	4797
889.759	4656
889.883	4649
890.006	4763
890.13	4831
890.254	4725
890.377	4664
890.501	4516
890.624	4508
890.748	4634
890.871	4542
890.995	4466
891.118	4409
891.241	4478
891.364	4588
891.488	4675
891.611	4519
891.734	4588
891.857	4634
891.98	4580
892.103	4725
892.226	4645
892.349	4531
892.471	4462
892.594	4573
892.717	4611
892.839	4622
892.962	4630
893.085	4698
893.207	4618
893.33	4489
893.452	4584
893.575	4653
893.697	4577
893.819	4778
893.941	4870
894.064	4793
894.186	4588
894.308	4580
894.43	4767
894.552	4839
894.674	4763
894.796	4577
894.918	4634
895.04	4603
895.161	4687
895.283	4653
895.405	4618
895.526	4637
895.648	4721
895.769	4721
895.891	4721
896.012	4752
896.134	4771
896.255	4679
896.376	4660
896.498	4607
896.619	4706
896.74	4550
896.861	4679
896.982	4980
897.103	5098
897.224	4843
897.345	4809
897.466	4660
897.587	4744
897.708	4816
897.828	4797
897.949	4687
898.07	4592
898.19	4683
898.311	4820
898.431	4675
898.552	4725
898.672	4809
898.792	4831
898.913	4748
899.033	4618
899.153	4508
899.273	4474
899.393	4493
899.513	4523
899.633	4527
899.753	4519
899.873	4493
899.993	4626
900.113	4573
900.232	4630
900.352	4546
900.472	4531
900.591	4413
900.711	4500
900.83	4432
900.95	4611
901.069	4710
901.189	4554
901.308	4398
901.427	4329
901.546	4405
901.665	4436
901.784	4489
901.904	4413
902.023	4329
902.141	4181
902.26	4162
902.379	4356
902.498	4314
902.617	4257
902.735	4402
902.854	4432
902.973	4352
903.091	4196
903.21	4185
903.328	4314
903.446	4314
903.565	4261
903.683	4386
903.801	4329
903.919	4428
904.038	4440
904.156	4325
904.274	4428
904.392	4417
904.51	4424
904.627	4447
904.745	4588
904.863	4630
904.981	4398
905.098	4284
905.216	4360
905.334	4432
905.451	4436
905.569	4428
905.686	4569
905.803	4523
905.921	4428
906.038	4596
906.155	4508
906.272	4371
906.389	4443
906.506	4360
906.623	4451
906.74	4386
906.857	4337
906.974	4371
907.091	4577
907.208	4672
907.324	4580
907.441	4478
907.557	4356
907.674	4375
907.79	4325
907.907	4371
908.023	4516
908.139	4504
908.256	4432
908.372	4485
908.488	4459
908.604	4371
908.72	4287
908.836	4371
908.952	4383
909.068	4436
909.184	4546
909.3	4500
909.415	4641
909.531	4546
909.647	4386
909.762	4344
909.878	4367
909.993	4440
910.108	4428
910.224	4447
910.339	4481
910.454	4409
910.57	4352
910.685	4344
910.8	4656
910.915	4599
911.03	4523
911.145	4333
911.259	4322
911.374	4379
911.489	4303
911.604	4291
911.718	4158
911.833	4219
911.947	4090
912.062	4059
912.176	4253
912.291	4261
912.405	4268
912.519	4523
912.633	4508
912.748	4424
912.862	4295
912.976	4200
913.09	4112
913.204	4166
913.318	4253
913.431	4356
913.545	4348
913.659	4466
913.772	4356
913.886	4284
914	4227
914.113	4390
914.226	4440
914.34	4371
914.453	4246
914.566	4405
914.68	4310
914.793	4303
914.906	4162
915.019	4101
915.132	4097
915.245	4150
915.358	4207
915.47	4219
915.583	4253
915.696	4280
915.809	4417
915.921	4432
916.034	4211
916.146	4242
916.259	4223
916.371	4386
916.483	4341
916.595	4238
916.708	4356
916.82	4348
916.932	4322
917.044	4333
917.156	4303
917.268	4246
917.38	4261
917.491	4314
917.603	4310
917.715	4405
917.826	4421
917.938	4367
918.049	4215
918.161	4386
918.272	4561
918.384	4577
918.495	4493
918.606	4329
918.717	4261
918.828	4409
918.939	4367
919.05	4238
919.161	4295
919.272	4139
919.383	4265
919.494	4470
919.604	4622
919.715	4436
919.826	4367
919.936	4398
920.047	4554
920.157	4493
920.267	4694
920.378	4565
920.488	4497
920.598	4717
920.708	4854
920.818	4721
920.928	4733
921.038	4930
921.148	4946
921.258	4596
921.368	4588
921.477	4504
921.587	4440
921.697	4379
921.806	4527
921.916	4413
922.025	4249
922.134	4287
922.244	4219
922.353	4360
922.462	4211
922.571	4177
922.68	4021
922.789	4002
922.898	4051
923.007	3983
923.116	4097
923.224	4048
923.333	4086
923.442	4010
923.55	3960
923.659	4093
923.767	4032
923.876	4010
923.984	4116
924.092	4021
924.201	4086
924.309	4082
924.417	4154
924.525	4074
924.633	4071
924.741	5045
924.849	3991
924.956	4116
925.064	3979
925.172	3918
925.279	3956
925.387	4044
925.494	4055
925.602	4242
925.709	4162
925.816	4055
925.924	4128
926.031	4246
926.138	4188
926.245	4215
926.352	4090
926.459	4234
926.566	4303
926.673	4105
926.779	4101
926.886	4101
926.993	3979
927.099	3964
927.206	3953
927.312	3960
927.419	4036
927.525	4063
927.631	4120
927.737	4002
927.843	3972
927.95	3819
928.056	3956
928.162	3994
928.267	4059
928.373	4580
928.479	4131
928.585	3876
928.69	4029
928.796	4059
928.901	3975
929.007	3857
929.112	4010
929.218	3991
929.323	3926
929.428	3949
929.533	4097
929.638	3903
929.743	4017
929.848	4021
929.953	4032
930.058	3926
930.163	3781
930.267	3804
930.372	4010
930.477	3812
930.581	4120
930.685	3968
930.79	3857
930.894	3876
930.998	3819
931.103	4059
931.207	3728
931.311	3675
931.415	3709
931.519	3526
931.623	3580
