Data from test_V78500241_289.txt Node
Date: Fri Mar 25 16:51:00 CST 2022
User: usil
Spectrometer: V785-0024
Trigger mode: 0
Integration Time (sec): 4.000000E-1
Scans to average: 1
Nonlinearity correction enabled: false
Boxcar width: 0
Storing dark spectrum: false
XAxis mode: Wavelengths
Number of Pixels in Spectrum: 1024
>>>>>Begin Spectral Data<<<<<
801.071	8077
801.214	7974
801.356	7928
801.499	7917
801.641	7940
801.783	7803
801.926	8073
802.068	7913
802.211	7944
802.353	7986
802.496	7890
802.638	7989
802.78	7974
802.923	7932
803.065	7917
803.208	7898
803.35	7978
803.492	8039
803.635	8126
803.777	8024
803.919	8206
804.061	8450
804.204	8138
804.346	8084
804.488	7997
804.63	8119
804.773	8065
804.915	8046
805.057	8301
805.199	8206
805.341	8240
805.483	8229
805.626	8229
805.768	8024
805.91	8191
806.052	8214
806.194	8081
806.336	8221
806.478	8145
806.62	8096
806.762	8100
806.904	8290
807.046	8465
807.188	8389
807.33	8290
807.472	8336
807.614	8183
807.756	8164
807.898	7951
808.04	7875
808.182	7928
808.324	7906
808.465	7906
808.607	8100
808.749	8145
808.891	8240
809.033	8282
809.174	8142
809.316	8073
809.458	8081
809.6	7978
809.741	8008
809.883	8031
810.025	8100
810.166	8161
810.308	8103
810.45	7993
810.591	7879
810.733	7765
810.875	7719
811.016	7468
811.158	7601
811.299	7594
811.441	7757
811.582	7700
811.724	7662
811.865	7556
812.007	7628
812.148	7685
812.29	7620
812.431	7803
812.573	7894
812.714	8001
812.855	8202
812.997	8202
813.138	8377
813.279	8210
813.421	8107
813.562	8046
813.703	7898
813.845	7792
813.986	7491
814.127	7278
814.268	7270
814.41	7278
814.551	7293
814.692	7251
814.833	7080
814.974	7091
815.115	7114
815.256	6962
815.397	6920
815.539	6928
815.68	6837
815.821	6757
815.962	6928
816.103	6821
816.244	6726
816.385	6608
816.526	6722
816.666	6547
816.807	6308
816.948	6475
817.089	6483
817.23	6445
817.371	6452
817.512	6407
817.653	6403
817.793	6391
817.934	6426
818.075	6475
818.216	6467
818.356	6464
818.497	6323
818.638	6197
818.778	6159
818.919	6178
819.06	6140
819.2	6376
819.341	6308
819.481	6395
819.622	6559
819.762	6753
819.903	6722
820.043	6620
820.184	6650
820.324	6559
820.465	6688
820.605	6688
820.746	6719
820.886	6441
821.026	6578
821.167	6745
821.307	6825
821.447	6837
821.588	6650
821.728	6631
821.868	6551
822.008	6315
822.149	6369
822.289	6429
822.429	6144
822.569	6106
822.709	6095
822.849	5927
822.99	5912
823.13	5912
823.27	5931
823.41	5863
823.55	5817
823.69	5790
823.83	5745
823.97	5737
824.11	5592
824.25	5543
824.389	5535
824.529	5596
824.669	5528
824.809	5661
824.949	5657
825.089	5592
825.228	5554
825.368	5398
825.508	5383
825.648	5429
825.787	5444
825.927	5341
826.067	5299
826.206	5326
826.346	5417
826.485	5448
826.625	5421
826.765	5532
826.904	5486
827.044	5254
827.183	5231
827.323	5220
827.462	5265
827.601	5204
827.741	5174
827.88	5231
828.02	5128
828.159	5296
828.298	5280
828.437	5349
828.577	5269
828.716	5501
828.855	5360
828.994	5212
829.134	5151
829.273	5204
829.412	5239
829.551	5113
829.69	5204
829.829	5337
829.968	5376
830.107	5235
830.246	5307
830.385	5212
830.524	5155
830.663	5094
830.802	5037
830.941	4870
831.08	4900
831.219	5022
831.357	5006
831.496	5155
831.635	4938
831.774	4892
831.913	4889
832.051	4774
832.19	4733
832.329	4812
832.467	4717
832.606	4691
832.744	4759
832.883	4790
833.022	4702
833.16	4843
833.299	4847
833.437	4835
833.576	4843
833.714	4911
833.852	4877
833.991	4889
834.129	4984
834.267	4953
834.406	4900
834.544	4995
834.682	4965
834.821	4957
834.959	5185
835.097	5048
835.235	5159
835.373	5105
835.511	5117
835.65	5045
835.788	5010
835.926	4908
836.064	4862
836.202	4949
836.34	5185
836.478	5201
836.615	5121
836.753	5254
836.891	5239
837.029	5303
837.167	5208
837.305	5170
837.443	5128
837.58	5067
837.718	5277
837.856	5197
837.993	5143
838.131	5239
838.269	5204
838.406	5208
838.544	5162
838.681	5056
838.819	5067
838.956	4889
839.094	4923
839.231	5006
839.369	5136
839.506	5455
839.643	5303
839.781	5064
839.918	5060
840.055	5117
840.193	5132
840.33	5094
840.467	5189
840.604	5254
840.742	5455
840.879	5102
841.016	5143
841.153	5197
841.29	5395
841.427	5368
841.564	5360
841.701	5353
841.838	5334
841.975	5220
842.112	5292
842.249	5155
842.385	5094
842.522	5353
842.659	5220
842.796	5170
842.933	5235
843.069	5189
843.206	5201
843.343	5318
843.479	5265
843.616	5246
843.752	5056
843.889	5025
844.025	5273
844.162	5003
844.298	5227
844.435	5045
844.571	5033
844.708	5212
844.844	5334
844.98	5334
845.117	5292
845.253	5178
845.389	5094
845.525	5178
845.661	5136
845.798	5041
845.934	5113
846.07	5045
846.206	5208
846.342	5292
846.478	5208
846.614	5075
846.75	4984
846.886	4949
847.022	5151
847.158	5022
847.294	5121
847.429	5071
847.565	5075
847.701	5364
847.837	4870
847.972	4801
848.108	5025
848.244	4976
848.379	4767
848.515	4740
848.65	4706
848.786	4774
848.921	4755
849.057	4866
849.192	4854
849.328	4816
849.463	4816
849.598	4786
849.734	4748
849.869	4649
850.004	4645
850.14	4668
850.275	4626
850.41	4508
850.545	4542
850.68	4573
850.815	4577
850.95	4649
851.085	4858
851.22	4797
851.355	4687
851.49	4672
851.625	4630
851.76	4618
851.895	4561
852.03	4519
852.165	4664
852.299	4729
852.434	4805
852.569	4820
852.703	4767
852.838	4824
852.973	4908
853.107	4949
853.242	4721
853.376	4641
853.511	4538
853.645	4622
853.78	4873
853.914	4641
854.048	4664
854.183	4660
854.317	4729
854.451	4873
854.585	4641
854.72	4645
854.854	4752
854.988	4641
855.122	4622
855.256	4512
855.39	4672
855.524	4797
855.658	4771
855.792	4729
855.926	4744
856.06	4774
856.194	4797
856.327	4694
856.461	4641
856.595	4664
856.729	4702
856.862	4782
856.996	4679
857.13	4710
857.263	4763
857.397	4778
857.53	4596
857.664	4710
857.797	4816
857.931	4847
858.064	4687
858.197	4729
858.331	4702
858.464	4599
858.597	4535
858.731	4584
858.864	4698
858.997	4637
859.13	4702
859.263	4702
859.396	4721
859.529	4588
859.662	4592
859.795	4538
859.928	4656
860.061	4790
860.194	4774
860.327	4630
860.46	4603
860.592	4721
860.725	4721
860.858	4675
860.99	4607
861.123	4561
861.256	4531
861.388	4596
861.521	5296
861.653	4531
861.786	4459
861.918	4432
862.05	4535
862.183	4558
862.315	4615
862.447	4683
862.58	4573
862.712	4436
862.844	4383
862.976	4455
863.108	4485
863.24	4854
863.372	4344
863.504	4462
863.636	4436
863.768	4512
863.9	4440
864.032	4360
864.164	4383
864.296	4474
864.428	4542
864.559	4554
864.691	4519
864.823	4561
864.954	4516
865.086	4523
865.217	4516
865.349	4462
865.48	4440
865.612	4470
865.743	4645
865.875	4504
866.006	4394
866.137	4478
866.269	4451
866.4	4421
866.531	4413
866.662	4417
866.793	4436
866.924	4375
867.055	4527
867.186	4459
867.317	4417
867.448	4367
867.579	4405
867.71	4432
867.841	4394
867.972	4474
868.103	4474
868.233	4489
868.364	4428
868.495	4523
868.625	4637
868.756	4771
868.886	4611
869.017	4569
869.147	4774
869.278	4790
869.408	4645
869.539	4675
869.669	4714
869.799	4679
869.929	4771
870.06	4771
870.19	4957
870.32	4862
870.45	4946
870.58	5037
870.71	5083
870.84	5071
870.97	4995
871.1	4938
871.23	5128
871.36	5128
871.489	5010
871.619	5075
871.749	5109
871.879	5140
872.008	5212
872.138	5064
872.267	4968
872.397	4824
872.526	4831
872.656	4710
872.785	4767
872.915	4953
873.044	5033
873.173	5010
873.303	4999
873.432	4938
873.561	4953
873.69	4908
873.819	4870
873.948	4942
874.077	4847
874.206	4782
874.335	4850
874.464	4923
874.593	5056
874.722	5003
874.851	5113
874.979	5113
875.108	5060
875.237	4919
875.365	4953
875.494	4885
875.623	4938
875.751	4854
875.88	4820
876.008	4995
876.136	5006
876.265	5246
876.393	5364
876.521	5246
876.65	5174
876.778	5235
876.906	5025
877.034	4984
877.162	5022
877.29	5052
877.418	5048
877.546	5048
877.674	5025
877.802	5010
877.93	5003
878.058	4949
878.185	4870
878.313	4938
878.441	4957
878.568	4793
878.696	4877
878.824	4965
878.951	5003
879.079	5155
879.206	5330
879.333	5098
879.461	4987
879.588	4961
879.715	5189
879.842	5178
879.97	4957
880.097	4782
880.224	4793
880.351	4801
880.478	4835
880.605	4797
880.732	4831
880.859	5140
880.986	4919
881.112	4934
881.239	4793
881.366	4683
881.493	4645
881.619	4565
881.746	4607
881.872	4630
881.999	4653
882.125	4717
882.252	4759
882.378	4820
882.505	4984
882.631	4835
882.757	4660
882.883	4782
883.01	4736
883.136	4626
883.262	4603
883.388	4626
883.514	4790
883.64	4889
883.766	4805
883.892	4630
884.018	4767
884.143	4942
884.269	5029
884.395	4683
884.52	4660
884.646	4611
884.772	4634
884.897	4611
885.023	4653
885.148	4820
885.274	4885
885.399	4797
885.524	4759
885.65	4710
885.775	4755
885.9	4714
886.025	4809
886.15	4797
886.275	4698
886.4	4596
886.525	4710
886.65	4721
886.775	4664
886.9	4904
887.025	5052
887.149	4774
887.274	4634
887.399	4592
887.523	4599
887.648	4554
887.773	4618
887.897	4759
888.021	4786
888.146	4694
888.27	4854
888.395	4953
888.519	4816
888.643	4782
888.767	4771
888.891	4717
889.015	4615
889.139	4656
889.263	4603
889.387	4790
889.511	4877
889.635	4850
889.759	4675
889.883	4641
890.006	4717
890.13	4831
890.254	4675
890.377	4714
890.501	4577
890.624	4504
890.748	4615
890.871	4493
890.995	4443
891.118	4470
891.241	4550
891.364	4538
891.488	4649
891.611	4481
891.734	4561
891.857	4622
891.98	4599
892.103	4656
892.226	4622
892.349	4512
892.471	4459
892.594	4569
892.717	4618
892.839	4527
892.962	4649
893.085	4649
893.207	4622
893.33	4508
893.452	4546
893.575	4668
893.697	4580
893.819	4797
893.941	4793
894.064	4721
894.186	4584
894.308	4588
894.43	4660
894.552	4828
894.674	4679
894.796	4580
894.918	4573
895.04	4588
895.161	4744
895.283	4668
895.405	4584
895.526	4637
895.648	4706
895.769	4721
895.891	4721
896.012	4755
896.134	4702
896.255	4649
896.376	4637
896.498	4615
896.619	4683
896.74	4622
896.861	4683
896.982	4938
897.103	5083
897.224	4831
897.345	4774
897.466	4653
897.587	4733
897.708	4862
897.828	4793
897.949	4660
898.07	4535
898.19	4569
898.311	4809
898.431	4679
898.552	4748
898.672	4801
898.792	4782
898.913	4755
899.033	4668
899.153	4500
899.273	4428
899.393	4527
899.513	4516
899.633	4523
899.753	4527
899.873	4466
899.993	4527
900.113	4550
900.232	4584
900.352	4538
900.472	4470
900.591	4413
900.711	4519
900.83	4409
900.95	4645
901.069	4679
901.189	4607
901.308	4356
901.427	4306
901.546	4379
901.665	4459
901.784	4500
901.904	4428
902.023	4390
902.141	4181
902.26	4185
902.379	4333
902.498	4268
902.617	4253
902.735	4428
902.854	4363
902.973	4371
903.091	4219
903.21	4227
903.328	4280
903.446	4303
903.565	4200
903.683	4375
903.801	4261
903.919	4409
904.038	4447
904.156	4325
904.274	4455
904.392	4363
904.51	4394
904.627	4405
904.745	4592
904.863	4634
904.981	4344
905.098	4276
905.216	4394
905.334	4421
905.451	4417
905.569	4500
905.686	4531
905.803	4592
905.921	4432
906.038	4531
906.155	4481
906.272	4383
906.389	4485
906.506	4352
906.623	4322
906.74	4360
906.857	4360
906.974	4413
907.091	4573
907.208	4675
907.324	4546
907.441	4500
907.557	4413
907.674	4360
907.79	4325
907.907	4390
908.023	4459
908.139	4527
908.256	4432
908.372	4470
908.488	4432
908.604	4379
908.72	4356
908.836	4344
908.952	4371
909.068	4405
909.184	4607
909.3	4519
909.415	4603
909.531	4558
909.647	4398
909.762	4402
909.878	4360
909.993	4466
910.108	4432
910.224	4432
910.339	4504
910.454	4409
910.57	4405
910.685	4306
910.8	4596
910.915	4622
911.03	4493
911.145	4329
911.259	4329
911.374	4383
911.489	4268
911.604	4303
911.718	4158
911.833	4204
911.947	4093
912.062	4021
912.176	4227
912.291	4268
912.405	4234
912.519	4474
912.633	4485
912.748	4367
912.862	4314
912.976	4162
913.09	4093
913.204	4177
913.318	4200
913.431	4375
913.545	4386
913.659	4443
913.772	4363
913.886	4295
914	4268
914.113	4394
914.226	4432
914.34	4352
914.453	4261
914.566	4405
914.68	4322
914.793	4333
914.906	4185
915.019	4131
915.132	4139
915.245	4154
915.358	4234
915.47	4253
915.583	4306
915.696	4299
915.809	4489
915.921	4413
916.034	4261
916.146	4287
916.259	4276
916.371	4394
916.483	4325
916.595	4306
916.708	4337
916.82	4314
916.932	4329
917.044	4352
917.156	4333
917.268	4249
917.38	4341
917.491	4276
917.603	4443
917.715	4466
917.826	4485
917.938	4329
918.049	4246
918.161	4421
918.272	4527
918.384	4527
918.495	4447
918.606	4280
918.717	4246
918.828	4348
918.939	4394
919.05	4303
919.161	4322
919.272	4105
919.383	4185
919.494	4451
919.604	4664
919.715	4470
919.826	4356
919.936	4325
920.047	4554
920.157	4481
920.267	4687
920.378	4550
920.488	4504
920.598	4755
920.708	4873
920.818	4752
920.928	4782
921.038	4915
921.148	4923
921.258	4630
921.368	4599
921.477	4531
921.587	4481
921.697	4390
921.806	4546
921.916	4421
922.025	4261
922.134	4272
922.244	4246
922.353	4325
922.462	4158
922.571	4135
922.68	3987
922.789	3987
922.898	3998
923.007	3979
923.116	4097
923.224	4082
923.333	4074
923.442	4021
923.55	3960
923.659	4025
923.767	4154
923.876	4048
923.984	4112
924.092	4044
924.201	4078
924.309	4093
924.417	4124
924.525	4029
924.633	4063
924.741	5052
924.849	3922
924.956	4093
925.064	3991
925.172	3953
925.279	3983
925.387	4112
925.494	4055
925.602	4211
925.709	4185
925.816	4029
925.924	4185
926.031	4253
926.138	4177
926.245	4249
926.352	4116
926.459	4242
926.566	4306
926.673	4158
926.779	4090
926.886	4124
926.993	3987
927.099	3972
927.206	3941
927.312	3941
927.419	4078
927.525	4032
927.631	4093
927.737	4006
927.843	3915
927.95	3835
928.056	3945
928.162	4025
928.267	4055
928.373	4668
928.479	4154
928.585	3857
928.69	4063
928.796	4105
928.901	3949
929.007	3869
929.112	4029
929.218	3994
929.323	3922
929.428	3945
929.533	4120
929.638	3903
929.743	3941
929.848	4048
929.953	3964
930.058	3911
930.163	3774
930.267	3808
930.372	3975
930.477	3827
930.581	4093
930.685	3945
930.79	3793
930.894	3873
930.998	3838
931.103	4029
931.207	3740
931.311	3747
931.415	3675
931.519	3534
931.623	3553
