Data from test_V78500241_102.txt Node
Date: Fri Mar 25 16:49:42 CST 2022
User: usil
Spectrometer: V785-0024
Trigger mode: 0
Integration Time (sec): 4.000000E-1
Scans to average: 1
Nonlinearity correction enabled: false
Boxcar width: 0
Storing dark spectrum: false
XAxis mode: Wavelengths
Number of Pixels in Spectrum: 1024
>>>>>Begin Spectral Data<<<<<
801.071	8092
801.214	8031
801.356	7902
801.499	7986
801.641	7830
801.783	7856
801.926	8027
802.068	8031
802.211	7982
802.353	7951
802.496	7841
802.638	7928
802.78	7944
802.923	7986
803.065	7894
803.208	7833
803.35	7951
803.492	8077
803.635	8172
803.777	7993
803.919	8096
804.061	8423
804.204	8103
804.346	8008
804.488	7967
804.63	8073
804.773	8020
804.915	8069
805.057	8164
805.199	8134
805.341	8199
805.483	8252
805.626	8252
805.768	8069
805.91	8218
806.052	8218
806.194	8123
806.336	8294
806.478	8172
806.62	8123
806.762	8180
806.904	8263
807.046	8480
807.188	8324
807.33	8267
807.472	8294
807.614	8172
807.756	8176
807.898	8084
808.04	7932
808.182	7932
808.324	7883
808.465	7890
808.607	8081
808.749	8027
808.891	8210
809.033	8248
809.174	8107
809.316	8054
809.458	8115
809.6	8050
809.741	8027
809.883	8134
810.025	8050
810.166	8081
810.308	8096
810.45	8069
810.591	7986
810.733	7807
810.875	7651
811.016	7537
811.158	7540
811.299	7620
811.441	7757
811.582	7719
811.724	7655
811.865	7582
812.007	7674
812.148	7647
812.29	7670
812.431	7849
812.573	7909
812.714	8062
812.855	8172
812.997	8351
813.138	8377
813.279	8328
813.421	8100
813.562	8050
813.703	7898
813.845	7772
813.986	7468
814.127	7289
814.268	7194
814.41	7244
814.551	7198
814.692	7217
814.833	7198
814.974	7175
815.115	7160
815.256	7000
815.397	6913
815.539	7000
815.68	6837
815.821	6821
815.962	6867
816.103	6897
816.244	6806
816.385	6635
816.526	6715
816.666	6563
816.807	6334
816.948	6536
817.089	6486
817.23	6441
817.371	6452
817.512	6426
817.653	6403
817.793	6403
817.934	6407
818.075	6475
818.216	6479
818.356	6521
818.497	6262
818.638	6155
818.778	6148
818.919	6144
819.06	6163
819.2	6372
819.341	6323
819.481	6361
819.622	6532
819.762	6753
819.903	6722
820.043	6608
820.184	6555
820.324	6627
820.465	6741
820.605	6669
820.746	6642
820.886	6551
821.026	6722
821.167	6783
821.307	6810
821.447	6833
821.588	6658
821.728	6616
821.868	6506
822.008	6384
822.149	6369
822.289	6365
822.429	6209
822.569	6175
822.709	6148
822.849	5920
822.99	5950
823.13	5999
823.27	5878
823.41	5805
823.55	5821
823.69	5767
823.83	5779
823.97	5680
824.11	5585
824.25	5554
824.389	5562
824.529	5573
824.669	5535
824.809	5657
824.949	5672
825.089	5668
825.228	5627
825.368	5436
825.508	5402
825.648	5364
825.787	5372
825.927	5372
826.067	5292
826.206	5303
826.346	5391
826.485	5463
826.625	5398
826.765	5573
826.904	5482
827.044	5273
827.183	5197
827.323	5113
827.462	5239
827.601	5220
827.741	5208
827.88	5235
828.02	5117
828.159	5292
828.298	5296
828.437	5429
828.577	5299
828.716	5528
828.855	5303
828.994	5216
829.134	5170
829.273	5189
829.412	5143
829.551	5201
829.69	5231
829.829	5231
829.968	5425
830.107	5250
830.246	5318
830.385	5174
830.524	5178
830.663	5086
830.802	4965
830.941	4900
831.08	4938
831.219	5006
831.357	4980
831.496	5201
831.635	4987
831.774	4831
831.913	4854
832.051	4706
832.19	4755
832.329	4831
832.467	4714
832.606	4634
832.744	4706
832.883	4736
833.022	4744
833.16	4809
833.299	4824
833.437	4816
833.576	4862
833.714	4900
833.852	4835
833.991	4881
834.129	4938
834.267	4995
834.406	4873
834.544	4942
834.682	4953
834.821	4984
834.959	5178
835.097	4965
835.235	5178
835.373	5128
835.511	5109
835.65	5094
835.788	5060
835.926	4953
836.064	4896
836.202	4938
836.34	5166
836.478	5227
836.615	5162
836.753	5265
836.891	5299
837.029	5223
837.167	5250
837.305	5181
837.443	5151
837.58	5090
837.718	5292
837.856	5185
837.993	5185
838.131	5204
838.269	5208
838.406	5223
838.544	5193
838.681	5056
838.819	5045
838.956	4915
839.094	4908
839.231	5006
839.369	5109
839.506	5425
839.643	5246
839.781	5155
839.918	5010
840.055	5083
840.193	5098
840.33	5113
840.467	5178
840.604	5201
840.742	5490
840.879	5105
841.016	5124
841.153	5166
841.29	5387
841.427	5341
841.564	5322
841.701	5402
841.838	5250
841.975	5261
842.112	5239
842.249	5140
842.385	5151
842.522	5398
842.659	5166
842.796	5174
842.933	5197
843.069	5204
843.206	5162
843.343	5277
843.479	5292
843.616	5254
843.752	4980
843.889	5033
844.025	5231
844.162	4999
844.298	5223
844.435	5102
844.571	5064
844.708	5204
844.844	5296
844.98	5357
845.117	5326
845.253	5170
845.389	5071
845.525	5174
845.661	5102
845.798	5029
845.934	5170
846.07	5048
846.206	5174
846.342	5254
846.478	5204
846.614	5014
846.75	4987
846.886	4957
847.022	5102
847.158	5025
847.294	5079
847.429	5162
847.565	5128
847.701	5345
847.837	4847
847.972	4793
848.108	4984
848.244	4942
848.379	4767
848.515	4763
848.65	4744
848.786	4763
848.921	4793
849.057	4930
849.192	4927
849.328	4797
849.463	4896
849.598	4793
849.734	4790
849.869	4748
850.004	4622
850.14	4653
850.275	4653
850.41	4561
850.545	4577
850.68	4596
850.815	4683
850.95	4603
851.085	4850
851.22	4759
851.355	4725
851.49	4641
851.625	4641
851.76	4653
851.895	4565
852.03	4546
852.165	4622
852.299	4721
852.434	4752
852.569	4786
852.703	4767
852.838	4828
852.973	4934
853.107	4892
853.242	4782
853.376	4702
853.511	4580
853.645	4679
853.78	4801
853.914	4694
854.048	4702
854.183	4683
854.317	4736
854.451	4873
854.585	4687
854.72	4649
854.854	4778
854.988	4634
855.122	4660
855.256	4546
855.39	4694
855.524	4782
855.658	4641
855.792	4733
855.926	4740
856.06	4717
856.194	4828
856.327	4691
856.461	4672
856.595	4645
856.729	4634
856.862	4774
856.996	4706
857.13	4702
857.263	4858
857.397	4786
857.53	4626
857.664	4740
857.797	4755
857.931	4767
858.064	4691
858.197	4752
858.331	4687
858.464	4630
858.597	4519
858.731	4645
858.864	4660
858.997	4634
859.13	4668
859.263	4645
859.396	4691
859.529	4656
859.662	4599
859.795	4611
859.928	4630
860.061	4774
860.194	4778
860.327	4637
860.46	4565
860.592	4702
860.725	4733
860.858	4725
860.99	4531
861.123	4523
861.256	4500
861.388	4649
861.521	5280
861.653	4512
861.786	4466
861.918	4474
862.05	4538
862.183	4516
862.315	4558
862.447	4691
862.58	4599
862.712	4432
862.844	4348
862.976	4500
863.108	4417
863.24	4854
863.372	4341
863.504	4443
863.636	4455
863.768	4493
863.9	4428
864.032	4379
864.164	4424
864.296	4531
864.428	4554
864.559	4565
864.691	4569
864.823	4569
864.954	4565
865.086	4516
865.217	4508
865.349	4455
865.48	4474
865.612	4497
865.743	4603
865.875	4516
866.006	4398
866.137	4459
866.269	4478
866.4	4466
866.531	4413
866.662	4386
866.793	4462
866.924	4443
867.055	4546
867.186	4489
867.317	4417
867.448	4417
867.579	4417
867.71	4390
867.841	4363
867.972	4447
868.103	4485
868.233	4451
868.364	4436
868.495	4535
868.625	4687
868.756	4828
868.886	4554
869.017	4592
869.147	4759
869.278	4790
869.408	4714
869.539	4683
869.669	4717
869.799	4698
869.929	4801
870.06	4748
870.19	4980
870.32	4946
870.45	4961
870.58	5056
870.71	5174
870.84	5136
870.97	4995
871.1	4942
871.23	5201
871.36	5197
871.489	5060
871.619	5178
871.749	5147
871.879	5193
872.008	5246
872.138	5064
872.267	5067
872.397	4881
872.526	4904
872.656	4828
872.785	4812
872.915	5022
873.044	5052
873.173	5003
873.303	4976
873.432	5045
873.561	4995
873.69	4946
873.819	4946
873.948	4953
874.077	4824
874.206	4812
874.335	4877
874.464	5003
874.593	5140
874.722	5041
874.851	5185
874.979	5124
875.108	5052
875.237	4965
875.365	5025
875.494	4968
875.623	5037
875.751	4873
875.88	4946
876.008	5071
876.136	5109
876.265	5273
876.393	5417
876.521	5299
876.65	5261
876.778	5220
876.906	5121
877.034	5094
877.162	5128
877.29	5064
877.418	5075
877.546	5094
877.674	5117
877.802	5143
877.93	5052
878.058	5014
878.185	4957
878.313	5067
878.441	4995
878.568	4858
878.696	4965
878.824	4991
878.951	5014
879.079	5204
879.206	5326
879.333	5189
879.461	5067
879.588	5075
879.715	5147
879.842	5307
879.97	5048
880.097	4828
880.224	4771
880.351	4854
880.478	4915
880.605	4877
880.732	4839
880.859	5170
880.986	4957
881.112	4976
881.239	4881
881.366	4755
881.493	4618
881.619	4653
881.746	4672
881.872	4668
881.999	4717
882.125	4771
882.252	4843
882.378	4873
882.505	5029
882.631	4862
882.757	4733
882.883	4759
883.01	4797
883.136	4740
883.262	4618
883.388	4641
883.514	4858
883.64	4930
883.766	4870
883.892	4755
884.018	4748
884.143	4961
884.269	5025
884.395	4725
884.52	4660
884.646	4702
884.772	4603
884.897	4618
885.023	4755
885.148	4881
885.274	4972
885.399	4854
885.524	4755
885.65	4736
885.775	4771
885.9	4748
886.025	4877
886.15	4877
886.275	4778
886.4	4710
886.525	4752
886.65	4714
886.775	4763
886.9	4949
887.025	5083
887.149	4854
887.274	4725
887.399	4599
887.523	4656
887.648	4656
887.773	4622
887.897	4862
888.021	4858
888.146	4714
888.27	4862
888.395	4987
888.519	4870
888.643	4873
888.767	4885
888.891	4801
889.015	4626
889.139	4702
889.263	4641
889.387	4816
889.511	4923
889.635	4870
889.759	4702
889.883	4736
890.006	4778
890.13	4866
890.254	4687
890.377	4759
890.501	4618
890.624	4569
890.748	4691
890.871	4626
890.995	4527
891.118	4481
891.241	4554
891.364	4611
891.488	4672
891.611	4558
891.734	4615
891.857	4683
891.98	4656
892.103	4721
892.226	4641
892.349	4618
892.471	4462
892.594	4618
892.717	4649
892.839	4645
892.962	4626
893.085	4694
893.207	4641
893.33	4531
893.452	4558
893.575	4672
893.697	4672
893.819	4824
893.941	4843
894.064	4824
894.186	4660
894.308	4569
894.43	4778
894.552	4854
894.674	4828
894.796	4618
894.918	4664
895.04	4618
895.161	4774
895.283	4656
895.405	4645
895.526	4668
895.648	4683
895.769	4717
895.891	4854
896.012	4797
896.134	4801
896.255	4725
896.376	4736
896.498	4668
896.619	4771
896.74	4675
896.861	4691
896.982	4953
897.103	5109
897.224	4858
897.345	4824
897.466	4725
897.587	4820
897.708	4885
897.828	4835
897.949	4698
898.07	4615
898.19	4660
898.311	4870
898.431	4733
898.552	4797
898.672	4881
898.792	4847
898.913	4790
899.033	4668
899.153	4550
899.273	4500
899.393	4531
899.513	4561
899.633	4618
899.753	4649
899.873	4550
899.993	4664
900.113	4584
900.232	4634
900.352	4607
900.472	4512
900.591	4459
900.711	4561
900.83	4508
900.95	4622
901.069	4774
901.189	4550
901.308	4402
901.427	4371
901.546	4402
901.665	4481
901.784	4535
901.904	4447
902.023	4390
902.141	4272
902.26	4215
902.379	4352
902.498	4291
902.617	4276
902.735	4405
902.854	4462
902.973	4390
903.091	4299
903.21	4272
903.328	4367
903.446	4337
903.565	4306
903.683	4440
903.801	4318
903.919	4386
904.038	4470
904.156	4360
904.274	4470
904.392	4451
904.51	4512
904.627	4538
904.745	4641
904.863	4637
904.981	4474
905.098	4348
905.216	4428
905.334	4474
905.451	4440
905.569	4504
905.686	4611
905.803	4584
905.921	4436
906.038	4584
906.155	4542
906.272	4432
906.389	4481
906.506	4466
906.623	4379
906.74	4413
906.857	4409
906.974	4421
907.091	4641
907.208	4672
907.324	4653
907.441	4512
907.557	4413
907.674	4386
907.79	4390
907.907	4421
908.023	4512
908.139	4516
908.256	4455
908.372	4508
908.488	4569
908.604	4451
908.72	4398
908.836	4443
908.952	4405
909.068	4512
909.184	4653
909.3	4542
909.415	4645
909.531	4607
909.647	4375
909.762	4432
909.878	4379
909.993	4508
910.108	4481
910.224	4462
910.339	4508
910.454	4462
910.57	4413
910.685	4386
910.8	4736
910.915	4664
911.03	4508
911.145	4398
911.259	4318
911.374	4424
911.489	4341
911.604	4322
911.718	4242
911.833	4246
911.947	4116
912.062	4067
912.176	4280
912.291	4276
912.405	4272
912.519	4516
912.633	4519
912.748	4459
912.862	4344
912.976	4219
913.09	4139
913.204	4223
913.318	4272
913.431	4394
913.545	4436
913.659	4451
913.772	4421
913.886	4272
914	4249
914.113	4432
914.226	4527
914.34	4462
914.453	4284
914.566	4421
914.68	4337
914.793	4394
914.906	4211
915.019	4154
915.132	4150
915.245	4200
915.358	4211
915.47	4276
915.583	4356
915.696	4352
915.809	4481
915.921	4462
916.034	4291
916.146	4325
916.259	4246
916.371	4428
916.483	4413
916.595	4310
916.708	4360
916.82	4428
916.932	4367
917.044	4367
917.156	4379
917.268	4291
917.38	4344
917.491	4318
917.603	4379
917.715	4478
917.826	4542
917.938	4455
918.049	4234
918.161	4405
918.272	4603
918.384	4618
918.495	4527
918.606	4337
918.717	4276
918.828	4367
918.939	4413
919.05	4318
919.161	4356
919.272	4143
919.383	4280
919.494	4443
919.604	4653
919.715	4489
919.826	4402
919.936	4432
920.047	4542
920.157	4542
920.267	4759
920.378	4561
920.488	4584
920.598	4778
920.708	4930
920.818	4763
920.928	4805
921.038	5022
921.148	4953
921.258	4645
921.368	4634
921.477	4508
921.587	4512
921.697	4424
921.806	4592
921.916	4451
922.025	4318
922.134	4333
922.244	4253
922.353	4409
922.462	4166
922.571	4162
922.68	4086
922.789	4029
922.898	4029
923.007	4044
923.116	4150
923.224	4120
923.333	4120
923.442	4036
923.55	4055
923.659	4097
923.767	4135
923.876	4055
923.984	4158
924.092	4032
924.201	4116
924.309	4116
924.417	4181
924.525	4116
924.633	4131
924.741	4953
924.849	3975
924.956	4181
925.064	3998
925.172	3934
925.279	4017
925.387	4105
925.494	4090
925.602	4272
925.709	4211
925.816	4032
925.924	4169
926.031	4257
926.138	4207
926.245	4238
926.352	4177
926.459	4287
926.566	4344
926.673	4204
926.779	4116
926.886	4109
926.993	4044
927.099	4055
927.206	3968
927.312	3968
927.419	4120
927.525	4063
927.631	4135
927.737	3987
927.843	3979
927.95	3857
928.056	4010
928.162	4097
928.267	4105
928.373	4611
928.479	4139
928.585	3880
928.69	4044
928.796	4139
928.901	3998
929.007	3892
929.112	4006
929.218	3991
929.323	3983
929.428	3979
929.533	4135
929.638	3975
929.743	4002
929.848	4112
929.953	3994
930.058	3949
930.163	3808
930.267	3835
930.372	4032
930.477	3861
930.581	4093
930.685	3953
930.79	3873
930.894	3949
930.998	3854
931.103	4051
931.207	3709
931.311	3751
931.415	3694
931.519	3576
931.623	3610
