Data from test_V78500241_400.txt Node
Date: Fri Mar 25 16:51:47 CST 2022
User: usil
Spectrometer: V785-0024
Trigger mode: 0
Integration Time (sec): 4.000000E-1
Scans to average: 1
Nonlinearity correction enabled: false
Boxcar width: 0
Storing dark spectrum: false
XAxis mode: Wavelengths
Number of Pixels in Spectrum: 1024
>>>>>Begin Spectral Data<<<<<
801.071	8035
801.214	8046
801.356	7913
801.499	7940
801.641	7822
801.783	7830
801.926	8046
802.068	7982
802.211	8035
802.353	7989
802.496	7830
802.638	7860
802.78	7906
802.923	7944
803.065	7947
803.208	7875
803.35	7928
803.492	7986
803.635	8119
803.777	7963
803.919	8168
804.061	8419
804.204	8126
804.346	8020
804.488	7959
804.63	8050
804.773	8005
804.915	8111
805.057	8271
805.199	8183
805.341	8210
805.483	8237
805.626	8195
805.768	8077
805.91	8126
806.052	8130
806.194	8103
806.336	8286
806.478	8218
806.62	8088
806.762	8126
806.904	8332
807.046	8423
807.188	8336
807.33	8267
807.472	8332
807.614	8244
807.756	8119
807.898	8020
808.04	7909
808.182	7944
808.324	8039
808.465	7963
808.607	7997
808.749	8138
808.891	8206
809.033	8244
809.174	8195
809.316	8050
809.458	8065
809.6	8005
809.741	8077
809.883	8039
810.025	8202
810.166	8069
810.308	8058
810.45	7955
810.591	7807
810.733	7742
810.875	7670
811.016	7525
811.158	7518
811.299	7685
811.441	7750
811.582	7727
811.724	7563
811.865	7624
812.007	7685
812.148	7624
812.29	7620
812.431	7776
812.573	7894
812.714	7963
812.855	8206
812.997	8214
813.138	8275
813.279	8244
813.421	8161
813.562	8077
813.703	7856
813.845	7792
813.986	7487
814.127	7324
814.268	7312
814.41	7259
814.551	7221
814.692	7247
814.833	7099
814.974	7076
815.115	7183
815.256	6970
815.397	6966
815.539	6954
815.68	6776
815.821	6798
815.962	6886
816.103	6909
816.244	6703
816.385	6620
816.526	6681
816.666	6578
816.807	6346
816.948	6490
817.089	6513
817.23	6532
817.371	6464
817.512	6376
817.653	6426
817.793	6369
817.934	6418
818.075	6460
818.216	6399
818.356	6429
818.497	6273
818.638	6136
818.778	6167
818.919	6140
819.06	6129
819.2	6296
819.341	6254
819.481	6372
819.622	6506
819.762	6722
819.903	6673
820.043	6525
820.184	6673
820.324	6555
820.465	6719
820.605	6654
820.746	6665
820.886	6502
821.026	6673
821.167	6837
821.307	6859
821.447	6730
821.588	6658
821.728	6582
821.868	6540
822.008	6369
822.149	6426
822.289	6331
822.429	6190
822.569	6121
822.709	6140
822.849	5897
822.99	5882
823.13	5904
823.27	5904
823.41	5828
823.55	5817
823.69	5821
823.83	5798
823.97	5665
824.11	5596
824.25	5516
824.389	5581
824.529	5600
824.669	5509
824.809	5703
824.949	5665
825.089	5668
825.228	5562
825.368	5505
825.508	5334
825.648	5334
825.787	5398
825.927	5429
826.067	5288
826.206	5379
826.346	5391
826.485	5383
826.625	5387
826.765	5562
826.904	5505
827.044	5280
827.183	5216
827.323	5086
827.462	5277
827.601	5147
827.741	5223
827.88	5235
828.02	5121
828.159	5201
828.298	5360
828.437	5349
828.577	5296
828.716	5463
828.855	5273
828.994	5147
829.134	5105
829.273	5254
829.412	5151
829.551	5113
829.69	5140
829.829	5265
829.968	5429
830.107	5250
830.246	5337
830.385	5201
830.524	5143
830.663	5079
830.802	4953
830.941	4892
831.08	4896
831.219	4976
831.357	4961
831.496	5151
831.635	4957
831.774	4870
831.913	4793
832.051	4710
832.19	4797
832.329	4797
832.467	4641
832.606	4683
832.744	4752
832.883	4771
833.022	4744
833.16	4816
833.299	4801
833.437	4820
833.576	4824
833.714	4850
833.852	4892
833.991	4889
834.129	4904
834.267	4942
834.406	4949
834.544	5041
834.682	4957
834.821	4987
834.959	5193
835.097	5003
835.235	5121
835.373	5128
835.511	5105
835.65	5048
835.788	5041
835.926	4934
836.064	4885
836.202	4881
836.34	5162
836.478	5231
836.615	5189
836.753	5227
836.891	5288
837.029	5250
837.167	5189
837.305	5136
837.443	5075
837.58	5117
837.718	5223
837.856	5132
837.993	5098
838.131	5208
838.269	5235
838.406	5197
838.544	5208
838.681	5033
838.819	4999
838.956	4881
839.094	4938
839.231	5018
839.369	5075
839.506	5433
839.643	5311
839.781	5090
839.918	5014
840.055	5071
840.193	5128
840.33	5094
840.467	5151
840.604	5242
840.742	5444
840.879	5098
841.016	5105
841.153	5208
841.29	5417
841.427	5296
841.564	5296
841.701	5326
841.838	5246
841.975	5250
842.112	5311
842.249	5155
842.385	5105
842.522	5307
842.659	5166
842.796	5174
842.933	5231
843.069	5170
843.206	5181
843.343	5307
843.479	5235
843.616	5223
843.752	5041
843.889	5003
844.025	5208
844.162	5022
844.298	5216
844.435	5098
844.571	5105
844.708	5223
844.844	5303
844.98	5349
845.117	5284
845.253	5105
845.389	5083
845.525	5124
845.661	5121
845.798	5052
845.934	5151
846.07	5086
846.206	5227
846.342	5345
846.478	5189
846.614	5022
846.75	5003
846.886	4957
847.022	5090
847.158	5029
847.294	5067
847.429	5094
847.565	5113
847.701	5330
847.837	4843
847.972	4816
848.108	4968
848.244	4911
848.379	4774
848.515	4759
848.65	4729
848.786	4714
848.921	4744
849.057	4824
849.192	4919
849.328	4820
849.463	4831
849.598	4828
849.734	4809
849.869	4672
850.004	4653
850.14	4687
850.275	4584
850.41	4508
850.545	4554
850.68	4603
850.815	4592
850.95	4615
851.085	4858
851.22	4736
851.355	4694
851.49	4637
851.625	4588
851.76	4668
851.895	4550
852.03	4561
852.165	4653
852.299	4687
852.434	4805
852.569	4782
852.703	4744
852.838	4831
852.973	4908
853.107	4949
853.242	4721
853.376	4714
853.511	4554
853.645	4641
853.78	4824
853.914	4660
854.048	4637
854.183	4626
854.317	4698
854.451	4862
854.585	4637
854.72	4672
854.854	4717
854.988	4603
855.122	4694
855.256	4508
855.39	4664
855.524	4797
855.658	4740
855.792	4710
855.926	4702
856.06	4744
856.194	4847
856.327	4698
856.461	4592
856.595	4645
856.729	4653
856.862	4809
856.996	4725
857.13	4771
857.263	4729
857.397	4793
857.53	4645
857.664	4717
857.797	4721
857.931	4771
858.064	4675
858.197	4759
858.331	4672
858.464	4626
858.597	4561
858.731	4630
858.864	4615
858.997	4622
859.13	4637
859.263	4687
859.396	4672
859.529	4580
859.662	4607
859.795	4611
859.928	4683
860.061	4767
860.194	4797
860.327	4592
860.46	4542
860.592	4694
860.725	4729
860.858	4729
860.99	4641
861.123	4550
861.256	4516
861.388	4637
861.521	5315
861.653	4474
861.786	4466
861.918	4470
862.05	4493
862.183	4550
862.315	4615
862.447	4630
862.58	4554
862.712	4421
862.844	4325
862.976	4470
863.108	4512
863.24	4748
863.372	4344
863.504	4470
863.636	4375
863.768	4489
863.9	4383
864.032	4375
864.164	4383
864.296	4459
864.428	4497
864.559	4596
864.691	4542
864.823	4516
864.954	4542
865.086	4542
865.217	4485
865.349	4409
865.48	4508
865.612	4523
865.743	4618
865.875	4508
866.006	4402
866.137	4481
866.269	4462
866.4	4459
866.531	4447
866.662	4409
866.793	4405
866.924	4402
867.055	4512
867.186	4459
867.317	4436
867.448	4394
867.579	4371
867.71	4383
867.841	4383
867.972	4459
868.103	4428
868.233	4470
868.364	4375
868.495	4508
868.625	4683
868.756	4736
868.886	4558
869.017	4618
869.147	4790
869.278	4801
869.408	4607
869.539	4664
869.669	4714
869.799	4645
869.929	4752
870.06	4702
870.19	4949
870.32	4946
870.45	4942
870.58	5018
870.71	5083
870.84	5113
870.97	4930
871.1	4870
871.23	5098
871.36	5109
871.489	5041
871.619	5029
871.749	5090
871.879	5109
872.008	5151
872.138	5083
872.267	4984
872.397	4885
872.526	4854
872.656	4698
872.785	4786
872.915	4957
873.044	4995
873.173	4961
873.303	4934
873.432	4930
873.561	4991
873.69	4885
873.819	4870
873.948	4904
874.077	4870
874.206	4793
874.335	4782
874.464	4968
874.593	5060
874.722	5018
874.851	5041
874.979	5033
875.108	5052
875.237	4927
875.365	4885
875.494	4915
875.623	5010
875.751	4881
875.88	4885
876.008	4938
876.136	5075
876.265	5151
876.393	5383
876.521	5269
876.65	5181
876.778	5197
876.906	5086
877.034	5029
877.162	5064
877.29	5018
877.418	5075
877.546	5041
877.674	4991
877.802	5086
877.93	5067
878.058	4942
878.185	4900
878.313	4961
878.441	5003
878.568	4805
878.696	4862
878.824	4946
878.951	4999
879.079	5166
879.206	5258
879.333	5090
879.461	4949
879.588	5006
879.715	5189
879.842	5174
879.97	5060
880.097	4809
880.224	4717
880.351	4809
880.478	4835
880.605	4767
880.732	4793
880.859	5071
880.986	4923
881.112	4885
881.239	4767
881.366	4683
881.493	4596
881.619	4596
881.746	4626
881.872	4634
881.999	4656
882.125	4714
882.252	4786
882.378	4866
882.505	4972
882.631	4797
882.757	4645
882.883	4752
883.01	4755
883.136	4660
883.262	4615
883.388	4607
883.514	4812
883.64	4828
883.766	4790
883.892	4672
884.018	4717
884.143	4850
884.269	4972
884.395	4687
884.52	4653
884.646	4679
884.772	4615
884.897	4565
885.023	4702
885.148	4809
885.274	4824
885.399	4748
885.524	4725
885.65	4771
885.775	4706
885.9	4683
886.025	4820
886.15	4771
886.275	4725
886.4	4653
886.525	4672
886.65	4729
886.775	4694
886.9	4946
887.025	5025
887.149	4835
887.274	4641
887.399	4538
887.523	4596
887.648	4519
887.773	4558
887.897	4820
888.021	4763
888.146	4645
888.27	4763
888.395	4885
888.519	4862
888.643	4835
888.767	4839
888.891	4668
889.015	4603
889.139	4664
889.263	4615
889.387	4721
889.511	4850
889.635	4824
889.759	4618
889.883	4573
890.006	4736
890.13	4801
890.254	4630
890.377	4710
890.501	4599
890.624	4516
890.748	4672
890.871	4493
890.995	4436
891.118	4398
891.241	4455
891.364	4558
891.488	4630
891.611	4500
891.734	4558
891.857	4603
891.98	4603
892.103	4653
892.226	4573
892.349	4531
892.471	4455
892.594	4516
892.717	4615
892.839	4573
892.962	4580
893.085	4702
893.207	4565
893.33	4508
893.452	4558
893.575	4656
893.697	4626
893.819	4831
893.941	4786
894.064	4767
894.186	4580
894.308	4558
894.43	4740
894.552	4873
894.674	4729
894.796	4538
894.918	4599
895.04	4580
895.161	4786
895.283	4679
895.405	4558
895.526	4679
895.648	4714
895.769	4721
895.891	4694
896.012	4725
896.134	4755
896.255	4687
896.376	4634
896.498	4637
896.619	4660
896.74	4645
896.861	4626
896.982	4927
897.103	5132
897.224	4873
897.345	4774
897.466	4698
897.587	4687
897.708	4870
897.828	4793
897.949	4653
898.07	4607
898.19	4649
898.311	4862
898.431	4672
898.552	4786
898.672	4801
898.792	4805
898.913	4744
899.033	4630
899.153	4459
899.273	4462
899.393	4451
899.513	4588
899.633	4538
899.753	4538
899.873	4527
899.993	4615
900.113	4565
900.232	4573
900.352	4538
900.472	4474
900.591	4424
900.711	4493
900.83	4436
900.95	4611
901.069	4660
901.189	4554
901.308	4413
901.427	4314
901.546	4413
901.665	4481
901.784	4535
901.904	4409
902.023	4318
902.141	4219
902.26	4166
902.379	4284
902.498	4276
902.617	4192
902.735	4363
902.854	4348
902.973	4322
903.091	4211
903.21	4192
903.328	4280
903.446	4284
903.565	4287
903.683	4322
903.801	4265
903.919	4440
904.038	4440
904.156	4306
904.274	4443
904.392	4447
904.51	4413
904.627	4497
904.745	4588
904.863	4672
904.981	4409
905.098	4280
905.216	4333
905.334	4436
905.451	4481
905.569	4470
905.686	4584
905.803	4561
905.921	4417
906.038	4554
906.155	4470
906.272	4409
906.389	4459
906.506	4360
906.623	4367
906.74	4394
906.857	4310
906.974	4394
907.091	4580
907.208	4733
907.324	4603
907.441	4466
907.557	4333
907.674	4341
907.79	4356
907.907	4341
908.023	4504
908.139	4478
908.256	4424
908.372	4443
908.488	4459
908.604	4371
908.72	4295
908.836	4413
908.952	4367
909.068	4443
909.184	4569
909.3	4459
909.415	4588
909.531	4554
909.647	4333
909.762	4360
909.878	4363
909.993	4402
910.108	4417
910.224	4424
910.339	4462
910.454	4390
910.57	4352
910.685	4306
910.8	4588
910.915	4592
911.03	4527
911.145	4306
911.259	4337
911.374	4344
911.489	4268
911.604	4318
911.718	4196
911.833	4211
911.947	4078
912.062	4032
912.176	4162
912.291	4230
912.405	4253
912.519	4459
912.633	4531
912.748	4375
912.862	4356
912.976	4200
913.09	4139
913.204	4211
913.318	4272
913.431	4417
913.545	4363
913.659	4443
913.772	4375
913.886	4280
914	4242
914.113	4371
914.226	4428
914.34	4356
914.453	4234
914.566	4436
914.68	4337
914.793	4344
914.906	4139
915.019	4158
915.132	4097
915.245	4181
915.358	4196
915.47	4246
915.583	4280
915.696	4329
915.809	4375
915.921	4402
916.034	4272
916.146	4192
916.259	4242
916.371	4394
916.483	4352
916.595	4306
916.708	4363
916.82	4360
916.932	4379
917.044	4329
917.156	4329
917.268	4261
917.38	4291
917.491	4272
917.603	4295
917.715	4402
917.826	4436
917.938	4303
918.049	4253
918.161	4394
918.272	4569
918.384	4550
918.495	4493
918.606	4318
918.717	4276
918.828	4356
918.939	4402
919.05	4284
919.161	4337
919.272	4139
919.383	4230
919.494	4447
919.604	4599
919.715	4459
919.826	4348
919.936	4417
920.047	4546
920.157	4497
920.267	4698
920.378	4535
920.488	4558
920.598	4691
920.708	4862
920.818	4771
920.928	4786
921.038	4911
921.148	4923
921.258	4615
921.368	4565
921.477	4459
921.587	4443
921.697	4386
921.806	4493
921.916	4481
922.025	4280
922.134	4322
922.244	4207
922.353	4348
922.462	4166
922.571	4139
922.68	4082
922.789	3953
922.898	4048
923.007	3987
923.116	4116
923.224	4063
923.333	4078
923.442	4017
923.55	4032
923.659	4036
923.767	4074
923.876	4029
923.984	4120
924.092	4002
924.201	4063
924.309	4097
924.417	4116
924.525	4071
924.633	4131
924.741	5083
924.849	3888
924.956	4101
925.064	3972
925.172	3907
925.279	3994
925.387	4051
925.494	4025
925.602	4219
925.709	4257
925.816	4021
925.924	4154
926.031	4249
926.138	4185
926.245	4230
926.352	4101
926.459	4253
926.566	4299
926.673	4188
926.779	4074
926.886	4101
926.993	3991
927.099	3979
927.206	3945
927.312	3945
927.419	4013
927.525	4017
927.631	4093
927.737	3983
927.843	3945
927.95	3854
928.056	3964
928.162	3998
928.267	4078
928.373	4679
928.479	4101
928.585	3888
928.69	4013
928.796	4067
928.901	3934
929.007	3873
929.112	4048
929.218	4002
929.323	3918
929.428	3968
929.533	4101
929.638	3922
929.743	3937
929.848	4082
929.953	3964
930.058	3922
930.163	3740
930.267	3842
930.372	3960
930.477	3846
930.581	4105
930.685	3975
930.79	3785
930.894	3907
930.998	3850
931.103	4002
931.207	3686
931.311	3720
931.415	3671
931.519	3507
931.623	3534
