Data from test_V78500241_226.txt Node
Date: Fri Mar 25 16:50:34 CST 2022
User: usil
Spectrometer: V785-0024
Trigger mode: 0
Integration Time (sec): 4.000000E-1
Scans to average: 1
Nonlinearity correction enabled: false
Boxcar width: 0
Storing dark spectrum: false
XAxis mode: Wavelengths
Number of Pixels in Spectrum: 1024
>>>>>Begin Spectral Data<<<<<
801.071	8024
801.214	8024
801.356	7826
801.499	7795
801.641	7738
801.783	7860
801.926	7989
802.068	7982
802.211	8020
802.353	7970
802.496	7894
802.638	7890
802.78	7887
802.923	7932
803.065	7890
803.208	7814
803.35	7932
803.492	8027
803.635	8195
803.777	8008
803.919	8077
804.061	8381
804.204	8119
804.346	8073
804.488	7947
804.63	8096
804.773	8016
804.915	8077
805.057	8259
805.199	8134
805.341	8180
805.483	8240
805.626	8168
805.768	8107
805.91	8145
806.052	8210
806.194	8062
806.336	8271
806.478	8119
806.62	7989
806.762	8077
806.904	8130
807.046	8434
807.188	8298
807.33	8286
807.472	8267
807.614	8107
807.756	8138
807.898	7978
808.04	7898
808.182	7932
808.324	7913
808.465	7883
808.607	8115
808.749	8130
808.891	8157
809.033	8320
809.174	8176
809.316	8043
809.458	8081
809.6	8005
809.741	7986
809.883	8020
810.025	8065
810.166	8043
810.308	8081
810.45	7967
810.591	7852
810.733	7772
810.875	7655
811.016	7415
811.158	7464
811.299	7575
811.441	7723
811.582	7689
811.724	7510
811.865	7567
812.007	7594
812.148	7616
812.29	7670
812.431	7803
812.573	7989
812.714	8100
812.855	8130
812.997	8294
813.138	8332
813.279	8161
813.421	8145
813.562	8035
813.703	7830
813.845	7734
813.986	7480
814.127	7240
814.268	7221
814.41	7198
814.551	7160
814.692	7198
814.833	7088
814.974	7099
815.115	7175
815.256	6970
815.397	6924
815.539	6939
815.68	6829
815.821	6798
815.962	6852
816.103	6772
816.244	6726
816.385	6597
816.526	6673
816.666	6551
816.807	6319
816.948	6429
817.089	6467
817.23	6525
817.371	6315
817.512	6418
817.653	6376
817.793	6353
817.934	6331
818.075	6471
818.216	6388
818.356	6376
818.497	6190
818.638	6140
818.778	6148
818.919	6133
819.06	6087
819.2	6304
819.341	6372
819.481	6365
819.622	6555
819.762	6700
819.903	6665
820.043	6578
820.184	6544
820.324	6585
820.465	6730
820.605	6654
820.746	6662
820.886	6448
821.026	6616
821.167	6726
821.307	6787
821.447	6768
821.588	6757
821.728	6574
821.868	6498
822.008	6247
822.149	6365
822.289	6327
822.429	6140
822.569	6102
822.709	6106
822.849	5874
822.99	5893
823.13	5893
823.27	5908
823.41	5790
823.55	5745
823.69	5756
823.83	5798
823.97	5707
824.11	5516
824.25	5501
824.389	5543
824.529	5558
824.669	5512
824.809	5638
824.949	5604
825.089	5570
825.228	5600
825.368	5357
825.508	5376
825.648	5360
825.787	5402
825.927	5364
826.067	5315
826.206	5303
826.346	5334
826.485	5402
826.625	5429
826.765	5520
826.904	5490
827.044	5250
827.183	5204
827.323	5128
827.462	5273
827.601	5121
827.741	5197
827.88	5246
828.02	5140
828.159	5288
828.298	5372
828.437	5376
828.577	5258
828.716	5471
828.855	5326
828.994	5170
829.134	5204
829.273	5201
829.412	5162
829.551	5166
829.69	5162
829.829	5246
829.968	5376
830.107	5296
830.246	5197
830.385	5143
830.524	5102
830.663	5018
830.802	4965
830.941	4892
831.08	4866
831.219	4942
831.357	4976
831.496	5143
831.635	4900
831.774	4885
831.913	4850
832.051	4767
832.19	4771
832.329	4801
832.467	4691
832.606	4622
832.744	4721
832.883	4691
833.022	4687
833.16	4752
833.299	4816
833.437	4812
833.576	4824
833.714	4820
833.852	4862
833.991	4930
834.129	4938
834.267	4957
834.406	4919
834.544	5014
834.682	4991
834.821	4991
834.959	5094
835.097	4919
835.235	5159
835.373	5117
835.511	5102
835.65	5060
835.788	5033
835.926	4900
836.064	4862
836.202	4927
836.34	5193
836.478	5296
836.615	5113
836.753	5250
836.891	5326
837.029	5265
837.167	5223
837.305	5189
837.443	5178
837.58	5090
837.718	5242
837.856	5170
837.993	5159
838.131	5204
838.269	5277
838.406	5220
838.544	5242
838.681	5086
838.819	4976
838.956	4885
839.094	4896
839.231	4965
839.369	5067
839.506	5387
839.643	5258
839.781	5098
839.918	5018
840.055	5060
840.193	5113
840.33	5121
840.467	5132
840.604	5181
840.742	5471
840.879	5086
841.016	5109
841.153	5166
841.29	5353
841.427	5326
841.564	5261
841.701	5326
841.838	5330
841.975	5220
842.112	5277
842.249	5151
842.385	5121
842.522	5326
842.659	5128
842.796	5147
842.933	5204
843.069	5147
843.206	5136
843.343	5265
843.479	5162
843.616	5277
843.752	5056
843.889	5014
844.025	5201
844.162	5037
844.298	5250
844.435	5056
844.571	5048
844.708	5197
844.844	5341
844.98	5364
845.117	5250
845.253	5159
845.389	5067
845.525	5136
845.661	5155
845.798	5071
845.934	5086
846.07	5006
846.206	5185
846.342	5254
846.478	5201
846.614	5003
846.75	4942
846.886	4946
847.022	5151
847.158	5048
847.294	5071
847.429	5075
847.565	5086
847.701	5303
847.837	4847
847.972	4835
848.108	4949
848.244	4892
848.379	4809
848.515	4721
848.65	4736
848.786	4729
848.921	4809
849.057	4877
849.192	4911
849.328	4793
849.463	4843
849.598	4828
849.734	4786
849.869	4744
850.004	4615
850.14	4664
850.275	4618
850.41	4584
850.545	4596
850.68	4615
850.815	4618
850.95	4645
851.085	4877
851.22	4733
851.355	4710
851.49	4611
851.625	4634
851.76	4630
851.895	4550
852.03	4516
852.165	4637
852.299	4706
852.434	4839
852.569	4759
852.703	4782
852.838	4862
852.973	4930
853.107	4923
853.242	4759
853.376	4645
853.511	4599
853.645	4618
853.78	4816
853.914	4683
854.048	4675
854.183	4596
854.317	4702
854.451	4877
854.585	4694
854.72	4691
854.854	4721
854.988	4599
855.122	4634
855.256	4512
855.39	4683
855.524	4801
855.658	4740
855.792	4714
855.926	4771
856.06	4759
856.194	4805
856.327	4656
856.461	4611
856.595	4573
856.729	4611
856.862	4771
856.996	4721
857.13	4702
857.263	4755
857.397	4839
857.53	4687
857.664	4725
857.797	4714
857.931	4721
858.064	4683
858.197	4733
858.331	4653
858.464	4592
858.597	4497
858.731	4599
858.864	4615
858.997	4580
859.13	4622
859.263	4679
859.396	4672
859.529	4622
859.662	4599
859.795	4542
859.928	4603
860.061	4797
860.194	4778
860.327	4615
860.46	4531
860.592	4694
860.725	4740
860.858	4721
860.99	4596
861.123	4508
861.256	4535
861.388	4649
861.521	5391
861.653	4493
861.786	4440
861.918	4504
862.05	4500
862.183	4516
862.315	4599
862.447	4672
862.58	4542
862.712	4386
862.844	4352
862.976	4489
863.108	4504
863.24	4854
863.372	4314
863.504	4390
863.636	4417
863.768	4516
863.9	4424
864.032	4318
864.164	4405
864.296	4466
864.428	4584
864.559	4535
864.691	4535
864.823	4580
864.954	4504
865.086	4459
865.217	4497
865.349	4432
865.48	4440
865.612	4516
865.743	4664
865.875	4485
866.006	4409
866.137	4474
866.269	4440
866.4	4367
866.531	4455
866.662	4398
866.793	4402
866.924	4421
867.055	4493
867.186	4516
867.317	4428
867.448	4333
867.579	4367
867.71	4352
867.841	4379
867.972	4497
868.103	4474
868.233	4466
868.364	4424
868.495	4428
868.625	4645
868.756	4729
868.886	4580
869.017	4603
869.147	4774
869.278	4786
869.408	4656
869.539	4615
869.669	4714
869.799	4637
869.929	4767
870.06	4771
870.19	4953
870.32	4881
870.45	4911
870.58	5010
870.71	5121
870.84	5109
870.97	4949
871.1	4892
871.23	5121
871.36	5124
871.489	5006
871.619	5041
871.749	5045
871.879	5197
872.008	5178
872.138	5048
872.267	4991
872.397	4824
872.526	4835
872.656	4679
872.785	4786
872.915	4984
873.044	5003
873.173	4934
873.303	4949
873.432	4957
873.561	4953
873.69	4839
873.819	4839
873.948	4881
874.077	4870
874.206	4812
874.335	4839
874.464	4946
874.593	5079
874.722	4991
874.851	5155
874.979	5033
875.108	4987
875.237	4949
875.365	4892
875.494	4885
875.623	4987
875.751	4843
875.88	4839
876.008	4957
876.136	4984
876.265	5159
876.393	5414
876.521	5242
876.65	5212
876.778	5117
876.906	5048
877.034	4991
877.162	5102
877.29	4953
877.418	5029
877.546	5033
877.674	5033
877.802	5033
877.93	5033
878.058	4942
878.185	4900
878.313	4930
878.441	4953
878.568	4809
878.696	4927
878.824	4957
878.951	4987
879.079	5083
879.206	5379
879.333	5094
879.461	4953
879.588	5041
879.715	5098
879.842	5261
879.97	5033
880.097	4771
880.224	4778
880.351	4820
880.478	4790
880.605	4774
880.732	4786
880.859	5102
880.986	4908
881.112	4942
881.239	4828
881.366	4622
881.493	4622
881.619	4607
881.746	4626
881.872	4622
881.999	4698
882.125	4675
882.252	4786
882.378	4793
882.505	5010
882.631	4782
882.757	4706
882.883	4717
883.01	4748
883.136	4637
883.262	4607
883.388	4656
883.514	4793
883.64	4828
883.766	4801
883.892	4649
884.018	4729
884.143	4900
884.269	4968
884.395	4675
884.52	4668
884.646	4615
884.772	4580
884.897	4580
885.023	4656
885.148	4801
885.274	4908
885.399	4866
885.524	4660
885.65	4748
885.775	4717
885.9	4733
886.025	4885
886.15	4790
886.275	4740
886.4	4694
886.525	4733
886.65	4729
886.775	4736
886.9	4938
887.025	5079
887.149	4831
887.274	4714
887.399	4603
887.523	4634
887.648	4516
887.773	4527
887.897	4771
888.021	4862
888.146	4691
888.27	4801
888.395	4911
888.519	4786
888.643	4839
888.767	4809
888.891	4698
889.015	4611
889.139	4626
889.263	4573
889.387	4771
889.511	4847
889.635	4850
889.759	4660
889.883	4649
890.006	4706
890.13	4809
890.254	4607
890.377	4653
890.501	4447
890.624	4546
890.748	4664
890.871	4478
890.995	4409
891.118	4405
891.241	4561
891.364	4565
891.488	4656
891.611	4516
891.734	4516
891.857	4588
891.98	4527
892.103	4687
892.226	4577
892.349	4527
892.471	4417
892.594	4603
892.717	4599
892.839	4607
892.962	4599
893.085	4626
893.207	4580
893.33	4417
893.452	4573
893.575	4645
893.697	4603
893.819	4778
893.941	4824
894.064	4748
894.186	4592
894.308	4573
894.43	4729
894.552	4850
894.674	4729
894.796	4577
894.918	4561
895.04	4611
895.161	4702
895.283	4653
895.405	4603
895.526	4634
895.648	4721
895.769	4656
895.891	4714
896.012	4733
896.134	4752
896.255	4664
896.376	4634
896.498	4584
896.619	4698
896.74	4634
896.861	4656
896.982	4976
897.103	5060
897.224	4870
897.345	4725
897.466	4691
897.587	4721
897.708	4862
897.828	4786
897.949	4660
898.07	4527
898.19	4637
898.311	4900
898.431	4694
898.552	4698
898.672	4820
898.792	4816
898.913	4752
899.033	4637
899.153	4500
899.273	4417
899.393	4504
899.513	4489
899.633	4550
899.753	4519
899.873	4535
899.993	4573
900.113	4519
900.232	4599
900.352	4535
900.472	4519
900.591	4394
900.711	4531
900.83	4436
900.95	4611
901.069	4702
901.189	4565
901.308	4352
901.427	4303
901.546	4363
901.665	4440
901.784	4462
901.904	4402
902.023	4322
902.141	4162
902.26	4150
902.379	4333
902.498	4253
902.617	4246
902.735	4390
902.854	4352
902.973	4360
903.091	4223
903.21	4230
903.328	4325
903.446	4242
903.565	4257
903.683	4363
903.801	4253
903.919	4394
904.038	4462
904.156	4337
904.274	4455
904.392	4333
904.51	4466
904.627	4470
904.745	4607
904.863	4622
904.981	4386
905.098	4295
905.216	4360
905.334	4447
905.451	4417
905.569	4443
905.686	4519
905.803	4584
905.921	4440
906.038	4531
906.155	4504
906.272	4432
906.389	4489
906.506	4367
906.623	4379
906.74	4379
906.857	4314
906.974	4390
907.091	4569
907.208	4649
907.324	4592
907.441	4504
907.557	4360
907.674	4360
907.79	4333
907.907	4363
908.023	4466
908.139	4481
908.256	4485
908.372	4500
908.488	4436
908.604	4341
908.72	4329
908.836	4363
908.952	4363
909.068	4447
909.184	4573
909.3	4424
909.415	4577
909.531	4561
909.647	4402
909.762	4398
909.878	4333
909.993	4432
910.108	4424
910.224	4440
910.339	4455
910.454	4405
910.57	4337
910.685	4299
910.8	4675
910.915	4611
911.03	4489
911.145	4333
911.259	4363
911.374	4352
911.489	4333
911.604	4291
911.718	4196
911.833	4173
911.947	4112
912.062	4032
912.176	4253
912.291	4242
912.405	4272
912.519	4493
912.633	4474
912.748	4360
912.862	4337
912.976	4215
913.09	4097
913.204	4219
913.318	4230
913.431	4405
913.545	4360
913.659	4447
913.772	4360
913.886	4215
914	4219
914.113	4402
914.226	4466
914.34	4405
914.453	4261
914.566	4432
914.68	4322
914.793	4371
914.906	4200
915.019	4090
915.132	4135
915.245	4177
915.358	4211
915.47	4261
915.583	4299
915.696	4246
915.809	4440
915.921	4409
916.034	4261
916.146	4284
916.259	4234
916.371	4386
916.483	4367
916.595	4230
916.708	4348
916.82	4383
916.932	4348
917.044	4344
917.156	4333
917.268	4211
917.38	4299
917.491	4303
917.603	4394
917.715	4470
917.826	4443
917.938	4367
918.049	4211
918.161	4428
918.272	4527
918.384	4550
918.495	4478
918.606	4272
918.717	4234
918.828	4318
918.939	4386
919.05	4291
919.161	4356
919.272	4128
919.383	4219
919.494	4459
919.604	4603
919.715	4390
919.826	4375
919.936	4394
920.047	4523
920.157	4508
920.267	4702
920.378	4527
920.488	4459
920.598	4714
920.708	4949
920.818	4744
920.928	4717
921.038	4946
921.148	4900
921.258	4645
921.368	4550
921.477	4500
921.587	4489
921.697	4371
921.806	4599
921.916	4432
922.025	4329
922.134	4299
922.244	4249
922.353	4344
922.462	4166
922.571	4162
922.68	3975
922.789	3994
922.898	3994
923.007	3991
923.116	4078
923.224	4074
923.333	4071
923.442	3972
923.55	4013
923.659	4044
923.767	4071
923.876	4040
923.984	4131
924.092	3987
924.201	4097
924.309	4063
924.417	4139
924.525	4067
924.633	4124
924.741	5064
924.849	3945
924.956	4128
925.064	4002
925.172	3880
925.279	3979
925.387	4067
925.494	4109
925.602	4204
925.709	4181
925.816	4048
925.924	4128
926.031	4268
926.138	4181
926.245	4291
926.352	4067
926.459	4276
926.566	4322
926.673	4154
926.779	4097
926.886	4082
926.993	3983
927.099	4010
927.206	3945
927.312	3956
927.419	4067
927.525	4078
927.631	4059
927.737	3991
927.843	3930
927.95	3846
928.056	3915
928.162	3960
928.267	4025
928.373	4596
928.479	4135
928.585	3888
928.69	4048
928.796	4112
928.901	3975
929.007	3865
929.112	4006
929.218	3972
929.323	3945
929.428	3972
929.533	4078
929.638	3903
929.743	3949
929.848	4025
929.953	4025
930.058	3945
930.163	3766
930.267	3831
930.372	3991
930.477	3804
930.581	4071
930.685	3953
930.79	3823
930.894	3907
930.998	3873
931.103	4059
931.207	3743
931.311	3694
931.415	3709
931.519	3504
931.623	3549
