Data from test_V78500241_259.txt Node
Date: Fri Mar 25 16:50:48 CST 2022
User: usil
Spectrometer: V785-0024
Trigger mode: 0
Integration Time (sec): 4.000000E-1
Scans to average: 1
Nonlinearity correction enabled: false
Boxcar width: 0
Storing dark spectrum: false
XAxis mode: Wavelengths
Number of Pixels in Spectrum: 1024
>>>>>Begin Spectral Data<<<<<
801.071	8043
801.214	8031
801.356	7917
801.499	7845
801.641	7761
801.783	7792
801.926	8054
802.068	7925
802.211	7921
802.353	8008
802.496	7856
802.638	7864
802.78	7974
802.923	7837
803.065	7883
803.208	7833
803.35	8020
803.492	8069
803.635	8119
803.777	7993
803.919	8199
804.061	8450
804.204	8153
804.346	8012
804.488	7963
804.63	8065
804.773	7993
804.915	8065
805.057	8332
805.199	8172
805.341	8225
805.483	8210
805.626	8168
805.768	8077
805.91	8199
806.052	8123
806.194	8027
806.336	8313
806.478	8138
806.62	8035
806.762	8103
806.904	8168
807.046	8434
807.188	8332
807.33	8351
807.472	8305
807.614	8126
807.756	8081
807.898	7947
808.04	7879
808.182	7883
808.324	7868
808.465	7913
808.607	8107
808.749	8050
808.891	8149
809.033	8374
809.174	8164
809.316	8024
809.458	8073
809.6	7993
809.741	8043
809.883	8043
810.025	8077
810.166	8126
810.308	8073
810.45	8020
810.591	7871
810.733	7738
810.875	7651
811.016	7514
811.158	7438
811.299	7609
811.441	7776
811.582	7753
811.724	7480
811.865	7476
812.007	7616
812.148	7590
812.29	7597
812.431	7757
812.573	7864
812.714	7940
812.855	8123
812.997	8176
813.138	8259
813.279	8164
813.421	8073
813.562	8043
813.703	7811
813.845	7765
813.986	7384
814.127	7255
814.268	7240
814.41	7213
814.551	7190
814.692	7194
814.833	7076
814.974	7050
815.115	7129
815.256	6947
815.397	6867
815.539	6859
815.68	6821
815.821	6829
815.962	6882
816.103	6818
816.244	6741
816.385	6608
816.526	6650
816.666	6559
816.807	6346
816.948	6422
817.089	6403
817.23	6422
817.371	6422
817.512	6395
817.653	6357
817.793	6338
817.934	6327
818.075	6483
818.216	6433
818.356	6399
818.497	6232
818.638	6136
818.778	6148
818.919	6117
819.06	6140
819.2	6338
819.341	6304
819.481	6327
819.622	6464
819.762	6692
819.903	6665
820.043	6566
820.184	6509
820.324	6559
820.465	6707
820.605	6646
820.746	6665
820.886	6460
821.026	6593
821.167	6662
821.307	6776
821.447	6734
821.588	6646
821.728	6521
821.868	6452
822.008	6308
822.149	6369
822.289	6346
822.429	6098
822.569	6091
822.709	6178
822.849	5916
822.99	5939
823.13	5977
823.27	5916
823.41	5779
823.55	5805
823.69	5760
823.83	5775
823.97	5649
824.11	5516
824.25	5467
824.389	5577
824.529	5627
824.669	5490
824.809	5608
824.949	5638
825.089	5589
825.228	5562
825.368	5391
825.508	5383
825.648	5337
825.787	5395
825.927	5303
826.067	5322
826.206	5311
826.346	5402
826.485	5425
826.625	5376
826.765	5501
826.904	5452
827.044	5277
827.183	5143
827.323	5136
827.462	5223
827.601	5185
827.741	5143
827.88	5261
828.02	5086
828.159	5212
828.298	5265
828.437	5341
828.577	5258
828.716	5493
828.855	5299
828.994	5143
829.134	5166
829.273	5201
829.412	5155
829.551	5143
829.69	5166
829.829	5227
829.968	5387
830.107	5261
830.246	5269
830.385	5189
830.524	5178
830.663	5045
830.802	4965
830.941	4828
831.08	4854
831.219	4949
831.357	5010
831.496	5132
831.635	4896
831.774	4843
831.913	4885
832.051	4736
832.19	4763
832.329	4850
832.467	4668
832.606	4660
832.744	4725
832.883	4717
833.022	4687
833.16	4797
833.299	4847
833.437	4847
833.576	4816
833.714	4824
833.852	4930
833.991	4866
834.129	4934
834.267	4946
834.406	4919
834.544	4942
834.682	4965
834.821	4968
834.959	5147
835.097	4995
835.235	5136
835.373	5025
835.511	5041
835.65	5090
835.788	5060
835.926	4900
836.064	4866
836.202	4889
836.34	5151
836.478	5220
836.615	5102
836.753	5223
836.891	5280
837.029	5273
837.167	5151
837.305	5181
837.443	5178
837.58	5151
837.718	5223
837.856	5178
837.993	5147
838.131	5178
838.269	5212
838.406	5227
838.544	5178
838.681	5010
838.819	4999
838.956	4900
839.094	4927
839.231	4972
839.369	5048
839.506	5463
839.643	5239
839.781	5094
839.918	5052
840.055	5075
840.193	5071
840.33	5147
840.467	5162
840.604	5193
840.742	5463
840.879	5151
841.016	5094
841.153	5181
841.29	5372
841.427	5299
841.564	5322
841.701	5288
841.838	5341
841.975	5239
842.112	5250
842.249	5124
842.385	5086
842.522	5322
842.659	5197
842.796	5140
842.933	5227
843.069	5178
843.206	5136
843.343	5273
843.479	5227
843.616	5269
843.752	4953
843.889	5037
844.025	5273
844.162	5025
844.298	5204
844.435	5079
844.571	5037
844.708	5201
844.844	5280
844.98	5311
845.117	5250
845.253	5132
845.389	5067
845.525	5124
845.661	5162
845.798	5045
845.934	5102
846.07	5052
846.206	5189
846.342	5265
846.478	5193
846.614	5037
846.75	5018
846.886	4934
847.022	5178
847.158	5003
847.294	5075
847.429	5105
847.565	5056
847.701	5376
847.837	4843
847.972	4831
848.108	4915
848.244	4919
848.379	4793
848.515	4668
848.65	4698
848.786	4710
848.921	4790
849.057	4858
849.192	4919
849.328	4812
849.463	4835
849.598	4801
849.734	4744
849.869	4698
850.004	4622
850.14	4698
850.275	4603
850.41	4474
850.545	4538
850.68	4577
850.815	4592
850.95	4611
851.085	4801
851.22	4740
851.355	4653
851.49	4672
851.625	4615
851.76	4611
851.895	4554
852.03	4531
852.165	4622
852.299	4656
852.434	4805
852.569	4717
852.703	4767
852.838	4812
852.973	4968
853.107	4930
853.242	4706
853.376	4691
853.511	4569
853.645	4618
853.78	4793
853.914	4656
854.048	4641
854.183	4634
854.317	4729
854.451	4911
854.585	4721
854.72	4615
854.854	4767
854.988	4611
855.122	4664
855.256	4519
855.39	4675
855.524	4816
855.658	4729
855.792	4656
855.926	4786
856.06	4748
856.194	4774
856.327	4679
856.461	4565
856.595	4637
856.729	4649
856.862	4710
856.996	4668
857.13	4733
857.263	4721
857.397	4812
857.53	4645
857.664	4698
857.797	4721
857.931	4744
858.064	4679
858.197	4714
858.331	4603
858.464	4596
858.597	4519
858.731	4634
858.864	4603
858.997	4599
859.13	4603
859.263	4702
859.396	4675
859.529	4615
859.662	4565
859.795	4558
859.928	4641
860.061	4759
860.194	4748
860.327	4588
860.46	4550
860.592	4675
860.725	4687
860.858	4721
860.99	4550
861.123	4527
861.256	4512
861.388	4596
861.521	5379
861.653	4459
861.786	4451
861.918	4481
862.05	4542
862.183	4516
862.315	4641
862.447	4626
862.58	4538
862.712	4432
862.844	4318
862.976	4489
863.108	4405
863.24	4843
863.372	4360
863.504	4417
863.636	4421
863.768	4500
863.9	4436
864.032	4348
864.164	4409
864.296	4474
864.428	4500
864.559	4569
864.691	4546
864.823	4542
864.954	4478
865.086	4440
865.217	4436
865.349	4409
865.48	4409
865.612	4474
865.743	4649
865.875	4466
866.006	4443
866.137	4443
866.269	4470
866.4	4459
866.531	4390
866.662	4402
866.793	4428
866.924	4394
867.055	4481
867.186	4428
867.317	4428
867.448	4367
867.579	4360
867.71	4402
867.841	4367
867.972	4459
868.103	4500
868.233	4462
868.364	4466
868.495	4508
868.625	4694
868.756	4790
868.886	4618
869.017	4626
869.147	4778
869.278	4733
869.408	4694
869.539	4672
869.669	4778
869.799	4664
869.929	4771
870.06	4812
870.19	4972
870.32	4919
870.45	4995
870.58	5064
870.71	5094
870.84	5132
870.97	4965
871.1	4946
871.23	5189
871.36	5174
871.489	5064
871.619	5132
871.749	5201
871.879	5094
872.008	5212
872.138	5090
872.267	5018
872.397	4904
872.526	4858
872.656	4771
872.785	4850
872.915	5056
873.044	5132
873.173	5003
873.303	5064
873.432	4987
873.561	4961
873.69	4919
873.819	4915
873.948	4976
874.077	4850
874.206	4858
874.335	4892
874.464	4991
874.593	5079
874.722	5045
874.851	5155
874.979	5109
875.108	5102
875.237	4968
875.365	4923
875.494	4953
875.623	4965
875.751	4870
875.88	4927
876.008	5029
876.136	5124
876.265	5307
876.393	5425
876.521	5261
876.65	5254
876.778	5185
876.906	5121
877.034	5086
877.162	5094
877.29	5090
877.418	5033
877.546	5098
877.674	5056
877.802	5098
877.93	5113
878.058	5025
878.185	4923
878.313	4987
878.441	5010
878.568	4873
878.696	4911
878.824	5014
878.951	5056
879.079	5166
879.206	5330
879.333	5132
879.461	5014
879.588	5022
879.715	5155
879.842	5261
879.97	5010
880.097	4843
880.224	4771
880.351	4870
880.478	4850
880.605	4839
880.732	4831
880.859	5121
880.986	4927
881.112	4938
881.239	4797
881.366	4706
881.493	4637
881.619	4599
881.746	4694
881.872	4714
881.999	4717
882.125	4729
882.252	4831
882.378	4850
882.505	4995
882.631	4877
882.757	4744
882.883	4778
883.01	4797
883.136	4691
883.262	4615
883.388	4615
883.514	4885
883.64	4824
883.766	4843
883.892	4729
884.018	4793
884.143	4976
884.269	5056
884.395	4702
884.52	4645
884.646	4668
884.772	4626
884.897	4573
885.023	4710
885.148	4793
885.274	4873
885.399	4862
885.524	4740
885.65	4778
885.775	4774
885.9	4717
886.025	4870
886.15	4828
886.275	4736
886.4	4672
886.525	4767
886.65	4725
886.775	4744
886.9	4953
887.025	5041
887.149	4843
887.274	4683
887.399	4626
887.523	4672
887.648	4603
887.773	4634
887.897	4778
888.021	4793
888.146	4683
888.27	4873
888.395	4942
888.519	4786
888.643	4843
888.767	4866
888.891	4763
889.015	4626
889.139	4694
889.263	4649
889.387	4835
889.511	4934
889.635	4831
889.759	4691
889.883	4683
890.006	4778
890.13	4862
890.254	4698
890.377	4679
890.501	4588
890.624	4584
890.748	4641
890.871	4554
890.995	4462
891.118	4417
891.241	4550
891.364	4584
891.488	4675
891.611	4538
891.734	4569
891.857	4649
891.98	4645
892.103	4668
892.226	4653
892.349	4554
892.471	4485
892.594	4615
892.717	4653
892.839	4660
892.962	4637
893.085	4656
893.207	4634
893.33	4489
893.452	4592
893.575	4687
893.697	4592
893.819	4900
893.941	4828
894.064	4809
894.186	4626
894.308	4622
894.43	4721
894.552	4831
894.674	4816
894.796	4615
894.918	4653
895.04	4599
895.161	4733
895.283	4668
895.405	4561
895.526	4679
895.648	4725
895.769	4725
895.891	4725
896.012	4755
896.134	4721
896.255	4706
896.376	4679
896.498	4698
896.619	4687
896.74	4683
896.861	4733
896.982	4995
897.103	5086
897.224	4862
897.345	4816
897.466	4683
897.587	4736
897.708	4889
897.828	4870
897.949	4710
898.07	4618
898.19	4691
898.311	4873
898.431	4675
898.552	4763
898.672	4843
898.792	4816
898.913	4714
899.033	4691
899.153	4573
899.273	4470
899.393	4538
899.513	4573
899.633	4580
899.753	4546
899.873	4538
899.993	4573
900.113	4542
900.232	4694
900.352	4630
900.472	4519
900.591	4432
900.711	4565
900.83	4459
900.95	4618
901.069	4759
901.189	4542
901.308	4428
901.427	4363
901.546	4390
901.665	4493
901.784	4546
901.904	4428
902.023	4333
902.141	4200
902.26	4185
902.379	4356
902.498	4242
902.617	4272
902.735	4409
902.854	4474
902.973	4428
903.091	4238
903.21	4265
903.328	4295
903.446	4341
903.565	4287
903.683	4383
903.801	4322
903.919	4436
904.038	4451
904.156	4318
904.274	4489
904.392	4451
904.51	4462
904.627	4474
904.745	4618
904.863	4675
904.981	4421
905.098	4341
905.216	4409
905.334	4493
905.451	4409
905.569	4538
905.686	4603
905.803	4558
905.921	4409
906.038	4584
906.155	4519
906.272	4421
906.389	4523
906.506	4379
906.623	4428
906.74	4432
906.857	4352
906.974	4447
907.091	4611
907.208	4679
907.324	4611
907.441	4493
907.557	4356
907.674	4383
907.79	4409
907.907	4413
908.023	4474
908.139	4573
908.256	4440
908.372	4516
908.488	4424
908.604	4371
908.72	4299
908.836	4394
908.952	4424
909.068	4459
909.184	4615
909.3	4466
909.415	4577
909.531	4630
909.647	4451
909.762	4424
909.878	4348
909.993	4451
910.108	4451
910.224	4451
910.339	4512
910.454	4421
910.57	4386
910.685	4303
910.8	4702
910.915	4603
911.03	4569
911.145	4394
911.259	4337
911.374	4432
911.489	4360
911.604	4352
911.718	4181
911.833	4280
911.947	4143
912.062	4082
912.176	4230
912.291	4234
912.405	4299
912.519	4508
912.633	4558
912.748	4390
912.862	4329
912.976	4234
913.09	4086
913.204	4188
913.318	4318
913.431	4421
913.545	4348
913.659	4447
913.772	4413
913.886	4249
914	4253
914.113	4413
914.226	4436
914.34	4440
914.453	4325
914.566	4451
914.68	4299
914.793	4341
914.906	4192
915.019	4162
915.132	4112
915.245	4185
915.358	4253
915.47	4280
915.583	4295
915.696	4306
915.809	4394
915.921	4474
916.034	4280
916.146	4295
916.259	4268
916.371	4409
916.483	4333
916.595	4238
916.708	4402
916.82	4356
916.932	4436
917.044	4375
917.156	4348
917.268	4284
917.38	4310
917.491	4284
917.603	4386
917.715	4436
917.826	4500
917.938	4371
918.049	4227
918.161	4398
918.272	4546
918.384	4542
918.495	4493
918.606	4306
918.717	4268
918.828	4352
918.939	4383
919.05	4299
919.161	4329
919.272	4112
919.383	4238
919.494	4443
919.604	4706
919.715	4466
919.826	4341
919.936	4436
920.047	4561
920.157	4516
920.267	4748
920.378	4588
920.488	4512
920.598	4790
920.708	4930
920.818	4774
920.928	4790
921.038	4995
921.148	4949
921.258	4653
921.368	4588
921.477	4474
921.587	4497
921.697	4413
921.806	4531
921.916	4478
922.025	4306
922.134	4265
922.244	4246
922.353	4371
922.462	4188
922.571	4158
922.68	4036
922.789	4021
922.898	4059
923.007	4036
923.116	4116
923.224	4090
923.333	4135
923.442	4032
923.55	4017
923.659	4048
923.767	4090
923.876	3998
923.984	4101
924.092	4021
924.201	4078
924.309	4131
924.417	4166
924.525	4071
924.633	4124
924.741	5102
924.849	3930
924.956	4143
925.064	3972
925.172	3922
925.279	4013
925.387	4029
925.494	4078
925.602	4242
925.709	4219
925.816	4082
925.924	4112
926.031	4272
926.138	4230
926.245	4215
926.352	4150
926.459	4253
926.566	4325
926.673	4188
926.779	4048
926.886	4177
926.993	3994
927.099	3994
927.206	3968
927.312	3953
927.419	4055
927.525	4025
927.631	4116
927.737	3979
927.843	3953
927.95	3812
928.056	4017
928.162	4006
928.267	4112
928.373	4607
928.479	4116
928.585	3899
928.69	4036
928.796	4078
928.901	3994
929.007	3854
929.112	4032
929.218	4021
929.323	3953
929.428	3937
929.533	4116
929.638	3983
929.743	3987
929.848	4036
929.953	4010
930.058	3926
930.163	3812
930.267	3846
930.372	3975
930.477	3800
930.581	4105
930.685	3979
930.79	3850
930.894	3911
930.998	3838
931.103	4074
931.207	3717
931.311	3740
931.415	3736
931.519	3549
931.623	3553
