Data from test_V78500241_1031.txt Node
Date: Fri Mar 25 16:56:10 CST 2022
User: usil
Spectrometer: V785-0024
Trigger mode: 0
Integration Time (sec): 4.000000E-1
Scans to average: 1
Nonlinearity correction enabled: false
Boxcar width: 0
Storing dark spectrum: false
XAxis mode: Wavelengths
Number of Pixels in Spectrum: 1024
>>>>>Begin Spectral Data<<<<<
801.071	8054
801.214	7974
801.356	7932
801.499	7883
801.641	7826
801.783	7830
801.926	7978
802.068	7921
802.211	7947
802.353	8008
802.496	7830
802.638	7898
802.78	7906
802.923	8008
803.065	7909
803.208	7970
803.35	8005
803.492	8103
803.635	8134
803.777	8016
803.919	8240
804.061	8450
804.204	8191
804.346	8054
804.488	7978
804.63	8096
804.773	8050
804.915	8103
805.057	8298
805.199	8153
805.341	8248
805.483	8259
805.626	8214
805.768	8142
805.91	8206
806.052	8206
806.194	8100
806.336	8309
806.478	8081
806.62	8024
806.762	8145
806.904	8195
807.046	8488
807.188	8351
807.33	8301
807.472	8381
807.614	8142
807.756	8123
807.898	8031
808.04	7875
808.182	7928
808.324	7925
808.465	7902
808.607	7989
808.749	8046
808.891	8252
809.033	8309
809.174	8195
809.316	8062
809.458	7993
809.6	7936
809.741	8065
809.883	8008
810.025	8031
810.166	7959
810.308	7947
810.45	8012
810.591	7936
810.733	7712
810.875	7616
811.016	7445
811.158	7521
811.299	7578
811.441	7723
811.582	7693
811.724	7571
811.865	7594
812.007	7586
812.148	7601
812.29	7643
812.431	7776
812.573	7887
812.714	8020
812.855	8084
812.997	8168
813.138	8324
813.279	8161
813.421	8050
813.562	7986
813.703	7883
813.845	7776
813.986	7537
814.127	7274
814.268	7228
814.41	7217
814.551	7160
814.692	7164
814.833	7031
814.974	7107
815.115	7084
815.256	6924
815.397	6928
815.539	6954
815.68	6886
815.821	6814
815.962	6844
816.103	6848
816.244	6783
816.385	6616
816.526	6612
816.666	6551
816.807	6304
816.948	6380
817.089	6536
817.23	6452
817.371	6365
817.512	6456
817.653	6369
817.793	6380
817.934	6414
818.075	6498
818.216	6448
818.356	6334
818.497	6152
818.638	6129
818.778	6167
818.919	6133
819.06	6106
819.2	6365
819.341	6342
819.481	6372
819.622	6494
819.762	6776
819.903	6749
820.043	6582
820.184	6616
820.324	6544
820.465	6696
820.605	6654
820.746	6665
820.886	6563
821.026	6593
821.167	6738
821.307	6795
821.447	6738
821.588	6631
821.728	6662
821.868	6486
822.008	6292
822.149	6380
822.289	6361
822.429	6136
822.569	6095
822.709	6159
822.849	5969
822.99	5916
823.13	5897
823.27	5942
823.41	5783
823.55	5760
823.69	5783
823.83	5771
823.97	5649
824.11	5474
824.25	5558
824.389	5524
824.529	5570
824.669	5505
824.809	5665
824.949	5623
825.089	5615
825.228	5562
825.368	5387
825.508	5337
825.648	5337
825.787	5353
825.927	5421
826.067	5299
826.206	5296
826.346	5368
826.485	5376
826.625	5406
826.765	5532
826.904	5463
827.044	5296
827.183	5212
827.323	5079
827.462	5254
827.601	5212
827.741	5181
827.88	5220
828.02	5151
828.159	5250
828.298	5372
828.437	5368
828.577	5204
828.716	5497
828.855	5288
828.994	5140
829.134	5162
829.273	5147
829.412	5136
829.551	5052
829.69	5098
829.829	5250
829.968	5379
830.107	5227
830.246	5273
830.385	5117
830.524	5185
830.663	5014
830.802	4972
830.941	4862
831.08	4862
831.219	4976
831.357	4980
831.496	5067
831.635	4965
831.774	4805
831.913	4812
832.051	4706
832.19	4706
832.329	4858
832.467	4691
832.606	4603
832.744	4725
832.883	4664
833.022	4767
833.16	4790
833.299	4812
833.437	4805
833.576	4820
833.714	4824
833.852	4839
833.991	4877
834.129	4980
834.267	4953
834.406	4858
834.544	5018
834.682	5037
834.821	4984
834.959	5178
835.097	4984
835.235	5151
835.373	5052
835.511	5121
835.65	5010
835.788	5010
835.926	4889
836.064	4892
836.202	4938
836.34	5223
836.478	5212
836.615	5121
836.753	5201
836.891	5296
837.029	5231
837.167	5162
837.305	5159
837.443	5140
837.58	5056
837.718	5250
837.856	5181
837.993	5181
838.131	5254
838.269	5185
838.406	5208
838.544	5193
838.681	5045
838.819	5033
838.956	4881
839.094	4892
839.231	4938
839.369	5064
839.506	5425
839.643	5261
839.781	5071
839.918	5025
840.055	5086
840.193	5079
840.33	5155
840.467	5128
840.604	5151
840.742	5410
840.879	5083
841.016	5102
841.153	5170
841.29	5322
841.427	5364
841.564	5307
841.701	5345
841.838	5246
841.975	5201
842.112	5242
842.249	5124
842.385	5102
842.522	5364
842.659	5181
842.796	5075
842.933	5223
843.069	5166
843.206	5197
843.343	5288
843.479	5231
843.616	5223
843.752	5018
843.889	4984
844.025	5185
844.162	5006
844.298	5216
844.435	5079
844.571	5045
844.708	5185
844.844	5296
844.98	5345
845.117	5273
845.253	5117
845.389	5086
845.525	5178
845.661	5124
845.798	4976
845.934	5124
846.07	5041
846.206	5197
846.342	5231
846.478	5151
846.614	4984
846.75	4968
846.886	4904
847.022	5166
847.158	5003
847.294	5064
847.429	5124
847.565	5003
847.701	5303
847.837	4862
847.972	4793
848.108	4919
848.244	4866
848.379	4767
848.515	4740
848.65	4752
848.786	4736
848.921	4790
849.057	4866
849.192	4911
849.328	4828
849.463	4812
849.598	4733
849.734	4786
849.869	4675
850.004	4622
850.14	4653
850.275	4653
850.41	4527
850.545	4569
850.68	4558
850.815	4660
850.95	4618
851.085	4858
851.22	4763
851.355	4622
851.49	4607
851.625	4637
851.76	4653
851.895	4554
852.03	4550
852.165	4653
852.299	4733
852.434	4763
852.569	4752
852.703	4778
852.838	4812
852.973	4927
853.107	4915
853.242	4774
853.376	4691
853.511	4542
853.645	4596
853.78	4824
853.914	4698
854.048	4660
854.183	4615
854.317	4702
854.451	4900
854.585	4710
854.72	4611
854.854	4740
854.988	4573
855.122	4641
855.256	4481
855.39	4653
855.524	4774
855.658	4694
855.792	4694
855.926	4740
856.06	4767
856.194	4771
856.327	4702
856.461	4596
856.595	4626
856.729	4596
856.862	4733
856.996	4649
857.13	4725
857.263	4820
857.397	4763
857.53	4637
857.664	4691
857.797	4725
857.931	4828
858.064	4664
858.197	4790
858.331	4694
858.464	4577
858.597	4489
858.731	4626
858.864	4672
858.997	4565
859.13	4611
859.263	4634
859.396	4767
859.529	4550
859.662	4558
859.795	4542
859.928	4603
860.061	4733
860.194	4793
860.327	4626
860.46	4561
860.592	4702
860.725	4675
860.858	4698
860.99	4554
861.123	4504
861.256	4531
861.388	4634
861.521	5296
861.653	4478
861.786	4402
861.918	4443
862.05	4504
862.183	4558
862.315	4554
862.447	4653
862.58	4561
862.712	4398
862.844	4280
862.976	4455
863.108	4516
863.24	4870
863.372	4249
863.504	4371
863.636	4443
863.768	4428
863.9	4386
864.032	4341
864.164	4462
864.296	4443
864.428	4577
864.559	4542
864.691	4546
864.823	4512
864.954	4504
865.086	4470
865.217	4409
865.349	4402
865.48	4455
865.612	4478
865.743	4580
865.875	4504
866.006	4402
866.137	4402
866.269	4402
866.4	4394
866.531	4455
866.662	4409
866.793	4421
866.924	4440
867.055	4474
867.186	4421
867.317	4344
867.448	4371
867.579	4398
867.71	4402
867.841	4379
867.972	4417
868.103	4417
868.233	4402
868.364	4394
868.495	4493
868.625	4691
868.756	4725
868.886	4558
869.017	4607
869.147	4740
869.278	4755
869.408	4569
869.539	4611
869.669	4710
869.799	4653
869.929	4778
870.06	4668
870.19	4938
870.32	4919
870.45	4915
870.58	4965
870.71	5094
870.84	5045
870.97	4968
871.1	4904
871.23	5121
871.36	5083
871.489	5010
871.619	5045
871.749	5083
871.879	5094
872.008	5162
872.138	5010
872.267	4938
872.397	4854
872.526	4782
872.656	4694
872.785	4763
872.915	4919
873.044	5006
873.173	4919
873.303	4911
873.432	4972
873.561	4987
873.69	4885
873.819	4774
873.948	4873
874.077	4790
874.206	4721
874.335	4809
874.464	4889
874.593	4995
874.722	4946
874.851	5128
874.979	5090
875.108	5006
875.237	4866
875.365	4885
875.494	4805
875.623	4949
875.751	4801
875.88	4812
876.008	5010
876.136	4995
876.265	5220
876.393	5288
876.521	5223
876.65	5254
876.778	5102
876.906	5052
877.034	4991
877.162	5006
877.29	5014
877.418	5052
877.546	5022
877.674	4987
877.802	5018
877.93	5041
878.058	4919
878.185	4900
878.313	4984
878.441	4942
878.568	4752
878.696	4900
878.824	4908
878.951	5014
879.079	5117
879.206	5265
879.333	5083
879.461	4968
879.588	4976
879.715	5048
879.842	5239
879.97	4999
880.097	4729
880.224	4748
880.351	4763
880.478	4812
880.605	4774
880.732	4755
880.859	5098
880.986	4881
881.112	4866
881.239	4755
881.366	4668
881.493	4630
881.619	4592
881.746	4649
881.872	4626
881.999	4615
882.125	4691
882.252	4744
882.378	4793
882.505	4991
882.631	4778
882.757	4668
882.883	4744
883.01	4706
883.136	4687
883.262	4596
883.388	4607
883.514	4824
883.64	4870
883.766	4805
883.892	4599
884.018	4694
884.143	4870
884.269	4976
884.395	4679
884.52	4599
884.646	4641
884.772	4603
884.897	4508
885.023	4618
885.148	4759
885.274	4889
885.399	4824
885.524	4702
885.65	4679
885.775	4805
885.9	4634
886.025	4873
886.15	4774
886.275	4694
886.4	4683
886.525	4702
886.65	4637
886.775	4683
886.9	4881
887.025	5003
887.149	4759
887.274	4653
887.399	4615
887.523	4607
887.648	4558
887.773	4599
887.897	4782
888.021	4831
888.146	4645
888.27	4809
888.395	4919
888.519	4786
888.643	4790
888.767	4801
888.891	4706
889.015	4626
889.139	4622
889.263	4618
889.387	4748
889.511	4809
889.635	4782
889.759	4626
889.883	4618
890.006	4702
890.13	4816
890.254	4615
890.377	4645
890.501	4516
890.624	4493
890.748	4664
890.871	4500
890.995	4405
891.118	4371
891.241	4474
891.364	4523
891.488	4672
891.611	4481
891.734	4523
891.857	4607
891.98	4535
892.103	4634
892.226	4565
892.349	4531
892.471	4390
892.594	4542
892.717	4599
892.839	4577
892.962	4538
893.085	4694
893.207	4599
893.33	4443
893.452	4535
893.575	4664
893.697	4569
893.819	4828
893.941	4957
894.064	4733
894.186	4565
894.308	4538
894.43	4740
894.552	4797
894.674	4687
894.796	4535
894.918	4588
895.04	4565
895.161	4694
895.283	4687
895.405	4599
895.526	4615
895.648	4698
895.769	4641
895.891	4706
896.012	4729
896.134	4717
896.255	4626
896.376	4618
896.498	4611
896.619	4668
896.74	4565
896.861	4634
896.982	4946
897.103	5014
897.224	4843
897.345	4729
897.466	4694
897.587	4698
897.708	4854
897.828	4759
897.949	4599
898.07	4569
898.19	4634
898.311	4839
898.431	4694
898.552	4694
898.672	4782
898.792	4736
898.913	4698
899.033	4626
899.153	4462
899.273	4386
899.393	4440
899.513	4474
899.633	4542
899.753	4516
899.873	4519
899.993	4577
900.113	4493
900.232	4558
900.352	4584
900.472	4493
900.591	4367
900.711	4508
900.83	4462
900.95	4573
901.069	4710
901.189	4516
901.308	4371
901.427	4257
901.546	4398
901.665	4409
901.784	4500
901.904	4341
902.023	4299
902.141	4177
902.26	4185
902.379	4295
902.498	4249
902.617	4185
902.735	4356
902.854	4409
902.973	4322
903.091	4238
903.21	4219
903.328	4272
903.446	4265
903.565	4257
903.683	4379
903.801	4299
903.919	4398
904.038	4417
904.156	4291
904.274	4428
904.392	4363
904.51	4398
904.627	4478
904.745	4577
904.863	4641
904.981	4356
905.098	4299
905.216	4360
905.334	4413
905.451	4447
905.569	4455
905.686	4519
905.803	4577
905.921	4363
906.038	4527
906.155	4440
906.272	4394
906.389	4421
906.506	4325
906.623	4405
906.74	4318
906.857	4322
906.974	4363
907.091	4558
907.208	4691
907.324	4584
907.441	4489
907.557	4348
907.674	4367
907.79	4287
907.907	4352
908.023	4512
908.139	4493
908.256	4398
908.372	4436
908.488	4447
908.604	4318
908.72	4265
908.836	4375
908.952	4390
909.068	4432
909.184	4584
909.3	4474
909.415	4592
909.531	4565
909.647	4367
909.762	4394
909.878	4344
909.993	4447
910.108	4402
910.224	4409
910.339	4493
910.454	4360
910.57	4390
910.685	4314
910.8	4649
910.915	4641
911.03	4493
911.145	4306
911.259	4341
911.374	4352
911.489	4280
911.604	4310
911.718	4185
911.833	4223
911.947	4082
912.062	4059
912.176	4223
912.291	4276
912.405	4272
912.519	4440
912.633	4470
912.748	4417
912.862	4337
912.976	4192
913.09	4097
913.204	4200
913.318	4207
913.431	4322
913.545	4356
913.659	4451
913.772	4333
913.886	4192
914	4177
914.113	4363
914.226	4383
914.34	4325
914.453	4246
914.566	4424
914.68	4265
914.793	4291
914.906	4154
915.019	4124
915.132	4120
915.245	4150
915.358	4185
915.47	4238
915.583	4280
915.696	4291
915.809	4421
915.921	4405
916.034	4230
916.146	4249
916.259	4200
916.371	4417
916.483	4352
916.595	4246
916.708	4310
916.82	4318
916.932	4291
917.044	4306
917.156	4329
917.268	4211
917.38	4249
917.491	4265
917.603	4306
917.715	4394
917.826	4455
917.938	4325
918.049	4253
918.161	4379
918.272	4550
918.384	4519
918.495	4409
918.606	4291
918.717	4230
918.828	4325
918.939	4371
919.05	4234
919.161	4344
919.272	4120
919.383	4249
919.494	4428
919.604	4558
919.715	4398
919.826	4352
919.936	4356
920.047	4527
920.157	4451
920.267	4683
920.378	4584
920.488	4451
920.598	4683
920.708	4854
920.818	4714
920.928	4767
921.038	4938
921.148	4923
921.258	4611
921.368	4558
921.477	4459
921.587	4478
921.697	4318
921.806	4561
921.916	4455
922.025	4242
922.134	4280
922.244	4181
922.353	4295
922.462	4200
922.571	4154
922.68	3975
922.789	3956
922.898	4036
923.007	3998
923.116	4105
923.224	4063
923.333	4051
923.442	3983
923.55	3991
923.659	4044
923.767	4101
923.876	3998
923.984	4105
924.092	4025
924.201	4082
924.309	4074
924.417	4105
924.525	4071
924.633	4090
924.741	5064
924.849	3915
924.956	4124
925.064	3968
925.172	3888
925.279	3956
925.387	4021
925.494	4093
925.602	4204
925.709	4204
925.816	4017
925.924	4135
926.031	4249
926.138	4147
926.245	4219
926.352	4063
926.459	4249
926.566	4276
926.673	4177
926.779	4063
926.886	4040
926.993	3964
927.099	3953
927.206	3873
927.312	3934
927.419	4051
927.525	4010
927.631	4044
927.737	3960
927.843	3937
927.95	3827
928.056	3934
928.162	3983
928.267	4059
928.373	4672
928.479	4120
928.585	3854
928.69	3987
928.796	4105
928.901	3979
929.007	3884
929.112	3975
929.218	3998
929.323	3918
929.428	3949
929.533	4086
929.638	3934
929.743	3956
929.848	3991
929.953	4051
930.058	3937
930.163	3800
930.267	3812
930.372	3975
930.477	3781
930.581	4090
930.685	3968
930.79	3819
930.894	3903
930.998	3892
931.103	4044
931.207	3705
931.311	3709
931.415	3652
931.519	3534
931.623	3534
