Data from test_V78500241_1389.txt Node
Date: Fri Mar 25 16:58:39 CST 2022
User: usil
Spectrometer: V785-0024
Trigger mode: 0
Integration Time (sec): 4.000000E-1
Scans to average: 1
Nonlinearity correction enabled: false
Boxcar width: 0
Storing dark spectrum: false
XAxis mode: Wavelengths
Number of Pixels in Spectrum: 1024
>>>>>Begin Spectral Data<<<<<
801.071	8005
801.214	7936
801.356	7864
801.499	7909
801.641	7795
801.783	7826
801.926	7970
802.068	7936
802.211	8001
802.353	7974
802.496	7761
802.638	7841
802.78	7925
802.923	7951
803.065	7951
803.208	7868
803.35	7997
803.492	8119
803.635	8126
803.777	7989
803.919	8145
804.061	8446
804.204	8183
804.346	8039
804.488	8012
804.63	8130
804.773	7997
804.915	8100
805.057	8233
805.199	8206
805.341	8275
805.483	8320
805.626	8119
805.768	8035
805.91	8161
806.052	8301
806.194	8092
806.336	8259
806.478	8100
806.62	8062
806.762	8164
806.904	8298
807.046	8514
807.188	8328
807.33	8324
807.472	8347
807.614	8119
807.756	8130
807.898	8008
808.04	7887
808.182	7974
808.324	7845
808.465	8016
808.607	8172
808.749	8149
808.891	8187
809.033	8240
809.174	8210
809.316	8065
809.458	8054
809.6	8043
809.741	7997
809.883	8027
810.025	8058
810.166	8107
810.308	8096
810.45	8008
810.591	7890
810.733	7784
810.875	7719
811.016	7487
811.158	7472
811.299	7624
811.441	7746
811.582	7689
811.724	7571
811.865	7525
812.007	7594
812.148	7586
812.29	7594
812.431	7681
812.573	7833
812.714	7959
812.855	8092
812.997	8187
813.138	8355
813.279	8195
813.421	8027
813.562	8039
813.703	7902
813.845	7822
813.986	7453
814.127	7266
814.268	7202
814.41	7213
814.551	7217
814.692	7183
814.833	7038
814.974	7133
815.115	7171
815.256	6985
815.397	6897
815.539	6928
815.68	6867
815.821	6859
815.962	6829
816.103	6833
816.244	6707
816.385	6608
816.526	6593
816.666	6460
816.807	6304
816.948	6479
817.089	6490
817.23	6467
817.371	6380
817.512	6361
817.653	6395
817.793	6380
817.934	6384
818.075	6410
818.216	6483
818.356	6422
818.497	6247
818.638	6121
818.778	6171
818.919	6190
819.06	6163
819.2	6277
819.341	6311
819.481	6346
819.622	6597
819.762	6738
819.903	6741
820.043	6642
820.184	6574
820.324	6620
820.465	6715
820.605	6646
820.746	6631
820.886	6517
821.026	6654
821.167	6654
821.307	6760
821.447	6776
821.588	6623
821.728	6597
821.868	6547
822.008	6376
822.149	6403
822.289	6289
822.429	6106
822.569	6129
822.709	6110
822.849	5958
822.99	5863
823.13	5950
823.27	5965
823.41	5813
823.55	5817
823.69	5752
823.83	5771
823.97	5672
824.11	5535
824.25	5493
824.389	5562
824.529	5608
824.669	5551
824.809	5665
824.949	5688
825.089	5592
825.228	5547
825.368	5398
825.508	5315
825.648	5372
825.787	5357
825.927	5357
826.067	5303
826.206	5292
826.346	5398
826.485	5391
826.625	5414
826.765	5512
826.904	5486
827.044	5258
827.183	5239
827.323	5128
827.462	5284
827.601	5166
827.741	5212
827.88	5250
828.02	5094
828.159	5235
828.298	5277
828.437	5349
828.577	5307
828.716	5554
828.855	5296
828.994	5193
829.134	5162
829.273	5155
829.412	5117
829.551	5132
829.69	5178
829.829	5246
829.968	5364
830.107	5284
830.246	5265
830.385	5201
830.524	5174
830.663	5071
830.802	4991
830.941	4915
831.08	4923
831.219	4923
831.357	4965
831.496	5201
831.635	4976
831.774	4847
831.913	4850
832.051	4733
832.19	4717
832.329	4816
832.467	4672
832.606	4645
832.744	4759
832.883	4687
833.022	4717
833.16	4759
833.299	4809
833.437	4809
833.576	4812
833.714	4828
833.852	4843
833.991	4862
834.129	4949
834.267	4919
834.406	4949
834.544	4999
834.682	4995
834.821	4919
834.959	5113
835.097	4965
835.235	5128
835.373	5071
835.511	5083
835.65	5033
835.788	5048
835.926	4877
836.064	4850
836.202	4915
836.34	5132
836.478	5220
836.615	5170
836.753	5208
836.891	5292
837.029	5296
837.167	5208
837.305	5155
837.443	5185
837.58	5075
837.718	5277
837.856	5181
837.993	5121
838.131	5216
838.269	5273
838.406	5178
838.544	5181
838.681	5022
838.819	5029
838.956	4889
839.094	4927
839.231	4976
839.369	5109
839.506	5433
839.643	5277
839.781	5003
839.918	5025
840.055	5056
840.193	5086
840.33	5124
840.467	5124
840.604	5216
840.742	5436
840.879	5067
841.016	5083
841.153	5162
841.29	5349
841.427	5349
841.564	5322
841.701	5334
841.838	5258
841.975	5246
842.112	5288
842.249	5166
842.385	5067
842.522	5318
842.659	5181
842.796	5193
842.933	5227
843.069	5136
843.206	5174
843.343	5292
843.479	5254
843.616	5261
843.752	5045
843.889	4995
844.025	5277
844.162	5029
844.298	5140
844.435	5064
844.571	5048
844.708	5155
844.844	5299
844.98	5357
845.117	5345
845.253	5132
845.389	5060
845.525	5181
845.661	5185
845.798	5056
845.934	5132
846.07	5056
846.206	5189
846.342	5242
846.478	5208
846.614	4972
846.75	4987
846.886	4961
847.022	5147
847.158	5022
847.294	5090
847.429	5060
847.565	5048
847.701	5349
847.837	4828
847.972	4835
848.108	4995
848.244	4927
848.379	4774
848.515	4729
848.65	4710
848.786	4771
848.921	4801
849.057	4885
849.192	4915
849.328	4824
849.463	4850
849.598	4778
849.734	4752
849.869	4672
850.004	4611
850.14	4683
850.275	4603
850.41	4497
850.545	4558
850.68	4592
850.815	4615
850.95	4531
851.085	4809
851.22	4759
851.355	4694
851.49	4660
851.625	4679
851.76	4615
851.895	4592
852.03	4504
852.165	4668
852.299	4710
852.434	4809
852.569	4733
852.703	4778
852.838	4831
852.973	4896
853.107	4919
853.242	4725
853.376	4649
853.511	4531
853.645	4618
853.78	4801
853.914	4679
854.048	4675
854.183	4603
854.317	4664
854.451	4816
854.585	4675
854.72	4641
854.854	4748
854.988	4584
855.122	4668
855.256	4497
855.39	4656
855.524	4752
855.658	4683
855.792	4691
855.926	4714
856.06	4782
856.194	4771
856.327	4634
856.461	4626
856.595	4637
856.729	4607
856.862	4755
856.996	4698
857.13	4702
857.263	4721
857.397	4805
857.53	4634
857.664	4717
857.797	4759
857.931	4767
858.064	4626
858.197	4752
858.331	4694
858.464	4607
858.597	4519
858.731	4634
858.864	4615
858.997	4622
859.13	4649
859.263	4653
859.396	4717
859.529	4596
859.662	4550
859.795	4588
859.928	4599
860.061	4759
860.194	4801
860.327	4618
860.46	4546
860.592	4752
860.725	4725
860.858	4736
860.99	4580
861.123	4523
861.256	4504
861.388	4626
861.521	5425
861.653	4500
861.786	4413
861.918	4462
862.05	4500
862.183	4573
862.315	4558
862.447	4615
862.58	4573
862.712	4386
862.844	4318
862.976	4470
863.108	4421
863.24	4892
863.372	4371
863.504	4375
863.636	4413
863.768	4546
863.9	4440
864.032	4337
864.164	4379
864.296	4421
864.428	4527
864.559	4558
864.691	4550
864.823	4535
864.954	4459
865.086	4493
865.217	4489
865.349	4405
865.48	4462
865.612	4451
865.743	4596
865.875	4440
866.006	4443
866.137	4398
866.269	4443
866.4	4451
866.531	4417
866.662	4409
866.793	4398
866.924	4424
867.055	4531
867.186	4451
867.317	4447
867.448	4363
867.579	4417
867.71	4356
867.841	4379
867.972	4447
868.103	4451
868.233	4485
868.364	4478
868.495	4485
868.625	4615
868.756	4778
868.886	4607
869.017	4603
869.147	4740
869.278	4835
869.408	4653
869.539	4615
869.669	4698
869.799	4649
869.929	4782
870.06	4721
870.19	4919
870.32	4930
870.45	4968
870.58	4942
870.71	5083
870.84	5071
870.97	4900
871.1	4873
871.23	5155
871.36	5090
871.489	5010
871.619	5098
871.749	5067
871.879	5064
872.008	5162
872.138	5048
872.267	4987
872.397	4862
872.526	4828
872.656	4725
872.785	4767
872.915	4968
873.044	5010
873.173	4904
873.303	4999
873.432	4946
873.561	4953
873.69	4847
873.819	4820
873.948	4904
874.077	4755
874.206	4725
874.335	4820
874.464	4946
874.593	5075
874.722	4949
874.851	5151
874.979	4995
875.108	5014
875.237	4885
875.365	4877
875.494	4866
875.623	4957
875.751	4763
875.88	4835
876.008	4984
876.136	5064
876.265	5143
876.393	5345
876.521	5212
876.65	5178
876.778	5128
876.906	5056
877.034	5029
877.162	5071
877.29	4980
877.418	5003
877.546	5048
877.674	5003
877.802	5018
877.93	5025
878.058	4854
878.185	4850
878.313	4987
878.441	4934
878.568	4744
878.696	4858
878.824	4927
878.951	4984
879.079	5128
879.206	5288
879.333	5067
879.461	4972
879.588	4942
879.715	5105
879.842	5208
879.97	4965
880.097	4771
880.224	4714
880.351	4759
880.478	4885
880.605	4816
880.732	4778
880.859	5094
880.986	4866
881.112	4934
881.239	4809
881.366	4675
881.493	4565
881.619	4577
881.746	4622
881.872	4649
881.999	4656
882.125	4679
882.252	4752
882.378	4828
882.505	4984
882.631	4805
882.757	4645
882.883	4721
883.01	4744
883.136	4634
883.262	4607
883.388	4637
883.514	4744
883.64	4850
883.766	4793
883.892	4668
884.018	4702
884.143	4831
884.269	5022
884.395	4683
884.52	4588
884.646	4622
884.772	4611
884.897	4535
885.023	4698
885.148	4752
885.274	4866
885.399	4824
885.524	4721
885.65	4656
885.775	4744
885.9	4702
886.025	4866
886.15	4771
886.275	4672
886.4	4637
886.525	4702
886.65	4672
886.775	4755
886.9	4881
887.025	5029
887.149	4786
887.274	4664
887.399	4584
887.523	4596
887.648	4538
887.773	4573
887.897	4790
888.021	4812
888.146	4675
888.27	4801
888.395	4881
888.519	4805
888.643	4793
888.767	4809
888.891	4672
889.015	4561
889.139	4634
889.263	4565
889.387	4744
889.511	4820
889.635	4801
889.759	4664
889.883	4634
890.006	4721
890.13	4850
890.254	4618
890.377	4649
890.501	4516
890.624	4561
890.748	4596
890.871	4485
890.995	4424
891.118	4390
891.241	4527
891.364	4500
891.488	4637
891.611	4478
891.734	4554
891.857	4573
891.98	4573
892.103	4611
892.226	4584
892.349	4508
892.471	4424
892.594	4565
892.717	4546
892.839	4565
892.962	4554
893.085	4641
893.207	4596
893.33	4398
893.452	4554
893.575	4637
893.697	4519
893.819	4774
893.941	4801
894.064	4774
894.186	4535
894.308	4512
894.43	4710
894.552	4889
894.674	4744
894.796	4523
894.918	4569
895.04	4500
895.161	4714
895.283	4637
895.405	4596
895.526	4630
895.648	4645
895.769	4687
895.891	4675
896.012	4702
896.134	4675
896.255	4683
896.376	4611
896.498	4599
896.619	4683
896.74	4592
896.861	4668
896.982	4892
897.103	5079
897.224	4805
897.345	4736
897.466	4687
897.587	4698
897.708	4828
897.828	4744
897.949	4649
898.07	4519
898.19	4653
898.311	4835
898.431	4687
898.552	4740
898.672	4816
898.792	4767
898.913	4706
899.033	4641
899.153	4485
899.273	4379
899.393	4504
899.513	4500
899.633	4470
899.753	4489
899.873	4527
899.993	4592
900.113	4512
900.232	4630
900.352	4554
900.472	4523
900.591	4344
900.711	4497
900.83	4466
900.95	4634
901.069	4679
901.189	4535
901.308	4299
901.427	4322
901.546	4348
901.665	4447
901.784	4535
901.904	4379
902.023	4303
902.141	4131
902.26	4173
902.379	4299
902.498	4276
902.617	4211
902.735	4337
902.854	4409
902.973	4375
903.091	4200
903.21	4207
903.328	4284
903.446	4249
903.565	4257
903.683	4367
903.801	4295
903.919	4443
904.038	4417
904.156	4333
904.274	4428
904.392	4405
904.51	4424
904.627	4417
904.745	4603
904.863	4649
904.981	4413
905.098	4261
905.216	4398
905.334	4428
905.451	4405
905.569	4478
905.686	4542
905.803	4580
905.921	4375
906.038	4550
906.155	4485
906.272	4379
906.389	4474
906.506	4337
906.623	4352
906.74	4356
906.857	4295
906.974	4341
907.091	4584
907.208	4691
907.324	4584
907.441	4466
907.557	4295
907.674	4344
907.79	4310
907.907	4344
908.023	4519
908.139	4447
908.256	4428
908.372	4462
908.488	4432
908.604	4390
908.72	4344
908.836	4386
908.952	4371
909.068	4409
909.184	4580
909.3	4440
909.415	4618
909.531	4588
909.647	4398
909.762	4371
909.878	4333
909.993	4478
910.108	4371
910.224	4421
910.339	4474
910.454	4394
910.57	4352
910.685	4280
910.8	4656
910.915	4599
911.03	4508
911.145	4306
911.259	4325
911.374	4402
911.489	4246
911.604	4272
911.718	4192
911.833	4181
911.947	4131
912.062	3994
912.176	4166
912.291	4242
912.405	4246
912.519	4421
912.633	4443
912.748	4379
912.862	4257
912.976	4188
913.09	4093
913.204	4154
913.318	4268
913.431	4325
913.545	4341
913.659	4485
913.772	4379
913.886	4299
914	4219
914.113	4383
914.226	4459
914.34	4337
914.453	4234
914.566	4424
914.68	4291
914.793	4295
914.906	4169
915.019	4097
915.132	4078
915.245	4162
915.358	4211
915.47	4173
915.583	4284
915.696	4280
915.809	4390
915.921	4371
916.034	4253
916.146	4215
916.259	4211
916.371	4333
916.483	4325
916.595	4303
916.708	4299
916.82	4261
916.932	4287
917.044	4291
917.156	4299
917.268	4211
917.38	4268
917.491	4257
917.603	4356
917.715	4424
917.826	4405
917.938	4341
918.049	4246
918.161	4413
918.272	4550
918.384	4523
918.495	4470
918.606	4318
918.717	4242
918.828	4341
918.939	4314
919.05	4227
919.161	4325
919.272	4124
919.383	4223
919.494	4428
919.604	4641
919.715	4402
919.826	4314
919.936	4402
920.047	4504
920.157	4493
920.267	4698
920.378	4512
920.488	4455
920.598	4736
920.708	4873
920.818	4759
920.928	4748
921.038	4938
921.148	4862
921.258	4573
921.368	4504
921.477	4474
921.587	4428
921.697	4390
921.806	4500
921.916	4428
922.025	4234
922.134	4207
922.244	4219
922.353	4356
922.462	4101
922.571	4128
922.68	4021
922.789	3945
922.898	4021
923.007	3979
923.116	4078
923.224	4013
923.333	4067
923.442	4002
923.55	3945
923.659	4029
923.767	4093
923.876	3975
923.984	4143
924.092	3998
924.201	4063
924.309	4078
924.417	4128
924.525	4040
924.633	4116
924.741	5022
924.849	3930
924.956	4154
925.064	3953
925.172	3903
925.279	3972
925.387	4078
925.494	4078
925.602	4188
925.709	4154
925.816	4017
925.924	4093
926.031	4253
926.138	4158
926.245	4173
926.352	4071
926.459	4257
926.566	4295
926.673	4154
926.779	4086
926.886	4086
926.993	4017
927.099	3968
927.206	3964
927.312	3953
927.419	4067
927.525	3991
927.631	4055
927.737	4010
927.843	3983
927.95	3827
928.056	3972
928.162	3953
928.267	4071
928.373	4717
928.479	4082
928.585	3865
928.69	3972
928.796	4071
928.901	3964
929.007	3819
929.112	3983
929.218	3979
929.323	3930
929.428	3949
929.533	4105
929.638	3896
929.743	3934
929.848	4013
929.953	3956
930.058	3911
930.163	3762
930.267	3816
930.372	3964
930.477	3789
930.581	4101
930.685	3922
930.79	3819
930.894	3861
930.998	3846
931.103	4051
931.207	3720
931.311	3713
931.415	3682
931.519	3534
931.623	3545
