Data from test_V78500241_2417.txt Node
Date: Fri Mar 25 17:05:48 CST 2022
User: usil
Spectrometer: V785-0024
Trigger mode: 0
Integration Time (sec): 4.000000E-1
Scans to average: 1
Nonlinearity correction enabled: false
Boxcar width: 0
Storing dark spectrum: false
XAxis mode: Wavelengths
Number of Pixels in Spectrum: 1024
>>>>>Begin Spectral Data<<<<<
801.071	8039
801.214	8001
801.356	7894
801.499	7852
801.641	7772
801.783	7826
801.926	7986
802.068	7986
802.211	7993
802.353	7989
802.496	7928
802.638	7890
802.78	7883
802.923	7963
803.065	7837
803.208	7925
803.35	7967
803.492	8138
803.635	8199
803.777	7986
803.919	8176
804.061	8400
804.204	8153
804.346	8130
804.488	8107
804.63	8134
804.773	8035
804.915	8100
805.057	8271
805.199	8103
805.341	8214
805.483	8240
805.626	8240
805.768	8134
805.91	8218
806.052	8214
806.194	8096
806.336	8301
806.478	8115
806.62	8012
806.762	8134
806.904	8233
807.046	8465
807.188	8362
807.33	8332
807.472	8351
807.614	8183
807.756	8149
807.898	8012
808.04	7913
808.182	7906
808.324	7898
808.465	7906
808.607	8088
808.749	8107
808.891	8202
809.033	8305
809.174	8206
809.316	8103
809.458	8142
809.6	8020
809.741	7997
809.883	8016
810.025	8096
810.166	8115
810.308	8065
810.45	8058
810.591	7856
810.733	7746
810.875	7662
811.016	7537
811.158	7525
811.299	7639
811.441	7685
811.582	7727
811.724	7548
811.865	7552
812.007	7620
812.148	7639
812.29	7677
812.431	7784
812.573	7868
812.714	8024
812.855	8119
812.997	8233
813.138	8259
813.279	8149
813.421	8043
813.562	7936
813.703	7811
813.845	7738
813.986	7472
814.127	7236
814.268	7217
814.41	7206
814.551	7118
814.692	7213
814.833	7107
814.974	7160
815.115	7145
815.256	6966
815.397	6989
815.539	7004
815.68	6821
815.821	6802
815.962	6840
816.103	6837
816.244	6772
816.385	6608
816.526	6582
816.666	6517
816.807	6365
816.948	6486
817.089	6517
817.23	6452
817.371	6407
817.512	6346
817.653	6391
817.793	6365
817.934	6433
818.075	6479
818.216	6445
818.356	6407
818.497	6262
818.638	6155
818.778	6186
818.919	6171
819.06	6201
819.2	6319
819.341	6384
819.481	6357
819.622	6502
819.762	6719
819.903	6753
820.043	6589
820.184	6597
820.324	6620
820.465	6677
820.605	6730
820.746	6631
820.886	6536
821.026	6673
821.167	6669
821.307	6863
821.447	6783
821.588	6757
821.728	6631
821.868	6547
822.008	6342
822.149	6346
822.289	6350
822.429	6171
822.569	6121
822.709	6178
822.849	5980
822.99	5984
823.13	5939
823.27	5939
823.41	5809
823.55	5798
823.69	5798
823.83	5824
823.97	5707
824.11	5558
824.25	5528
824.389	5577
824.529	5592
824.669	5551
824.809	5688
824.949	5653
825.089	5661
825.228	5581
825.368	5414
825.508	5395
825.648	5395
825.787	5406
825.927	5379
826.067	5353
826.206	5299
826.346	5395
826.485	5376
826.625	5410
826.765	5581
826.904	5490
827.044	5273
827.183	5223
827.323	5151
827.462	5265
827.601	5239
827.741	5250
827.88	5178
828.02	5105
828.159	5239
828.298	5349
828.437	5364
828.577	5360
828.716	5493
828.855	5326
828.994	5178
829.134	5147
829.273	5269
829.412	5151
829.551	5155
829.69	5189
829.829	5254
829.968	5360
830.107	5277
830.246	5288
830.385	5159
830.524	5136
830.663	5041
830.802	5014
830.941	4866
831.08	4904
831.219	4991
831.357	4946
831.496	5181
831.635	4976
831.774	4870
831.913	4915
832.051	4771
832.19	4774
832.329	4839
832.467	4683
832.606	4603
832.744	4710
832.883	4717
833.022	4763
833.16	4816
833.299	4877
833.437	4839
833.576	4835
833.714	4843
833.852	4896
833.991	4911
834.129	4968
834.267	4972
834.406	4934
834.544	4976
834.682	4972
834.821	5010
834.959	5143
835.097	4995
835.235	5159
835.373	5140
835.511	5086
835.65	5086
835.788	5037
835.926	4911
836.064	4889
836.202	4900
836.34	5162
836.478	5235
836.615	5128
836.753	5261
836.891	5303
837.029	5227
837.167	5170
837.305	5121
837.443	5197
837.58	5155
837.718	5231
837.856	5159
837.993	5178
838.131	5212
838.269	5223
838.406	5216
838.544	5220
838.681	4995
838.819	5033
838.956	4881
839.094	4965
839.231	4961
839.369	5124
839.506	5414
839.643	5299
839.781	5079
839.918	5056
840.055	5105
840.193	5132
840.33	5124
840.467	5113
840.604	5235
840.742	5429
840.879	5105
841.016	5102
841.153	5124
841.29	5368
841.427	5364
841.564	5345
841.701	5349
841.838	5284
841.975	5239
842.112	5235
842.249	5136
842.385	5113
842.522	5349
842.659	5178
842.796	5121
842.933	5273
843.069	5132
843.206	5181
843.343	5307
843.479	5231
843.616	5318
843.752	5041
843.889	5075
844.025	5235
844.162	5018
844.298	5181
844.435	5006
844.571	5041
844.708	5250
844.844	5330
844.98	5345
845.117	5318
845.253	5174
845.389	5083
845.525	5147
845.661	5193
845.798	5018
845.934	5155
846.07	5006
846.206	5178
846.342	5250
846.478	5162
846.614	5025
846.75	4999
846.886	4919
847.022	5136
847.158	5025
847.294	5067
847.429	5155
847.565	5067
847.701	5269
847.837	4858
847.972	4725
848.108	4972
848.244	4953
848.379	4809
848.515	4721
848.65	4778
848.786	4782
848.921	4771
849.057	4915
849.192	4862
849.328	4839
849.463	4877
849.598	4725
849.734	4786
849.869	4714
850.004	4645
850.14	4641
850.275	4577
850.41	4523
850.545	4561
850.68	4588
850.815	4599
850.95	4634
851.085	4828
851.22	4710
851.355	4649
851.49	4573
851.625	4561
851.76	4672
851.895	4596
852.03	4592
852.165	4656
852.299	4717
852.434	4782
852.569	4767
852.703	4816
852.838	4835
852.973	4904
853.107	4938
853.242	4744
853.376	4675
853.511	4535
853.645	4664
853.78	4797
853.914	4607
854.048	4691
854.183	4687
854.317	4683
854.451	4904
854.585	4679
854.72	4596
854.854	4755
854.988	4542
855.122	4634
855.256	4569
855.39	4675
855.524	4759
855.658	4668
855.792	4702
855.926	4717
856.06	4736
856.194	4797
856.327	4687
856.461	4592
856.595	4588
856.729	4637
856.862	4706
856.996	4675
857.13	4786
857.263	4816
857.397	4820
857.53	4694
857.664	4710
857.797	4812
857.931	4752
858.064	4660
858.197	4736
858.331	4672
858.464	4607
858.597	4462
858.731	4607
858.864	4645
858.997	4558
859.13	4660
859.263	4645
859.396	4687
859.529	4580
859.662	4554
859.795	4535
859.928	4672
860.061	4759
860.194	4725
860.327	4618
860.46	4550
860.592	4691
860.725	4694
860.858	4717
860.99	4535
861.123	4508
861.256	4535
861.388	4634
861.521	5330
861.653	4512
861.786	4481
861.918	4459
862.05	4519
862.183	4542
862.315	4592
862.447	4683
862.58	4550
862.712	4367
862.844	4371
862.976	4504
863.108	4481
863.24	4801
863.372	4344
863.504	4428
863.636	4421
863.768	4527
863.9	4455
864.032	4428
864.164	4451
864.296	4462
864.428	4519
864.559	4584
864.691	4580
864.823	4523
864.954	4455
865.086	4519
865.217	4447
865.349	4394
865.48	4504
865.612	4512
865.743	4637
865.875	4462
866.006	4398
866.137	4512
866.269	4421
866.4	4421
866.531	4443
866.662	4409
866.793	4413
866.924	4474
867.055	4516
867.186	4497
867.317	4413
867.448	4337
867.579	4405
867.71	4390
867.841	4360
867.972	4443
868.103	4474
868.233	4409
868.364	4474
868.495	4504
868.625	4675
868.756	4748
868.886	4580
869.017	4618
869.147	4740
869.278	4714
869.408	4683
869.539	4645
869.669	4687
869.799	4656
869.929	4752
870.06	4721
870.19	4968
870.32	4919
870.45	4972
870.58	4987
870.71	5124
870.84	5052
870.97	4965
871.1	4919
871.23	5151
871.36	5136
871.489	5010
871.619	5071
871.749	5094
871.879	5159
872.008	5201
872.138	5022
872.267	5041
872.397	4881
872.526	4828
872.656	4717
872.785	4793
872.915	4934
873.044	5025
873.173	4892
873.303	4965
873.432	4968
873.561	4957
873.69	4866
873.819	4877
873.948	4934
874.077	4854
874.206	4782
874.335	4809
874.464	4972
874.593	5102
874.722	4965
874.851	5060
874.979	5018
875.108	5045
875.237	4915
875.365	4900
875.494	4911
875.623	5033
875.751	4847
875.88	4892
876.008	5025
876.136	5052
876.265	5208
876.393	5341
876.521	5292
876.65	5231
876.778	5178
876.906	5090
877.034	5006
877.162	5094
877.29	5010
877.418	5075
877.546	5067
877.674	5048
877.802	5090
877.93	5033
878.058	4911
878.185	4870
878.313	4968
878.441	4961
878.568	4790
878.696	4866
878.824	4984
878.951	4946
879.079	5147
879.206	5345
879.333	5136
879.461	4972
879.588	5045
879.715	5098
879.842	5246
879.97	5056
880.097	4812
880.224	4774
880.351	4771
880.478	4816
880.605	4820
880.732	4755
880.859	5113
880.986	4915
881.112	4942
881.239	4801
881.366	4668
881.493	4626
881.619	4603
881.746	4668
881.872	4607
881.999	4675
882.125	4744
882.252	4786
882.378	4873
882.505	4961
882.631	4793
882.757	4656
882.883	4721
883.01	4778
883.136	4653
883.262	4672
883.388	4615
883.514	4839
883.64	4892
883.766	4790
883.892	4660
884.018	4744
884.143	4889
884.269	5025
884.395	4687
884.52	4645
884.646	4649
884.772	4554
884.897	4569
885.023	4698
885.148	4790
885.274	4858
885.399	4805
885.524	4736
885.65	4725
885.775	4755
885.9	4691
886.025	4904
886.15	4797
886.275	4725
886.4	4664
886.525	4729
886.65	4694
886.775	4679
886.9	4877
887.025	5041
887.149	4805
887.274	4645
887.399	4565
887.523	4645
887.648	4516
887.773	4580
887.897	4748
888.021	4763
888.146	4687
888.27	4843
888.395	4900
888.519	4805
888.643	4831
888.767	4812
888.891	4679
889.015	4702
889.139	4626
889.263	4580
889.387	4752
889.511	4892
889.635	4809
889.759	4630
889.883	4675
890.006	4717
890.13	4812
890.254	4626
890.377	4656
890.501	4550
890.624	4527
890.748	4584
890.871	4481
890.995	4405
891.118	4398
891.241	4538
891.364	4542
891.488	4653
891.611	4485
891.734	4550
891.857	4561
891.98	4554
892.103	4641
892.226	4584
892.349	4558
892.471	4428
892.594	4542
892.717	4584
892.839	4645
892.962	4561
893.085	4683
893.207	4603
893.33	4462
893.452	4546
893.575	4656
893.697	4611
893.819	4790
893.941	4858
894.064	4782
894.186	4580
894.308	4546
894.43	4782
894.552	4812
894.674	4721
894.796	4569
894.918	4637
895.04	4588
895.161	4664
895.283	4683
895.405	4634
895.526	4679
895.648	4687
895.769	4721
895.891	4725
896.012	4725
896.134	4721
896.255	4653
896.376	4683
896.498	4637
896.619	4653
896.74	4603
896.861	4618
896.982	4923
897.103	5098
897.224	4839
897.345	4710
897.466	4687
897.587	4752
897.708	4881
897.828	4778
897.949	4637
898.07	4561
898.19	4641
898.311	4835
898.431	4714
898.552	4774
898.672	4790
898.792	4797
898.913	4763
899.033	4637
899.153	4573
899.273	4466
899.393	4497
899.513	4554
899.633	4550
899.753	4554
899.873	4504
899.993	4550
900.113	4554
900.232	4573
900.352	4535
900.472	4527
900.591	4417
900.711	4478
900.83	4424
900.95	4611
901.069	4733
901.189	4538
901.308	4363
901.427	4314
901.546	4424
901.665	4500
901.784	4554
901.904	4443
902.023	4295
902.141	4143
902.26	4173
902.379	4291
902.498	4249
902.617	4242
902.735	4402
902.854	4409
902.973	4363
903.091	4196
903.21	4211
903.328	4299
903.446	4276
903.565	4261
903.683	4398
903.801	4329
903.919	4386
904.038	4432
904.156	4318
904.274	4478
904.392	4409
904.51	4421
904.627	4478
904.745	4599
904.863	4641
904.981	4432
905.098	4325
905.216	4390
905.334	4470
905.451	4383
905.569	4459
905.686	4531
905.803	4580
905.921	4440
906.038	4542
906.155	4462
906.272	4443
906.389	4466
906.506	4383
906.623	4379
906.74	4379
906.857	4322
906.974	4386
907.091	4577
907.208	4672
907.324	4618
907.441	4493
907.557	4375
907.674	4360
907.79	4314
907.907	4459
908.023	4508
908.139	4512
908.256	4455
908.372	4466
908.488	4504
908.604	4379
908.72	4325
908.836	4398
908.952	4341
909.068	4432
909.184	4580
909.3	4478
909.415	4573
909.531	4538
909.647	4352
909.762	4398
909.878	4341
909.993	4470
910.108	4443
910.224	4424
910.339	4538
910.454	4447
910.57	4390
910.685	4322
910.8	4626
910.915	4618
911.03	4527
911.145	4371
911.259	4379
911.374	4424
911.489	4303
911.604	4295
911.718	4188
911.833	4253
911.947	4116
912.062	4063
912.176	4261
912.291	4303
912.405	4287
912.519	4489
912.633	4535
912.748	4409
912.862	4337
912.976	4246
913.09	4128
913.204	4166
913.318	4219
913.431	4390
913.545	4375
913.659	4413
913.772	4363
913.886	4310
914	4253
914.113	4402
914.226	4451
914.34	4413
914.453	4249
914.566	4497
914.68	4306
914.793	4348
914.906	4154
915.019	4230
915.132	4112
915.245	4223
915.358	4295
915.47	4272
915.583	4265
915.696	4303
915.809	4440
915.921	4424
916.034	4265
916.146	4276
916.259	4211
916.371	4394
916.483	4386
916.595	4310
916.708	4284
916.82	4402
916.932	4356
917.044	4352
917.156	4360
917.268	4280
917.38	4306
917.491	4325
917.603	4398
917.715	4455
917.826	4497
917.938	4383
918.049	4257
918.161	4409
918.272	4580
918.384	4519
918.495	4455
918.606	4352
918.717	4253
918.828	4337
918.939	4371
919.05	4276
919.161	4337
919.272	4230
919.383	4261
919.494	4466
919.604	4683
919.715	4485
919.826	4379
919.936	4462
920.047	4558
920.157	4527
920.267	4725
920.378	4592
920.488	4523
920.598	4782
920.708	4919
920.818	4816
920.928	4797
921.038	5022
921.148	4911
921.258	4714
921.368	4569
921.477	4542
921.587	4500
921.697	4383
921.806	4626
921.916	4493
922.025	4306
922.134	4360
922.244	4268
922.353	4390
922.462	4238
922.571	4192
922.68	4048
922.789	3979
922.898	4071
923.007	4086
923.116	4154
923.224	4105
923.333	4162
923.442	4063
923.55	4040
923.659	4010
923.767	4135
923.876	4006
923.984	4128
924.092	4021
924.201	4128
924.309	4109
924.417	4200
924.525	4112
924.633	4158
924.741	5132
924.849	3994
924.956	4173
925.064	3975
925.172	3937
925.279	3979
925.387	4055
925.494	4109
925.602	4234
925.709	4242
925.816	4109
925.924	4185
926.031	4276
926.138	4207
926.245	4268
926.352	4139
926.459	4291
926.566	4386
926.673	4219
926.779	4131
926.886	4131
926.993	4048
927.099	3975
927.206	3998
927.312	4002
927.419	4109
927.525	4128
927.631	4131
927.737	4013
927.843	3991
927.95	3884
928.056	4021
928.162	4040
928.267	4093
928.373	4710
928.479	4166
928.585	3934
928.69	4040
928.796	4135
928.901	4006
929.007	3911
929.112	4093
929.218	4021
929.323	3972
929.428	3994
929.533	4101
929.638	3968
929.743	4021
929.848	4109
929.953	4010
930.058	3987
930.163	3819
930.267	3899
930.372	4002
930.477	3880
930.581	4120
930.685	4002
930.79	3865
930.894	3903
930.998	3926
931.103	4093
931.207	3751
931.311	3759
931.415	3698
931.519	3545
931.623	3557
