Data from test_V78500241_2717.txt Node
Date: Fri Mar 25 17:07:53 CST 2022
User: usil
Spectrometer: V785-0024
Trigger mode: 0
Integration Time (sec): 4.000000E-1
Scans to average: 1
Nonlinearity correction enabled: false
Boxcar width: 0
Storing dark spectrum: false
XAxis mode: Wavelengths
Number of Pixels in Spectrum: 1024
>>>>>Begin Spectral Data<<<<<
801.071	8001
801.214	7989
801.356	7868
801.499	7856
801.641	7784
801.783	7871
801.926	7982
802.068	7928
802.211	7982
802.353	7936
802.496	7818
802.638	7852
802.78	7879
802.923	7909
803.065	7837
803.208	7845
803.35	7959
803.492	8096
803.635	8180
803.777	8024
803.919	8138
804.061	8438
804.204	8168
804.346	8050
804.488	7928
804.63	8100
804.773	7963
804.915	8111
805.057	8240
805.199	8233
805.341	8229
805.483	8275
805.626	8244
805.768	8111
805.91	8248
806.052	8263
806.194	8126
806.336	8317
806.478	8149
806.62	8107
806.762	8077
806.904	8248
807.046	8442
807.188	8434
807.33	8298
807.472	8298
807.614	8206
807.756	8164
807.898	8008
808.04	7917
808.182	7852
808.324	7849
808.465	7879
808.607	8005
808.749	8107
808.891	8229
809.033	8328
809.174	8218
809.316	8103
809.458	8050
809.6	7997
809.741	7997
809.883	8054
810.025	8161
810.166	8077
810.308	8027
810.45	8024
810.591	7811
810.733	7727
810.875	7689
811.016	7514
811.158	7559
811.299	7601
811.441	7769
811.582	7693
811.724	7594
811.865	7575
812.007	7586
812.148	7559
812.29	7655
812.431	7753
812.573	7826
812.714	7909
812.855	8096
812.997	8244
813.138	8271
813.279	8263
813.421	8149
813.562	8005
813.703	7868
813.845	7803
813.986	7491
814.127	7278
814.268	7187
814.41	7183
814.551	7114
814.692	7198
814.833	7076
814.974	7061
815.115	7160
815.256	6920
815.397	6970
815.539	6894
815.68	6825
815.821	6837
815.962	6867
816.103	6814
816.244	6677
816.385	6627
816.526	6642
816.666	6506
816.807	6308
816.948	6460
817.089	6483
817.23	6486
817.371	6365
817.512	6350
817.653	6350
817.793	6346
817.934	6422
818.075	6429
818.216	6407
818.356	6437
818.497	6247
818.638	6095
818.778	6110
818.919	6159
819.06	6129
819.2	6262
819.341	6300
819.481	6357
819.622	6475
819.762	6764
819.903	6715
820.043	6578
820.184	6544
820.324	6547
820.465	6738
820.605	6722
820.746	6597
820.886	6525
821.026	6646
821.167	6677
821.307	6798
821.447	6730
821.588	6620
821.728	6525
821.868	6429
822.008	6270
822.149	6376
822.289	6369
822.429	6148
822.569	6083
822.709	6091
822.849	5965
822.99	5847
823.13	5904
823.27	5866
823.41	5783
823.55	5733
823.69	5756
823.83	5809
823.97	5642
824.11	5509
824.25	5512
824.389	5585
824.529	5623
824.669	5528
824.809	5604
824.949	5710
825.089	5596
825.228	5611
825.368	5414
825.508	5349
825.648	5345
825.787	5436
825.927	5372
826.067	5322
826.206	5315
826.346	5318
826.485	5395
826.625	5410
826.765	5558
826.904	5512
827.044	5277
827.183	5193
827.323	5170
827.462	5277
827.601	5208
827.741	5242
827.88	5318
828.02	5178
828.159	5250
828.298	5345
828.437	5341
828.577	5273
828.716	5509
828.855	5296
828.994	5227
829.134	5189
829.273	5208
829.412	5162
829.551	5140
829.69	5204
829.829	5223
829.968	5372
830.107	5315
830.246	5315
830.385	5212
830.524	5212
830.663	5128
830.802	5045
830.941	4968
831.08	4911
831.219	4980
831.357	5003
831.496	5178
831.635	4949
831.774	4904
831.913	4870
832.051	4786
832.19	4790
832.329	4877
832.467	4717
832.606	4729
832.744	4710
832.883	4755
833.022	4763
833.16	4809
833.299	4839
833.437	4843
833.576	4843
833.714	4889
833.852	4889
833.991	4923
834.129	4968
834.267	4946
834.406	4908
834.544	5006
834.682	4980
834.821	4991
834.959	5235
835.097	5014
835.235	5151
835.373	5121
835.511	5143
835.65	5086
835.788	5090
835.926	4908
836.064	4908
836.202	4961
836.34	5212
836.478	5258
836.615	5136
836.753	5284
836.891	5318
837.029	5341
837.167	5246
837.305	5181
837.443	5189
837.58	5113
837.718	5284
837.856	5204
837.993	5208
838.131	5254
838.269	5269
838.406	5254
838.544	5246
838.681	5056
838.819	5041
838.956	4915
839.094	4923
839.231	5025
839.369	5086
839.506	5440
839.643	5269
839.781	5117
839.918	5060
840.055	5098
840.193	5124
840.33	5136
840.467	5147
840.604	5197
840.742	5440
840.879	5086
841.016	5121
841.153	5162
841.29	5383
841.427	5341
841.564	5334
841.701	5398
841.838	5288
841.975	5250
842.112	5269
842.249	5159
842.385	5140
842.522	5376
842.659	5235
842.796	5155
842.933	5299
843.069	5174
843.206	5151
843.343	5307
843.479	5220
843.616	5326
843.752	5045
843.889	5022
844.025	5261
844.162	5052
844.298	5284
844.435	5083
844.571	5140
844.708	5231
844.844	5341
844.98	5383
845.117	5296
845.253	5178
845.389	5113
845.525	5220
845.661	5181
845.798	5045
845.934	5170
846.07	5136
846.206	5181
846.342	5315
846.478	5178
846.614	5025
846.75	5014
846.886	4949
847.022	5189
847.158	5060
847.294	5056
847.429	5151
847.565	5109
847.701	5284
847.837	4866
847.972	4790
848.108	4980
848.244	4934
848.379	4820
848.515	4778
848.65	4748
848.786	4736
848.921	4820
849.057	4942
849.192	4961
849.328	4873
849.463	4900
849.598	4824
849.734	4782
849.869	4733
850.004	4664
850.14	4740
850.275	4630
850.41	4596
850.545	4607
850.68	4615
850.815	4683
850.95	4641
851.085	4877
851.22	4786
851.355	4645
851.49	4683
851.625	4626
851.76	4637
851.895	4569
852.03	4599
852.165	4664
852.299	4755
852.434	4774
852.569	4771
852.703	4828
852.838	4809
852.973	4961
853.107	4965
853.242	4774
853.376	4664
853.511	4580
853.645	4641
853.78	4778
853.914	4706
854.048	4710
854.183	4736
854.317	4744
854.451	4911
854.585	4702
854.72	4622
854.854	4736
854.988	4653
855.122	4679
855.256	4538
855.39	4683
855.524	4809
855.658	4790
855.792	4736
855.926	4782
856.06	4771
856.194	4767
856.327	4714
856.461	4656
856.595	4668
856.729	4660
856.862	4744
856.996	4710
857.13	4790
857.263	4790
857.397	4843
857.53	4675
857.664	4778
857.797	4782
857.931	4786
858.064	4740
858.197	4755
858.331	4694
858.464	4733
858.597	4592
858.731	4687
858.864	4675
858.997	4634
859.13	4725
859.263	4702
859.396	4763
859.529	4660
859.662	4538
859.795	4535
859.928	4634
860.061	4759
860.194	4805
860.327	4653
860.46	4592
860.592	4721
860.725	4801
860.858	4774
860.99	4599
861.123	4558
861.256	4523
861.388	4622
861.521	5379
861.653	4500
861.786	4474
861.918	4462
862.05	4504
862.183	4550
862.315	4653
862.447	4721
862.58	4523
862.712	4371
862.844	4360
862.976	4535
863.108	4470
863.24	4786
863.372	4405
863.504	4402
863.636	4436
863.768	4497
863.9	4466
864.032	4424
864.164	4436
864.296	4512
864.428	4569
864.559	4599
864.691	4550
864.823	4546
864.954	4500
865.086	4478
865.217	4478
865.349	4440
865.48	4455
865.612	4523
865.743	4694
865.875	4516
866.006	4489
866.137	4474
866.269	4462
866.4	4428
866.531	4443
866.662	4405
866.793	4478
866.924	4440
867.055	4516
867.186	4466
867.317	4455
867.448	4405
867.579	4428
867.71	4409
867.841	4413
867.972	4508
868.103	4516
868.233	4443
868.364	4489
868.495	4512
868.625	4691
868.756	4786
868.886	4653
869.017	4668
869.147	4767
869.278	4755
869.408	4729
869.539	4641
869.669	4710
869.799	4653
869.929	4778
870.06	4774
870.19	5014
870.32	4953
870.45	4938
870.58	5052
870.71	5132
870.84	5159
870.97	4980
871.1	4946
871.23	5159
871.36	5109
871.489	5079
871.619	5105
871.749	5045
871.879	5155
872.008	5201
872.138	5045
872.267	5006
872.397	4835
872.526	4828
872.656	4763
872.785	4824
872.915	4957
873.044	5041
873.173	4965
873.303	5003
873.432	4953
873.561	4949
873.69	4904
873.819	4930
873.948	4957
874.077	4854
874.206	4809
874.335	4786
874.464	4991
874.593	5094
874.722	4976
874.851	5159
874.979	5094
875.108	5041
875.237	4930
875.365	4904
875.494	4866
875.623	4972
875.751	4850
875.88	4942
876.008	4961
876.136	5033
876.265	5216
876.393	5334
876.521	5246
876.65	5246
876.778	5151
876.906	5117
877.034	5067
877.162	5090
877.29	5022
877.418	5060
877.546	5121
877.674	5052
877.802	5033
877.93	4987
878.058	4972
878.185	4938
878.313	4987
878.441	4949
878.568	4843
878.696	4904
878.824	4995
878.951	5022
879.079	5174
879.206	5318
879.333	5128
879.461	4995
879.588	4987
879.715	5109
879.842	5269
879.97	5083
880.097	4850
880.224	4774
880.351	4809
880.478	4835
880.605	4744
880.732	4812
880.859	5075
880.986	4972
881.112	4915
881.239	4820
881.366	4668
881.493	4618
881.619	4615
881.746	4637
881.872	4622
881.999	4653
882.125	4725
882.252	4778
882.378	4854
882.505	4972
882.631	4850
882.757	4687
882.883	4763
883.01	4744
883.136	4698
883.262	4637
883.388	4603
883.514	4854
883.64	4847
883.766	4797
883.892	4653
884.018	4740
884.143	4946
884.269	4991
884.395	4641
884.52	4626
884.646	4656
884.772	4588
884.897	4584
885.023	4622
885.148	4793
885.274	4942
885.399	4831
885.524	4702
885.65	4702
885.775	4763
885.9	4740
886.025	4904
886.15	4809
886.275	4702
886.4	4672
886.525	4759
886.65	4733
886.775	4736
886.9	4953
887.025	5037
887.149	4820
887.274	4630
887.399	4592
887.523	4603
887.648	4584
887.773	4637
887.897	4767
888.021	4797
888.146	4694
888.27	4850
888.395	4881
888.519	4790
888.643	4805
888.767	4839
888.891	4698
889.015	4626
889.139	4679
889.263	4607
889.387	4725
889.511	4858
889.635	4835
889.759	4653
889.883	4664
890.006	4736
890.13	4850
890.254	4660
890.377	4691
890.501	4561
890.624	4558
890.748	4637
890.871	4516
890.995	4451
891.118	4409
891.241	4561
891.364	4504
891.488	4664
891.611	4500
891.734	4550
891.857	4615
891.98	4550
892.103	4653
892.226	4683
892.349	4588
892.471	4432
892.594	4573
892.717	4615
892.839	4611
892.962	4580
893.085	4656
893.207	4672
893.33	4459
893.452	4527
893.575	4668
893.697	4569
893.819	4839
893.941	4812
894.064	4816
894.186	4596
894.308	4599
894.43	4733
894.552	4881
894.674	4736
894.796	4569
894.918	4596
895.04	4569
895.161	4740
895.283	4694
895.405	4596
895.526	4656
895.648	4691
895.769	4687
895.891	4740
896.012	4694
896.134	4755
896.255	4653
896.376	4653
896.498	4668
896.619	4694
896.74	4660
896.861	4664
896.982	4904
897.103	5109
897.224	4816
897.345	4866
897.466	4687
897.587	4752
897.708	4873
897.828	4797
897.949	4694
898.07	4565
898.19	4603
898.311	4801
898.431	4710
898.552	4778
898.672	4854
898.792	4835
898.913	4733
899.033	4630
899.153	4478
899.273	4417
899.393	4535
899.513	4519
899.633	4542
899.753	4577
899.873	4508
899.993	4580
900.113	4569
900.232	4588
900.352	4607
900.472	4527
900.591	4417
900.711	4481
900.83	4459
900.95	4584
901.069	4721
901.189	4611
901.308	4390
901.427	4367
901.546	4379
901.665	4466
901.784	4527
901.904	4417
902.023	4367
902.141	4215
902.26	4173
902.379	4341
902.498	4257
902.617	4261
902.735	4341
902.854	4428
902.973	4390
903.091	4204
903.21	4291
903.328	4268
903.446	4322
903.565	4268
903.683	4405
903.801	4329
903.919	4417
904.038	4405
904.156	4314
904.274	4466
904.392	4405
904.51	4478
904.627	4535
904.745	4561
904.863	4714
904.981	4405
905.098	4325
905.216	4367
905.334	4485
905.451	4455
905.569	4493
905.686	4618
905.803	4569
905.921	4478
906.038	4588
906.155	4531
906.272	4402
906.389	4527
906.506	4367
906.623	4421
906.74	4424
906.857	4333
906.974	4405
907.091	4599
907.208	4698
907.324	4599
907.441	4550
907.557	4409
907.674	4352
907.79	4367
907.907	4413
908.023	4512
908.139	4504
908.256	4504
908.372	4497
908.488	4512
908.604	4398
908.72	4390
908.836	4413
908.952	4447
909.068	4478
909.184	4664
909.3	4558
909.415	4649
909.531	4603
909.647	4409
909.762	4402
909.878	4356
909.993	4447
910.108	4421
910.224	4443
910.339	4550
910.454	4451
910.57	4390
910.685	4390
910.8	4683
910.915	4653
911.03	4550
911.145	4371
911.259	4360
911.374	4398
911.489	4360
911.604	4310
911.718	4211
911.833	4257
911.947	4162
912.062	4067
912.176	4249
912.291	4287
912.405	4306
912.519	4508
912.633	4523
912.748	4440
912.862	4333
912.976	4249
913.09	4169
913.204	4219
913.318	4291
913.431	4398
913.545	4413
913.659	4462
913.772	4386
913.886	4287
914	4238
914.113	4440
914.226	4554
914.34	4459
914.453	4242
914.566	4504
914.68	4363
914.793	4333
914.906	4181
915.019	4181
915.132	4139
915.245	4257
915.358	4268
915.47	4280
915.583	4306
915.696	4348
915.809	4440
915.921	4409
916.034	4318
916.146	4303
916.259	4299
916.371	4466
916.483	4367
916.595	4329
916.708	4356
916.82	4386
916.932	4356
917.044	4398
917.156	4386
917.268	4276
917.38	4310
917.491	4337
917.603	4352
917.715	4462
917.826	4538
917.938	4394
918.049	4219
918.161	4447
918.272	4558
918.384	4596
918.495	4497
918.606	4356
918.717	4295
918.828	4356
918.939	4417
919.05	4333
919.161	4394
919.272	4158
919.383	4284
919.494	4489
919.604	4675
919.715	4459
919.826	4424
919.936	4451
920.047	4554
920.157	4519
920.267	4725
920.378	4630
920.488	4531
920.598	4782
920.708	4911
920.818	4854
920.928	4771
921.038	4961
921.148	4923
921.258	4702
921.368	4561
921.477	4527
921.587	4516
921.697	4402
921.806	4603
921.916	4474
922.025	4280
922.134	4299
922.244	4272
922.353	4367
922.462	4173
922.571	4162
922.68	3994
922.789	4021
922.898	4078
923.007	4010
923.116	4135
923.224	4143
923.333	4150
923.442	4010
923.55	4040
923.659	4010
923.767	4177
923.876	4067
923.984	4112
924.092	4048
924.201	4150
924.309	4109
924.417	4124
924.525	4090
924.633	4162
924.741	5052
924.849	3975
924.956	4185
925.064	4025
925.172	3949
925.279	3953
925.387	4097
925.494	4086
925.602	4246
925.709	4211
925.816	4093
925.924	4162
926.031	4265
926.138	4207
926.245	4242
926.352	4150
926.459	4303
926.566	4341
926.673	4204
926.779	4120
926.886	4131
926.993	4051
927.099	3998
927.206	3953
927.312	3991
927.419	4086
927.525	4040
927.631	4135
927.737	3998
927.843	3972
927.95	3869
928.056	3991
928.162	4036
928.267	4112
928.373	4615
928.479	4173
928.585	3926
928.69	4067
928.796	4063
928.901	4021
929.007	3869
929.112	4063
929.218	3994
929.323	4002
929.428	3987
929.533	4131
929.638	3949
929.743	4013
929.848	4082
929.953	4044
930.058	3941
930.163	3797
930.267	3865
930.372	4017
930.477	3873
930.581	4097
930.685	3968
930.79	3861
930.894	3915
930.998	3850
931.103	4048
931.207	3770
931.311	3740
931.415	3717
931.519	3549
931.623	3595
