Data from test_V78500241_2268.txt Node
Date: Fri Mar 25 17:04:46 CST 2022
User: usil
Spectrometer: V785-0024
Trigger mode: 0
Integration Time (sec): 4.000000E-1
Scans to average: 1
Nonlinearity correction enabled: false
Boxcar width: 0
Storing dark spectrum: false
XAxis mode: Wavelengths
Number of Pixels in Spectrum: 1024
>>>>>Begin Spectral Data<<<<<
801.071	7932
801.214	8031
801.356	7784
801.499	7799
801.641	7788
801.783	7871
801.926	7944
802.068	7974
802.211	7947
802.353	7967
802.496	7856
802.638	7837
802.78	7852
802.923	7921
803.065	7845
803.208	7856
803.35	7917
803.492	8103
803.635	8180
803.777	8043
803.919	8142
804.061	8370
804.204	8142
804.346	8054
804.488	7951
804.63	8027
804.773	8027
804.915	8069
805.057	8301
805.199	8138
805.341	8233
805.483	8221
805.626	8305
805.768	8096
805.91	8199
806.052	8187
806.194	8081
806.336	8248
806.478	8069
806.62	8054
806.762	8145
806.904	8263
807.046	8465
807.188	8286
807.33	8355
807.472	8313
807.614	8142
807.756	8145
807.898	8008
808.04	7894
808.182	7925
808.324	7875
808.465	7913
808.607	8084
808.749	8100
808.891	8221
809.033	8320
809.174	8134
809.316	8069
809.458	8115
809.6	7978
809.741	7997
809.883	8039
810.025	8123
810.166	7989
810.308	8008
810.45	7963
810.591	7811
810.733	7753
810.875	7685
811.016	7483
811.158	7335
811.299	7514
811.441	7685
811.582	7670
811.724	7601
811.865	7491
812.007	7620
812.148	7590
812.29	7727
812.431	7712
812.573	7852
812.714	7936
812.855	8100
812.997	8176
813.138	8271
813.279	8107
813.421	8073
813.562	7925
813.703	7887
813.845	7826
813.986	7388
814.127	7266
814.268	7217
814.41	7179
814.551	7228
814.692	7217
814.833	7027
814.974	7061
815.115	7160
815.256	6996
815.397	6947
815.539	6932
815.68	6798
815.821	6703
815.962	6875
816.103	6798
816.244	6703
816.385	6585
816.526	6631
816.666	6490
816.807	6285
816.948	6464
817.089	6452
817.23	6441
817.371	6395
817.512	6353
817.653	6380
817.793	6350
817.934	6410
818.075	6448
818.216	6426
818.356	6380
818.497	6247
818.638	6129
818.778	6152
818.919	6163
819.06	6201
819.2	6334
819.341	6350
819.481	6323
819.622	6506
819.762	6760
819.903	6692
820.043	6608
820.184	6570
820.324	6547
820.465	6665
820.605	6677
820.746	6658
820.886	6528
821.026	6662
821.167	6722
821.307	6821
821.447	6772
821.588	6700
821.728	6563
821.868	6509
822.008	6342
822.149	6365
822.289	6331
822.429	6140
822.569	6098
822.709	6110
822.849	5912
822.99	5927
823.13	5923
823.27	5889
823.41	5798
823.55	5748
823.69	5729
823.83	5756
823.97	5634
824.11	5501
824.25	5478
824.389	5547
824.529	5604
824.669	5539
824.809	5547
824.949	5600
825.089	5638
825.228	5512
825.368	5383
825.508	5345
825.648	5345
825.787	5398
825.927	5395
826.067	5326
826.206	5307
826.346	5395
826.485	5429
826.625	5410
826.765	5547
826.904	5425
827.044	5280
827.183	5223
827.323	5109
827.462	5265
827.601	5174
827.741	5174
827.88	5261
828.02	5064
828.159	5269
828.298	5349
828.437	5376
828.577	5261
828.716	5482
828.855	5341
828.994	5170
829.134	5109
829.273	5178
829.412	5128
829.551	5105
829.69	5147
829.829	5299
829.968	5357
830.107	5273
830.246	5265
830.385	5136
830.524	5155
830.663	5079
830.802	4980
830.941	4904
831.08	4847
831.219	4968
831.357	4957
831.496	5109
831.635	4923
831.774	4862
831.913	4797
832.051	4706
832.19	4710
832.329	4866
832.467	4618
832.606	4691
832.744	4721
832.883	4702
833.022	4721
833.16	4797
833.299	4847
833.437	4805
833.576	4843
833.714	4854
833.852	4889
833.991	4915
834.129	4949
834.267	4900
834.406	4915
834.544	4961
834.682	4946
834.821	4987
834.959	5151
835.097	4987
835.235	5124
835.373	5067
835.511	5090
835.65	5041
835.788	5037
835.926	4908
836.064	4839
836.202	4854
836.34	5185
836.478	5223
836.615	5102
836.753	5193
836.891	5277
837.029	5223
837.167	5227
837.305	5170
837.443	5121
837.58	5075
837.718	5273
837.856	5185
837.993	5166
838.131	5204
838.269	5197
838.406	5178
838.544	5227
838.681	5018
838.819	5075
838.956	4877
839.094	4938
839.231	4991
839.369	5052
839.506	5360
839.643	5261
839.781	5025
839.918	4987
840.055	5090
840.193	5067
840.33	5079
840.467	5140
840.604	5189
840.742	5421
840.879	5086
841.016	5075
841.153	5174
841.29	5337
841.427	5322
841.564	5334
841.701	5303
841.838	5288
841.975	5250
842.112	5258
842.249	5121
842.385	5098
842.522	5299
842.659	5121
842.796	5121
842.933	5155
843.069	5166
843.206	5178
843.343	5261
843.479	5250
843.616	5337
843.752	5003
843.889	4995
844.025	5242
844.162	4999
844.298	5185
844.435	5048
844.571	5052
844.708	5181
844.844	5318
844.98	5315
845.117	5292
845.253	5132
845.389	5071
845.525	5159
845.661	5201
845.798	5025
845.934	5117
846.07	5006
846.206	5201
846.342	5254
846.478	5109
846.614	5014
846.75	4953
846.886	4934
847.022	5143
847.158	5003
847.294	5071
847.429	5109
847.565	5033
847.701	5299
847.837	4889
847.972	4839
848.108	4980
848.244	4889
848.379	4755
848.515	4691
848.65	4721
848.786	4714
848.921	4740
849.057	4881
849.192	4900
849.328	4805
849.463	4805
849.598	4771
849.734	4767
849.869	4653
850.004	4656
850.14	4637
850.275	4630
850.41	4500
850.545	4561
850.68	4580
850.815	4611
850.95	4611
851.085	4828
851.22	4729
851.355	4660
851.49	4626
851.625	4649
851.76	4683
851.895	4538
852.03	4569
852.165	4630
852.299	4683
852.434	4824
852.569	4744
852.703	4759
852.838	4816
852.973	4961
853.107	4881
853.242	4752
853.376	4656
853.511	4546
853.645	4588
853.78	4793
853.914	4630
854.048	4668
854.183	4645
854.317	4664
854.451	4820
854.585	4637
854.72	4672
854.854	4698
854.988	4573
855.122	4664
855.256	4462
855.39	4630
855.524	4778
855.658	4786
855.792	4687
855.926	4649
856.06	4748
856.194	4782
856.327	4736
856.461	4596
856.595	4603
856.729	4618
856.862	4774
856.996	4706
857.13	4733
857.263	4801
857.397	4752
857.53	4649
857.664	4691
857.797	4744
857.931	4793
858.064	4679
858.197	4759
858.331	4691
858.464	4645
858.597	4542
858.731	4626
858.864	4656
858.997	4588
859.13	4656
859.263	4664
859.396	4683
859.529	4565
859.662	4569
859.795	4516
859.928	4611
860.061	4755
860.194	4748
860.327	4611
860.46	4546
860.592	4691
860.725	4691
860.858	4694
860.99	4531
861.123	4538
861.256	4538
861.388	4611
861.521	5292
861.653	4516
861.786	4398
861.918	4500
862.05	4508
862.183	4516
862.315	4599
862.447	4649
862.58	4527
862.712	4352
862.844	4344
862.976	4485
863.108	4405
863.24	4923
863.372	4379
863.504	4405
863.636	4470
863.768	4493
863.9	4447
864.032	4344
864.164	4421
864.296	4455
864.428	4561
864.559	4584
864.691	4527
864.823	4558
864.954	4466
865.086	4470
865.217	4459
865.349	4451
865.48	4470
865.612	4474
865.743	4622
865.875	4470
866.006	4386
866.137	4443
866.269	4451
866.4	4512
866.531	4462
866.662	4390
866.793	4394
866.924	4386
867.055	4474
867.186	4455
867.317	4440
867.448	4360
867.579	4402
867.71	4371
867.841	4363
867.972	4455
868.103	4440
868.233	4398
868.364	4417
868.495	4485
868.625	4592
868.756	4740
868.886	4493
869.017	4603
869.147	4763
869.278	4771
869.408	4679
869.539	4611
869.669	4637
869.799	4630
869.929	4706
870.06	4755
870.19	4919
870.32	4885
870.45	4957
870.58	5025
870.71	5113
870.84	5090
870.97	4896
871.1	4930
871.23	5079
871.36	5121
871.489	5048
871.619	5056
871.749	5029
871.879	5117
872.008	5159
872.138	5048
872.267	4999
872.397	4854
872.526	4790
872.656	4668
872.785	4816
872.915	4938
873.044	5056
873.173	4949
873.303	4968
873.432	4927
873.561	4987
873.69	4889
873.819	4858
873.948	4904
874.077	4801
874.206	4771
874.335	4824
874.464	4904
874.593	5067
874.722	4987
874.851	5094
874.979	5067
875.108	5060
875.237	4923
875.365	4923
875.494	4881
875.623	5014
875.751	4805
875.88	4873
876.008	4991
876.136	5052
876.265	5197
876.393	5372
876.521	5322
876.65	5189
876.778	5147
876.906	5006
877.034	4980
877.162	5037
877.29	5006
877.418	5060
877.546	5041
877.674	5045
877.802	5018
877.93	5018
878.058	4946
878.185	4850
878.313	4965
878.441	4949
878.568	4771
878.696	4847
878.824	4953
878.951	4984
879.079	5136
879.206	5277
879.333	5033
879.461	5025
879.588	5010
879.715	5117
879.842	5181
879.97	4968
880.097	4782
880.224	4778
880.351	4782
880.478	4843
880.605	4812
880.732	4793
880.859	5067
880.986	4835
881.112	4885
881.239	4759
881.366	4656
881.493	4603
881.619	4596
881.746	4622
881.872	4653
881.999	4649
882.125	4691
882.252	4763
882.378	4812
882.505	4953
882.631	4790
882.757	4683
882.883	4744
883.01	4740
883.136	4653
883.262	4626
883.388	4615
883.514	4786
883.64	4866
883.766	4759
883.892	4653
884.018	4725
884.143	4862
884.269	5022
884.395	4675
884.52	4641
884.646	4599
884.772	4554
884.897	4531
885.023	4641
885.148	4729
885.274	4896
885.399	4831
885.524	4725
885.65	4672
885.775	4733
885.9	4664
886.025	4767
886.15	4816
886.275	4733
886.4	4607
886.525	4717
886.65	4694
886.775	4675
886.9	4915
887.025	4987
887.149	4835
887.274	4683
887.399	4535
887.523	4626
887.648	4550
887.773	4523
887.897	4710
888.021	4767
888.146	4615
888.27	4790
888.395	4949
888.519	4767
888.643	4774
888.767	4744
888.891	4672
889.015	4546
889.139	4653
889.263	4626
889.387	4733
889.511	4854
889.635	4759
889.759	4653
889.883	4622
890.006	4679
890.13	4828
890.254	4573
890.377	4649
890.501	4569
890.624	4512
890.748	4588
890.871	4489
890.995	4443
891.118	4421
891.241	4504
891.364	4504
891.488	4596
891.611	4481
891.734	4485
891.857	4607
891.98	4584
892.103	4656
892.226	4538
892.349	4500
892.471	4409
892.594	4558
892.717	4573
892.839	4527
892.962	4584
893.085	4653
893.207	4573
893.33	4478
893.452	4527
893.575	4702
893.697	4603
893.819	4828
893.941	4873
894.064	4816
894.186	4580
894.308	4599
894.43	4725
894.552	4824
894.674	4759
894.796	4569
894.918	4603
895.04	4599
895.161	4653
895.283	4714
895.405	4664
895.526	4649
895.648	4664
895.769	4714
895.891	4748
896.012	4748
896.134	4763
896.255	4725
896.376	4649
896.498	4653
896.619	4717
896.74	4645
896.861	4683
896.982	4919
897.103	5132
897.224	4824
897.345	4774
897.466	4683
897.587	4691
897.708	4881
897.828	4812
897.949	4740
898.07	4637
898.19	4706
898.311	4854
898.431	4687
898.552	4748
898.672	4839
898.792	4835
898.913	4782
899.033	4664
899.153	4519
899.273	4478
899.393	4504
899.513	4577
899.633	4550
899.753	4558
899.873	4516
899.993	4656
900.113	4588
900.232	4626
900.352	4561
900.472	4535
900.591	4455
900.711	4527
900.83	4481
900.95	4626
901.069	4729
901.189	4550
901.308	4424
901.427	4348
901.546	4470
901.665	4512
901.784	4519
901.904	4478
902.023	4394
902.141	4253
902.26	4169
902.379	4348
902.498	4352
902.617	4246
902.735	4402
902.854	4432
902.973	4390
903.091	4265
903.21	4268
903.328	4337
903.446	4284
903.565	4291
903.683	4360
903.801	4299
903.919	4443
904.038	4481
904.156	4398
904.274	4451
904.392	4440
904.51	4432
904.627	4523
904.745	4618
904.863	4649
904.981	4428
905.098	4337
905.216	4394
905.334	4474
905.451	4459
905.569	4485
905.686	4546
905.803	4622
905.921	4402
906.038	4577
906.155	4493
906.272	4443
906.389	4500
906.506	4383
906.623	4383
906.74	4443
906.857	4329
906.974	4409
907.091	4596
907.208	4660
907.324	4634
907.441	4538
907.557	4360
907.674	4432
907.79	4325
907.907	4409
908.023	4512
908.139	4523
908.256	4451
908.372	4485
908.488	4432
908.604	4371
908.72	4344
908.836	4379
908.952	4428
909.068	4443
909.184	4599
909.3	4470
909.415	4596
909.531	4577
909.647	4405
909.762	4424
909.878	4394
909.993	4432
910.108	4455
910.224	4440
910.339	4500
910.454	4432
910.57	4333
910.685	4295
910.8	4645
910.915	4603
911.03	4489
911.145	4333
911.259	4329
911.374	4383
911.489	4306
911.604	4287
911.718	4181
911.833	4238
911.947	4082
912.062	4078
912.176	4223
912.291	4227
912.405	4291
912.519	4512
912.633	4512
912.748	4436
912.862	4325
912.976	4215
913.09	4109
913.204	4219
913.318	4280
913.431	4383
913.545	4371
913.659	4440
913.772	4371
913.886	4310
914	4246
914.113	4424
914.226	4527
914.34	4413
914.453	4291
914.566	4432
914.68	4284
914.793	4348
914.906	4147
915.019	4154
915.132	4086
915.245	4204
915.358	4253
915.47	4234
915.583	4303
915.696	4272
915.809	4440
915.921	4440
916.034	4291
916.146	4314
916.259	4246
916.371	4390
916.483	4360
916.595	4299
916.708	4341
916.82	4314
916.932	4436
917.044	4386
917.156	4352
917.268	4280
917.38	4314
917.491	4295
917.603	4341
917.715	4500
917.826	4481
917.938	4344
918.049	4272
918.161	4432
918.272	4558
918.384	4523
918.495	4481
918.606	4333
918.717	4318
918.828	4356
918.939	4409
919.05	4306
919.161	4367
919.272	4166
919.383	4265
919.494	4459
919.604	4637
919.715	4470
919.826	4432
919.936	4459
920.047	4569
920.157	4489
920.267	4725
920.378	4599
920.488	4519
920.598	4717
920.708	4923
920.818	4763
920.928	4767
921.038	4949
921.148	4919
921.258	4656
921.368	4577
921.477	4497
921.587	4478
921.697	4443
921.806	4519
921.916	4478
922.025	4303
922.134	4272
922.244	4276
922.353	4337
922.462	4215
922.571	4173
922.68	4013
922.789	4036
922.898	4071
923.007	4013
923.116	4139
923.224	4093
923.333	4044
923.442	4017
923.55	3968
923.659	4063
923.767	4139
923.876	4002
923.984	4158
924.092	4040
924.201	4082
924.309	4162
924.417	4173
924.525	4051
924.633	4162
924.741	5045
924.849	3911
924.956	4169
925.064	3968
925.172	3956
925.279	4017
925.387	4097
925.494	4055
925.602	4238
925.709	4200
925.816	4002
925.924	4192
926.031	4257
926.138	4200
926.245	4253
926.352	4158
926.459	4299
926.566	4306
926.673	4147
926.779	4082
926.886	4074
926.993	4010
927.099	4002
927.206	3956
927.312	3972
927.419	4109
927.525	4067
927.631	4131
927.737	4021
927.843	4013
927.95	3854
928.056	3983
928.162	4006
928.267	4097
928.373	4706
928.479	4192
928.585	3876
928.69	4029
928.796	4101
928.901	3994
929.007	3869
929.112	3994
929.218	3956
929.323	3964
929.428	3949
929.533	4078
929.638	3915
929.743	3998
929.848	4059
929.953	4002
930.058	3911
930.163	3759
930.267	3873
930.372	3953
930.477	3762
930.581	4139
930.685	3972
930.79	3838
930.894	3892
930.998	3876
931.103	4048
931.207	3774
931.311	3671
931.415	3686
931.519	3504
931.623	3595
