Data from test_V78500241_1120.txt Node
Date: Fri Mar 25 16:56:47 CST 2022
User: usil
Spectrometer: V785-0024
Trigger mode: 0
Integration Time (sec): 4.000000E-1
Scans to average: 1
Nonlinearity correction enabled: false
Boxcar width: 0
Storing dark spectrum: false
XAxis mode: Wavelengths
Number of Pixels in Spectrum: 1024
>>>>>Begin Spectral Data<<<<<
801.071	8035
801.214	8043
801.356	7917
801.499	7852
801.641	7765
801.783	7788
801.926	7887
802.068	7868
802.211	7959
802.353	7967
802.496	7845
802.638	7856
802.78	7830
802.923	7955
803.065	7875
803.208	7921
803.35	7928
803.492	8168
803.635	8130
803.777	8054
803.919	8145
804.061	8507
804.204	8199
804.346	8107
804.488	7959
804.63	8126
804.773	8024
804.915	8130
805.057	8282
805.199	8161
805.341	8240
805.483	8275
805.626	8267
805.768	8123
805.91	8229
806.052	8195
806.194	8134
806.336	8282
806.478	8115
806.62	8115
806.762	8119
806.904	8286
807.046	8469
807.188	8396
807.33	8332
807.472	8290
807.614	8088
807.756	8161
807.898	7967
808.04	7917
808.182	8005
808.324	7947
808.465	7955
808.607	8081
808.749	8168
808.891	8195
809.033	8328
809.174	8187
809.316	8062
809.458	8005
809.6	8005
809.741	8050
809.883	8123
810.025	8107
810.166	8043
810.308	7993
810.45	7986
810.591	7814
810.733	7734
810.875	7651
811.016	7510
811.158	7483
811.299	7605
811.441	7715
811.582	7738
811.724	7590
811.865	7575
812.007	7575
812.148	7540
812.29	7655
812.431	7750
812.573	7947
812.714	8039
812.855	8096
812.997	8130
813.138	8294
813.279	8233
813.421	8077
813.562	7963
813.703	7879
813.845	7746
813.986	7411
814.127	7255
814.268	7232
814.41	7236
814.551	7084
814.692	7202
814.833	7034
814.974	7088
815.115	7095
815.256	6989
815.397	6920
815.539	6935
815.68	6818
815.821	6856
815.962	6890
816.103	6833
816.244	6700
816.385	6612
816.526	6681
816.666	6517
816.807	6334
816.948	6429
817.089	6563
817.23	6498
817.371	6350
817.512	6460
817.653	6407
817.793	6327
817.934	6395
818.075	6471
818.216	6426
818.356	6456
818.497	6216
818.638	6136
818.778	6148
818.919	6121
819.06	6159
819.2	6319
819.341	6327
819.481	6353
819.622	6517
819.762	6753
819.903	6734
820.043	6555
820.184	6555
820.324	6536
820.465	6753
820.605	6650
820.746	6620
820.886	6509
821.026	6601
821.167	6658
821.307	6772
821.447	6738
821.588	6627
821.728	6639
821.868	6502
822.008	6296
822.149	6384
822.289	6388
822.429	6152
822.569	6095
822.709	6159
822.849	5950
822.99	5851
823.13	5950
823.27	5942
823.41	5805
823.55	5813
823.69	5760
823.83	5779
823.97	5699
824.11	5512
824.25	5474
824.389	5543
824.529	5532
824.669	5512
824.809	5611
824.949	5691
825.089	5604
825.228	5532
825.368	5364
825.508	5318
825.648	5315
825.787	5425
825.927	5360
826.067	5231
826.206	5277
826.346	5410
826.485	5376
826.625	5391
826.765	5512
826.904	5520
827.044	5250
827.183	5220
827.323	5121
827.462	5235
827.601	5128
827.741	5155
827.88	5227
828.02	5140
828.159	5273
828.298	5311
828.437	5383
828.577	5258
828.716	5516
828.855	5364
828.994	5155
829.134	5121
829.273	5181
829.412	5174
829.551	5128
829.69	5178
829.829	5201
829.968	5379
830.107	5250
830.246	5349
830.385	5162
830.524	5113
830.663	5105
830.802	4999
830.941	4923
831.08	4919
831.219	4942
831.357	4995
831.496	5178
831.635	4854
831.774	4812
831.913	4854
832.051	4725
832.19	4740
832.329	4915
832.467	4694
832.606	4580
832.744	4736
832.883	4714
833.022	4733
833.16	4748
833.299	4831
833.437	4805
833.576	4805
833.714	4870
833.852	4854
833.991	4896
834.129	4972
834.267	4999
834.406	4881
834.544	4984
834.682	4984
834.821	4934
834.959	5162
835.097	4976
835.235	5147
835.373	5086
835.511	5075
835.65	5064
835.788	5037
835.926	4866
836.064	4896
836.202	4915
836.34	5121
836.478	5239
836.615	5140
836.753	5231
836.891	5318
837.029	5204
837.167	5197
837.305	5147
837.443	5113
837.58	5029
837.718	5242
837.856	5193
837.993	5132
838.131	5223
838.269	5151
838.406	5208
838.544	5102
838.681	5075
838.819	5041
838.956	4919
839.094	4942
839.231	4968
839.369	5083
839.506	5406
839.643	5265
839.781	5045
839.918	5022
840.055	5102
840.193	5098
840.33	5105
840.467	5102
840.604	5166
840.742	5433
840.879	5033
841.016	5033
841.153	5147
841.29	5383
841.427	5322
841.564	5322
841.701	5402
841.838	5261
841.975	5220
842.112	5307
842.249	5102
842.385	5143
842.522	5391
842.659	5193
842.796	5159
842.933	5239
843.069	5124
843.206	5147
843.343	5330
843.479	5189
843.616	5239
843.752	5018
843.889	4976
844.025	5189
844.162	5022
844.298	5174
844.435	5014
844.571	5037
844.708	5223
844.844	5326
844.98	5307
845.117	5296
845.253	5166
845.389	5098
845.525	5189
845.661	5185
845.798	4972
845.934	5094
846.07	5067
846.206	5166
846.342	5265
846.478	5181
846.614	5010
846.75	5003
846.886	4908
847.022	5159
847.158	5010
847.294	5045
847.429	5136
847.565	5045
847.701	5318
847.837	4805
847.972	4839
848.108	4957
848.244	4911
848.379	4790
848.515	4774
848.65	4683
848.786	4710
848.921	4809
849.057	4896
849.192	4919
849.328	4820
849.463	4843
849.598	4816
849.734	4786
849.869	4725
850.004	4630
850.14	4694
850.275	4615
850.41	4519
850.545	4535
850.68	4603
850.815	4584
850.95	4615
851.085	4839
851.22	4733
851.355	4645
851.49	4607
851.625	4592
851.76	4603
851.895	4554
852.03	4550
852.165	4626
852.299	4675
852.434	4793
852.569	4721
852.703	4774
852.838	4858
852.973	4919
853.107	4908
853.242	4759
853.376	4637
853.511	4554
853.645	4615
853.78	4809
853.914	4698
854.048	4668
854.183	4660
854.317	4691
854.451	4873
854.585	4672
854.72	4603
854.854	4725
854.988	4603
855.122	4660
855.256	4561
855.39	4706
855.524	4786
855.658	4710
855.792	4683
855.926	4721
856.06	4767
856.194	4801
856.327	4691
856.461	4618
856.595	4599
856.729	4641
856.862	4729
856.996	4679
857.13	4790
857.263	4733
857.397	4778
857.53	4664
857.664	4725
857.797	4721
857.931	4774
858.064	4679
858.197	4714
858.331	4630
858.464	4626
858.597	4519
858.731	4603
858.864	4588
858.997	4615
859.13	4672
859.263	4679
859.396	4694
859.529	4577
859.662	4527
859.795	4512
859.928	4641
860.061	4736
860.194	4790
860.327	4603
860.46	4493
860.592	4706
860.725	4664
860.858	4675
860.99	4577
861.123	4443
861.256	4447
861.388	4668
861.521	5265
861.653	4500
861.786	4462
861.918	4485
862.05	4508
862.183	4516
862.315	4611
862.447	4641
862.58	4512
862.712	4386
862.844	4344
862.976	4478
863.108	4462
863.24	4759
863.372	4360
863.504	4383
863.636	4386
863.768	4519
863.9	4421
864.032	4379
864.164	4413
864.296	4489
864.428	4569
864.559	4577
864.691	4554
864.823	4493
864.954	4512
865.086	4478
865.217	4455
865.349	4375
865.48	4443
865.612	4466
865.743	4630
865.875	4455
866.006	4440
866.137	4451
866.269	4421
866.4	4443
866.531	4421
866.662	4394
866.793	4371
866.924	4383
867.055	4478
867.186	4485
867.317	4432
867.448	4405
867.579	4413
867.71	4386
867.841	4379
867.972	4447
868.103	4436
868.233	4394
868.364	4394
868.495	4481
868.625	4653
868.756	4721
868.886	4523
869.017	4592
869.147	4771
869.278	4774
869.408	4660
869.539	4611
869.669	4736
869.799	4634
869.929	4736
870.06	4736
870.19	4919
870.32	4896
870.45	4919
870.58	5006
870.71	5071
870.84	5098
870.97	5018
871.1	4839
871.23	5193
871.36	5098
871.489	4968
871.619	5048
871.749	5109
871.879	5086
872.008	5143
872.138	5056
872.267	4965
872.397	4843
872.526	4820
872.656	4717
872.785	4801
872.915	4930
873.044	4946
873.173	4961
873.303	4942
873.432	4968
873.561	4927
873.69	4854
873.819	4839
873.948	4908
874.077	4809
874.206	4733
874.335	4790
874.464	4968
874.593	5056
874.722	5003
874.851	5056
874.979	5010
875.108	4961
875.237	4927
875.365	4904
875.494	4892
875.623	4968
875.751	4824
875.88	4862
876.008	4949
876.136	5045
876.265	5231
876.393	5307
876.521	5227
876.65	5181
876.778	5090
876.906	5098
877.034	4976
877.162	5014
877.29	4957
877.418	5025
877.546	5048
877.674	4934
877.802	4987
877.93	5014
878.058	4961
878.185	4831
878.313	4896
878.441	4900
878.568	4767
878.696	4904
878.824	4896
878.951	4976
879.079	5083
879.206	5326
879.333	5083
879.461	4953
879.588	5045
879.715	5132
879.842	5166
879.97	5018
880.097	4740
880.224	4721
880.351	4835
880.478	4778
880.605	4809
880.732	4744
880.859	5022
880.986	4915
881.112	4889
881.239	4729
881.366	4683
881.493	4637
881.619	4565
881.746	4615
881.872	4672
881.999	4637
882.125	4668
882.252	4816
882.378	4828
882.505	4953
882.631	4816
882.757	4687
882.883	4714
883.01	4687
883.136	4641
883.262	4649
883.388	4596
883.514	4786
883.64	4892
883.766	4714
883.892	4653
884.018	4698
884.143	4908
884.269	4995
884.395	4664
884.52	4630
884.646	4660
884.772	4538
884.897	4531
885.023	4649
885.148	4812
885.274	4862
885.399	4858
885.524	4702
885.65	4664
885.775	4725
885.9	4694
886.025	4847
886.15	4778
886.275	4710
886.4	4637
886.525	4744
886.65	4675
886.775	4668
886.9	4915
887.025	4991
887.149	4771
887.274	4649
887.399	4542
887.523	4577
887.648	4603
887.773	4599
887.897	4744
888.021	4752
888.146	4687
888.27	4801
888.395	4870
888.519	4801
888.643	4816
888.767	4870
888.891	4691
889.015	4626
889.139	4660
889.263	4546
889.387	4740
889.511	4843
889.635	4809
889.759	4634
889.883	4660
890.006	4729
890.13	4778
890.254	4622
890.377	4672
890.501	4508
890.624	4558
890.748	4615
890.871	4538
890.995	4428
891.118	4360
891.241	4466
891.364	4504
891.488	4596
891.611	4523
891.734	4512
891.857	4607
891.98	4527
892.103	4668
892.226	4569
892.349	4538
892.471	4402
892.594	4538
892.717	4615
892.839	4550
892.962	4588
893.085	4653
893.207	4645
893.33	4470
893.452	4512
893.575	4675
893.697	4565
893.819	4767
893.941	4835
894.064	4733
894.186	4573
894.308	4561
894.43	4698
894.552	4805
894.674	4759
894.796	4558
894.918	4588
895.04	4577
895.161	4691
895.283	4618
895.405	4546
895.526	4615
895.648	4672
895.769	4687
895.891	4729
896.012	4729
896.134	4717
896.255	4672
896.376	4577
896.498	4592
896.619	4649
896.74	4607
896.861	4626
896.982	4953
897.103	5033
897.224	4805
897.345	4752
897.466	4653
897.587	4767
897.708	4824
897.828	4729
897.949	4637
898.07	4550
898.19	4596
898.311	4793
898.431	4634
898.552	4706
898.672	4786
898.792	4812
898.913	4714
899.033	4630
899.153	4516
899.273	4352
899.393	4535
899.513	4508
899.633	4516
899.753	4561
899.873	4493
899.993	4565
900.113	4546
900.232	4512
900.352	4516
900.472	4489
900.591	4379
900.711	4516
900.83	4428
900.95	4596
901.069	4645
901.189	4531
901.308	4310
901.427	4318
901.546	4363
901.665	4459
901.784	4527
901.904	4348
902.023	4284
902.141	4185
902.26	4181
902.379	4287
902.498	4230
902.617	4234
902.735	4360
902.854	4363
902.973	4394
903.091	4188
903.21	4185
903.328	4299
903.446	4306
903.565	4234
903.683	4356
903.801	4284
903.919	4375
904.038	4455
904.156	4287
904.274	4428
904.392	4383
904.51	4409
904.627	4459
904.745	4538
904.863	4588
904.981	4386
905.098	4295
905.216	4360
905.334	4421
905.451	4405
905.569	4466
905.686	4500
905.803	4535
905.921	4417
906.038	4618
906.155	4451
906.272	4375
906.389	4443
906.506	4318
906.623	4390
906.74	4394
906.857	4284
906.974	4371
907.091	4565
907.208	4656
907.324	4554
907.441	4516
907.557	4333
907.674	4356
907.79	4287
907.907	4344
908.023	4459
908.139	4538
908.256	4390
908.372	4455
908.488	4451
908.604	4379
908.72	4287
908.836	4432
908.952	4375
909.068	4428
909.184	4546
909.3	4493
909.415	4588
909.531	4565
909.647	4356
909.762	4341
909.878	4375
909.993	4455
910.108	4432
910.224	4402
910.339	4466
910.454	4394
910.57	4348
910.685	4337
910.8	4618
910.915	4607
911.03	4474
911.145	4299
911.259	4337
911.374	4375
911.489	4314
911.604	4306
911.718	4223
911.833	4227
911.947	4082
912.062	4055
912.176	4223
912.291	4253
912.405	4219
912.519	4481
912.633	4508
912.748	4348
912.862	4314
912.976	4169
913.09	4097
913.204	4177
913.318	4249
913.431	4405
913.545	4405
913.659	4451
913.772	4352
913.886	4257
914	4177
914.113	4409
914.226	4421
914.34	4390
914.453	4234
914.566	4432
914.68	4303
914.793	4325
914.906	4162
915.019	4166
915.132	4112
915.245	4196
915.358	4204
915.47	4169
915.583	4299
915.696	4284
915.809	4390
915.921	4405
916.034	4219
916.146	4238
916.259	4169
916.371	4360
916.483	4329
916.595	4230
916.708	4356
916.82	4299
916.932	4306
917.044	4329
917.156	4322
917.268	4200
917.38	4253
917.491	4257
917.603	4295
917.715	4402
917.826	4428
917.938	4318
918.049	4265
918.161	4421
918.272	4546
918.384	4569
918.495	4447
918.606	4341
918.717	4257
918.828	4322
918.939	4398
919.05	4188
919.161	4306
919.272	4116
919.383	4230
919.494	4424
919.604	4649
919.715	4409
919.826	4329
919.936	4363
920.047	4558
920.157	4481
920.267	4748
920.378	4546
920.488	4485
920.598	4675
920.708	4850
920.818	4759
920.928	4748
921.038	4930
921.148	4919
921.258	4599
921.368	4584
921.477	4440
921.587	4466
921.697	4383
921.806	4516
921.916	4371
922.025	4253
922.134	4242
922.244	4188
922.353	4310
922.462	4177
922.571	4105
922.68	4032
922.789	3949
922.898	4025
923.007	3972
923.116	4147
923.224	4071
923.333	4017
923.442	4006
923.55	3975
923.659	4021
923.767	4109
923.876	3991
923.984	4116
924.092	4017
924.201	4097
924.309	4101
924.417	4109
924.525	4025
924.633	4135
924.741	5045
924.849	3937
924.956	4166
925.064	3903
925.172	3899
925.279	3930
925.387	4063
925.494	4082
925.602	4265
925.709	4200
925.816	4006
925.924	4135
926.031	4192
926.138	4158
926.245	4211
926.352	4116
926.459	4230
926.566	4344
926.673	4143
926.779	4101
926.886	4040
926.993	3964
927.099	3964
927.206	3907
927.312	3994
927.419	4055
927.525	4040
927.631	4063
927.737	3960
927.843	3941
927.95	3827
928.056	3960
928.162	4002
928.267	4044
928.373	4668
928.479	4120
928.585	3857
928.69	3994
928.796	4032
928.901	3968
929.007	3884
929.112	3972
929.218	4010
929.323	3945
929.428	3983
929.533	4040
929.638	3892
929.743	3949
929.848	4032
929.953	4002
930.058	3907
930.163	3762
930.267	3846
930.372	3979
930.477	3785
930.581	4071
930.685	3907
930.79	3827
930.894	3869
930.998	3838
931.103	4059
931.207	3682
931.311	3694
931.415	3705
931.519	3481
931.623	3561
