Data from test_V78500241_227.txt Node
Date: Fri Mar 25 16:50:34 CST 2022
User: usil
Spectrometer: V785-0024
Trigger mode: 0
Integration Time (sec): 4.000000E-1
Scans to average: 1
Nonlinearity correction enabled: false
Boxcar width: 0
Storing dark spectrum: false
XAxis mode: Wavelengths
Number of Pixels in Spectrum: 1024
>>>>>Begin Spectral Data<<<<<
801.071	8016
801.214	8005
801.356	7830
801.499	7871
801.641	7833
801.783	7814
801.926	8005
802.068	7944
802.211	8001
802.353	8088
802.496	7883
802.638	7917
802.78	7951
802.923	7883
803.065	7849
803.208	7803
803.35	7997
803.492	8077
803.635	8119
803.777	8012
803.919	8081
804.061	8400
804.204	8161
804.346	8084
804.488	7947
804.63	8092
804.773	8043
804.915	8077
805.057	8225
805.199	8145
805.341	8153
805.483	8259
805.626	8161
805.768	8107
805.91	8191
806.052	8206
806.194	8065
806.336	8320
806.478	8145
806.62	8100
806.762	8088
806.904	8153
807.046	8400
807.188	8404
807.33	8320
807.472	8294
807.614	8145
807.756	8092
807.898	7951
808.04	7906
808.182	7898
808.324	7917
808.465	7970
808.607	8062
808.749	8187
808.891	8240
809.033	8313
809.174	8187
809.316	8012
809.458	8039
809.6	8008
809.741	7978
809.883	8016
810.025	8077
810.166	8016
810.308	8020
810.45	8005
810.591	7864
810.733	7799
810.875	7666
811.016	7464
811.158	7464
811.299	7571
811.441	7719
811.582	7590
811.724	7571
811.865	7552
812.007	7636
812.148	7605
812.29	7624
812.431	7807
812.573	7921
812.714	7940
812.855	8187
812.997	8244
813.138	8324
813.279	8210
813.421	8073
813.562	7982
813.703	7856
813.845	7746
813.986	7419
814.127	7206
814.268	7278
814.41	7244
814.551	7152
814.692	7122
814.833	7145
814.974	7072
815.115	7133
815.256	7012
815.397	6894
815.539	6939
815.68	6859
815.821	6783
815.962	6913
816.103	6818
816.244	6764
816.385	6681
816.526	6627
816.666	6464
816.807	6323
816.948	6445
817.089	6479
817.23	6437
817.371	6376
817.512	6357
817.653	6460
817.793	6346
817.934	6407
818.075	6471
818.216	6433
818.356	6395
818.497	6224
818.638	6098
818.778	6110
818.919	6114
819.06	6182
819.2	6311
819.341	6334
819.481	6361
819.622	6536
819.762	6772
819.903	6669
820.043	6585
820.184	6551
820.324	6551
820.465	6726
820.605	6642
820.746	6642
820.886	6448
821.026	6623
821.167	6669
821.307	6795
821.447	6730
821.588	6665
821.728	6547
821.868	6563
822.008	6308
822.149	6414
822.289	6361
822.429	6110
822.569	6133
822.709	6110
822.849	5923
822.99	5889
823.13	5923
823.27	5920
823.41	5802
823.55	5817
823.69	5775
823.83	5775
823.97	5649
824.11	5532
824.25	5497
824.389	5581
824.529	5570
824.669	5528
824.809	5630
824.949	5577
825.089	5638
825.228	5551
825.368	5410
825.508	5334
825.648	5360
825.787	5391
825.927	5372
826.067	5379
826.206	5337
826.346	5383
826.485	5455
826.625	5463
826.765	5512
826.904	5509
827.044	5216
827.183	5227
827.323	5147
827.462	5231
827.601	5174
827.741	5170
827.88	5216
828.02	5071
828.159	5292
828.298	5322
828.437	5372
828.577	5307
828.716	5509
828.855	5357
828.994	5136
829.134	5151
829.273	5189
829.412	5155
829.551	5113
829.69	5109
829.829	5220
829.968	5357
830.107	5273
830.246	5299
830.385	5166
830.524	5140
830.663	5102
830.802	4980
830.941	4949
831.08	4858
831.219	4991
831.357	4987
831.496	5174
831.635	4984
831.774	4835
831.913	4835
832.051	4702
832.19	4812
832.329	4843
832.467	4679
832.606	4607
832.744	4698
832.883	4752
833.022	4752
833.16	4812
833.299	4771
833.437	4805
833.576	4824
833.714	4854
833.852	4847
833.991	4919
834.129	5018
834.267	4934
834.406	4904
834.544	5018
834.682	4946
834.821	4995
834.959	5136
835.097	4953
835.235	5212
835.373	5132
835.511	5155
835.65	5022
835.788	5045
835.926	4904
836.064	4873
836.202	4892
836.34	5174
836.478	5208
836.615	5147
836.753	5212
836.891	5311
837.029	5273
837.167	5223
837.305	5140
837.443	5189
837.58	5075
837.718	5258
837.856	5166
837.993	5155
838.131	5258
838.269	5201
838.406	5162
838.544	5170
838.681	5022
838.819	4999
838.956	4870
839.094	4896
839.231	4965
839.369	5079
839.506	5410
839.643	5311
839.781	5033
839.918	4968
840.055	5151
840.193	5140
840.33	5075
840.467	5128
840.604	5170
840.742	5436
840.879	5060
841.016	5056
841.153	5235
841.29	5376
841.427	5353
841.564	5273
841.701	5299
841.838	5292
841.975	5273
842.112	5261
842.249	5109
842.385	5060
842.522	5311
842.659	5197
842.796	5185
842.933	5227
843.069	5159
843.206	5147
843.343	5311
843.479	5265
843.616	5273
843.752	5025
843.889	5025
844.025	5204
844.162	5056
844.298	5235
844.435	5102
844.571	5018
844.708	5246
844.844	5265
844.98	5315
845.117	5307
845.253	5140
845.389	5102
845.525	5197
845.661	5132
845.798	5056
845.934	5128
846.07	5060
846.206	5216
846.342	5277
846.478	5151
846.614	5041
846.75	4980
846.886	4965
847.022	5132
847.158	5052
847.294	5086
847.429	5113
847.565	5056
847.701	5296
847.837	4896
847.972	4843
848.108	4999
848.244	4904
848.379	4786
848.515	4725
848.65	4729
848.786	4771
848.921	4771
849.057	4866
849.192	4908
849.328	4793
849.463	4847
849.598	4790
849.734	4782
849.869	4679
850.004	4569
850.14	4679
850.275	4694
850.41	4542
850.545	4577
850.68	4618
850.815	4592
850.95	4622
851.085	4820
851.22	4733
851.355	4626
851.49	4603
851.625	4637
851.76	4592
851.895	4569
852.03	4508
852.165	4683
852.299	4729
852.434	4755
852.569	4687
852.703	4816
852.838	4816
852.973	4911
853.107	4908
853.242	4767
853.376	4668
853.511	4527
853.645	4561
853.78	4835
853.914	4717
854.048	4645
854.183	4645
854.317	4702
854.451	4877
854.585	4649
854.72	4641
854.854	4733
854.988	4554
855.122	4672
855.256	4512
855.39	4656
855.524	4774
855.658	4744
855.792	4683
855.926	4733
856.06	4740
856.194	4793
856.327	4691
856.461	4630
856.595	4596
856.729	4603
856.862	4786
856.996	4702
857.13	4687
857.263	4691
857.397	4797
857.53	4683
857.664	4793
857.797	4805
857.931	4797
858.064	4698
858.197	4816
858.331	4622
858.464	4615
858.597	4523
858.731	4626
858.864	4596
858.997	4599
859.13	4664
859.263	4668
859.396	4675
859.529	4637
859.662	4561
859.795	4523
859.928	4641
860.061	4767
860.194	4755
860.327	4675
860.46	4527
860.592	4740
860.725	4740
860.858	4744
860.99	4573
861.123	4519
861.256	4535
861.388	4596
861.521	5459
861.653	4481
861.786	4440
861.918	4481
862.05	4500
862.183	4542
862.315	4584
862.447	4752
862.58	4550
862.712	4386
862.844	4325
862.976	4481
863.108	4478
863.24	4900
863.372	4341
863.504	4424
863.636	4413
863.768	4459
863.9	4440
864.032	4390
864.164	4428
864.296	4508
864.428	4573
864.559	4561
864.691	4546
864.823	4523
864.954	4497
865.086	4569
865.217	4447
865.349	4398
865.48	4462
865.612	4493
865.743	4626
865.875	4432
866.006	4470
866.137	4451
866.269	4478
866.4	4421
866.531	4462
866.662	4402
866.793	4398
866.924	4398
867.055	4512
867.186	4451
867.317	4413
867.448	4371
867.579	4409
867.71	4405
867.841	4360
867.972	4455
868.103	4409
868.233	4470
868.364	4447
868.495	4504
868.625	4630
868.756	4744
868.886	4569
869.017	4649
869.147	4736
869.278	4786
869.408	4611
869.539	4641
869.669	4736
869.799	4687
869.929	4793
870.06	4694
870.19	4927
870.32	4930
870.45	4927
870.58	5033
870.71	5132
870.84	5064
870.97	4938
871.1	4934
871.23	5098
871.36	5151
871.489	5029
871.619	5128
871.749	5124
871.879	5064
872.008	5147
872.138	5022
872.267	4934
872.397	4843
872.526	4816
872.656	4687
872.785	4793
872.915	4949
873.044	5052
873.173	4911
873.303	4987
873.432	4900
873.561	4930
873.69	4866
873.819	4858
873.948	4885
874.077	4835
874.206	4759
874.335	4809
874.464	4976
874.593	5067
874.722	4965
874.851	5121
874.979	5006
875.108	5045
875.237	4927
875.365	4866
875.494	4919
875.623	4942
875.751	4843
875.88	4877
876.008	4972
876.136	5060
876.265	5166
876.393	5326
876.521	5273
876.65	5216
876.778	5155
876.906	5124
877.034	5033
877.162	5052
877.29	4999
877.418	5029
877.546	5071
877.674	5045
877.802	5064
877.93	5037
878.058	4942
878.185	4908
878.313	4968
878.441	4942
878.568	4771
878.696	4858
878.824	5022
878.951	4980
879.079	5128
879.206	5330
879.333	5185
879.461	4934
879.588	5033
879.715	5132
879.842	5223
879.97	5022
880.097	4816
880.224	4801
880.351	4759
880.478	4824
880.605	4812
880.732	4797
880.859	5060
880.986	4896
881.112	4980
881.239	4812
881.366	4694
881.493	4592
881.619	4603
881.746	4626
881.872	4672
881.999	4679
882.125	4691
882.252	4824
882.378	4816
882.505	4915
882.631	4824
882.757	4653
882.883	4744
883.01	4763
883.136	4656
883.262	4615
883.388	4634
883.514	4843
883.64	4896
883.766	4809
883.892	4691
884.018	4702
884.143	4908
884.269	4987
884.395	4683
884.52	4675
884.646	4694
884.772	4561
884.897	4577
885.023	4649
885.148	4752
885.274	4877
885.399	4801
885.524	4698
885.65	4717
885.775	4748
885.9	4755
886.025	4866
886.15	4782
886.275	4721
886.4	4656
886.525	4687
886.65	4698
886.775	4714
886.9	4908
887.025	5052
887.149	4831
887.274	4675
887.399	4626
887.523	4611
887.648	4588
887.773	4637
887.897	4786
888.021	4824
888.146	4691
888.27	4828
888.395	4927
888.519	4797
888.643	4847
888.767	4850
888.891	4691
889.015	4558
889.139	4664
889.263	4630
889.387	4771
889.511	4843
889.635	4839
889.759	4626
889.883	4645
890.006	4710
890.13	4881
890.254	4645
890.377	4698
890.501	4558
890.624	4535
890.748	4660
890.871	4459
890.995	4405
891.118	4409
891.241	4485
891.364	4546
891.488	4656
891.611	4527
891.734	4531
891.857	4630
891.98	4561
892.103	4679
892.226	4573
892.349	4508
892.471	4451
892.594	4497
892.717	4592
892.839	4554
892.962	4607
893.085	4736
893.207	4630
893.33	4466
893.452	4508
893.575	4698
893.697	4565
893.819	4839
893.941	4820
894.064	4797
894.186	4622
894.308	4615
894.43	4736
894.552	4812
894.674	4759
894.796	4535
894.918	4603
895.04	4584
895.161	4740
895.283	4683
895.405	4577
895.526	4664
895.648	4653
895.769	4664
895.891	4729
896.012	4786
896.134	4687
896.255	4679
896.376	4645
896.498	4672
896.619	4641
896.74	4637
896.861	4672
896.982	4957
897.103	5113
897.224	4854
897.345	4755
897.466	4641
897.587	4702
897.708	4881
897.828	4763
897.949	4649
898.07	4531
898.19	4694
898.311	4767
898.431	4714
898.552	4710
898.672	4824
898.792	4831
898.913	4748
899.033	4630
899.153	4527
899.273	4440
899.393	4508
899.513	4561
899.633	4592
899.753	4535
899.873	4527
899.993	4626
900.113	4542
900.232	4588
900.352	4504
900.472	4493
900.591	4432
900.711	4512
900.83	4447
900.95	4637
901.069	4672
901.189	4550
901.308	4322
901.427	4291
901.546	4409
901.665	4451
901.784	4478
901.904	4375
902.023	4348
902.141	4211
902.26	4173
902.379	4310
902.498	4238
902.617	4177
902.735	4383
902.854	4383
902.973	4318
903.091	4188
903.21	4268
903.328	4314
903.446	4272
903.565	4253
903.683	4371
903.801	4230
903.919	4421
904.038	4417
904.156	4306
904.274	4459
904.392	4417
904.51	4402
904.627	4485
904.745	4573
904.863	4641
904.981	4413
905.098	4291
905.216	4398
905.334	4402
905.451	4409
905.569	4436
905.686	4573
905.803	4611
905.921	4424
906.038	4527
906.155	4512
906.272	4443
906.389	4466
906.506	4371
906.623	4409
906.74	4394
906.857	4299
906.974	4367
907.091	4603
907.208	4729
907.324	4588
907.441	4481
907.557	4390
907.674	4367
907.79	4344
907.907	4367
908.023	4497
908.139	4516
908.256	4424
908.372	4508
908.488	4432
908.604	4405
908.72	4341
908.836	4413
908.952	4432
909.068	4481
909.184	4588
909.3	4440
909.415	4641
909.531	4607
909.647	4363
909.762	4371
909.878	4356
909.993	4459
910.108	4447
910.224	4424
910.339	4466
910.454	4409
910.57	4360
910.685	4333
910.8	4672
910.915	4573
911.03	4527
911.145	4337
911.259	4344
911.374	4386
911.489	4325
911.604	4291
911.718	4185
911.833	4230
911.947	4143
912.062	4067
912.176	4196
912.291	4287
912.405	4272
912.519	4481
912.633	4512
912.748	4383
912.862	4356
912.976	4246
913.09	4090
913.204	4188
913.318	4284
913.431	4432
913.545	4322
913.659	4413
913.772	4390
913.886	4238
914	4242
914.113	4341
914.226	4367
914.34	4383
914.453	4227
914.566	4413
914.68	4303
914.793	4348
914.906	4177
915.019	4131
915.132	4093
915.245	4181
915.358	4253
915.47	4227
915.583	4268
915.696	4303
915.809	4398
915.921	4417
916.034	4268
916.146	4276
916.259	4200
916.371	4386
916.483	4352
916.595	4280
916.708	4329
916.82	4291
916.932	4272
917.044	4322
917.156	4344
917.268	4234
917.38	4253
917.491	4329
917.603	4299
917.715	4466
917.826	4447
917.938	4325
918.049	4268
918.161	4428
918.272	4565
918.384	4580
918.495	4409
918.606	4280
918.717	4181
918.828	4371
918.939	4341
919.05	4306
919.161	4329
919.272	4173
919.383	4230
919.494	4462
919.604	4622
919.715	4466
919.826	4386
919.936	4375
920.047	4542
920.157	4470
920.267	4653
920.378	4546
920.488	4519
920.598	4710
920.708	4949
920.818	4809
920.928	4767
921.038	4930
921.148	4957
921.258	4634
921.368	4512
921.477	4462
921.587	4455
921.697	4375
921.806	4558
921.916	4440
922.025	4268
922.134	4272
922.244	4200
922.353	4348
922.462	4188
922.571	4143
922.68	3972
922.789	3956
922.898	4048
923.007	3968
923.116	4109
923.224	4074
923.333	4116
923.442	3979
923.55	4021
923.659	4059
923.767	4078
923.876	3987
923.984	4112
924.092	4006
924.201	4048
924.309	4116
924.417	4128
924.525	4017
924.633	4154
924.741	4999
924.849	3926
924.956	4162
925.064	3953
925.172	3869
925.279	4006
925.387	4021
925.494	4074
925.602	4227
925.709	4188
925.816	4082
925.924	4116
926.031	4287
926.138	4162
926.245	4242
926.352	4112
926.459	4261
926.566	4375
926.673	4166
926.779	4116
926.886	4063
926.993	4006
927.099	3998
927.206	3930
927.312	3930
927.419	4059
927.525	4002
927.631	4044
927.737	3979
927.843	3956
927.95	3854
928.056	3960
928.162	3979
928.267	4029
928.373	4580
928.479	4112
928.585	3876
928.69	4078
928.796	4086
928.901	3956
929.007	3846
929.112	3991
929.218	4013
929.323	3956
929.428	3949
929.533	4101
929.638	3911
929.743	3972
929.848	4040
929.953	3991
930.058	3968
930.163	3819
930.267	3831
930.372	4017
930.477	3812
930.581	4086
930.685	3991
930.79	3831
930.894	3869
930.998	3850
931.103	4063
931.207	3720
931.311	3698
931.415	3671
931.519	3507
931.623	3542
