Data from test_V78500241_1805.txt Node
Date: Fri Mar 25 17:01:33 CST 2022
User: usil
Spectrometer: V785-0024
Trigger mode: 0
Integration Time (sec): 4.000000E-1
Scans to average: 1
Nonlinearity correction enabled: false
Boxcar width: 0
Storing dark spectrum: false
XAxis mode: Wavelengths
Number of Pixels in Spectrum: 1024
>>>>>Begin Spectral Data<<<<<
801.071	8027
801.214	7982
801.356	7868
801.499	7902
801.641	7765
801.783	7814
801.926	7963
802.068	7986
802.211	8020
802.353	7978
802.496	7875
802.638	7898
802.78	7852
802.923	7909
803.065	7894
803.208	7871
803.35	8020
803.492	8065
803.635	8142
803.777	7963
803.919	8145
804.061	8431
804.204	8115
804.346	8096
804.488	7997
804.63	8084
804.773	7993
804.915	8172
805.057	8320
805.199	8187
805.341	8199
805.483	8313
805.626	8214
805.768	8058
805.91	8267
806.052	8218
806.194	8126
806.336	8309
806.478	8050
806.62	7989
806.762	8149
806.904	8263
807.046	8484
807.188	8351
807.33	8271
807.472	8282
807.614	8130
807.756	8164
807.898	7947
808.04	7856
808.182	7902
808.324	7940
808.465	7902
808.607	8054
808.749	8111
808.891	8172
809.033	8332
809.174	8286
809.316	8103
809.458	8043
809.6	8031
809.741	8035
809.883	8046
810.025	8115
810.166	8077
810.308	8077
810.45	8001
810.591	7868
810.733	7677
810.875	7643
811.016	7514
811.158	7453
811.299	7544
811.441	7696
811.582	7632
811.724	7525
811.865	7578
812.007	7586
812.148	7594
812.29	7628
812.431	7833
812.573	7852
812.714	7940
812.855	8107
812.997	8176
813.138	8290
813.279	8191
813.421	8138
813.562	7951
813.703	7814
813.845	7715
813.986	7365
814.127	7213
814.268	7240
814.41	7164
814.551	7198
814.692	7168
814.833	7080
814.974	7152
815.115	7152
815.256	7008
815.397	6894
815.539	6909
815.68	6760
815.821	6757
815.962	6783
816.103	6829
816.244	6662
816.385	6646
816.526	6608
816.666	6498
816.807	6338
816.948	6471
817.089	6475
817.23	6452
817.371	6372
817.512	6357
817.653	6414
817.793	6353
817.934	6441
818.075	6437
818.216	6433
818.356	6395
818.497	6277
818.638	6095
818.778	6148
818.919	6155
819.06	6140
819.2	6365
819.341	6338
819.481	6365
819.622	6528
819.762	6719
819.903	6665
820.043	6612
820.184	6555
820.324	6574
820.465	6692
820.605	6650
820.746	6658
820.886	6540
821.026	6639
821.167	6673
821.307	6783
821.447	6703
821.588	6662
821.728	6547
821.868	6441
822.008	6365
822.149	6376
822.289	6357
822.429	6125
822.569	6057
822.709	6125
822.849	5931
822.99	5893
823.13	5901
823.27	5980
823.41	5764
823.55	5767
823.69	5718
823.83	5828
823.97	5608
824.11	5554
824.25	5474
824.389	5528
824.529	5558
824.669	5562
824.809	5566
824.949	5657
825.089	5638
825.228	5524
825.368	5387
825.508	5353
825.648	5315
825.787	5383
825.927	5376
826.067	5341
826.206	5242
826.346	5368
826.485	5402
826.625	5452
826.765	5562
826.904	5516
827.044	5296
827.183	5185
827.323	5174
827.462	5315
827.601	5166
827.741	5231
827.88	5208
828.02	5147
828.159	5284
828.298	5311
828.437	5337
828.577	5288
828.716	5455
828.855	5315
828.994	5147
829.134	5162
829.273	5223
829.412	5166
829.551	5136
829.69	5197
829.829	5265
829.968	5395
830.107	5254
830.246	5360
830.385	5223
830.524	5147
830.663	5071
830.802	4987
830.941	4908
831.08	4881
831.219	4976
831.357	4980
831.496	5235
831.635	4938
831.774	4908
831.913	4839
832.051	4763
832.19	4763
832.329	4881
832.467	4740
832.606	4729
832.744	4725
832.883	4733
833.022	4771
833.16	4793
833.299	4889
833.437	4835
833.576	4911
833.714	4850
833.852	4896
833.991	4889
834.129	4980
834.267	4965
834.406	4946
834.544	4984
834.682	4999
834.821	4976
834.959	5239
835.097	5083
835.235	5143
835.373	5060
835.511	5159
835.65	5060
835.788	5025
835.926	4877
836.064	4934
836.202	5006
836.34	5166
836.478	5250
836.615	5147
836.753	5189
836.891	5318
837.029	5250
837.167	5170
837.305	5212
837.443	5166
837.58	5132
837.718	5292
837.856	5208
837.993	5155
838.131	5220
838.269	5201
838.406	5265
838.544	5239
838.681	5083
838.819	5006
838.956	4942
839.094	4923
839.231	4961
839.369	5060
839.506	5425
839.643	5284
839.781	5102
839.918	5060
840.055	5132
840.193	5140
840.33	5094
840.467	5162
840.604	5174
840.742	5448
840.879	5132
841.016	5117
841.153	5102
841.29	5402
841.427	5387
841.564	5349
841.701	5414
841.838	5337
841.975	5288
842.112	5315
842.249	5147
842.385	5140
842.522	5379
842.659	5185
842.796	5185
842.933	5246
843.069	5189
843.206	5166
843.343	5349
843.479	5269
843.616	5318
843.752	5060
843.889	5056
844.025	5280
844.162	5041
844.298	5258
844.435	5086
844.571	5105
844.708	5208
844.844	5303
844.98	5429
845.117	5307
845.253	5166
845.389	5102
845.525	5143
845.661	5128
845.798	5086
845.934	5197
846.07	5041
846.206	5189
846.342	5337
846.478	5204
846.614	5056
846.75	4965
846.886	5003
847.022	5147
847.158	5067
847.294	5025
847.429	5132
847.565	5067
847.701	5345
847.837	4828
847.972	4835
848.108	4995
848.244	4919
848.379	4812
848.515	4755
848.65	4763
848.786	4793
848.921	4786
849.057	4923
849.192	4915
849.328	4809
849.463	4873
849.598	4824
849.734	4733
849.869	4717
850.004	4634
850.14	4714
850.275	4615
850.41	4558
850.545	4588
850.68	4630
850.815	4653
850.95	4645
851.085	4889
851.22	4771
851.355	4736
851.49	4622
851.625	4672
851.76	4672
851.895	4573
852.03	4508
852.165	4649
852.299	4694
852.434	4816
852.569	4790
852.703	4812
852.838	4858
852.973	4927
853.107	4915
853.242	4797
853.376	4717
853.511	4554
853.645	4664
853.78	4835
853.914	4729
854.048	4714
854.183	4626
854.317	4733
854.451	4915
854.585	4721
854.72	4672
854.854	4839
854.988	4611
855.122	4618
855.256	4603
855.39	4744
855.524	4778
855.658	4759
855.792	4717
855.926	4725
856.06	4729
856.194	4778
856.327	4706
856.461	4607
856.595	4637
856.729	4675
856.862	4774
856.996	4683
857.13	4721
857.263	4782
857.397	4885
857.53	4660
857.664	4771
857.797	4809
857.931	4812
858.064	4672
858.197	4752
858.331	4691
858.464	4599
858.597	4531
858.731	4691
858.864	4664
858.997	4622
859.13	4694
859.263	4717
859.396	4733
859.529	4641
859.662	4611
859.795	4573
859.928	4683
860.061	4793
860.194	4812
860.327	4679
860.46	4615
860.592	4782
860.725	4740
860.858	4774
860.99	4630
861.123	4558
861.256	4554
861.388	4668
861.521	5318
861.653	4504
861.786	4485
861.918	4478
862.05	4538
862.183	4561
862.315	4649
862.447	4736
862.58	4523
862.712	4462
862.844	4360
862.976	4440
863.108	4478
863.24	4896
863.372	4341
863.504	4462
863.636	4428
863.768	4497
863.9	4421
864.032	4379
864.164	4432
864.296	4493
864.428	4508
864.559	4577
864.691	4546
864.823	4508
864.954	4565
865.086	4527
865.217	4500
865.349	4451
865.48	4493
865.612	4485
865.743	4615
865.875	4554
866.006	4455
866.137	4512
866.269	4466
866.4	4440
866.531	4432
866.662	4402
866.793	4405
866.924	4440
867.055	4523
867.186	4504
867.317	4390
867.448	4409
867.579	4421
867.71	4424
867.841	4432
867.972	4440
868.103	4459
868.233	4455
868.364	4466
868.495	4550
868.625	4679
868.756	4801
868.886	4584
869.017	4717
869.147	4774
869.278	4805
869.408	4626
869.539	4664
869.669	4759
869.799	4668
869.929	4755
870.06	4805
870.19	4980
870.32	4930
870.45	4946
870.58	5045
870.71	5124
870.84	5094
870.97	4972
871.1	4908
871.23	5185
871.36	5162
871.489	5006
871.619	5105
871.749	5155
871.879	5181
872.008	5159
872.138	5094
872.267	4927
872.397	4824
872.526	4824
872.656	4736
872.785	4809
872.915	4911
873.044	5025
873.173	4915
873.303	4995
873.432	4965
873.561	4949
873.69	4919
873.819	4889
873.948	4972
874.077	4862
874.206	4793
874.335	4820
874.464	4900
874.593	5132
874.722	4942
874.851	5128
874.979	5079
875.108	5060
875.237	4961
875.365	4889
875.494	4919
875.623	5029
875.751	4831
875.88	4904
876.008	5010
876.136	4999
876.265	5220
876.393	5315
876.521	5311
876.65	5239
876.778	5132
876.906	5086
877.034	5018
877.162	5071
877.29	4987
877.418	5010
877.546	5071
877.674	5060
877.802	5022
877.93	5010
878.058	4953
878.185	4889
878.313	4968
878.441	4953
878.568	4805
878.696	4911
878.824	4972
878.951	5029
879.079	5155
879.206	5258
879.333	5155
879.461	4999
879.588	5048
879.715	5159
879.842	5261
879.97	5018
880.097	4778
880.224	4755
880.351	4831
880.478	4850
880.605	4809
880.732	4816
880.859	5109
880.986	4877
881.112	4938
881.239	4759
881.366	4698
881.493	4626
881.619	4626
881.746	4675
881.872	4694
881.999	4698
882.125	4710
882.252	4774
882.378	4835
882.505	4991
882.631	4835
882.757	4683
882.883	4774
883.01	4725
883.136	4721
883.262	4599
883.388	4626
883.514	4835
883.64	4927
883.766	4812
883.892	4748
884.018	4771
884.143	4930
884.269	4965
884.395	4698
884.52	4656
884.646	4668
884.772	4615
884.897	4558
885.023	4706
885.148	4805
885.274	4862
885.399	4790
885.524	4736
885.65	4672
885.775	4733
885.9	4710
886.025	4873
886.15	4797
886.275	4729
886.4	4744
886.525	4744
886.65	4721
886.775	4744
886.9	4946
887.025	5022
887.149	4790
887.274	4649
887.399	4603
887.523	4592
887.648	4588
887.773	4596
887.897	4786
888.021	4816
888.146	4691
888.27	4831
888.395	4877
888.519	4828
888.643	4805
888.767	4835
888.891	4691
889.015	4596
889.139	4660
889.263	4603
889.387	4748
889.511	4889
889.635	4809
889.759	4664
889.883	4649
890.006	4740
890.13	4854
890.254	4630
890.377	4702
890.501	4542
890.624	4542
890.748	4607
890.871	4542
890.995	4428
891.118	4417
891.241	4558
891.364	4542
891.488	4596
891.611	4550
891.734	4508
891.857	4618
891.98	4599
892.103	4630
892.226	4622
892.349	4538
892.471	4481
892.594	4546
892.717	4607
892.839	4618
892.962	4637
893.085	4660
893.207	4607
893.33	4455
893.452	4516
893.575	4672
893.697	4584
893.819	4790
893.941	4873
894.064	4809
894.186	4607
894.308	4599
894.43	4744
894.552	4824
894.674	4744
894.796	4588
894.918	4607
895.04	4542
895.161	4698
895.283	4683
895.405	4565
895.526	4618
895.648	4721
895.769	4694
895.891	4683
896.012	4714
896.134	4771
896.255	4683
896.376	4626
896.498	4672
896.619	4664
896.74	4679
896.861	4687
896.982	4930
897.103	5060
897.224	4824
897.345	4694
897.466	4687
897.587	4683
897.708	4824
897.828	4835
897.949	4626
898.07	4634
898.19	4668
898.311	4820
898.431	4687
898.552	4771
898.672	4786
898.792	4812
898.913	4771
899.033	4634
899.153	4523
899.273	4428
899.393	4489
899.513	4500
899.633	4550
899.753	4580
899.873	4512
899.993	4546
900.113	4577
900.232	4569
900.352	4531
900.472	4481
900.591	4394
900.711	4474
900.83	4462
900.95	4641
901.069	4637
901.189	4535
901.308	4390
901.427	4333
901.546	4383
901.665	4466
901.784	4542
901.904	4390
902.023	4333
902.141	4230
902.26	4204
902.379	4329
902.498	4291
902.617	4204
902.735	4402
902.854	4421
902.973	4325
903.091	4223
903.21	4192
903.328	4242
903.446	4299
903.565	4272
903.683	4371
903.801	4261
903.919	4428
904.038	4421
904.156	4291
904.274	4432
904.392	4402
904.51	4432
904.627	4497
904.745	4561
904.863	4615
904.981	4432
905.098	4303
905.216	4367
905.334	4455
905.451	4436
905.569	4428
905.686	4535
905.803	4561
905.921	4390
906.038	4519
906.155	4497
906.272	4428
906.389	4443
906.506	4360
906.623	4402
906.74	4405
906.857	4265
906.974	4383
907.091	4596
907.208	4653
907.324	4584
907.441	4497
907.557	4386
907.674	4337
907.79	4363
907.907	4421
908.023	4519
908.139	4447
908.256	4481
908.372	4451
908.488	4394
908.604	4363
908.72	4352
908.836	4375
908.952	4375
909.068	4421
909.184	4618
909.3	4485
909.415	4573
909.531	4527
909.647	4371
909.762	4371
909.878	4379
909.993	4424
910.108	4432
910.224	4440
910.339	4478
910.454	4367
910.57	4383
910.685	4325
910.8	4622
910.915	4596
911.03	4512
911.145	4352
911.259	4325
911.374	4390
911.489	4310
911.604	4291
911.718	4188
911.833	4253
911.947	4090
912.062	4013
912.176	4227
912.291	4287
912.405	4299
912.519	4451
912.633	4489
912.748	4367
912.862	4287
912.976	4204
913.09	4139
913.204	4192
913.318	4276
913.431	4386
913.545	4303
913.659	4470
913.772	4360
913.886	4299
914	4238
914.113	4413
914.226	4447
914.34	4394
914.453	4291
914.566	4405
914.68	4348
914.793	4341
914.906	4188
915.019	4109
915.132	4116
915.245	4177
915.358	4215
915.47	4257
915.583	4257
915.696	4291
915.809	4470
915.921	4485
916.034	4295
916.146	4257
916.259	4272
916.371	4371
916.483	4367
916.595	4276
916.708	4333
916.82	4291
916.932	4325
917.044	4352
917.156	4341
917.268	4234
917.38	4246
917.491	4310
917.603	4386
917.715	4455
917.826	4474
917.938	4363
918.049	4253
918.161	4428
918.272	4512
918.384	4512
918.495	4451
918.606	4318
918.717	4246
918.828	4291
918.939	4394
919.05	4227
919.161	4310
919.272	4181
919.383	4219
919.494	4398
919.604	4649
919.715	4398
919.826	4329
919.936	4428
920.047	4558
920.157	4459
920.267	4714
920.378	4573
920.488	4504
920.598	4752
920.708	4858
920.818	4820
920.928	4717
921.038	4972
921.148	4915
921.258	4653
921.368	4554
921.477	4466
921.587	4485
921.697	4371
921.806	4584
921.916	4462
922.025	4287
922.134	4303
922.244	4223
922.353	4303
922.462	4207
922.571	4120
922.68	3994
922.789	3937
922.898	4063
923.007	3983
923.116	4086
923.224	4086
923.333	4120
923.442	4029
923.55	3956
923.659	4002
923.767	4078
923.876	4032
923.984	4169
924.092	3968
924.201	4120
924.309	4051
924.417	4128
924.525	4059
924.633	4078
924.741	5079
924.849	3930
924.956	4131
925.064	3937
925.172	3960
925.279	3953
925.387	4044
925.494	4059
925.602	4223
925.709	4196
925.816	4036
925.924	4154
926.031	4246
926.138	4150
926.245	4219
926.352	4074
926.459	4238
926.566	4253
926.673	4131
926.779	4109
926.886	4074
926.993	3994
927.099	3983
927.206	3918
927.312	3972
927.419	4063
927.525	4040
927.631	4082
927.737	3941
927.843	3930
927.95	3831
928.056	3945
928.162	3998
928.267	4032
928.373	4615
928.479	4112
928.585	3865
928.69	4021
928.796	4097
928.901	3991
929.007	3827
929.112	3991
929.218	3994
929.323	3953
929.428	3941
929.533	4116
929.638	3915
929.743	3998
929.848	4112
929.953	4002
930.058	3915
930.163	3842
930.267	3819
930.372	3998
930.477	3759
930.581	4109
930.685	3930
930.79	3804
930.894	3884
930.998	3884
931.103	4040
931.207	3701
931.311	3682
931.415	3713
931.519	3523
931.623	3561
