Data from test_V78500241_1587.txt Node
Date: Fri Mar 25 17:00:02 CST 2022
User: usil
Spectrometer: V785-0024
Trigger mode: 0
Integration Time (sec): 4.000000E-1
Scans to average: 1
Nonlinearity correction enabled: false
Boxcar width: 0
Storing dark spectrum: false
XAxis mode: Wavelengths
Number of Pixels in Spectrum: 1024
>>>>>Begin Spectral Data<<<<<
801.071	8027
801.214	7963
801.356	7856
801.499	7909
801.641	7784
801.783	7826
801.926	7978
802.068	7925
802.211	8024
802.353	7978
802.496	7837
802.638	7822
802.78	7894
802.923	7928
803.065	7856
803.208	7864
803.35	7944
803.492	8088
803.635	8168
803.777	7982
803.919	8107
804.061	8404
804.204	8100
804.346	8043
804.488	7947
804.63	8134
804.773	7951
804.915	8062
805.057	8248
805.199	8195
805.341	8195
805.483	8210
805.626	8240
805.768	8138
805.91	8164
806.052	8210
806.194	8096
806.336	8332
806.478	8096
806.62	8115
806.762	8149
806.904	8229
807.046	8530
807.188	8442
807.33	8225
807.472	8377
807.614	8214
807.756	8130
807.898	7989
808.04	7925
808.182	7902
808.324	7917
808.465	7875
808.607	8058
808.749	8058
808.891	8123
809.033	8275
809.174	8195
809.316	8073
809.458	8062
809.6	8001
809.741	8043
809.883	8008
810.025	8103
810.166	8065
810.308	8039
810.45	7986
810.591	7849
810.733	7708
810.875	7647
811.016	7495
811.158	7449
811.299	7537
811.441	7643
811.582	7651
811.724	7537
811.865	7521
812.007	7529
812.148	7563
812.29	7559
812.431	7715
812.573	7845
812.714	7879
812.855	8031
812.997	8164
813.138	8252
813.279	8183
813.421	8005
813.562	7982
813.703	7830
813.845	7753
813.986	7430
814.127	7244
814.268	7198
814.41	7168
814.551	7114
814.692	7198
814.833	7088
814.974	7107
815.115	7046
815.256	6981
815.397	6954
815.539	6928
815.68	6787
815.821	6757
815.962	6852
816.103	6779
816.244	6722
816.385	6623
816.526	6635
816.666	6464
816.807	6315
816.948	6445
817.089	6479
817.23	6395
817.371	6372
817.512	6361
817.653	6380
817.793	6350
817.934	6357
818.075	6502
818.216	6388
818.356	6338
818.497	6251
818.638	6072
818.778	6167
818.919	6095
819.06	6102
819.2	6311
819.341	6228
819.481	6353
819.622	6471
819.762	6779
819.903	6696
820.043	6574
820.184	6551
820.324	6597
820.465	6719
820.605	6700
820.746	6662
820.886	6521
821.026	6608
821.167	6669
821.307	6810
821.447	6768
821.588	6631
821.728	6528
821.868	6502
822.008	6296
822.149	6357
822.289	6319
822.429	6213
822.569	6098
822.709	6148
822.849	5942
822.99	5878
823.13	5923
823.27	5923
823.41	5779
823.55	5737
823.69	5783
823.83	5847
823.97	5596
824.11	5490
824.25	5528
824.389	5512
824.529	5646
824.669	5509
824.809	5646
824.949	5653
825.089	5585
825.228	5562
825.368	5387
825.508	5353
825.648	5410
825.787	5410
825.927	5425
826.067	5292
826.206	5322
826.346	5376
826.485	5448
826.625	5421
826.765	5592
826.904	5509
827.044	5296
827.183	5223
827.323	5151
827.462	5269
827.601	5227
827.741	5231
827.88	5299
828.02	5143
828.159	5246
828.298	5330
828.437	5345
828.577	5341
828.716	5421
828.855	5368
828.994	5185
829.134	5140
829.273	5193
829.412	5128
829.551	5193
829.69	5227
829.829	5273
829.968	5410
830.107	5265
830.246	5318
830.385	5258
830.524	5132
830.663	5064
830.802	4965
830.941	4904
831.08	4930
831.219	5029
831.357	5018
831.496	5197
831.635	4934
831.774	4870
831.913	4870
832.051	4759
832.19	4805
832.329	4854
832.467	4771
832.606	4668
832.744	4748
832.883	4729
833.022	4828
833.16	4805
833.299	4812
833.437	4843
833.576	4824
833.714	4881
833.852	4927
833.991	4949
834.129	4976
834.267	4991
834.406	4949
834.544	5018
834.682	5037
834.821	4953
834.959	5212
835.097	4976
835.235	5132
835.373	5079
835.511	5090
835.65	5067
835.788	5045
835.926	4930
836.064	4866
836.202	4980
836.34	5185
836.478	5250
836.615	5166
836.753	5284
836.891	5337
837.029	5311
837.167	5223
837.305	5227
837.443	5185
837.58	5132
837.718	5280
837.856	5220
837.993	5208
838.131	5246
838.269	5250
838.406	5235
838.544	5201
838.681	5090
838.819	5045
838.956	4889
839.094	4934
839.231	5003
839.369	5060
839.506	5471
839.643	5337
839.781	5090
839.918	5010
840.055	5162
840.193	5162
840.33	5124
840.467	5124
840.604	5174
840.742	5455
840.879	5105
841.016	5109
841.153	5201
841.29	5383
841.427	5368
841.564	5406
841.701	5368
841.838	5307
841.975	5284
842.112	5261
842.249	5197
842.385	5132
842.522	5379
842.659	5193
842.796	5121
842.933	5204
843.069	5181
843.206	5166
843.343	5299
843.479	5277
843.616	5296
843.752	5067
843.889	5018
844.025	5254
844.162	5071
844.298	5185
844.435	5090
844.571	5098
844.708	5246
844.844	5372
844.98	5345
845.117	5292
845.253	5136
845.389	5113
845.525	5170
845.661	5147
845.798	5090
845.934	5162
846.07	5079
846.206	5269
846.342	5311
846.478	5128
846.614	5041
846.75	4965
846.886	4946
847.022	5128
847.158	5079
847.294	5117
847.429	5064
847.565	5052
847.701	5292
847.837	4850
847.972	4809
848.108	4991
848.244	4942
848.379	4820
848.515	4767
848.65	4717
848.786	4748
848.921	4862
849.057	4866
849.192	4930
849.328	4858
849.463	4847
849.598	4797
849.734	4786
849.869	4729
850.004	4702
850.14	4694
850.275	4645
850.41	4569
850.545	4611
850.68	4664
850.815	4622
850.95	4653
851.085	4862
851.22	4778
851.355	4645
851.49	4660
851.625	4660
851.76	4653
851.895	4588
852.03	4531
852.165	4698
852.299	4729
852.434	4824
852.569	4774
852.703	4828
852.838	4889
852.973	4923
853.107	4908
853.242	4752
853.376	4736
853.511	4603
853.645	4592
853.78	4816
853.914	4733
854.048	4729
854.183	4675
854.317	4759
854.451	4831
854.585	4721
854.72	4702
854.854	4828
854.988	4641
855.122	4622
855.256	4546
855.39	4664
855.524	4835
855.658	4687
855.792	4744
855.926	4748
856.06	4801
856.194	4801
856.327	4698
856.461	4649
856.595	4664
856.729	4694
856.862	4755
856.996	4733
857.13	4729
857.263	4797
857.397	4774
857.53	4660
857.664	4763
857.797	4763
857.931	4793
858.064	4717
858.197	4767
858.331	4687
858.464	4603
858.597	4527
858.731	4626
858.864	4649
858.997	4630
859.13	4717
859.263	4660
859.396	4698
859.529	4596
859.662	4615
859.795	4577
859.928	4645
860.061	4755
860.194	4828
860.327	4641
860.46	4603
860.592	4721
860.725	4759
860.858	4729
860.99	4596
861.123	4516
861.256	4538
861.388	4691
861.521	5273
861.653	4550
861.786	4424
861.918	4466
862.05	4542
862.183	4580
862.315	4611
862.447	4679
862.58	4561
862.712	4417
862.844	4367
862.976	4447
863.108	4500
863.24	4793
863.372	4363
863.504	4440
863.636	4451
863.768	4554
863.9	4455
864.032	4405
864.164	4436
864.296	4512
864.428	4573
864.559	4577
864.691	4561
864.823	4481
864.954	4523
865.086	4519
865.217	4424
865.349	4474
865.48	4466
865.612	4542
865.743	4649
865.875	4485
866.006	4421
866.137	4523
866.269	4485
866.4	4421
866.531	4474
866.662	4402
866.793	4417
866.924	4455
867.055	4531
867.186	4478
867.317	4421
867.448	4402
867.579	4386
867.71	4440
867.841	4360
867.972	4432
868.103	4489
868.233	4462
868.364	4462
868.495	4523
868.625	4672
868.756	4782
868.886	4592
869.017	4626
869.147	4793
869.278	4797
869.408	4698
869.539	4611
869.669	4725
869.799	4721
869.929	4748
870.06	4755
870.19	4991
870.32	4946
870.45	4942
870.58	5014
870.71	5086
870.84	5132
870.97	4984
871.1	4892
871.23	5109
871.36	5140
871.489	5025
871.619	5071
871.749	5075
871.879	5105
872.008	5162
872.138	5048
872.267	5006
872.397	4854
872.526	4809
872.656	4805
872.785	4847
872.915	4987
873.044	5064
873.173	4987
873.303	4965
873.432	4965
873.561	4923
873.69	4866
873.819	4877
873.948	4938
874.077	4892
874.206	4809
874.335	4774
874.464	4896
874.593	5067
874.722	4968
874.851	5155
874.979	5010
875.108	5083
875.237	4946
875.365	4877
875.494	4889
875.623	4934
875.751	4850
875.88	4892
876.008	4946
876.136	5075
876.265	5189
876.393	5406
876.521	5269
876.65	5277
876.778	5181
876.906	5121
877.034	5037
877.162	5075
877.29	4991
877.418	5060
877.546	5025
877.674	5052
877.802	5033
877.93	5064
878.058	4900
878.185	4881
878.313	4972
878.441	4896
878.568	4790
878.696	4839
878.824	4965
878.951	5052
879.079	5105
879.206	5337
879.333	5143
879.461	4976
879.588	5006
879.715	5075
879.842	5254
879.97	4991
880.097	4828
880.224	4740
880.351	4831
880.478	4835
880.605	4854
880.732	4835
880.859	5102
880.986	4877
881.112	4904
881.239	4755
881.366	4679
881.493	4630
881.619	4634
881.746	4653
881.872	4660
881.999	4729
882.125	4721
882.252	4812
882.378	4835
882.505	4934
882.631	4839
882.757	4668
882.883	4763
883.01	4759
883.136	4641
883.262	4569
883.388	4630
883.514	4820
883.64	4850
883.766	4812
883.892	4687
884.018	4752
884.143	4934
884.269	4995
884.395	4687
884.52	4615
884.646	4672
884.772	4592
884.897	4523
885.023	4721
885.148	4790
885.274	4919
885.399	4790
885.524	4725
885.65	4717
885.775	4767
885.9	4763
886.025	4889
886.15	4896
886.275	4748
886.4	4653
886.525	4733
886.65	4710
886.775	4717
886.9	4904
887.025	4968
887.149	4805
887.274	4637
887.399	4538
887.523	4603
887.648	4607
887.773	4618
887.897	4786
888.021	4824
888.146	4717
888.27	4778
888.395	4923
888.519	4892
888.643	4805
888.767	4873
888.891	4683
889.015	4649
889.139	4637
889.263	4618
889.387	4816
889.511	4900
889.635	4759
889.759	4641
889.883	4653
890.006	4733
890.13	4805
890.254	4626
890.377	4675
890.501	4554
890.624	4573
890.748	4615
890.871	4512
890.995	4455
891.118	4352
891.241	4531
891.364	4523
891.488	4656
891.611	4489
891.734	4550
891.857	4618
891.98	4558
892.103	4656
892.226	4637
892.349	4546
892.471	4474
892.594	4516
892.717	4630
892.839	4599
892.962	4622
893.085	4656
893.207	4618
893.33	4447
893.452	4535
893.575	4687
893.697	4565
893.819	4843
893.941	4831
894.064	4767
894.186	4565
894.308	4580
894.43	4687
894.552	4828
894.674	4721
894.796	4584
894.918	4630
895.04	4603
895.161	4710
895.283	4660
895.405	4565
895.526	4630
895.648	4675
895.769	4733
895.891	4733
896.012	4744
896.134	4733
896.255	4668
896.376	4615
896.498	4634
896.619	4683
896.74	4618
896.861	4622
896.982	4904
897.103	5064
897.224	4809
897.345	4736
897.466	4687
897.587	4717
897.708	4885
897.828	4786
897.949	4668
898.07	4584
898.19	4618
898.311	4809
898.431	4664
898.552	4740
898.672	4812
898.792	4854
898.913	4748
899.033	4653
899.153	4508
899.273	4428
899.393	4500
899.513	4516
899.633	4470
899.753	4550
899.873	4535
899.993	4611
900.113	4550
900.232	4622
900.352	4584
900.472	4523
900.591	4352
900.711	4516
900.83	4466
900.95	4656
901.069	4653
901.189	4516
901.308	4402
901.427	4295
901.546	4367
901.665	4493
901.784	4546
901.904	4379
902.023	4341
902.141	4249
902.26	4139
902.379	4280
902.498	4188
902.617	4265
902.735	4459
902.854	4421
902.973	4356
903.091	4215
903.21	4238
903.328	4314
903.446	4295
903.565	4234
903.683	4352
903.801	4287
903.919	4379
904.038	4394
904.156	4344
904.274	4394
904.392	4363
904.51	4474
904.627	4478
904.745	4615
904.863	4626
904.981	4398
905.098	4310
905.216	4333
905.334	4432
905.451	4447
905.569	4413
905.686	4558
905.803	4538
905.921	4432
906.038	4550
906.155	4504
906.272	4386
906.389	4474
906.506	4314
906.623	4398
906.74	4424
906.857	4314
906.974	4344
907.091	4531
907.208	4706
907.324	4592
907.441	4489
907.557	4329
907.674	4356
907.79	4356
907.907	4394
908.023	4500
908.139	4478
908.256	4440
908.372	4500
908.488	4424
908.604	4375
908.72	4348
908.836	4375
908.952	4390
909.068	4447
909.184	4588
909.3	4500
909.415	4558
909.531	4577
909.647	4367
909.762	4352
909.878	4352
909.993	4462
910.108	4417
910.224	4398
910.339	4462
910.454	4405
910.57	4367
910.685	4299
910.8	4683
910.915	4561
911.03	4504
911.145	4306
911.259	4337
911.374	4421
911.489	4291
911.604	4310
911.718	4166
911.833	4185
911.947	4101
912.062	4013
912.176	4234
912.291	4219
912.405	4272
912.519	4516
912.633	4478
912.748	4383
912.862	4306
912.976	4215
913.09	4032
913.204	4192
913.318	4261
913.431	4367
913.545	4367
913.659	4440
913.772	4360
913.886	4265
914	4223
914.113	4344
914.226	4413
914.34	4375
914.453	4249
914.566	4489
914.68	4322
914.793	4333
914.906	4200
915.019	4105
915.132	4090
915.245	4154
915.358	4234
915.47	4253
915.583	4276
915.696	4306
915.809	4394
915.921	4413
916.034	4272
916.146	4265
916.259	4246
916.371	4363
916.483	4348
916.595	4284
916.708	4341
916.82	4314
916.932	4363
917.044	4318
917.156	4325
917.268	4227
917.38	4329
917.491	4261
917.603	4386
917.715	4390
917.826	4470
917.938	4341
918.049	4287
918.161	4383
918.272	4580
918.384	4500
918.495	4466
918.606	4299
918.717	4238
918.828	4356
918.939	4383
919.05	4287
919.161	4295
919.272	4169
919.383	4230
919.494	4451
919.604	4656
919.715	4436
919.826	4329
919.936	4436
920.047	4542
920.157	4474
920.267	4668
920.378	4554
920.488	4516
920.598	4694
920.708	4919
920.818	4752
920.928	4786
921.038	4972
921.148	4900
921.258	4615
921.368	4584
921.477	4474
921.587	4424
921.697	4383
921.806	4558
921.916	4424
922.025	4242
922.134	4265
922.244	4268
922.353	4394
922.462	4169
922.571	4139
922.68	3983
922.789	4021
922.898	4029
923.007	3998
923.116	4071
923.224	4067
923.333	4082
923.442	3994
923.55	3949
923.659	4071
923.767	4071
923.876	3968
923.984	4128
924.092	3991
924.201	4074
924.309	4112
924.417	4086
924.525	4029
924.633	4101
924.741	4877
924.849	3922
924.956	4120
925.064	3945
925.172	3926
925.279	3964
925.387	3994
925.494	4025
925.602	4211
925.709	4192
925.816	3991
925.924	4101
926.031	4284
926.138	4192
926.245	4188
926.352	4082
926.459	4257
926.566	4344
926.673	4128
926.779	4051
926.886	4063
926.993	3964
927.099	4002
927.206	3934
927.312	3937
927.419	4044
927.525	4021
927.631	4093
927.737	3972
927.843	3983
927.95	3892
928.056	3922
928.162	4013
928.267	4051
928.373	4569
928.479	4147
928.585	3857
928.69	4013
928.796	4051
928.901	3983
929.007	3869
929.112	3998
929.218	4025
929.323	3956
929.428	3956
929.533	4120
929.638	3937
929.743	3998
929.848	4048
929.953	4017
930.058	3922
930.163	3781
930.267	3861
930.372	3975
930.477	3804
930.581	4055
930.685	3998
930.79	3823
930.894	3880
930.998	3846
931.103	4025
931.207	3705
931.311	3732
931.415	3618
931.519	3469
931.623	3549
