Data from test_V78500241_903.txt Node
Date: Fri Mar 25 16:55:16 CST 2022
User: usil
Spectrometer: V785-0024
Trigger mode: 0
Integration Time (sec): 4.000000E-1
Scans to average: 1
Nonlinearity correction enabled: false
Boxcar width: 0
Storing dark spectrum: false
XAxis mode: Wavelengths
Number of Pixels in Spectrum: 1024
>>>>>Begin Spectral Data<<<<<
801.071	8031
801.214	7982
801.356	7890
801.499	7871
801.641	7738
801.783	7856
801.926	7898
802.068	7993
802.211	7909
802.353	8039
802.496	7811
802.638	7849
802.78	7917
802.923	7902
803.065	7860
803.208	7906
803.35	7967
803.492	8107
803.635	8134
803.777	8088
803.919	8100
804.061	8446
804.204	8134
804.346	8043
804.488	7978
804.63	8069
804.773	8016
804.915	8062
805.057	8324
805.199	8161
805.341	8248
805.483	8206
805.626	8149
805.768	8096
805.91	8210
806.052	8183
806.194	8065
806.336	8218
806.478	8084
806.62	8077
806.762	8111
806.904	8305
807.046	8469
807.188	8332
807.33	8301
807.472	8385
807.614	8183
807.756	8115
807.898	8001
808.04	7917
808.182	7879
808.324	7849
808.465	7890
808.607	8020
808.749	8111
808.891	8199
809.033	8294
809.174	8130
809.316	8100
809.458	8001
809.6	7978
809.741	8027
809.883	7928
810.025	8050
810.166	8103
810.308	8012
810.45	8035
810.591	7860
810.733	7780
810.875	7670
811.016	7518
811.158	7521
811.299	7582
811.441	7700
811.582	7643
811.724	7548
811.865	7525
812.007	7586
812.148	7597
812.29	7613
812.431	7750
812.573	7841
812.714	7917
812.855	8126
812.997	8199
813.138	8374
813.279	8142
813.421	8020
813.562	7989
813.703	7902
813.845	7776
813.986	7441
814.127	7270
814.268	7247
814.41	7190
814.551	7133
814.692	7133
814.833	7088
814.974	7080
815.115	7114
815.256	6932
815.397	6867
815.539	6973
815.68	6787
815.821	6768
815.962	6897
816.103	6833
816.244	6768
816.385	6601
816.526	6650
816.666	6486
816.807	6273
816.948	6460
817.089	6517
817.23	6426
817.371	6350
817.512	6441
817.653	6422
817.793	6399
817.934	6388
818.075	6433
818.216	6422
818.356	6372
818.497	6235
818.638	6114
818.778	6110
818.919	6182
819.06	6133
819.2	6327
819.341	6323
819.481	6399
819.622	6517
819.762	6662
819.903	6684
820.043	6517
820.184	6551
820.324	6525
820.465	6631
820.605	6604
820.746	6601
820.886	6528
821.026	6692
821.167	6677
821.307	6730
821.447	6764
821.588	6635
821.728	6574
821.868	6490
822.008	6311
822.149	6376
822.289	6407
822.429	6167
822.569	6064
822.709	6095
822.849	5874
822.99	5923
823.13	5897
823.27	5855
823.41	5764
823.55	5699
823.69	5726
823.83	5805
823.97	5649
824.11	5520
824.25	5493
824.389	5505
824.529	5577
824.669	5547
824.809	5619
824.949	5642
825.089	5577
825.228	5493
825.368	5387
825.508	5299
825.648	5349
825.787	5383
825.927	5357
826.067	5334
826.206	5258
826.346	5398
826.485	5341
826.625	5421
826.765	5509
826.904	5482
827.044	5235
827.183	5174
827.323	5079
827.462	5193
827.601	5181
827.741	5189
827.88	5201
828.02	5113
828.159	5178
828.298	5288
828.437	5345
828.577	5277
828.716	5398
828.855	5345
828.994	5159
829.134	5128
829.273	5197
829.412	5140
829.551	5136
829.69	5162
829.829	5242
829.968	5349
830.107	5250
830.246	5227
830.385	5162
830.524	5124
830.663	5075
830.802	4965
830.941	4847
831.08	4885
831.219	4946
831.357	4923
831.496	5136
831.635	4854
831.774	4896
831.913	4839
832.051	4687
832.19	4744
832.329	4786
832.467	4630
832.606	4653
832.744	4679
832.883	4717
833.022	4721
833.16	4729
833.299	4805
833.437	4858
833.576	4786
833.714	4816
833.852	4854
833.991	4858
834.129	4930
834.267	4972
834.406	4870
834.544	4995
834.682	4934
834.821	4915
834.959	5147
835.097	4976
835.235	5170
835.373	5041
835.511	5109
835.65	5014
835.788	4995
835.926	4896
836.064	4870
836.202	4938
836.34	5105
836.478	5231
836.615	5113
836.753	5254
836.891	5261
837.029	5242
837.167	5185
837.305	5117
837.443	5124
837.58	5025
837.718	5212
837.856	5178
837.993	5155
838.131	5212
838.269	5197
838.406	5147
838.544	5151
838.681	5003
838.819	5010
838.956	4862
839.094	4904
839.231	4995
839.369	5045
839.506	5406
839.643	5273
839.781	5018
839.918	4976
840.055	5052
840.193	5083
840.33	5105
840.467	5086
840.604	5216
840.742	5391
840.879	5052
841.016	5075
841.153	5109
841.29	5364
841.427	5330
841.564	5292
841.701	5330
841.838	5227
841.975	5136
842.112	5174
842.249	5105
842.385	5075
842.522	5299
842.659	5185
842.796	5143
842.933	5128
843.069	5143
843.206	5155
843.343	5284
843.479	5174
843.616	5235
843.752	5018
843.889	5006
844.025	5208
844.162	4987
844.298	5166
844.435	5060
844.571	4999
844.708	5147
844.844	5269
844.98	5334
845.117	5296
845.253	5098
845.389	4999
845.525	5162
845.661	5121
845.798	5090
845.934	5143
846.07	5071
846.206	5189
846.342	5261
846.478	5159
846.614	4980
846.75	4949
846.886	4980
847.022	5098
847.158	5003
847.294	5052
847.429	5064
847.565	5003
847.701	5261
847.837	4877
847.972	4774
848.108	4889
848.244	4881
848.379	4790
848.515	4748
848.65	4698
848.786	4736
848.921	4733
849.057	4885
849.192	4877
849.328	4824
849.463	4790
849.598	4828
849.734	4698
849.869	4679
850.004	4615
850.14	4679
850.275	4626
850.41	4516
850.545	4527
850.68	4588
850.815	4603
850.95	4637
851.085	4790
851.22	4736
851.355	4683
851.49	4577
851.625	4588
851.76	4577
851.895	4554
852.03	4508
852.165	4584
852.299	4694
852.434	4740
852.569	4698
852.703	4710
852.838	4843
852.973	4904
853.107	4881
853.242	4691
853.376	4607
853.511	4542
853.645	4592
853.78	4790
853.914	4714
854.048	4649
854.183	4618
854.317	4679
854.451	4797
854.585	4687
854.72	4611
854.854	4675
854.988	4588
855.122	4607
855.256	4535
855.39	4664
855.524	4782
855.658	4721
855.792	4694
855.926	4736
856.06	4771
856.194	4797
856.327	4630
856.461	4611
856.595	4603
856.729	4588
856.862	4786
856.996	4645
857.13	4660
857.263	4771
857.397	4755
857.53	4615
857.664	4717
857.797	4759
857.931	4763
858.064	4645
858.197	4698
858.331	4599
858.464	4584
858.597	4485
858.731	4607
858.864	4615
858.997	4569
859.13	4630
859.263	4717
859.396	4679
859.529	4565
859.662	4527
859.795	4519
859.928	4615
860.061	4790
860.194	4729
860.327	4607
860.46	4546
860.592	4706
860.725	4683
860.858	4653
860.99	4542
861.123	4485
861.256	4561
861.388	4554
861.521	5246
861.653	4470
861.786	4405
861.918	4417
862.05	4478
862.183	4478
862.315	4603
862.447	4584
862.58	4508
862.712	4394
862.844	4310
862.976	4451
863.108	4424
863.24	4771
863.372	4314
863.504	4402
863.636	4371
863.768	4493
863.9	4375
864.032	4344
864.164	4421
864.296	4436
864.428	4550
864.559	4561
864.691	4554
864.823	4489
864.954	4485
865.086	4459
865.217	4500
865.349	4421
865.48	4417
865.612	4478
865.743	4584
865.875	4462
866.006	4459
866.137	4485
866.269	4432
866.4	4447
866.531	4440
866.662	4398
866.793	4352
866.924	4443
867.055	4512
867.186	4489
867.317	4470
867.448	4371
867.579	4459
867.71	4440
867.841	4394
867.972	4538
868.103	4493
868.233	4451
868.364	4459
868.495	4497
868.625	4687
868.756	4729
868.886	4535
869.017	4645
869.147	4801
869.278	4790
869.408	4653
869.539	4679
869.669	4740
869.799	4645
869.929	4740
870.06	4748
870.19	4968
870.32	4953
870.45	4942
870.58	5075
870.71	5090
870.84	5094
870.97	4965
871.1	4919
871.23	5174
871.36	5102
871.489	5075
871.619	5121
871.749	5117
871.879	5159
872.008	5159
872.138	5102
872.267	4991
872.397	4862
872.526	4862
872.656	4778
872.785	4816
872.915	4961
873.044	5064
873.173	4961
873.303	4968
873.432	4968
873.561	5022
873.69	4854
873.819	4870
873.948	4946
874.077	4805
874.206	4786
874.335	4797
874.464	4968
874.593	5079
874.722	4972
874.851	5090
874.979	5098
875.108	5124
875.237	4953
875.365	4915
875.494	4927
875.623	5010
875.751	4847
875.88	4892
876.008	5045
876.136	5041
876.265	5193
876.393	5322
876.521	5261
876.65	5227
876.778	5239
876.906	5083
877.034	5033
877.162	5037
877.29	5003
877.418	5067
877.546	5132
877.674	5071
877.802	5045
877.93	5041
878.058	4953
878.185	4850
878.313	5003
878.441	4987
878.568	4786
878.696	4889
878.824	4987
878.951	5018
879.079	5143
879.206	5296
879.333	5124
879.461	4968
879.588	5006
879.715	5159
879.842	5216
879.97	5018
880.097	4843
880.224	4759
880.351	4793
880.478	4858
880.605	4778
880.732	4809
880.859	5102
880.986	4877
881.112	4908
881.239	4774
881.366	4691
881.493	4649
881.619	4611
881.746	4660
881.872	4653
881.999	4694
882.125	4668
882.252	4816
882.378	4831
882.505	4972
882.631	4812
882.757	4675
882.883	4706
883.01	4717
883.136	4672
883.262	4641
883.388	4641
883.514	4854
883.64	4900
883.766	4790
883.892	4641
884.018	4782
884.143	4900
884.269	5041
884.395	4679
884.52	4641
884.646	4675
884.772	4679
884.897	4535
885.023	4679
885.148	4820
885.274	4892
885.399	4831
885.524	4763
885.65	4706
885.775	4805
885.9	4774
886.025	4862
886.15	4767
886.275	4717
886.4	4691
886.525	4778
886.65	4668
886.775	4694
886.9	4984
887.025	5113
887.149	4805
887.274	4660
887.399	4630
887.523	4615
887.648	4618
887.773	4580
887.897	4782
888.021	4763
888.146	4691
888.27	4847
888.395	4946
888.519	4771
888.643	4801
888.767	4812
888.891	4687
889.015	4592
889.139	4664
889.263	4626
889.387	4763
889.511	4858
889.635	4820
889.759	4634
889.883	4668
890.006	4733
890.13	4896
890.254	4603
890.377	4706
890.501	4554
890.624	4527
890.748	4672
890.871	4519
890.995	4470
891.118	4455
891.241	4493
891.364	4569
891.488	4664
891.611	4470
891.734	4546
891.857	4634
891.98	4573
892.103	4664
892.226	4641
892.349	4554
892.471	4470
892.594	4588
892.717	4584
892.839	4580
892.962	4588
893.085	4725
893.207	4611
893.33	4508
893.452	4535
893.575	4672
893.697	4637
893.819	4782
893.941	4839
894.064	4740
894.186	4641
894.308	4607
894.43	4740
894.552	4847
894.674	4782
894.796	4580
894.918	4641
895.04	4611
895.161	4691
895.283	4694
895.405	4634
895.526	4641
895.648	4710
895.769	4729
895.891	4725
896.012	4771
896.134	4763
896.255	4698
896.376	4660
896.498	4630
896.619	4679
896.74	4607
896.861	4656
896.982	4908
897.103	5083
897.224	4892
897.345	4782
897.466	4664
897.587	4752
897.708	4877
897.828	4790
897.949	4721
898.07	4584
898.19	4656
898.311	4801
898.431	4675
898.552	4763
898.672	4889
898.792	4850
898.913	4805
899.033	4683
899.153	4527
899.273	4474
899.393	4481
899.513	4546
899.633	4512
899.753	4523
899.873	4535
899.993	4622
900.113	4459
900.232	4645
900.352	4596
900.472	4523
900.591	4360
900.711	4516
900.83	4455
900.95	4615
901.069	4656
901.189	4569
901.308	4413
901.427	4348
901.546	4398
901.665	4462
901.784	4516
901.904	4421
902.023	4299
902.141	4211
902.26	4196
902.379	4322
902.498	4261
902.617	4215
902.735	4379
902.854	4390
902.973	4383
903.091	4200
903.21	4287
903.328	4322
903.446	4306
903.565	4272
903.683	4352
903.801	4314
903.919	4424
904.038	4432
904.156	4398
904.274	4413
904.392	4379
904.51	4440
904.627	4474
904.745	4622
904.863	4649
904.981	4394
905.098	4348
905.216	4379
905.334	4428
905.451	4466
905.569	4451
905.686	4618
905.803	4577
905.921	4390
906.038	4615
906.155	4474
906.272	4417
906.389	4459
906.506	4383
906.623	4398
906.74	4402
906.857	4265
906.974	4379
907.091	4634
907.208	4626
907.324	4618
907.441	4531
907.557	4371
907.674	4363
907.79	4329
907.907	4367
908.023	4466
908.139	4478
908.256	4421
908.372	4481
908.488	4459
908.604	4390
908.72	4360
908.836	4386
908.952	4348
909.068	4474
909.184	4611
909.3	4516
909.415	4596
909.531	4584
909.647	4375
909.762	4383
909.878	4360
909.993	4470
910.108	4432
910.224	4367
910.339	4519
910.454	4383
910.57	4363
910.685	4295
910.8	4634
910.915	4561
911.03	4470
911.145	4405
911.259	4367
911.374	4402
911.489	4280
911.604	4280
911.718	4173
911.833	4192
911.947	4116
912.062	4048
912.176	4188
912.291	4276
912.405	4272
912.519	4436
912.633	4512
912.748	4386
912.862	4337
912.976	4215
913.09	4097
913.204	4204
913.318	4276
913.431	4352
913.545	4352
913.659	4478
913.772	4386
913.886	4253
914	4219
914.113	4356
914.226	4451
914.34	4375
914.453	4265
914.566	4466
914.68	4295
914.793	4348
914.906	4109
915.019	4128
915.132	4078
915.245	4196
915.358	4196
915.47	4253
915.583	4272
915.696	4318
915.809	4424
915.921	4398
916.034	4265
916.146	4280
916.259	4253
916.371	4379
916.483	4386
916.595	4341
916.708	4356
916.82	4352
916.932	4348
917.044	4344
917.156	4344
917.268	4249
917.38	4299
917.491	4306
917.603	4360
917.715	4440
917.826	4474
917.938	4402
918.049	4268
918.161	4405
918.272	4546
918.384	4542
918.495	4504
918.606	4322
918.717	4257
918.828	4318
918.939	4405
919.05	4272
919.161	4363
919.272	4109
919.383	4265
919.494	4421
919.604	4641
919.715	4447
919.826	4386
919.936	4413
920.047	4527
920.157	4459
920.267	4710
920.378	4535
920.488	4512
920.598	4683
920.708	4885
920.818	4733
920.928	4733
921.038	4930
921.148	4972
921.258	4664
921.368	4569
921.477	4466
921.587	4489
921.697	4379
921.806	4535
921.916	4447
922.025	4287
922.134	4291
922.244	4230
922.353	4322
922.462	4181
922.571	4147
922.68	3991
922.789	3934
922.898	4051
923.007	4002
923.116	4116
923.224	4086
923.333	4093
923.442	3987
923.55	3983
923.659	4029
923.767	4082
923.876	3994
923.984	4124
924.092	4017
924.201	4105
924.309	4090
924.417	4147
924.525	4093
924.633	4128
924.741	4870
924.849	3915
924.956	4112
925.064	3941
925.172	3888
925.279	3937
925.387	4063
925.494	4082
925.602	4192
925.709	4169
925.816	4063
925.924	4139
926.031	4242
926.138	4200
926.245	4188
926.352	4097
926.459	4215
926.566	4325
926.673	4135
926.779	4082
926.886	4078
926.993	3994
927.099	3956
927.206	3937
927.312	3956
927.419	4078
927.525	4013
927.631	4135
927.737	3949
927.843	3903
927.95	3896
928.056	3941
928.162	3987
928.267	4036
928.373	4561
928.479	4109
928.585	3896
928.69	4017
928.796	4086
928.901	3964
929.007	3896
929.112	3964
929.218	4006
929.323	3915
929.428	3945
929.533	4090
929.638	3930
929.743	3956
929.848	4025
929.953	4040
930.058	3960
930.163	3816
930.267	3846
930.372	3960
930.477	3873
930.581	4078
930.685	3903
930.79	3831
930.894	3869
930.998	3835
931.103	4086
931.207	3713
931.311	3690
931.415	3667
931.519	3515
931.623	3538
