Data from test_V78500241_966.txt Node
Date: Fri Mar 25 16:55:43 CST 2022
User: usil
Spectrometer: V785-0024
Trigger mode: 0
Integration Time (sec): 4.000000E-1
Scans to average: 1
Nonlinearity correction enabled: false
Boxcar width: 0
Storing dark spectrum: false
XAxis mode: Wavelengths
Number of Pixels in Spectrum: 1024
>>>>>Begin Spectral Data<<<<<
801.071	8058
801.214	8043
801.356	7852
801.499	7849
801.641	7753
801.783	7860
801.926	7978
802.068	7928
802.211	7925
802.353	8001
802.496	7795
802.638	7868
802.78	7871
802.923	7898
803.065	7852
803.208	7845
803.35	7986
803.492	8054
803.635	8145
803.777	8039
803.919	8126
804.061	8434
804.204	8134
804.346	8031
804.488	7982
804.63	8031
804.773	7963
804.915	8054
805.057	8221
805.199	8214
805.341	8256
805.483	8244
805.626	8134
805.768	8123
805.91	8195
806.052	8172
806.194	8073
806.336	8233
806.478	8100
806.62	8005
806.762	8077
806.904	8275
807.046	8446
807.188	8370
807.33	8282
807.472	8286
807.614	8119
807.756	8092
807.898	8016
808.04	7879
808.182	7868
808.324	7951
808.465	7947
808.607	7959
808.749	8058
808.891	8180
809.033	8229
809.174	8153
809.316	8092
809.458	8050
809.6	7913
809.741	8016
809.883	8043
810.025	8100
810.166	8012
810.308	8020
810.45	7989
810.591	7944
810.733	7696
810.875	7681
811.016	7529
811.158	7483
811.299	7708
811.441	7693
811.582	7689
811.724	7540
811.865	7506
812.007	7514
812.148	7529
812.29	7590
812.431	7731
812.573	7837
812.714	7940
812.855	8069
812.997	8153
813.138	8309
813.279	8145
813.421	8092
813.562	8027
813.703	7894
813.845	7734
813.986	7487
814.127	7324
814.268	7209
814.41	7183
814.551	7110
814.692	7103
814.833	7080
814.974	7061
815.115	7103
815.256	6970
815.397	6977
815.539	6920
815.68	6867
815.821	6783
815.962	6909
816.103	6829
816.244	6711
816.385	6646
816.526	6608
816.666	6448
816.807	6350
816.948	6391
817.089	6479
817.23	6464
817.371	6327
817.512	6334
817.653	6388
817.793	6384
817.934	6464
818.075	6433
818.216	6460
818.356	6399
818.497	6216
818.638	6076
818.778	6144
818.919	6140
819.06	6155
819.2	6319
819.341	6292
819.481	6308
819.622	6471
819.762	6715
819.903	6627
820.043	6650
820.184	6597
820.324	6582
820.465	6711
820.605	6631
820.746	6612
820.886	6494
821.026	6585
821.167	6688
821.307	6757
821.447	6806
821.588	6627
821.728	6574
821.868	6525
822.008	6308
822.149	6357
822.289	6365
822.429	6167
822.569	6072
822.709	6098
822.849	5897
822.99	5870
823.13	5988
823.27	5920
823.41	5790
823.55	5764
823.69	5783
823.83	5783
823.97	5638
824.11	5493
824.25	5570
824.389	5501
824.529	5596
824.669	5528
824.809	5589
824.949	5642
825.089	5581
825.228	5501
825.368	5387
825.508	5322
825.648	5337
825.787	5349
825.927	5349
826.067	5216
826.206	5235
826.346	5330
826.485	5303
826.625	5417
826.765	5589
826.904	5501
827.044	5242
827.183	5151
827.323	5098
827.462	5212
827.601	5208
827.741	5151
827.88	5147
828.02	5151
828.159	5181
828.298	5303
828.437	5299
828.577	5242
828.716	5493
828.855	5273
828.994	5140
829.134	5166
829.273	5155
829.412	5113
829.551	5079
829.69	5102
829.829	5261
829.968	5364
830.107	5269
830.246	5269
830.385	5155
830.524	5105
830.663	5109
830.802	4991
830.941	4927
831.08	4847
831.219	4987
831.357	5014
831.496	5166
831.635	4953
831.774	4885
831.913	4870
832.051	4706
832.19	4786
832.329	4824
832.467	4691
832.606	4599
832.744	4691
832.883	4717
833.022	4694
833.16	4812
833.299	4824
833.437	4831
833.576	4881
833.714	4877
833.852	4828
833.991	4889
834.129	4923
834.267	4908
834.406	4934
834.544	4949
834.682	4972
834.821	4934
834.959	5102
835.097	4991
835.235	5151
835.373	5067
835.511	5086
835.65	5033
835.788	5033
835.926	4930
836.064	4881
836.202	4919
836.34	5155
836.478	5246
836.615	5067
836.753	5193
836.891	5273
837.029	5185
837.167	5220
837.305	5208
837.443	5128
837.58	5090
837.718	5231
837.856	5140
837.993	5102
838.131	5284
838.269	5235
838.406	5170
838.544	5159
838.681	4984
838.819	4965
838.956	4866
839.094	4904
839.231	4927
839.369	5045
839.506	5448
839.643	5212
839.781	5041
839.918	4991
840.055	5060
840.193	5128
840.33	5090
840.467	5151
840.604	5143
840.742	5440
840.879	5090
841.016	5056
841.153	5090
841.29	5353
841.427	5296
841.564	5334
841.701	5337
841.838	5258
841.975	5220
842.112	5216
842.249	5147
842.385	5102
842.522	5330
842.659	5155
842.796	5109
842.933	5220
843.069	5151
843.206	5155
843.343	5208
843.479	5242
843.616	5250
843.752	5022
843.889	5006
844.025	5223
844.162	4991
844.298	5147
844.435	5105
844.571	5064
844.708	5189
844.844	5284
844.98	5322
845.117	5299
845.253	5140
845.389	5079
845.525	5124
845.661	5098
845.798	5052
845.934	5124
846.07	5079
846.206	5174
846.342	5208
846.478	5143
846.614	5010
846.75	4927
846.886	4968
847.022	5159
847.158	5022
847.294	5033
847.429	5117
847.565	5048
847.701	5261
847.837	4820
847.972	4793
848.108	4930
848.244	4919
848.379	4729
848.515	4717
848.65	4645
848.786	4710
848.921	4786
849.057	4824
849.192	4877
849.328	4801
849.463	4839
849.598	4774
849.734	4698
849.869	4672
850.004	4596
850.14	4626
850.275	4615
850.41	4497
850.545	4546
850.68	4588
850.815	4538
850.95	4615
851.085	4839
851.22	4721
851.355	4630
851.49	4603
851.625	4615
851.76	4641
851.895	4546
852.03	4538
852.165	4630
852.299	4717
852.434	4736
852.569	4767
852.703	4725
852.838	4812
852.973	4900
853.107	4854
853.242	4691
853.376	4649
853.511	4538
853.645	4561
853.78	4805
853.914	4679
854.048	4672
854.183	4626
854.317	4706
854.451	4812
854.585	4668
854.72	4622
854.854	4790
854.988	4577
855.122	4607
855.256	4512
855.39	4645
855.524	4782
855.658	4710
855.792	4679
855.926	4733
856.06	4721
856.194	4759
856.327	4675
856.461	4558
856.595	4615
856.729	4645
856.862	4729
856.996	4679
857.13	4729
857.263	4782
857.397	4744
857.53	4588
857.664	4744
857.797	4771
857.931	4771
858.064	4679
858.197	4736
858.331	4565
858.464	4577
858.597	4493
858.731	4641
858.864	4618
858.997	4615
859.13	4634
859.263	4653
859.396	4687
859.529	4561
859.662	4523
859.795	4527
859.928	4645
860.061	4759
860.194	4763
860.327	4554
860.46	4565
860.592	4694
860.725	4683
860.858	4683
860.99	4542
861.123	4577
861.256	4493
861.388	4584
861.521	5181
861.653	4459
861.786	4440
861.918	4405
862.05	4481
862.183	4561
862.315	4599
862.447	4634
862.58	4516
862.712	4360
862.844	4261
862.976	4497
863.108	4386
863.24	4835
863.372	4329
863.504	4375
863.636	4402
863.768	4447
863.9	4402
864.032	4322
864.164	4348
864.296	4432
864.428	4542
864.559	4493
864.691	4466
864.823	4508
864.954	4474
865.086	4527
865.217	4447
865.349	4440
865.48	4413
865.612	4428
865.743	4603
865.875	4432
866.006	4424
866.137	4432
866.269	4402
866.4	4390
866.531	4398
866.662	4360
866.793	4325
866.924	4413
867.055	4481
867.186	4417
867.317	4375
867.448	4348
867.579	4348
867.71	4405
867.841	4394
867.972	4436
868.103	4470
868.233	4466
868.364	4440
868.495	4466
868.625	4675
868.756	4759
868.886	4569
869.017	4573
869.147	4778
869.278	4752
869.408	4672
869.539	4672
869.669	4710
869.799	4683
869.929	4763
870.06	4767
870.19	4972
870.32	4984
870.45	4934
870.58	5067
870.71	5109
870.84	5102
870.97	4972
871.1	4889
871.23	5166
871.36	5140
871.489	5052
871.619	5124
871.749	5121
871.879	5132
872.008	5201
872.138	5052
872.267	5014
872.397	4820
872.526	4873
872.656	4778
872.785	4858
872.915	5003
873.044	5067
873.173	4942
873.303	5029
873.432	4968
873.561	4965
873.69	4896
873.819	4923
873.948	4946
874.077	4858
874.206	4820
874.335	4820
874.464	4980
874.593	5094
874.722	5006
874.851	5071
874.979	5159
875.108	5067
875.237	4957
875.365	4870
875.494	4915
875.623	5006
875.751	4843
875.88	4873
876.008	5010
876.136	5064
876.265	5189
876.393	5341
876.521	5220
876.65	5254
876.778	5227
876.906	5075
877.034	5056
877.162	5086
877.29	5025
877.418	5109
877.546	5071
877.674	5048
877.802	5060
877.93	5033
878.058	4938
878.185	4866
878.313	4995
878.441	4949
878.568	4831
878.696	4866
878.824	4953
878.951	4980
879.079	5166
879.206	5307
879.333	5132
879.461	4999
879.588	5029
879.715	5083
879.842	5155
879.97	5052
880.097	4801
880.224	4797
880.351	4816
880.478	4805
880.605	4801
880.732	4843
880.859	5105
880.986	4892
881.112	4953
881.239	4828
881.366	4694
881.493	4702
881.619	4626
881.746	4641
881.872	4694
881.999	4698
882.125	4706
882.252	4843
882.378	4843
882.505	4972
882.631	4847
882.757	4645
882.883	4698
883.01	4763
883.136	4752
883.262	4630
883.388	4634
883.514	4831
883.64	4904
883.766	4790
883.892	4691
884.018	4752
884.143	4889
884.269	5037
884.395	4702
884.52	4634
884.646	4615
884.772	4599
884.897	4592
885.023	4668
885.148	4820
885.274	4870
885.399	4805
885.524	4714
885.65	4721
885.775	4790
885.9	4736
886.025	4915
886.15	4809
886.275	4725
886.4	4683
886.525	4752
886.65	4729
886.775	4698
886.9	4911
887.025	5079
887.149	4812
887.274	4649
887.399	4618
887.523	4626
887.648	4592
887.773	4637
887.897	4786
888.021	4839
888.146	4679
888.27	4812
888.395	4915
888.519	4862
888.643	4847
888.767	4858
888.891	4641
889.015	4622
889.139	4622
889.263	4664
889.387	4801
889.511	4873
889.635	4812
889.759	4668
889.883	4702
890.006	4736
890.13	4850
890.254	4691
890.377	4702
890.501	4516
890.624	4561
890.748	4660
890.871	4546
890.995	4459
891.118	4424
891.241	4607
891.364	4550
891.488	4672
891.611	4535
891.734	4611
891.857	4634
891.98	4561
892.103	4679
892.226	4618
892.349	4527
892.471	4447
892.594	4599
892.717	4634
892.839	4584
892.962	4618
893.085	4679
893.207	4645
893.33	4497
893.452	4569
893.575	4755
893.697	4611
893.819	4774
893.941	4854
894.064	4816
894.186	4599
894.308	4653
894.43	4748
894.552	4858
894.674	4740
894.796	4584
894.918	4649
895.04	4561
895.161	4729
895.283	4694
895.405	4615
895.526	4664
895.648	4717
895.769	4733
895.891	4706
896.012	4736
896.134	4752
896.255	4660
896.376	4653
896.498	4683
896.619	4698
896.74	4634
896.861	4645
896.982	4965
897.103	5086
897.224	4873
897.345	4786
897.466	4656
897.587	4748
897.708	4881
897.828	4774
897.949	4694
898.07	4561
898.19	4687
898.311	4919
898.431	4714
898.552	4778
898.672	4870
898.792	4828
898.913	4782
899.033	4637
899.153	4512
899.273	4443
899.393	4531
899.513	4512
899.633	4550
899.753	4535
899.873	4561
899.993	4561
900.113	4538
900.232	4584
900.352	4577
900.472	4493
900.591	4474
900.711	4512
900.83	4462
900.95	4607
901.069	4752
901.189	4584
901.308	4394
901.427	4371
901.546	4402
901.665	4470
901.784	4527
901.904	4405
902.023	4306
902.141	4246
902.26	4200
902.379	4356
902.498	4276
902.617	4276
902.735	4379
902.854	4363
902.973	4405
903.091	4280
903.21	4246
903.328	4348
903.446	4306
903.565	4310
903.683	4379
903.801	4322
903.919	4489
904.038	4417
904.156	4314
904.274	4485
904.392	4398
904.51	4440
904.627	4485
904.745	4596
904.863	4637
904.981	4405
905.098	4322
905.216	4344
905.334	4417
905.451	4459
905.569	4512
905.686	4531
905.803	4611
905.921	4436
906.038	4584
906.155	4504
906.272	4409
906.389	4493
906.506	4390
906.623	4352
906.74	4402
906.857	4337
906.974	4341
907.091	4596
907.208	4653
907.324	4660
907.441	4512
907.557	4379
907.674	4398
907.79	4356
907.907	4394
908.023	4519
908.139	4466
908.256	4421
908.372	4451
908.488	4497
908.604	4356
908.72	4352
908.836	4390
908.952	4337
909.068	4470
909.184	4569
909.3	4481
909.415	4546
909.531	4561
909.647	4341
909.762	4440
909.878	4356
909.993	4424
910.108	4436
910.224	4432
910.339	4489
910.454	4462
910.57	4383
910.685	4390
910.8	4615
910.915	4611
911.03	4535
911.145	4344
911.259	4352
911.374	4440
911.489	4261
911.604	4310
911.718	4143
911.833	4211
911.947	4112
912.062	4044
912.176	4249
912.291	4287
912.405	4257
912.519	4466
912.633	4519
912.748	4306
912.862	4303
912.976	4249
913.09	4105
913.204	4177
913.318	4253
913.431	4375
913.545	4421
913.659	4413
913.772	4394
913.886	4253
914	4272
914.113	4383
914.226	4428
914.34	4421
914.453	4268
914.566	4462
914.68	4325
914.793	4322
914.906	4162
915.019	4150
915.132	4120
915.245	4173
915.358	4230
915.47	4207
915.583	4284
915.696	4306
915.809	4409
915.921	4443
916.034	4261
916.146	4242
916.259	4234
916.371	4402
916.483	4398
916.595	4268
916.708	4306
916.82	4314
916.932	4356
917.044	4367
917.156	4306
917.268	4234
917.38	4230
917.491	4261
917.603	4371
917.715	4417
917.826	4527
917.938	4383
918.049	4238
918.161	4424
918.272	4554
918.384	4489
918.495	4455
918.606	4287
918.717	4295
918.828	4341
918.939	4356
919.05	4280
919.161	4352
919.272	4158
919.383	4261
919.494	4508
919.604	4618
919.715	4470
919.826	4386
919.936	4375
920.047	4531
920.157	4508
920.267	4729
920.378	4516
920.488	4512
920.598	4683
920.708	4900
920.818	4759
920.928	4771
921.038	4949
921.148	4965
921.258	4622
921.368	4611
921.477	4485
921.587	4459
921.697	4371
921.806	4527
921.916	4428
922.025	4303
922.134	4303
922.244	4276
922.353	4314
922.462	4169
922.571	4116
922.68	4002
922.789	3987
922.898	4032
923.007	3994
923.116	4109
923.224	4055
923.333	4116
923.442	3968
923.55	3972
923.659	4051
923.767	4109
923.876	3987
923.984	4128
924.092	3987
924.201	4109
924.309	4074
924.417	4093
924.525	4074
924.633	4112
924.741	5045
924.849	3922
924.956	4169
925.064	3945
925.172	3915
925.279	3949
925.387	4071
925.494	4082
925.602	4173
925.709	4166
925.816	4051
925.924	4135
926.031	4257
926.138	4230
926.245	4211
926.352	4101
926.459	4268
926.566	4360
926.673	4204
926.779	4105
926.886	4093
926.993	3975
927.099	3949
927.206	3968
927.312	3964
927.419	4017
927.525	4071
927.631	4097
927.737	3979
927.843	3949
927.95	3842
928.056	3975
928.162	3972
928.267	4055
928.373	4717
928.479	4112
928.585	3922
928.69	4017
928.796	4059
928.901	3930
929.007	3816
929.112	3979
929.218	4010
929.323	3949
929.428	3953
929.533	4074
929.638	3934
929.743	3998
929.848	4002
929.953	4017
930.058	3896
930.163	3831
930.267	3823
930.372	3945
930.477	3812
930.581	4128
930.685	3972
930.79	3835
930.894	3896
930.998	3865
931.103	4036
931.207	3720
931.311	3736
931.415	3679
931.519	3500
931.623	3568
