Data from test_V78500241_271.txt Node
Date: Fri Mar 25 16:50:53 CST 2022
User: usil
Spectrometer: V785-0024
Trigger mode: 0
Integration Time (sec): 4.000000E-1
Scans to average: 1
Nonlinearity correction enabled: false
Boxcar width: 0
Storing dark spectrum: false
XAxis mode: Wavelengths
Number of Pixels in Spectrum: 1024
>>>>>Begin Spectral Data<<<<<
801.071	8092
801.214	8050
801.356	7970
801.499	7940
801.641	7856
801.783	7833
801.926	8035
802.068	8020
802.211	8035
802.353	8050
802.496	7955
802.638	7963
802.78	7951
802.923	7951
803.065	7879
803.208	7917
803.35	7982
803.492	8123
803.635	8073
803.777	8100
803.919	8218
804.061	8469
804.204	8111
804.346	8016
804.488	7928
804.63	8115
804.773	8050
804.915	8031
805.057	8290
805.199	8195
805.341	8195
805.483	8149
805.626	8199
805.768	8119
805.91	8157
806.052	8195
806.194	8069
806.336	8313
806.478	8172
806.62	8084
806.762	8115
806.904	8244
807.046	8511
807.188	8347
807.33	8343
807.472	8324
807.614	8187
807.756	8138
807.898	7989
808.04	7841
808.182	7921
808.324	7947
808.465	7940
808.607	8115
808.749	8187
808.891	8275
809.033	8351
809.174	8202
809.316	8027
809.458	8062
809.6	7967
809.741	8043
809.883	8001
810.025	8024
810.166	8149
810.308	8043
810.45	8039
810.591	7860
810.733	7788
810.875	7696
811.016	7567
811.158	7495
811.299	7681
811.441	7803
811.582	7620
811.724	7636
811.865	7533
812.007	7632
812.148	7616
812.29	7616
812.431	7738
812.573	7890
812.714	7970
812.855	8164
812.997	8191
813.138	8320
813.279	8172
813.421	8100
813.562	8035
813.703	7879
813.845	7742
813.986	7502
814.127	7251
814.268	7282
814.41	7206
814.551	7198
814.692	7247
814.833	7171
814.974	7137
815.115	7107
815.256	7042
815.397	6951
815.539	6913
815.68	6882
815.821	6798
815.962	6878
816.103	6871
816.244	6692
816.385	6639
816.526	6696
816.666	6547
816.807	6334
816.948	6486
817.089	6490
817.23	6433
817.371	6384
817.512	6403
817.653	6407
817.793	6388
817.934	6448
818.075	6467
818.216	6464
818.356	6456
818.497	6262
818.638	6136
818.778	6167
818.919	6186
819.06	6136
819.2	6380
819.341	6315
819.481	6323
819.622	6494
819.762	6734
819.903	6719
820.043	6631
820.184	6559
820.324	6631
820.465	6692
820.605	6604
820.746	6642
820.886	6532
821.026	6681
821.167	6722
821.307	6848
821.447	6829
821.588	6677
821.728	6589
821.868	6536
822.008	6323
822.149	6331
822.289	6376
822.429	6152
822.569	6121
822.709	6110
822.849	5889
822.99	5965
823.13	5980
823.27	5931
823.41	5836
823.55	5824
823.69	5813
823.83	5729
823.97	5726
824.11	5562
824.25	5505
824.389	5573
824.529	5554
824.669	5539
824.809	5642
824.949	5653
825.089	5592
825.228	5516
825.368	5387
825.508	5360
825.648	5379
825.787	5429
825.927	5406
826.067	5398
826.206	5299
826.346	5395
826.485	5440
826.625	5360
826.765	5646
826.904	5497
827.044	5277
827.183	5231
827.323	5162
827.462	5280
827.601	5170
827.741	5265
827.88	5235
828.02	5151
828.159	5220
828.298	5261
828.437	5376
828.577	5307
828.716	5490
828.855	5337
828.994	5155
829.134	5151
829.273	5185
829.412	5174
829.551	5159
829.69	5143
829.829	5223
829.968	5360
830.107	5258
830.246	5307
830.385	5212
830.524	5155
830.663	5136
830.802	5006
830.941	4908
831.08	4877
831.219	5041
831.357	4995
831.496	5136
831.635	4915
831.774	4839
831.913	4870
832.051	4733
832.19	4759
832.329	4877
832.467	4740
832.606	4641
832.744	4733
832.883	4752
833.022	4790
833.16	4831
833.299	4843
833.437	4850
833.576	4881
833.714	4915
833.852	4892
833.991	4911
834.129	4965
834.267	4957
834.406	4934
834.544	4999
834.682	4991
834.821	4987
834.959	5132
835.097	5025
835.235	5193
835.373	5124
835.511	5079
835.65	5056
835.788	5048
835.926	4980
836.064	4877
836.202	4942
836.34	5197
836.478	5239
836.615	5170
836.753	5201
836.891	5341
837.029	5273
837.167	5235
837.305	5223
837.443	5155
837.58	5128
837.718	5258
837.856	5185
837.993	5189
838.131	5296
838.269	5216
838.406	5242
838.544	5159
838.681	5045
838.819	5067
838.956	4915
839.094	4949
839.231	5010
839.369	5117
839.506	5486
839.643	5307
839.781	5083
839.918	5010
840.055	5075
840.193	5102
840.33	5124
840.467	5109
840.604	5140
840.742	5482
840.879	5109
841.016	5147
841.153	5151
841.29	5421
841.427	5349
841.564	5337
841.701	5402
841.838	5299
841.975	5227
842.112	5315
842.249	5124
842.385	5113
842.522	5337
842.659	5178
842.796	5212
842.933	5216
843.069	5140
843.206	5204
843.343	5341
843.479	5227
843.616	5296
843.752	5029
843.889	5041
844.025	5235
844.162	5018
844.298	5212
844.435	5075
844.571	5052
844.708	5197
844.844	5353
844.98	5334
845.117	5315
845.253	5136
845.389	5109
845.525	5159
845.661	5208
845.798	5083
845.934	5159
846.07	5090
846.206	5174
846.342	5349
846.478	5212
846.614	5018
846.75	5014
846.886	4968
847.022	5102
847.158	5060
847.294	5056
847.429	5086
847.565	5098
847.701	5326
847.837	4866
847.972	4862
848.108	4976
848.244	4980
848.379	4774
848.515	4771
848.65	4733
848.786	4793
848.921	4759
849.057	4870
849.192	4885
849.328	4820
849.463	4839
849.598	4797
849.734	4774
849.869	4729
850.004	4645
850.14	4706
850.275	4599
850.41	4535
850.545	4615
850.68	4664
850.815	4672
850.95	4683
851.085	4847
851.22	4774
851.355	4744
851.49	4687
851.625	4691
851.76	4634
851.895	4569
852.03	4611
852.165	4698
852.299	4752
852.434	4816
852.569	4797
852.703	4801
852.838	4862
852.973	5018
853.107	4991
853.242	4809
853.376	4706
853.511	4603
853.645	4645
853.78	4839
853.914	4725
854.048	4691
854.183	4717
854.317	4706
854.451	4881
854.585	4744
854.72	4710
854.854	4767
854.988	4630
855.122	4714
855.256	4569
855.39	4740
855.524	4847
855.658	4793
855.792	4714
855.926	4774
856.06	4801
856.194	4839
856.327	4733
856.461	4664
856.595	4679
856.729	4637
856.862	4797
856.996	4767
857.13	4790
857.263	4793
857.397	4816
857.53	4668
857.664	4774
857.797	4774
857.931	4793
858.064	4710
858.197	4809
858.331	4706
858.464	4618
858.597	4596
858.731	4698
858.864	4691
858.997	4645
859.13	4694
859.263	4729
859.396	4706
859.529	4630
859.662	4637
859.795	4596
859.928	4664
860.061	4839
860.194	4812
860.327	4653
860.46	4645
860.592	4763
860.725	4774
860.858	4763
860.99	4626
861.123	4592
861.256	4599
861.388	4679
861.521	5364
861.653	4459
861.786	4440
861.918	4512
862.05	4580
862.183	4599
862.315	4641
862.447	4675
862.58	4626
862.712	4428
862.844	4390
862.976	4535
863.108	4512
863.24	4923
863.372	4371
863.504	4481
863.636	4417
863.768	4519
863.9	4478
864.032	4405
864.164	4459
864.296	4550
864.428	4603
864.559	4596
864.691	4637
864.823	4596
864.954	4542
865.086	4592
865.217	4489
865.349	4481
865.48	4455
865.612	4569
865.743	4683
865.875	4527
866.006	4462
866.137	4512
866.269	4500
866.4	4462
866.531	4481
866.662	4386
866.793	4497
866.924	4519
867.055	4508
867.186	4512
867.317	4436
867.448	4405
867.579	4383
867.71	4405
867.841	4409
867.972	4516
868.103	4569
868.233	4523
868.364	4455
868.495	4504
868.625	4691
868.756	4812
868.886	4637
869.017	4656
869.147	4850
869.278	4793
869.408	4675
869.539	4634
869.669	4763
869.799	4668
869.929	4812
870.06	4793
870.19	4987
870.32	4934
870.45	4991
870.58	5056
870.71	5113
870.84	5174
870.97	4999
871.1	4938
871.23	5235
871.36	5220
871.489	5094
871.619	5083
871.749	5197
871.879	5159
872.008	5235
872.138	5052
872.267	5090
872.397	4904
872.526	4866
872.656	4759
872.785	4824
872.915	4968
873.044	5060
873.173	4984
873.303	5010
873.432	4965
873.561	4972
873.69	4892
873.819	4911
873.948	4915
874.077	4820
874.206	4755
874.335	4835
874.464	5010
874.593	5178
874.722	5071
874.851	5151
874.979	5067
875.108	5041
875.237	4953
875.365	4896
875.494	4915
875.623	5006
875.751	4889
875.88	4919
876.008	4995
876.136	5041
876.265	5261
876.393	5364
876.521	5307
876.65	5254
876.778	5181
876.906	5113
877.034	5033
877.162	5079
877.29	5048
877.418	5060
877.546	5010
877.674	5014
877.802	5086
877.93	5025
878.058	4896
878.185	4934
878.313	5003
878.441	5006
878.568	4854
878.696	4911
878.824	4980
878.951	5037
879.079	5128
879.206	5288
879.333	5170
879.461	5056
879.588	5075
879.715	5174
879.842	5296
879.97	5048
880.097	4828
880.224	4774
880.351	4831
880.478	4847
880.605	4900
880.732	4824
880.859	5166
880.986	4938
881.112	4896
881.239	4778
881.366	4763
881.493	4672
881.619	4645
881.746	4675
881.872	4653
881.999	4634
882.125	4694
882.252	4831
882.378	4889
882.505	4961
882.631	4824
882.757	4683
882.883	4736
883.01	4752
883.136	4702
883.262	4630
883.388	4683
883.514	4889
883.64	4938
883.766	4850
883.892	4706
884.018	4748
884.143	4881
884.269	5071
884.395	4748
884.52	4656
884.646	4683
884.772	4618
884.897	4588
885.023	4710
885.148	4831
885.274	4919
885.399	4820
885.524	4778
885.65	4748
885.775	4790
885.9	4786
886.025	4896
886.15	4805
886.275	4740
886.4	4702
886.525	4759
886.65	4683
886.775	4733
886.9	4976
887.025	5075
887.149	4816
887.274	4664
887.399	4592
887.523	4645
887.648	4580
887.773	4668
887.897	4767
888.021	4820
888.146	4675
888.27	4892
888.395	4927
888.519	4885
888.643	4835
888.767	4881
888.891	4759
889.015	4634
889.139	4691
889.263	4588
889.387	4778
889.511	4885
889.635	4866
889.759	4634
889.883	4694
890.006	4752
890.13	4835
890.254	4626
890.377	4691
890.501	4607
890.624	4565
890.748	4698
890.871	4489
890.995	4493
891.118	4432
891.241	4546
891.364	4599
891.488	4698
891.611	4592
891.734	4580
891.857	4653
891.98	4618
892.103	4626
892.226	4634
892.349	4550
892.471	4451
892.594	4596
892.717	4653
892.839	4599
892.962	4611
893.085	4714
893.207	4622
893.33	4497
893.452	4584
893.575	4698
893.697	4634
893.819	4854
893.941	4866
894.064	4850
894.186	4599
894.308	4611
894.43	4767
894.552	4892
894.674	4786
894.796	4588
894.918	4664
895.04	4637
895.161	4729
895.283	4740
895.405	4561
895.526	4687
895.648	4694
895.769	4729
895.891	4721
896.012	4797
896.134	4759
896.255	4706
896.376	4656
896.498	4634
896.619	4698
896.74	4653
896.861	4725
896.982	4904
897.103	5090
897.224	4847
897.345	4752
897.466	4691
897.587	4744
897.708	4892
897.828	4801
897.949	4698
898.07	4596
898.19	4675
898.311	4854
898.431	4687
898.552	4771
898.672	4862
898.792	4847
898.913	4752
899.033	4649
899.153	4470
899.273	4470
899.393	4481
899.513	4565
899.633	4584
899.753	4599
899.873	4565
899.993	4611
900.113	4577
900.232	4603
900.352	4577
900.472	4527
900.591	4428
900.711	4535
900.83	4432
900.95	4611
901.069	4714
901.189	4569
901.308	4375
901.427	4367
901.546	4405
901.665	4481
901.784	4489
901.904	4451
902.023	4371
902.141	4215
902.26	4215
902.379	4363
902.498	4276
902.617	4234
902.735	4409
902.854	4417
902.973	4405
903.091	4253
903.21	4234
903.328	4310
903.446	4322
903.565	4272
903.683	4390
903.801	4306
903.919	4424
904.038	4440
904.156	4352
904.274	4459
904.392	4424
904.51	4481
904.627	4474
904.745	4596
904.863	4653
904.981	4398
905.098	4390
905.216	4356
905.334	4459
905.451	4447
905.569	4451
905.686	4588
905.803	4569
905.921	4474
906.038	4584
906.155	4508
906.272	4417
906.389	4516
906.506	4363
906.623	4413
906.74	4447
906.857	4367
906.974	4390
907.091	4584
907.208	4649
907.324	4599
907.441	4497
907.557	4417
907.674	4402
907.79	4360
907.907	4371
908.023	4493
908.139	4519
908.256	4455
908.372	4470
908.488	4489
908.604	4375
908.72	4314
908.836	4383
908.952	4432
909.068	4455
909.184	4622
909.3	4500
909.415	4607
909.531	4550
909.647	4405
909.762	4398
909.878	4348
909.993	4481
910.108	4462
910.224	4436
910.339	4489
910.454	4413
910.57	4402
910.685	4371
910.8	4691
910.915	4637
911.03	4519
911.145	4360
911.259	4287
911.374	4367
911.489	4306
911.604	4325
911.718	4200
911.833	4200
911.947	4139
912.062	4067
912.176	4185
912.291	4257
912.405	4265
912.519	4466
912.633	4546
912.748	4398
912.862	4306
912.976	4257
913.09	4131
913.204	4242
913.318	4257
913.431	4390
913.545	4352
913.659	4451
913.772	4352
913.886	4257
914	4265
914.113	4375
914.226	4421
914.34	4394
914.453	4234
914.566	4500
914.68	4367
914.793	4363
914.906	4196
915.019	4128
915.132	4097
915.245	4211
915.358	4227
915.47	4295
915.583	4284
915.696	4306
915.809	4455
915.921	4436
916.034	4280
916.146	4249
916.259	4249
916.371	4390
916.483	4383
916.595	4261
916.708	4341
916.82	4363
916.932	4383
917.044	4356
917.156	4379
917.268	4253
917.38	4341
917.491	4268
917.603	4352
917.715	4470
917.826	4447
917.938	4344
918.049	4257
918.161	4421
918.272	4577
918.384	4561
918.495	4493
918.606	4306
918.717	4215
918.828	4348
918.939	4417
919.05	4227
919.161	4386
919.272	4192
919.383	4242
919.494	4413
919.604	4645
919.715	4485
919.826	4386
919.936	4432
920.047	4538
920.157	4542
920.267	4725
920.378	4546
920.488	4527
920.598	4736
920.708	4870
920.818	4774
920.928	4805
921.038	4965
921.148	4923
921.258	4634
921.368	4538
921.477	4497
921.587	4485
921.697	4390
921.806	4535
921.916	4485
922.025	4284
922.134	4253
922.244	4257
922.353	4314
922.462	4166
922.571	4154
922.68	4013
922.789	4013
922.898	4048
923.007	3994
923.116	4120
923.224	4097
923.333	4150
923.442	3972
923.55	3987
923.659	4032
923.767	4120
923.876	3991
923.984	4143
924.092	4002
924.201	4082
924.309	4128
924.417	4150
924.525	4017
924.633	4116
924.741	5109
924.849	3941
924.956	4147
925.064	3964
925.172	3930
925.279	3991
925.387	4120
925.494	4101
925.602	4207
925.709	4196
925.816	4048
925.924	4147
926.031	4265
926.138	4185
926.245	4181
926.352	4162
926.459	4276
926.566	4287
926.673	4139
926.779	4093
926.886	4120
926.993	3972
927.099	3960
927.206	3945
927.312	3937
927.419	4040
927.525	4067
927.631	4101
927.737	3983
927.843	3937
927.95	3888
928.056	3987
928.162	4025
928.267	4093
928.373	4691
928.479	4147
928.585	3903
928.69	4063
928.796	4067
928.901	4013
929.007	3892
929.112	4051
929.218	3998
929.323	3968
929.428	3968
929.533	4112
929.638	3884
929.743	3994
929.848	4055
929.953	4029
930.058	3941
930.163	3781
930.267	3865
930.372	3968
930.477	3812
930.581	4109
930.685	3994
930.79	3835
930.894	3915
930.998	3896
931.103	4078
931.207	3705
931.311	3713
931.415	3682
931.519	3519
931.623	3572
