Data from test_V78500241_2386.txt Node
Date: Fri Mar 25 17:05:35 CST 2022
User: usil
Spectrometer: V785-0024
Trigger mode: 0
Integration Time (sec): 4.000000E-1
Scans to average: 1
Nonlinearity correction enabled: false
Boxcar width: 0
Storing dark spectrum: false
XAxis mode: Wavelengths
Number of Pixels in Spectrum: 1024
>>>>>Begin Spectral Data<<<<<
801.071	8043
801.214	8027
801.356	7898
801.499	7814
801.641	7803
801.783	7868
801.926	8016
802.068	7967
802.211	8012
802.353	8039
802.496	7898
802.638	7871
802.78	7955
802.923	7875
803.065	7864
803.208	7871
803.35	7993
803.492	8172
803.635	8126
803.777	8100
803.919	8240
804.061	8495
804.204	8202
804.346	8100
804.488	8016
804.63	8054
804.773	7993
804.915	8134
805.057	8332
805.199	8183
805.341	8195
805.483	8298
805.626	8290
805.768	8172
805.91	8172
806.052	8271
806.194	8115
806.336	8309
806.478	8054
806.62	8069
806.762	8195
806.904	8271
807.046	8511
807.188	8412
807.33	8347
807.472	8347
807.614	8168
807.756	8153
807.898	7986
808.04	7947
808.182	7951
808.324	7913
808.465	7902
808.607	8142
808.749	8183
808.891	8294
809.033	8237
809.174	8233
809.316	8107
809.458	8065
809.6	8043
809.741	8016
809.883	8031
810.025	8065
810.166	8005
810.308	8012
810.45	8035
810.591	7913
810.733	7734
810.875	7719
811.016	7559
811.158	7495
811.299	7567
811.441	7704
811.582	7715
811.724	7582
811.865	7540
812.007	7636
812.148	7582
812.29	7700
812.431	7769
812.573	7803
812.714	7959
812.855	8145
812.997	8248
813.138	8240
813.279	8180
813.421	8115
813.562	7921
813.703	7818
813.845	7780
813.986	7419
814.127	7240
814.268	7202
814.41	7244
814.551	7217
814.692	7263
814.833	7042
814.974	7145
815.115	7129
815.256	7027
815.397	6954
815.539	6989
815.68	6856
815.821	6779
815.962	6882
816.103	6875
816.244	6730
816.385	6665
816.526	6589
816.666	6521
816.807	6296
816.948	6441
817.089	6528
817.23	6437
817.371	6437
817.512	6410
817.653	6380
817.793	6395
817.934	6429
818.075	6506
818.216	6437
818.356	6414
818.497	6300
818.638	6129
818.778	6178
818.919	6136
819.06	6201
819.2	6369
819.341	6346
819.481	6369
819.622	6547
819.762	6802
819.903	6734
820.043	6597
820.184	6570
820.324	6616
820.465	6753
820.605	6692
820.746	6677
820.886	6494
821.026	6692
821.167	6741
821.307	6779
821.447	6795
821.588	6654
821.728	6570
821.868	6471
822.008	6323
822.149	6418
822.289	6395
822.429	6167
822.569	6095
822.709	6190
822.849	5931
822.99	5950
823.13	6007
823.27	5923
823.41	5832
823.55	5840
823.69	5756
823.83	5805
823.97	5676
824.11	5524
824.25	5501
824.389	5581
824.529	5638
824.669	5505
824.809	5611
824.949	5646
825.089	5619
825.228	5600
825.368	5364
825.508	5387
825.648	5433
825.787	5402
825.927	5425
826.067	5330
826.206	5284
826.346	5368
826.485	5391
826.625	5455
826.765	5539
826.904	5474
827.044	5315
827.183	5220
827.323	5124
827.462	5292
827.601	5223
827.741	5265
827.88	5261
828.02	5105
828.159	5269
828.298	5311
828.437	5296
828.577	5337
828.716	5482
828.855	5341
828.994	5197
829.134	5185
829.273	5208
829.412	5170
829.551	5117
829.69	5128
829.829	5265
829.968	5357
830.107	5284
830.246	5288
830.385	5170
830.524	5174
830.663	5022
830.802	4995
830.941	4949
831.08	4877
831.219	5037
831.357	4965
831.496	5136
831.635	4957
831.774	4866
831.913	4877
832.051	4752
832.19	4725
832.329	4866
832.467	4694
832.606	4656
832.744	4740
832.883	4675
833.022	4767
833.16	4850
833.299	4892
833.437	4797
833.576	4850
833.714	4850
833.852	4843
833.991	4873
834.129	4946
834.267	4938
834.406	4915
834.544	5018
834.682	4938
834.821	4972
834.959	5185
835.097	4976
835.235	5174
835.373	5041
835.511	5140
835.65	5018
835.788	5033
835.926	4889
836.064	4900
836.202	4911
836.34	5201
836.478	5208
836.615	5121
836.753	5216
836.891	5296
837.029	5250
837.167	5250
837.305	5174
837.443	5189
837.58	5067
837.718	5277
837.856	5231
837.993	5181
838.131	5208
838.269	5204
838.406	5223
838.544	5223
838.681	5033
838.819	5033
838.956	4934
839.094	4946
839.231	5006
839.369	5075
839.506	5440
839.643	5357
839.781	5079
839.918	4995
840.055	5083
840.193	5079
840.33	5083
840.467	5166
840.604	5201
840.742	5372
840.879	5098
841.016	5121
841.153	5201
841.29	5353
841.427	5357
841.564	5326
841.701	5402
841.838	5307
841.975	5212
842.112	5311
842.249	5155
842.385	5132
842.522	5303
842.659	5162
842.796	5151
842.933	5212
843.069	5178
843.206	5178
843.343	5315
843.479	5208
843.616	5227
843.752	5022
843.889	5025
844.025	5235
844.162	5041
844.298	5193
844.435	5071
844.571	5121
844.708	5246
844.844	5277
844.98	5364
845.117	5288
845.253	5166
845.389	5086
845.525	5235
845.661	5132
845.798	5117
845.934	5155
846.07	5117
846.206	5185
846.342	5318
846.478	5185
846.614	5079
846.75	4942
846.886	4930
847.022	5086
847.158	5060
847.294	5105
847.429	5143
847.565	5094
847.701	5337
847.837	4820
847.972	4809
848.108	4995
848.244	4877
848.379	4805
848.515	4748
848.65	4733
848.786	4717
848.921	4782
849.057	4900
849.192	4919
849.328	4820
849.463	4847
849.598	4831
849.734	4755
849.869	4679
850.004	4637
850.14	4679
850.275	4668
850.41	4527
850.545	4596
850.68	4649
850.815	4694
850.95	4634
851.085	4892
851.22	4793
851.355	4687
851.49	4596
851.625	4645
851.76	4637
851.895	4580
852.03	4527
852.165	4672
852.299	4744
852.434	4733
852.569	4774
852.703	4778
852.838	4870
852.973	4980
853.107	4961
853.242	4752
853.376	4687
853.511	4588
853.645	4615
853.78	4786
853.914	4668
854.048	4721
854.183	4649
854.317	4710
854.451	4831
854.585	4691
854.72	4634
854.854	4733
854.988	4554
855.122	4630
855.256	4554
855.39	4698
855.524	4778
855.658	4672
855.792	4706
855.926	4729
856.06	4774
856.194	4831
856.327	4679
856.461	4592
856.595	4592
856.729	4622
856.862	4736
856.996	4706
857.13	4733
857.263	4759
857.397	4790
857.53	4626
857.664	4672
857.797	4744
857.931	4843
858.064	4649
858.197	4797
858.331	4641
858.464	4618
858.597	4474
858.731	4664
858.864	4687
858.997	4607
859.13	4649
859.263	4630
859.396	4710
859.529	4573
859.662	4603
859.795	4535
859.928	4634
860.061	4744
860.194	4793
860.327	4599
860.46	4584
860.592	4717
860.725	4702
860.858	4725
860.99	4580
861.123	4561
861.256	4531
861.388	4573
861.521	5284
861.653	4519
861.786	4462
861.918	4481
862.05	4504
862.183	4596
862.315	4592
862.447	4668
862.58	4554
862.712	4398
862.844	4333
862.976	4516
863.108	4394
863.24	4793
863.372	4322
863.504	4451
863.636	4424
863.768	4459
863.9	4443
864.032	4371
864.164	4386
864.296	4500
864.428	4573
864.559	4580
864.691	4519
864.823	4523
864.954	4481
865.086	4470
865.217	4466
865.349	4409
865.48	4470
865.612	4500
865.743	4660
865.875	4462
866.006	4428
866.137	4424
866.269	4424
866.4	4489
866.531	4421
866.662	4394
866.793	4390
866.924	4459
867.055	4493
867.186	4462
867.317	4443
867.448	4367
867.579	4402
867.71	4398
867.841	4398
867.972	4466
868.103	4481
868.233	4481
868.364	4443
868.495	4516
868.625	4694
868.756	4801
868.886	4561
869.017	4599
869.147	4793
869.278	4793
869.408	4649
869.539	4645
869.669	4717
869.799	4603
869.929	4736
870.06	4710
870.19	4923
870.32	4843
870.45	4984
870.58	5067
870.71	5121
870.84	5071
870.97	4946
871.1	4904
871.23	5166
871.36	5143
871.489	5045
871.619	5052
871.749	5121
871.879	5162
872.008	5151
872.138	5056
872.267	4965
872.397	4805
872.526	4786
872.656	4687
872.785	4790
872.915	4946
873.044	5041
873.173	4904
873.303	4987
873.432	4976
873.561	4972
873.69	4835
873.819	4854
873.948	4896
874.077	4812
874.206	4809
874.335	4774
874.464	4984
874.593	5075
874.722	4949
874.851	5098
874.979	4976
875.108	4995
875.237	4957
875.365	4877
875.494	4843
875.623	5010
875.751	4839
875.88	4828
876.008	4923
876.136	5098
876.265	5227
876.393	5376
876.521	5296
876.65	5288
876.778	5166
876.906	5079
877.034	5014
877.162	5025
877.29	5029
877.418	5064
877.546	5037
877.674	5033
877.802	5056
877.93	5010
878.058	4908
878.185	4911
878.313	4968
878.441	4930
878.568	4805
878.696	4843
878.824	4999
878.951	5014
879.079	5117
879.206	5223
879.333	5143
879.461	4976
879.588	5029
879.715	5136
879.842	5197
879.97	4987
880.097	4740
880.224	4740
880.351	4793
880.478	4873
880.605	4793
880.732	4797
880.859	5079
880.986	4923
881.112	4927
881.239	4782
881.366	4630
881.493	4626
881.619	4554
881.746	4634
881.872	4630
881.999	4675
882.125	4733
882.252	4778
882.378	4809
882.505	4949
882.631	4812
882.757	4744
882.883	4714
883.01	4736
883.136	4672
883.262	4603
883.388	4618
883.514	4797
883.64	4881
883.766	4763
883.892	4611
884.018	4748
884.143	4881
884.269	5045
884.395	4660
884.52	4592
884.646	4634
884.772	4603
884.897	4554
885.023	4649
885.148	4828
885.274	4873
885.399	4793
885.524	4725
885.65	4656
885.775	4744
885.9	4698
886.025	4831
886.15	4733
886.275	4694
886.4	4687
886.525	4752
886.65	4637
886.775	4664
886.9	4953
887.025	5048
887.149	4778
887.274	4694
887.399	4596
887.523	4603
887.648	4596
887.773	4599
887.897	4767
888.021	4763
888.146	4729
888.27	4767
888.395	4866
888.519	4782
888.643	4854
888.767	4782
888.891	4717
889.015	4622
889.139	4615
889.263	4607
889.387	4797
889.511	4885
889.635	4767
889.759	4622
889.883	4656
890.006	4767
890.13	4824
890.254	4634
890.377	4656
890.501	4538
890.624	4538
890.748	4637
890.871	4516
890.995	4417
891.118	4405
891.241	4523
891.364	4546
891.488	4672
891.611	4474
891.734	4546
891.857	4588
891.98	4512
892.103	4660
892.226	4542
892.349	4531
892.471	4424
892.594	4546
892.717	4611
892.839	4603
892.962	4607
893.085	4641
893.207	4596
893.33	4424
893.452	4523
893.575	4649
893.697	4565
893.819	4790
893.941	4801
894.064	4755
894.186	4588
894.308	4531
894.43	4774
894.552	4866
894.674	4748
894.796	4497
894.918	4558
895.04	4569
895.161	4649
895.283	4668
895.405	4615
895.526	4626
895.648	4706
895.769	4694
895.891	4706
896.012	4679
896.134	4672
896.255	4683
896.376	4630
896.498	4580
896.619	4660
896.74	4618
896.861	4630
896.982	4923
897.103	5052
897.224	4824
897.345	4675
897.466	4637
897.587	4774
897.708	4820
897.828	4790
897.949	4691
898.07	4573
898.19	4645
898.311	4862
898.431	4683
898.552	4721
898.672	4809
898.792	4714
898.913	4740
899.033	4656
899.153	4516
899.273	4398
899.393	4497
899.513	4550
899.633	4516
899.753	4554
899.873	4508
899.993	4580
900.113	4554
900.232	4577
900.352	4607
900.472	4478
900.591	4367
900.711	4485
900.83	4443
900.95	4599
901.069	4694
901.189	4569
901.308	4375
901.427	4303
901.546	4383
901.665	4462
901.784	4527
901.904	4405
902.023	4291
902.141	4185
902.26	4143
902.379	4265
902.498	4219
902.617	4200
902.735	4344
902.854	4390
902.973	4341
903.091	4227
903.21	4246
903.328	4325
903.446	4246
903.565	4287
903.683	4348
903.801	4242
903.919	4383
904.038	4421
904.156	4333
904.274	4413
904.392	4367
904.51	4402
904.627	4474
904.745	4504
904.863	4660
904.981	4417
905.098	4291
905.216	4306
905.334	4443
905.451	4443
905.569	4417
905.686	4538
905.803	4603
905.921	4428
906.038	4565
906.155	4489
906.272	4424
906.389	4440
906.506	4352
906.623	4375
906.74	4379
906.857	4291
906.974	4356
907.091	4565
907.208	4725
907.324	4592
907.441	4455
907.557	4367
907.674	4348
907.79	4371
907.907	4379
908.023	4470
908.139	4508
908.256	4394
908.372	4413
908.488	4451
908.604	4375
908.72	4318
908.836	4367
908.952	4356
909.068	4421
909.184	4554
909.3	4451
909.415	4550
909.531	4546
909.647	4375
909.762	4337
909.878	4386
909.993	4413
910.108	4390
910.224	4390
910.339	4516
910.454	4367
910.57	4360
910.685	4322
910.8	4653
910.915	4607
911.03	4485
911.145	4303
911.259	4318
911.374	4375
911.489	4268
911.604	4287
911.718	4177
911.833	4223
911.947	4032
912.062	4021
912.176	4166
912.291	4238
912.405	4242
912.519	4489
912.633	4500
912.748	4352
912.862	4333
912.976	4169
913.09	4074
913.204	4139
913.318	4242
913.431	4360
913.545	4367
913.659	4424
913.772	4386
913.886	4276
914	4181
914.113	4375
914.226	4405
914.34	4394
914.453	4238
914.566	4424
914.68	4352
914.793	4314
914.906	4173
915.019	4154
915.132	4067
915.245	4143
915.358	4181
915.47	4219
915.583	4268
915.696	4272
915.809	4394
915.921	4424
916.034	4196
916.146	4268
916.259	4223
916.371	4356
916.483	4344
916.595	4284
916.708	4280
916.82	4299
916.932	4352
917.044	4318
917.156	4352
917.268	4238
917.38	4295
917.491	4276
917.603	4405
917.715	4405
917.826	4421
917.938	4356
918.049	4227
918.161	4371
918.272	4535
918.384	4500
918.495	4497
918.606	4276
918.717	4223
918.828	4371
918.939	4405
919.05	4238
919.161	4352
919.272	4082
919.383	4227
919.494	4462
919.604	4664
919.715	4447
919.826	4344
919.936	4394
920.047	4512
920.157	4500
920.267	4717
920.378	4500
920.488	4508
920.598	4740
920.708	4858
920.818	4748
920.928	4733
921.038	4987
921.148	4930
921.258	4634
921.368	4577
921.477	4504
921.587	4466
921.697	4375
921.806	4500
921.916	4394
922.025	4295
922.134	4318
922.244	4215
922.353	4322
922.462	4200
922.571	4169
922.68	4044
922.789	3972
922.898	4040
923.007	3983
923.116	4082
923.224	4051
923.333	4147
923.442	3979
923.55	3956
923.659	4032
923.767	4101
923.876	4040
923.984	4048
924.092	4010
924.201	4097
924.309	4082
924.417	4120
924.525	4071
924.633	4147
924.741	5014
924.849	3979
924.956	4112
925.064	4002
925.172	3937
925.279	3960
925.387	4093
925.494	4051
925.602	4200
925.709	4173
925.816	4036
925.924	4086
926.031	4169
926.138	4166
926.245	4166
926.352	4105
926.459	4257
926.566	4284
926.673	4188
926.779	4078
926.886	4078
926.993	3972
927.099	3945
927.206	3896
927.312	3956
927.419	4082
927.525	4017
927.631	4078
927.737	3994
927.843	3926
927.95	3808
928.056	3899
928.162	3987
928.267	4090
928.373	4702
928.479	4147
928.585	3911
928.69	3994
928.796	4063
928.901	3937
929.007	3831
929.112	4036
929.218	3987
929.323	3991
929.428	3972
929.533	4097
929.638	3903
929.743	3953
929.848	4040
929.953	3983
930.058	3926
930.163	3804
930.267	3816
930.372	3968
930.477	3835
930.581	4063
930.685	3911
930.79	3819
930.894	3857
930.998	3846
931.103	3994
931.207	3698
931.311	3679
931.415	3690
931.519	3496
931.623	3534
