Data from test_V78500241_1165.txt Node
Date: Fri Mar 25 16:57:06 CST 2022
User: usil
Spectrometer: V785-0024
Trigger mode: 0
Integration Time (sec): 4.000000E-1
Scans to average: 1
Nonlinearity correction enabled: false
Boxcar width: 0
Storing dark spectrum: false
XAxis mode: Wavelengths
Number of Pixels in Spectrum: 1024
>>>>>Begin Spectral Data<<<<<
801.071	8062
801.214	8062
801.356	7883
801.499	7860
801.641	7795
801.783	7734
801.926	7978
802.068	7917
802.211	7887
802.353	7974
802.496	7883
802.638	7925
802.78	7868
802.923	7955
803.065	7852
803.208	7803
803.35	7940
803.492	8100
803.635	8244
803.777	8073
803.919	8176
804.061	8495
804.204	8214
804.346	8065
804.488	7970
804.63	8115
804.773	8027
804.915	8119
805.057	8298
805.199	8168
805.341	8229
805.483	8309
805.626	8210
805.768	8134
805.91	8183
806.052	8206
806.194	8138
806.336	8279
806.478	8119
806.62	8031
806.762	8123
806.904	8286
807.046	8476
807.188	8336
807.33	8187
807.472	8290
807.614	8119
807.756	8134
807.898	8024
808.04	7883
808.182	7902
808.324	7913
808.465	7978
808.607	8050
808.749	8111
808.891	8218
809.033	8279
809.174	8206
809.316	8115
809.458	7978
809.6	8054
809.741	8005
809.883	7989
810.025	8107
810.166	8081
810.308	8054
810.45	7993
810.591	7849
810.733	7738
810.875	7685
811.016	7502
811.158	7472
811.299	7552
811.441	7666
811.582	7712
811.724	7628
811.865	7597
812.007	7556
812.148	7521
812.29	7643
812.431	7727
812.573	7860
812.714	7951
812.855	8130
812.997	8180
813.138	8301
813.279	8115
813.421	8161
813.562	8020
813.703	7841
813.845	7792
813.986	7396
814.127	7289
814.268	7316
814.41	7198
814.551	7156
814.692	7194
814.833	7019
814.974	7061
815.115	7042
815.256	6920
815.397	6913
815.539	6973
815.68	6818
815.821	6760
815.962	6856
816.103	6833
816.244	6696
816.385	6620
816.526	6673
816.666	6486
816.807	6308
816.948	6452
817.089	6517
817.23	6483
817.371	6395
817.512	6346
817.653	6388
817.793	6353
817.934	6388
818.075	6471
818.216	6361
818.356	6331
818.497	6182
818.638	6148
818.778	6106
818.919	6125
819.06	6155
819.2	6296
819.341	6304
819.481	6399
819.622	6525
819.762	6662
819.903	6650
820.043	6525
820.184	6585
820.324	6513
820.465	6623
820.605	6669
820.746	6601
820.886	6441
821.026	6658
821.167	6741
821.307	6757
821.447	6764
821.588	6684
821.728	6555
821.868	6460
822.008	6327
822.149	6388
822.289	6388
822.429	6136
822.569	6110
822.709	6098
822.849	5912
822.99	5885
823.13	5893
823.27	5923
823.41	5729
823.55	5745
823.69	5790
823.83	5851
823.97	5695
824.11	5551
824.25	5478
824.389	5501
824.529	5547
824.669	5577
824.809	5627
824.949	5703
825.089	5604
825.228	5543
825.368	5353
825.508	5360
825.648	5318
825.787	5376
825.927	5414
826.067	5280
826.206	5307
826.346	5429
826.485	5478
826.625	5387
826.765	5535
826.904	5444
827.044	5242
827.183	5223
827.323	5181
827.462	5292
827.601	5220
827.741	5174
827.88	5288
828.02	5170
828.159	5258
828.298	5299
828.437	5391
828.577	5265
828.716	5505
828.855	5315
828.994	5201
829.134	5208
829.273	5201
829.412	5193
829.551	5136
829.69	5227
829.829	5231
829.968	5402
830.107	5303
830.246	5299
830.385	5170
830.524	5166
830.663	5052
830.802	5014
830.941	4911
831.08	4972
831.219	4995
831.357	4961
831.496	5178
831.635	4953
831.774	4854
831.913	4847
832.051	4763
832.19	4763
832.329	4927
832.467	4721
832.606	4675
832.744	4797
832.883	4752
833.022	4778
833.16	4858
833.299	4835
833.437	4839
833.576	4873
833.714	4843
833.852	4870
833.991	4942
834.129	4972
834.267	5029
834.406	4968
834.544	5029
834.682	5033
834.821	4984
834.959	5174
835.097	4980
835.235	5136
835.373	5136
835.511	5105
835.65	5022
835.788	5121
835.926	4965
836.064	4858
836.202	4927
836.34	5258
836.478	5258
836.615	5185
836.753	5258
836.891	5334
837.029	5235
837.167	5189
837.305	5113
837.443	5143
837.58	5067
837.718	5227
837.856	5227
837.993	5204
838.131	5280
838.269	5242
838.406	5197
838.544	5204
838.681	5071
838.819	5067
838.956	4934
839.094	4942
839.231	4987
839.369	5079
839.506	5402
839.643	5299
839.781	5105
839.918	5052
840.055	5113
840.193	5159
840.33	5147
840.467	5178
840.604	5185
840.742	5417
840.879	5064
841.016	5090
841.153	5128
841.29	5429
841.427	5349
841.564	5322
841.701	5368
841.838	5288
841.975	5265
842.112	5242
842.249	5185
842.385	5140
842.522	5353
842.659	5178
842.796	5197
842.933	5185
843.069	5185
843.206	5189
843.343	5322
843.479	5246
843.616	5357
843.752	5079
843.889	5037
844.025	5254
844.162	5075
844.298	5212
844.435	5094
844.571	5094
844.708	5235
844.844	5318
844.98	5315
845.117	5318
845.253	5151
845.389	5041
845.525	5159
845.661	5147
845.798	5037
845.934	5159
846.07	5048
846.206	5231
846.342	5334
846.478	5197
846.614	5056
846.75	4976
846.886	4965
847.022	5212
847.158	5060
847.294	5045
847.429	5143
847.565	5056
847.701	5360
847.837	4877
847.972	4885
848.108	4942
848.244	4968
848.379	4820
848.515	4763
848.65	4721
848.786	4740
848.921	4771
849.057	4911
849.192	4862
849.328	4843
849.463	4843
849.598	4847
849.734	4736
849.869	4710
850.004	4637
850.14	4683
850.275	4637
850.41	4561
850.545	4634
850.68	4630
850.815	4618
850.95	4664
851.085	4850
851.22	4778
851.355	4675
851.49	4626
851.625	4653
851.76	4634
851.895	4565
852.03	4535
852.165	4660
852.299	4714
852.434	4786
852.569	4729
852.703	4748
852.838	4911
852.973	4972
853.107	4923
853.242	4763
853.376	4694
853.511	4577
853.645	4607
853.78	4843
853.914	4717
854.048	4683
854.183	4687
854.317	4725
854.451	4850
854.585	4714
854.72	4679
854.854	4748
854.988	4607
855.122	4668
855.256	4596
855.39	4687
855.524	4782
855.658	4801
855.792	4725
855.926	4721
856.06	4767
856.194	4858
856.327	4706
856.461	4626
856.595	4622
856.729	4611
856.862	4767
856.996	4809
857.13	4740
857.263	4793
857.397	4755
857.53	4698
857.664	4736
857.797	4790
857.931	4828
858.064	4710
858.197	4771
858.331	4675
858.464	4641
858.597	4535
858.731	4558
858.864	4637
858.997	4653
859.13	4679
859.263	4714
859.396	4714
859.529	4592
859.662	4634
859.795	4558
859.928	4691
860.061	4782
860.194	4824
860.327	4664
860.46	4577
860.592	4672
860.725	4702
860.858	4740
860.99	4603
861.123	4554
861.256	4584
861.388	4611
861.521	5201
861.653	4481
861.786	4455
861.918	4451
862.05	4519
862.183	4584
862.315	4588
862.447	4653
862.58	4546
862.712	4398
862.844	4348
862.976	4508
863.108	4478
863.24	4889
863.372	4356
863.504	4394
863.636	4500
863.768	4478
863.9	4436
864.032	4440
864.164	4428
864.296	4455
864.428	4550
864.559	4592
864.691	4519
864.823	4558
864.954	4519
865.086	4516
865.217	4474
865.349	4462
865.48	4466
865.612	4535
865.743	4637
865.875	4478
866.006	4474
866.137	4504
866.269	4481
866.4	4451
866.531	4417
866.662	4436
866.793	4424
866.924	4443
867.055	4516
867.186	4451
867.317	4409
867.448	4329
867.579	4398
867.71	4424
867.841	4394
867.972	4500
868.103	4489
868.233	4474
868.364	4440
868.495	4512
868.625	4694
868.756	4725
868.886	4561
869.017	4637
869.147	4812
869.278	4816
869.408	4653
869.539	4653
869.669	4714
869.799	4653
869.929	4767
870.06	4809
870.19	4987
870.32	4915
870.45	4946
870.58	5033
870.71	5121
870.84	5067
870.97	4980
871.1	4904
871.23	5170
871.36	5143
871.489	5041
871.619	5064
871.749	5102
871.879	5162
872.008	5204
872.138	5086
872.267	5022
872.397	4850
872.526	4885
872.656	4679
872.785	4793
872.915	5014
873.044	5075
873.173	4892
873.303	4968
873.432	4957
873.561	4946
873.69	4866
873.819	4885
873.948	4953
874.077	4858
874.206	4782
874.335	4835
874.464	4919
874.593	5083
874.722	4984
874.851	5083
874.979	5025
875.108	5071
875.237	4972
875.365	4858
875.494	4854
875.623	4968
875.751	4850
875.88	4908
876.008	5006
876.136	5010
876.265	5223
876.393	5303
876.521	5197
876.65	5242
876.778	5151
876.906	5018
877.034	5048
877.162	5025
877.29	4991
877.418	5056
877.546	5041
877.674	5064
877.802	5056
877.93	5045
878.058	4904
878.185	4900
878.313	4980
878.441	4987
878.568	4797
878.696	4828
878.824	4942
878.951	4999
879.079	5155
879.206	5372
879.333	5090
879.461	4991
879.588	4984
879.715	5113
879.842	5254
879.97	5014
880.097	4793
880.224	4774
880.351	4824
880.478	4816
880.605	4771
880.732	4771
880.859	5086
880.986	4919
881.112	4961
881.239	4778
881.366	4702
881.493	4607
881.619	4615
881.746	4618
881.872	4649
881.999	4668
882.125	4717
882.252	4801
882.378	4782
882.505	4965
882.631	4831
882.757	4679
882.883	4706
883.01	4721
883.136	4675
883.262	4596
883.388	4634
883.514	4778
883.64	4919
883.766	4812
883.892	4687
884.018	4752
884.143	4892
884.269	5033
884.395	4729
884.52	4645
884.646	4668
884.772	4622
884.897	4611
885.023	4641
885.148	4797
885.274	4843
885.399	4793
885.524	4729
885.65	4710
885.775	4683
885.9	4736
886.025	4892
886.15	4790
886.275	4733
886.4	4664
886.525	4767
886.65	4683
886.775	4714
886.9	4877
887.025	5098
887.149	4831
887.274	4656
887.399	4580
887.523	4607
887.648	4626
887.773	4592
887.897	4767
888.021	4782
888.146	4687
888.27	4809
888.395	4934
888.519	4793
888.643	4782
888.767	4850
888.891	4706
889.015	4618
889.139	4656
889.263	4588
889.387	4733
889.511	4885
889.635	4782
889.759	4653
889.883	4649
890.006	4714
890.13	4835
890.254	4615
890.377	4660
890.501	4580
890.624	4542
890.748	4649
890.871	4531
890.995	4424
891.118	4413
891.241	4584
891.364	4584
891.488	4626
891.611	4485
891.734	4504
891.857	4618
891.98	4523
892.103	4653
892.226	4634
892.349	4493
892.471	4440
892.594	4535
892.717	4615
892.839	4588
892.962	4641
893.085	4691
893.207	4599
893.33	4466
893.452	4497
893.575	4664
893.697	4542
893.819	4812
893.941	4816
894.064	4748
894.186	4599
894.308	4561
894.43	4752
894.552	4816
894.674	4672
894.796	4538
894.918	4660
895.04	4538
895.161	4691
895.283	4660
895.405	4584
895.526	4626
895.648	4740
895.769	4664
895.891	4744
896.012	4748
896.134	4698
896.255	4668
896.376	4603
896.498	4611
896.619	4679
896.74	4569
896.861	4660
896.982	4961
897.103	5143
897.224	4854
897.345	4725
897.466	4702
897.587	4736
897.708	4854
897.828	4774
897.949	4660
898.07	4584
898.19	4592
898.311	4835
898.431	4691
898.552	4767
898.672	4801
898.792	4812
898.913	4733
899.033	4618
899.153	4508
899.273	4398
899.393	4493
899.513	4504
899.633	4577
899.753	4561
899.873	4535
899.993	4584
900.113	4588
900.232	4573
900.352	4596
900.472	4535
900.591	4413
900.711	4466
900.83	4432
900.95	4634
901.069	4698
901.189	4584
901.308	4379
901.427	4303
901.546	4398
901.665	4481
901.784	4466
901.904	4409
902.023	4348
902.141	4162
902.26	4143
902.379	4337
902.498	4200
902.617	4211
902.735	4348
902.854	4413
902.973	4405
903.091	4162
903.21	4230
903.328	4242
903.446	4299
903.565	4257
903.683	4337
903.801	4230
903.919	4390
904.038	4443
904.156	4333
904.274	4455
904.392	4367
904.51	4440
904.627	4466
904.745	4580
904.863	4630
904.981	4455
905.098	4314
905.216	4325
905.334	4478
905.451	4428
905.569	4447
905.686	4554
905.803	4599
905.921	4428
906.038	4554
906.155	4493
906.272	4413
906.389	4455
906.506	4329
906.623	4314
906.74	4390
906.857	4341
906.974	4394
907.091	4656
907.208	4664
907.324	4634
907.441	4508
907.557	4375
907.674	4337
907.79	4356
907.907	4390
908.023	4470
908.139	4451
908.256	4417
908.372	4493
908.488	4470
908.604	4348
908.72	4329
908.836	4436
908.952	4371
909.068	4428
909.184	4615
909.3	4478
909.415	4558
909.531	4577
909.647	4436
909.762	4375
909.878	4333
909.993	4398
910.108	4432
910.224	4409
910.339	4451
910.454	4421
910.57	4379
910.685	4310
910.8	4645
910.915	4599
911.03	4508
911.145	4318
911.259	4371
911.374	4371
911.489	4325
911.604	4291
911.718	4173
911.833	4215
911.947	4124
912.062	4029
912.176	4185
912.291	4238
912.405	4246
912.519	4508
912.633	4512
912.748	4394
912.862	4295
912.976	4192
913.09	4120
913.204	4150
913.318	4272
913.431	4325
913.545	4337
913.659	4432
913.772	4383
913.886	4238
914	4162
914.113	4367
914.226	4451
914.34	4417
914.453	4242
914.566	4413
914.68	4314
914.793	4329
914.906	4204
915.019	4143
915.132	4101
915.245	4215
915.358	4227
915.47	4246
915.583	4261
915.696	4314
915.809	4383
915.921	4413
916.034	4238
916.146	4268
916.259	4253
916.371	4363
916.483	4333
916.595	4238
916.708	4325
916.82	4287
916.932	4348
917.044	4299
917.156	4272
917.268	4257
917.38	4272
917.491	4276
917.603	4356
917.715	4447
917.826	4398
917.938	4329
918.049	4272
918.161	4409
918.272	4527
918.384	4546
918.495	4447
918.606	4284
918.717	4230
918.828	4356
918.939	4363
919.05	4291
919.161	4314
919.272	4135
919.383	4211
919.494	4402
919.604	4637
919.715	4417
919.826	4367
919.936	4417
920.047	4504
920.157	4462
920.267	4687
920.378	4523
920.488	4535
920.598	4714
920.708	4885
920.818	4691
920.928	4714
921.038	4946
921.148	4938
921.258	4664
921.368	4527
921.477	4489
921.587	4481
921.697	4333
921.806	4573
921.916	4462
922.025	4242
922.134	4280
922.244	4181
922.353	4318
922.462	4192
922.571	4090
922.68	4017
922.789	3994
922.898	4029
923.007	4032
923.116	4048
923.224	4071
923.333	4059
923.442	3979
923.55	3945
923.659	4021
923.767	4105
923.876	3994
923.984	4112
924.092	4006
924.201	4090
924.309	4074
924.417	4120
924.525	4048
924.633	4124
924.741	5048
924.849	3930
924.956	4097
925.064	3968
925.172	3918
925.279	4021
925.387	4044
925.494	4040
925.602	4196
925.709	4173
925.816	4059
925.924	4135
926.031	4192
926.138	4227
926.245	4192
926.352	4120
926.459	4257
926.566	4299
926.673	4181
926.779	4101
926.886	4093
926.993	3972
927.099	3949
927.206	3899
927.312	3975
927.419	4059
927.525	4013
927.631	4105
927.737	3964
927.843	3937
927.95	3842
928.056	3937
928.162	4036
928.267	4074
928.373	4649
928.479	4109
928.585	3918
928.69	4025
928.796	4059
928.901	3956
929.007	3865
929.112	3991
929.218	3937
929.323	3956
929.428	3953
929.533	4109
929.638	3903
929.743	3987
929.848	4055
929.953	4010
930.058	3915
930.163	3781
930.267	3800
930.372	3998
930.477	3781
930.581	4105
930.685	3918
930.79	3816
930.894	3865
930.998	3865
931.103	4006
931.207	3720
931.311	3732
931.415	3671
931.519	3481
931.623	3538
