Data from test_V78500241_326.txt Node
Date: Fri Mar 25 16:51:16 CST 2022
User: usil
Spectrometer: V785-0024
Trigger mode: 0
Integration Time (sec): 4.000000E-1
Scans to average: 1
Nonlinearity correction enabled: false
Boxcar width: 0
Storing dark spectrum: false
XAxis mode: Wavelengths
Number of Pixels in Spectrum: 1024
>>>>>Begin Spectral Data<<<<<
801.071	8035
801.214	8050
801.356	7856
801.499	7898
801.641	7852
801.783	7868
801.926	7967
802.068	7951
802.211	7993
802.353	8035
802.496	7951
802.638	7890
802.78	7989
802.923	7970
803.065	7906
803.208	7826
803.35	7989
803.492	8005
803.635	8142
803.777	8035
803.919	8126
804.061	8469
804.204	8199
804.346	8020
804.488	7970
804.63	8130
804.773	7890
804.915	8050
805.057	8298
805.199	8126
805.341	8233
805.483	8210
805.626	8123
805.768	8043
805.91	8153
806.052	8195
806.194	8138
806.336	8377
806.478	8119
806.62	8119
806.762	8153
806.904	8298
807.046	8442
807.188	8339
807.33	8279
807.472	8282
807.614	8176
807.756	8115
807.898	8005
808.04	7890
808.182	7890
808.324	7947
808.465	7986
808.607	8073
808.749	8119
808.891	8195
809.033	8298
809.174	8183
809.316	8054
809.458	8065
809.6	7951
809.741	8035
809.883	8001
810.025	8126
810.166	8126
810.308	8043
810.45	7967
810.591	7860
810.733	7765
810.875	7643
811.016	7556
811.158	7457
811.299	7689
811.441	7769
811.582	7658
811.724	7590
811.865	7540
812.007	7693
812.148	7571
812.29	7609
812.431	7814
812.573	7902
812.714	7970
812.855	8126
812.997	8202
813.138	8324
813.279	8210
813.421	8096
813.562	8020
813.703	7841
813.845	7765
813.986	7384
814.127	7274
814.268	7217
814.41	7244
814.551	7225
814.692	7175
814.833	7065
814.974	7095
815.115	7084
815.256	7000
815.397	6905
815.539	6966
815.68	6802
815.821	6764
815.962	6935
816.103	6852
816.244	6741
816.385	6677
816.526	6654
816.666	6540
816.807	6285
816.948	6388
817.089	6506
817.23	6388
817.371	6376
817.512	6372
817.653	6380
817.793	6372
817.934	6441
818.075	6460
818.216	6456
818.356	6418
818.497	6239
818.638	6136
818.778	6129
818.919	6159
819.06	6167
819.2	6311
819.341	6304
819.481	6384
819.622	6483
819.762	6772
819.903	6642
820.043	6532
820.184	6620
820.324	6551
820.465	6692
820.605	6673
820.746	6616
820.886	6494
821.026	6658
821.167	6662
821.307	6787
821.447	6760
821.588	6700
821.728	6631
821.868	6528
822.008	6334
822.149	6399
822.289	6353
822.429	6159
822.569	6076
822.709	6178
822.849	5984
822.99	5904
823.13	5878
823.27	5912
823.41	5790
823.55	5817
823.69	5790
823.83	5809
823.97	5699
824.11	5532
824.25	5493
824.389	5528
824.529	5592
824.669	5474
824.809	5592
824.949	5649
825.089	5638
825.228	5539
825.368	5334
825.508	5334
825.648	5341
825.787	5383
825.927	5391
826.067	5330
826.206	5330
826.346	5406
826.485	5387
826.625	5372
826.765	5547
826.904	5493
827.044	5284
827.183	5227
827.323	5105
827.462	5216
827.601	5185
827.741	5204
827.88	5220
828.02	5166
828.159	5201
828.298	5341
828.437	5402
828.577	5284
828.716	5486
828.855	5364
828.994	5102
829.134	5162
829.273	5124
829.412	5124
829.551	5174
829.69	5223
829.829	5280
829.968	5357
830.107	5239
830.246	5250
830.385	5147
830.524	5174
830.663	5086
830.802	4999
830.941	4870
831.08	4847
831.219	5006
831.357	4972
831.496	5189
831.635	4949
831.774	4892
831.913	4843
832.051	4710
832.19	4759
832.329	4885
832.467	4710
832.606	4656
832.744	4668
832.883	4744
833.022	4733
833.16	4812
833.299	4866
833.437	4839
833.576	4900
833.714	4843
833.852	4892
833.991	4900
834.129	4953
834.267	4919
834.406	4930
834.544	4972
834.682	5006
834.821	4976
834.959	5181
835.097	4972
835.235	5136
835.373	5113
835.511	5124
835.65	5029
835.788	4999
835.926	4949
836.064	4862
836.202	4866
836.34	5132
836.478	5235
836.615	5136
836.753	5204
836.891	5296
837.029	5242
837.167	5189
837.305	5162
837.443	5174
837.58	5094
837.718	5273
837.856	5193
837.993	5174
838.131	5223
838.269	5231
838.406	5204
838.544	5159
838.681	4999
838.819	5010
838.956	4896
839.094	4927
839.231	4987
839.369	5071
839.506	5448
839.643	5334
839.781	5060
839.918	5045
840.055	5109
840.193	5090
840.33	5067
840.467	5132
840.604	5174
840.742	5436
840.879	5094
841.016	5060
841.153	5143
841.29	5383
841.427	5383
841.564	5280
841.701	5349
841.838	5307
841.975	5231
842.112	5269
842.249	5124
842.385	5086
842.522	5284
842.659	5227
842.796	5147
842.933	5185
843.069	5105
843.206	5170
843.343	5299
843.479	5242
843.616	5246
843.752	5083
843.889	5003
844.025	5197
844.162	5025
844.298	5220
844.435	5060
844.571	5033
844.708	5197
844.844	5280
844.98	5269
845.117	5303
845.253	5136
845.389	5052
845.525	5159
845.661	5147
845.798	5025
845.934	5143
846.07	5025
846.206	5170
846.342	5258
846.478	5121
846.614	5033
846.75	4965
846.886	4957
847.022	5136
847.158	5037
847.294	5018
847.429	5098
847.565	5006
847.701	5326
847.837	4839
847.972	4793
848.108	4946
848.244	4957
848.379	4809
848.515	4733
848.65	4694
848.786	4786
848.921	4752
849.057	4843
849.192	4904
849.328	4816
849.463	4892
849.598	4752
849.734	4763
849.869	4733
850.004	4611
850.14	4687
850.275	4584
850.41	4538
850.545	4584
850.68	4599
850.815	4634
850.95	4626
851.085	4854
851.22	4740
851.355	4630
851.49	4641
851.625	4660
851.76	4637
851.895	4550
852.03	4550
852.165	4694
852.299	4717
852.434	4828
852.569	4767
852.703	4793
852.838	4816
852.973	4953
853.107	4927
853.242	4790
853.376	4752
853.511	4607
853.645	4679
853.78	4793
853.914	4733
854.048	4641
854.183	4706
854.317	4752
854.451	4904
854.585	4714
854.72	4672
854.854	4828
854.988	4607
855.122	4656
855.256	4542
855.39	4668
855.524	4801
855.658	4774
855.792	4786
855.926	4763
856.06	4805
856.194	4828
856.327	4733
856.461	4660
856.595	4664
856.729	4656
856.862	4854
856.996	4721
857.13	4725
857.263	4835
857.397	4809
857.53	4717
857.664	4759
857.797	4824
857.931	4839
858.064	4717
858.197	4782
858.331	4744
858.464	4675
858.597	4596
858.731	4645
858.864	4672
858.997	4611
859.13	4710
859.263	4786
859.396	4736
859.529	4622
859.662	4634
859.795	4561
859.928	4668
860.061	4828
860.194	4820
860.327	4672
860.46	4641
860.592	4748
860.725	4759
860.858	4752
860.99	4603
861.123	4527
861.256	4580
861.388	4675
861.521	5391
861.653	4577
861.786	4462
861.918	4504
862.05	4531
862.183	4550
862.315	4618
862.447	4740
862.58	4611
862.712	4424
862.844	4329
862.976	4474
863.108	4485
863.24	4797
863.372	4383
863.504	4485
863.636	4478
863.768	4573
863.9	4500
864.032	4421
864.164	4489
864.296	4500
864.428	4535
864.559	4565
864.691	4542
864.823	4558
864.954	4561
865.086	4542
865.217	4481
865.349	4459
865.48	4519
865.612	4550
865.743	4656
865.875	4519
866.006	4462
866.137	4519
866.269	4478
866.4	4493
866.531	4432
866.662	4432
866.793	4383
866.924	4436
867.055	4523
867.186	4459
867.317	4489
867.448	4443
867.579	4413
867.71	4432
867.841	4413
867.972	4478
868.103	4512
868.233	4485
868.364	4443
868.495	4546
868.625	4687
868.756	4801
868.886	4561
869.017	4683
869.147	4748
869.278	4793
869.408	4702
869.539	4675
869.669	4733
869.799	4672
869.929	4778
870.06	4778
870.19	4984
870.32	4919
870.45	5010
870.58	5067
870.71	5128
870.84	5136
870.97	4961
871.1	4949
871.23	5189
871.36	5155
871.489	5090
871.619	5102
871.749	5124
871.879	5132
872.008	5155
872.138	5170
872.267	5018
872.397	4889
872.526	4870
872.656	4725
872.785	4831
872.915	4991
873.044	5079
873.173	4968
873.303	5014
873.432	4995
873.561	5010
873.69	4942
873.819	4904
873.948	4976
874.077	4889
874.206	4805
874.335	4812
874.464	4972
874.593	5071
874.722	4984
874.851	5132
874.979	5102
875.108	5071
875.237	4980
875.365	4949
875.494	4953
875.623	5033
875.751	4850
875.88	4919
876.008	4991
876.136	5071
876.265	5296
876.393	5414
876.521	5284
876.65	5258
876.778	5227
876.906	5094
877.034	5086
877.162	5105
877.29	4976
877.418	5102
877.546	5079
877.674	5109
877.802	5045
877.93	5025
878.058	4976
878.185	4938
878.313	5018
878.441	4999
878.568	4809
878.696	4908
878.824	5022
878.951	5037
879.079	5140
879.206	5334
879.333	5136
879.461	5029
879.588	5014
879.715	5216
879.842	5246
879.97	5029
880.097	4774
880.224	4801
880.351	4824
880.478	4816
880.605	4835
880.732	4843
880.859	5094
880.986	4892
881.112	4972
881.239	4896
881.366	4706
881.493	4694
881.619	4618
881.746	4675
881.872	4637
881.999	4683
882.125	4744
882.252	4816
882.378	4885
882.505	5048
882.631	4850
882.757	4679
882.883	4763
883.01	4835
883.136	4714
883.262	4615
883.388	4622
883.514	4854
883.64	4927
883.766	4805
883.892	4729
884.018	4858
884.143	4934
884.269	5037
884.395	4733
884.52	4649
884.646	4710
884.772	4607
884.897	4584
885.023	4744
885.148	4793
885.274	4908
885.399	4790
885.524	4763
885.65	4702
885.775	4778
885.9	4767
886.025	4908
886.15	4873
886.275	4771
886.4	4683
886.525	4767
886.65	4714
886.775	4714
886.9	4938
887.025	5079
887.149	4870
887.274	4710
887.399	4592
887.523	4634
887.648	4596
887.773	4637
887.897	4774
888.021	4839
888.146	4740
888.27	4793
888.395	4957
888.519	4828
888.643	4812
888.767	4854
888.891	4668
889.015	4653
889.139	4637
889.263	4630
889.387	4748
889.511	4919
889.635	4847
889.759	4641
889.883	4679
890.006	4733
890.13	4877
890.254	4675
890.377	4675
890.501	4588
890.624	4546
890.748	4668
890.871	4546
890.995	4470
891.118	4405
891.241	4596
891.364	4573
891.488	4664
891.611	4558
891.734	4584
891.857	4645
891.98	4584
892.103	4691
892.226	4603
892.349	4561
892.471	4474
892.594	4584
892.717	4622
892.839	4626
892.962	4603
893.085	4683
893.207	4668
893.33	4447
893.452	4546
893.575	4683
893.697	4603
893.819	4885
893.941	4839
894.064	4767
894.186	4584
894.308	4599
894.43	4733
894.552	4862
894.674	4774
894.796	4577
894.918	4607
895.04	4603
895.161	4721
895.283	4668
895.405	4569
895.526	4679
895.648	4717
895.769	4748
895.891	4763
896.012	4725
896.134	4805
896.255	4714
896.376	4672
896.498	4645
896.619	4694
896.74	4660
896.861	4664
896.982	4972
897.103	5109
897.224	4812
897.345	4763
897.466	4729
897.587	4767
897.708	4904
897.828	4847
897.949	4687
898.07	4637
898.19	4637
898.311	4870
898.431	4683
898.552	4786
898.672	4820
898.792	4850
898.913	4774
899.033	4683
899.153	4561
899.273	4402
899.393	4474
899.513	4596
899.633	4512
899.753	4565
899.873	4546
899.993	4634
900.113	4565
900.232	4569
900.352	4550
900.472	4542
900.591	4459
900.711	4523
900.83	4455
900.95	4607
901.069	4740
901.189	4596
901.308	4428
901.427	4367
901.546	4421
901.665	4546
901.784	4573
901.904	4371
902.023	4383
902.141	4227
902.26	4188
902.379	4329
902.498	4261
902.617	4265
902.735	4371
902.854	4436
902.973	4363
903.091	4219
903.21	4230
903.328	4322
903.446	4295
903.565	4291
903.683	4375
903.801	4291
903.919	4394
904.038	4455
904.156	4344
904.274	4470
904.392	4432
904.51	4459
904.627	4519
904.745	4603
904.863	4668
904.981	4405
905.098	4341
905.216	4405
905.334	4470
905.451	4516
905.569	4474
905.686	4607
905.803	4573
905.921	4459
906.038	4573
906.155	4451
906.272	4421
906.389	4535
906.506	4394
906.623	4379
906.74	4417
906.857	4325
906.974	4375
907.091	4558
907.208	4717
907.324	4630
907.441	4512
907.557	4325
907.674	4363
907.79	4360
907.907	4386
908.023	4500
908.139	4538
908.256	4455
908.372	4493
908.488	4440
908.604	4325
908.72	4341
908.836	4398
908.952	4409
909.068	4481
909.184	4607
909.3	4485
909.415	4634
909.531	4599
909.647	4375
909.762	4390
909.878	4371
909.993	4519
910.108	4417
910.224	4428
910.339	4489
910.454	4421
910.57	4352
910.685	4348
910.8	4679
910.915	4596
911.03	4497
911.145	4394
911.259	4333
911.374	4371
911.489	4344
911.604	4268
911.718	4200
911.833	4219
911.947	4074
912.062	4090
912.176	4223
912.291	4219
912.405	4299
912.519	4459
912.633	4546
912.748	4390
912.862	4314
912.976	4223
913.09	4112
913.204	4200
913.318	4295
913.431	4394
913.545	4386
913.659	4432
913.772	4421
913.886	4284
914	4268
914.113	4413
914.226	4451
914.34	4356
914.453	4215
914.566	4432
914.68	4314
914.793	4348
914.906	4147
915.019	4162
915.132	4082
915.245	4192
915.358	4246
915.47	4246
915.583	4287
915.696	4295
915.809	4383
915.921	4428
916.034	4253
916.146	4238
916.259	4238
916.371	4390
916.483	4375
916.595	4295
916.708	4322
916.82	4356
916.932	4360
917.044	4333
917.156	4329
917.268	4204
917.38	4329
917.491	4303
917.603	4356
917.715	4398
917.826	4466
917.938	4402
918.049	4276
918.161	4367
918.272	4565
918.384	4538
918.495	4550
918.606	4329
918.717	4280
918.828	4337
918.939	4398
919.05	4261
919.161	4337
919.272	4200
919.383	4257
919.494	4500
919.604	4679
919.715	4432
919.826	4390
919.936	4417
920.047	4542
920.157	4508
920.267	4752
920.378	4603
920.488	4554
920.598	4748
920.708	4976
920.818	4805
920.928	4809
921.038	5006
921.148	4949
921.258	4649
921.368	4615
921.477	4527
921.587	4493
921.697	4478
921.806	4615
921.916	4508
922.025	4314
922.134	4318
922.244	4246
922.353	4383
922.462	4211
922.571	4181
922.68	4032
922.789	4051
922.898	4101
923.007	4082
923.116	4162
923.224	4135
923.333	4166
923.442	4059
923.55	4032
923.659	4063
923.767	4169
923.876	4071
923.984	4177
924.092	4074
924.201	4109
924.309	4097
924.417	4196
924.525	4143
924.633	4181
924.741	4961
924.849	3975
924.956	4166
925.064	4040
925.172	3960
925.279	4025
925.387	4097
925.494	4112
925.602	4238
925.709	4234
925.816	4097
925.924	4154
926.031	4276
926.138	4215
926.245	4268
926.352	4112
926.459	4303
926.566	4322
926.673	4219
926.779	4105
926.886	4071
926.993	4051
927.099	4013
927.206	3979
927.312	4017
927.419	4101
927.525	4048
927.631	4124
927.737	3956
927.843	3941
927.95	3896
928.056	3991
928.162	4032
928.267	4082
928.373	4778
928.479	4124
928.585	3896
928.69	4074
928.796	4109
928.901	4044
929.007	3915
929.112	4055
929.218	3991
929.323	3968
929.428	4017
929.533	4173
929.638	3972
929.743	4006
929.848	4154
929.953	4074
930.058	3998
930.163	3819
930.267	3876
930.372	4036
930.477	3873
930.581	4112
930.685	3953
930.79	3823
930.894	3915
930.998	3892
931.103	4067
931.207	3736
931.311	3747
931.415	3717
931.519	3595
931.623	3561
