Data from test_V78500241_1043.txt Node
Date: Fri Mar 25 16:56:15 CST 2022
User: usil
Spectrometer: V785-0024
Trigger mode: 0
Integration Time (sec): 4.000000E-1
Scans to average: 1
Nonlinearity correction enabled: false
Boxcar width: 0
Storing dark spectrum: false
XAxis mode: Wavelengths
Number of Pixels in Spectrum: 1024
>>>>>Begin Spectral Data<<<<<
801.071	8016
801.214	8069
801.356	7852
801.499	7868
801.641	7792
801.783	7761
801.926	7959
802.068	7887
802.211	7959
802.353	7982
802.496	7761
802.638	7826
802.78	7947
802.923	7936
803.065	7852
803.208	7875
803.35	8035
803.492	8107
803.635	8161
803.777	8062
803.919	8130
804.061	8351
804.204	8103
804.346	8024
804.488	7947
804.63	8142
804.773	7989
804.915	8103
805.057	8271
805.199	8183
805.341	8263
805.483	8271
805.626	8172
805.768	8111
805.91	8195
806.052	8183
806.194	8111
806.336	8271
806.478	8065
806.62	8069
806.762	8126
806.904	8290
807.046	8412
807.188	8301
807.33	8252
807.472	8286
807.614	8195
807.756	8142
807.898	7921
808.04	7898
808.182	7864
808.324	7909
808.465	7902
808.607	8100
808.749	8092
808.891	8263
809.033	8271
809.174	8237
809.316	7989
809.458	8039
809.6	7963
809.741	8001
809.883	8039
810.025	8081
810.166	8027
810.308	8012
810.45	7997
810.591	7879
810.733	7712
810.875	7575
811.016	7499
811.158	7521
811.299	7540
811.441	7662
811.582	7696
811.724	7495
811.865	7464
812.007	7571
812.148	7559
812.29	7609
812.431	7693
812.573	7860
812.714	8016
812.855	8084
812.997	8183
813.138	8279
813.279	8145
813.421	8130
813.562	7963
813.703	7769
813.845	7792
813.986	7495
814.127	7209
814.268	7221
814.41	7141
814.551	7122
814.692	7175
814.833	6970
814.974	7042
815.115	7133
815.256	6878
815.397	6924
815.539	6932
815.68	6856
815.821	6741
815.962	6806
816.103	6802
816.244	6677
816.385	6604
816.526	6608
816.666	6490
816.807	6285
816.948	6391
817.089	6437
817.23	6399
817.371	6388
817.512	6323
817.653	6361
817.793	6346
817.934	6456
818.075	6422
818.216	6388
818.356	6372
818.497	6239
818.638	6159
818.778	6102
818.919	6129
819.06	6159
819.2	6319
819.341	6292
819.481	6334
819.622	6521
819.762	6654
819.903	6688
820.043	6635
820.184	6566
820.324	6551
820.465	6669
820.605	6665
820.746	6608
820.886	6509
821.026	6623
821.167	6658
821.307	6837
821.447	6760
821.588	6684
821.728	6593
821.868	6521
822.008	6338
822.149	6296
822.289	6334
822.429	6102
822.569	6038
822.709	6152
822.849	5916
822.99	5946
823.13	5885
823.27	5939
823.41	5767
823.55	5809
823.69	5760
823.83	5752
823.97	5649
824.11	5543
824.25	5474
824.389	5547
824.529	5554
824.669	5520
824.809	5566
824.949	5611
825.089	5570
825.228	5505
825.368	5421
825.508	5326
825.648	5353
825.787	5379
825.927	5315
826.067	5326
826.206	5239
826.346	5383
826.485	5383
826.625	5360
826.765	5493
826.904	5471
827.044	5216
827.183	5162
827.323	5132
827.462	5201
827.601	5117
827.741	5143
827.88	5235
828.02	5132
828.159	5212
828.298	5296
828.437	5318
828.577	5231
828.716	5493
828.855	5315
828.994	5193
829.134	5090
829.273	5208
829.412	5147
829.551	5083
829.69	5166
829.829	5208
829.968	5379
830.107	5330
830.246	5223
830.385	5151
830.524	5124
830.663	5010
830.802	4984
830.941	4877
831.08	4812
831.219	4938
831.357	4976
831.496	5143
831.635	4919
831.774	4828
831.913	4782
832.051	4668
832.19	4721
832.329	4854
832.467	4748
832.606	4622
832.744	4710
832.883	4698
833.022	4691
833.16	4831
833.299	4786
833.437	4797
833.576	4797
833.714	4828
833.852	4801
833.991	4900
834.129	4949
834.267	4923
834.406	4881
834.544	4923
834.682	4995
834.821	4946
834.959	5151
835.097	4980
835.235	5151
835.373	5102
835.511	5102
835.65	4961
835.788	5033
835.926	4858
836.064	4866
836.202	4930
836.34	5117
836.478	5204
836.615	5109
836.753	5201
836.891	5258
837.029	5208
837.167	5181
837.305	5124
837.443	5121
837.58	5098
837.718	5227
837.856	5151
837.993	5117
838.131	5212
838.269	5170
838.406	5212
838.544	5162
838.681	4972
838.819	4976
838.956	4870
839.094	4866
839.231	4946
839.369	5056
839.506	5417
839.643	5250
839.781	5083
839.918	5029
840.055	5045
840.193	5071
840.33	5124
840.467	5117
840.604	5197
840.742	5406
840.879	5067
841.016	5102
841.153	5136
841.29	5357
841.427	5315
841.564	5284
841.701	5311
841.838	5231
841.975	5208
842.112	5235
842.249	5117
842.385	5117
842.522	5307
842.659	5132
842.796	5128
842.933	5193
843.069	5140
843.206	5162
843.343	5212
843.479	5151
843.616	5261
843.752	5029
843.889	4999
844.025	5174
844.162	5006
844.298	5201
844.435	5056
844.571	5048
844.708	5231
844.844	5330
844.98	5326
845.117	5292
845.253	5155
845.389	5067
845.525	5143
845.661	5109
845.798	4961
845.934	5102
846.07	5022
846.206	5193
846.342	5231
846.478	5098
846.614	4942
846.75	4911
846.886	4938
847.022	5185
847.158	4991
847.294	5045
847.429	5083
847.565	4999
847.701	5341
847.837	4873
847.972	4797
848.108	4934
848.244	4923
848.379	4763
848.515	4679
848.65	4763
848.786	4744
848.921	4774
849.057	4831
849.192	4881
849.328	4847
849.463	4816
849.598	4755
849.734	4733
849.869	4656
850.004	4615
850.14	4660
850.275	4573
850.41	4523
850.545	4508
850.68	4584
850.815	4584
850.95	4622
851.085	4828
851.22	4729
851.355	4672
851.49	4580
851.625	4588
851.76	4615
851.895	4550
852.03	4516
852.165	4679
852.299	4706
852.434	4778
852.569	4710
852.703	4816
852.838	4805
852.973	4896
853.107	4908
853.242	4698
853.376	4672
853.511	4546
853.645	4611
853.78	4793
853.914	4672
854.048	4664
854.183	4649
854.317	4637
854.451	4801
854.585	4660
854.72	4622
854.854	4721
854.988	4588
855.122	4611
855.256	4500
855.39	4698
855.524	4771
855.658	4714
855.792	4710
855.926	4702
856.06	4714
856.194	4835
856.327	4675
856.461	4615
856.595	4592
856.729	4645
856.862	4744
856.996	4649
857.13	4694
857.263	4767
857.397	4752
857.53	4596
857.664	4687
857.797	4729
857.931	4729
858.064	4645
858.197	4752
858.331	4626
858.464	4607
858.597	4516
858.731	4573
858.864	4618
858.997	4546
859.13	4641
859.263	4664
859.396	4698
859.529	4542
859.662	4588
859.795	4493
859.928	4656
860.061	4778
860.194	4778
860.327	4592
860.46	4596
860.592	4698
860.725	4702
860.858	4672
860.99	4550
861.123	4485
861.256	4508
861.388	4577
861.521	5299
861.653	4550
861.786	4424
861.918	4470
862.05	4531
862.183	4577
862.315	4611
862.447	4668
862.58	4508
862.712	4356
862.844	4295
862.976	4500
863.108	4497
863.24	4866
863.372	4310
863.504	4390
863.636	4443
863.768	4512
863.9	4462
864.032	4375
864.164	4402
864.296	4489
864.428	4508
864.559	4531
864.691	4516
864.823	4478
864.954	4481
865.086	4466
865.217	4474
865.349	4402
865.48	4432
865.612	4428
865.743	4588
865.875	4478
866.006	4421
866.137	4478
866.269	4436
866.4	4421
866.531	4428
866.662	4405
866.793	4428
866.924	4386
867.055	4523
867.186	4443
867.317	4413
867.448	4299
867.579	4379
867.71	4402
867.841	4363
867.972	4451
868.103	4432
868.233	4405
868.364	4443
868.495	4451
868.625	4675
868.756	4733
868.886	4512
869.017	4626
869.147	4755
869.278	4706
869.408	4577
869.539	4645
869.669	4664
869.799	4599
869.929	4744
870.06	4694
870.19	4934
870.32	4911
870.45	4976
870.58	5014
870.71	5060
870.84	5109
870.97	4930
871.1	4850
871.23	5113
871.36	5113
871.489	4976
871.619	5067
871.749	5025
871.879	5094
872.008	5166
872.138	5022
872.267	4915
872.397	4850
872.526	4782
872.656	4656
872.785	4809
872.915	4904
873.044	5014
873.173	4911
873.303	4870
873.432	4946
873.561	4938
873.69	4850
873.819	4885
873.948	4881
874.077	4790
874.206	4679
874.335	4801
874.464	4850
874.593	5037
874.722	4923
874.851	5071
874.979	5067
875.108	4995
875.237	4858
875.365	4839
875.494	4873
875.623	4957
875.751	4763
875.88	4835
876.008	4972
876.136	4980
876.265	5166
876.393	5296
876.521	5265
876.65	5223
876.778	5143
876.906	5121
877.034	4972
877.162	4972
877.29	4984
877.418	5075
877.546	5025
877.674	5048
877.802	5022
877.93	4987
878.058	4930
878.185	4900
878.313	4949
878.441	5003
878.568	4752
878.696	4934
878.824	4984
878.951	5014
879.079	5155
879.206	5299
879.333	5147
879.461	4984
879.588	5052
879.715	5220
879.842	5239
879.97	5010
880.097	4801
880.224	4801
880.351	4835
880.478	4866
880.605	4824
880.732	4843
880.859	5140
880.986	4896
881.112	4889
881.239	4786
881.366	4725
881.493	4687
881.619	4634
881.746	4675
881.872	4698
881.999	4649
882.125	4702
882.252	4843
882.378	4831
882.505	4965
882.631	4801
882.757	4687
882.883	4812
883.01	4744
883.136	4672
883.262	4668
883.388	4626
883.514	4847
883.64	4900
883.766	4809
883.892	4679
884.018	4759
884.143	4873
884.269	5045
884.395	4698
884.52	4672
884.646	4675
884.772	4660
884.897	4618
885.023	4710
885.148	4831
885.274	4858
885.399	4824
885.524	4759
885.65	4736
885.775	4790
885.9	4748
886.025	4885
886.15	4847
886.275	4736
886.4	4698
886.525	4744
886.65	4706
886.775	4702
886.9	4919
887.025	5075
887.149	4866
887.274	4660
887.399	4618
887.523	4656
887.648	4577
887.773	4599
887.897	4805
888.021	4801
888.146	4714
888.27	4812
888.395	4911
888.519	4870
888.643	4805
888.767	4889
888.891	4679
889.015	4630
889.139	4672
889.263	4634
889.387	4786
889.511	4866
889.635	4850
889.759	4664
889.883	4717
890.006	4744
890.13	4858
890.254	4630
890.377	4725
890.501	4558
890.624	4500
890.748	4626
890.871	4546
890.995	4500
891.118	4455
891.241	4531
891.364	4546
891.488	4656
891.611	4569
891.734	4531
891.857	4634
891.98	4592
892.103	4656
892.226	4622
892.349	4527
892.471	4417
892.594	4577
892.717	4550
892.839	4565
892.962	4645
893.085	4664
893.207	4637
893.33	4493
893.452	4558
893.575	4679
893.697	4630
893.819	4831
893.941	4847
894.064	4862
894.186	4618
894.308	4615
894.43	4736
894.552	4835
894.674	4759
894.796	4611
894.918	4558
895.04	4569
895.161	4729
895.283	4656
895.405	4615
895.526	4660
895.648	4729
895.769	4714
895.891	4733
896.012	4725
896.134	4759
896.255	4683
896.376	4603
896.498	4649
896.619	4744
896.74	4622
896.861	4656
896.982	4930
897.103	5128
897.224	4873
897.345	4710
897.466	4691
897.587	4763
897.708	4862
897.828	4801
897.949	4725
898.07	4558
898.19	4649
898.311	4870
898.431	4702
898.552	4767
898.672	4816
898.792	4885
898.913	4809
899.033	4710
899.153	4561
899.273	4462
899.393	4523
899.513	4565
899.633	4538
899.753	4561
899.873	4577
899.993	4599
900.113	4577
900.232	4592
900.352	4596
900.472	4451
900.591	4440
900.711	4504
900.83	4462
900.95	4683
901.069	4729
901.189	4607
901.308	4413
901.427	4333
901.546	4390
901.665	4516
901.784	4527
901.904	4413
902.023	4356
902.141	4211
902.26	4211
902.379	4348
902.498	4310
902.617	4249
902.735	4413
902.854	4409
902.973	4352
903.091	4211
903.21	4207
903.328	4337
903.446	4325
903.565	4257
903.683	4375
903.801	4306
903.919	4371
904.038	4447
904.156	4352
904.274	4443
904.392	4398
904.51	4436
904.627	4497
904.745	4558
904.863	4656
904.981	4390
905.098	4375
905.216	4443
905.334	4413
905.451	4481
905.569	4432
905.686	4603
905.803	4607
905.921	4417
906.038	4599
906.155	4504
906.272	4390
906.389	4459
906.506	4432
906.623	4432
906.74	4379
906.857	4371
906.974	4402
907.091	4584
907.208	4755
907.324	4618
907.441	4531
907.557	4360
907.674	4333
907.79	4325
907.907	4398
908.023	4466
908.139	4493
908.256	4436
908.372	4470
908.488	4542
908.604	4375
908.72	4352
908.836	4390
908.952	4390
909.068	4428
909.184	4569
909.3	4489
909.415	4615
909.531	4584
909.647	4367
909.762	4428
909.878	4337
909.993	4489
910.108	4417
910.224	4386
910.339	4508
910.454	4417
910.57	4386
910.685	4280
910.8	4717
910.915	4584
911.03	4523
911.145	4341
911.259	4341
911.374	4379
911.489	4322
911.604	4284
911.718	4249
911.833	4268
911.947	4109
912.062	4055
912.176	4265
912.291	4242
912.405	4261
912.519	4489
912.633	4558
912.748	4386
912.862	4318
912.976	4196
913.09	4093
913.204	4215
913.318	4272
913.431	4383
913.545	4360
913.659	4474
913.772	4383
913.886	4257
914	4215
914.113	4337
914.226	4405
914.34	4432
914.453	4265
914.566	4432
914.68	4325
914.793	4348
914.906	4154
915.019	4154
915.132	4067
915.245	4230
915.358	4242
915.47	4261
915.583	4284
915.696	4306
915.809	4360
915.921	4443
916.034	4287
916.146	4238
916.259	4261
916.371	4371
916.483	4379
916.595	4299
916.708	4325
916.82	4341
916.932	4360
917.044	4295
917.156	4329
917.268	4204
917.38	4303
917.491	4306
917.603	4421
917.715	4413
917.826	4417
917.938	4352
918.049	4265
918.161	4413
918.272	4573
918.384	4542
918.495	4447
918.606	4303
918.717	4280
918.828	4322
918.939	4344
919.05	4295
919.161	4337
919.272	4101
919.383	4249
919.494	4443
919.604	4626
919.715	4455
919.826	4371
919.936	4409
920.047	4527
920.157	4500
920.267	4679
920.378	4592
920.488	4535
920.598	4702
920.708	4896
920.818	4778
920.928	4809
921.038	4984
921.148	4919
921.258	4660
921.368	4569
921.477	4580
921.587	4485
921.697	4405
921.806	4519
921.916	4432
922.025	4265
922.134	4257
922.244	4196
922.353	4360
922.462	4242
922.571	4147
922.68	4048
922.789	4017
922.898	4101
923.007	4032
923.116	4124
923.224	4067
923.333	4090
923.442	4013
923.55	3956
923.659	4036
923.767	4135
923.876	4013
923.984	4139
924.092	3975
924.201	4116
924.309	4097
924.417	4181
924.525	4059
924.633	4128
924.741	5052
924.849	3937
924.956	4162
925.064	3987
925.172	3930
925.279	3956
925.387	4059
925.494	4082
925.602	4200
925.709	4192
925.816	4051
925.924	4158
926.031	4219
926.138	4196
926.245	4242
926.352	4093
926.459	4265
926.566	4303
926.673	4181
926.779	4105
926.886	4109
926.993	4029
927.099	3964
927.206	3930
927.312	3975
927.419	4071
927.525	4017
927.631	4105
927.737	3983
927.843	3968
927.95	3903
928.056	3926
928.162	4025
928.267	4086
928.373	4653
928.479	4162
928.585	3907
928.69	4063
928.796	4074
928.901	3956
929.007	3857
929.112	4025
929.218	3987
929.323	3922
929.428	3930
929.533	4116
929.638	3979
929.743	3960
929.848	4078
929.953	4025
930.058	3956
930.163	3797
930.267	3819
930.372	4010
930.477	3812
930.581	4093
930.685	3915
930.79	3842
930.894	3903
930.998	3861
931.103	4071
931.207	3740
931.311	3705
931.415	3637
931.519	3534
931.623	3587
