Data from test_V78500241_2827.txt Node
Date: Fri Mar 25 17:08:39 CST 2022
User: usil
Spectrometer: V785-0024
Trigger mode: 0
Integration Time (sec): 4.000000E-1
Scans to average: 1
Nonlinearity correction enabled: false
Boxcar width: 0
Storing dark spectrum: false
XAxis mode: Wavelengths
Number of Pixels in Spectrum: 1024
>>>>>Begin Spectral Data<<<<<
801.071	7997
801.214	7989
801.356	7887
801.499	7868
801.641	7833
801.783	7845
801.926	7906
802.068	7913
802.211	7947
802.353	8031
802.496	7894
802.638	7921
802.78	7978
802.923	7913
803.065	7841
803.208	7890
803.35	7959
803.492	8103
803.635	8138
803.777	8081
803.919	8172
804.061	8434
804.204	8111
804.346	8100
804.488	7974
804.63	8073
804.773	7970
804.915	8168
805.057	8286
805.199	8134
805.341	8233
805.483	8263
805.626	8221
805.768	8138
805.91	8252
806.052	8225
806.194	8084
806.336	8347
806.478	8142
806.62	8043
806.762	8191
806.904	8267
807.046	8507
807.188	8385
807.33	8389
807.472	8355
807.614	8183
807.756	8195
807.898	8027
808.04	7925
808.182	7894
808.324	7940
808.465	7932
808.607	8149
808.749	8240
808.891	8210
809.033	8237
809.174	8301
809.316	8096
809.458	8039
809.6	7986
809.741	8081
809.883	8168
810.025	8134
810.166	8031
810.308	8035
810.45	8073
810.591	7890
810.733	7753
810.875	7689
811.016	7559
811.158	7582
811.299	7662
811.441	7830
811.582	7704
811.724	7590
811.865	7563
812.007	7674
812.148	7582
812.29	7734
812.431	7769
812.573	7871
812.714	7982
812.855	8168
812.997	8259
813.138	8347
813.279	8187
813.421	8123
813.562	7978
813.703	7894
813.845	7780
813.986	7487
814.127	7236
814.268	7266
814.41	7266
814.551	7206
814.692	7209
814.833	7061
814.974	7076
815.115	7050
815.256	6996
815.397	6947
815.539	6996
815.68	6818
815.821	6798
815.962	6935
816.103	6837
816.244	6760
816.385	6658
816.526	6604
816.666	6566
816.807	6334
816.948	6467
817.089	6460
817.23	6498
817.371	6422
817.512	6414
817.653	6437
817.793	6410
817.934	6475
818.075	6498
818.216	6448
818.356	6448
818.497	6300
818.638	6171
818.778	6163
818.919	6182
819.06	6152
819.2	6361
819.341	6331
819.481	6414
819.622	6623
819.762	6795
819.903	6757
820.043	6627
820.184	6616
820.324	6601
820.465	6749
820.605	6722
820.746	6707
820.886	6570
821.026	6692
821.167	6719
821.307	6806
821.447	6795
821.588	6700
821.728	6642
821.868	6479
822.008	6357
822.149	6407
822.289	6350
822.429	6190
822.569	6121
822.709	6197
822.849	5977
822.99	5901
823.13	5977
823.27	5939
823.41	5828
823.55	5805
823.69	5813
823.83	5783
823.97	5672
824.11	5524
824.25	5573
824.389	5520
824.529	5596
824.669	5520
824.809	5638
824.949	5703
825.089	5608
825.228	5592
825.368	5398
825.508	5372
825.648	5307
825.787	5368
825.927	5360
826.067	5353
826.206	5265
826.346	5398
826.485	5387
826.625	5406
826.765	5509
826.904	5482
827.044	5307
827.183	5201
827.323	5121
827.462	5280
827.601	5216
827.741	5231
827.88	5216
828.02	5124
828.159	5246
828.298	5337
828.437	5383
828.577	5284
828.716	5421
828.855	5379
828.994	5143
829.134	5155
829.273	5193
829.412	5094
829.551	5124
829.69	5174
829.829	5250
829.968	5406
830.107	5273
830.246	5296
830.385	5223
830.524	5155
830.663	5075
830.802	4953
830.941	4896
831.08	4930
831.219	4961
831.357	4961
831.496	5197
831.635	5006
831.774	4843
831.913	4839
832.051	4755
832.19	4733
832.329	4835
832.467	4687
832.606	4634
832.744	4740
832.883	4717
833.022	4729
833.16	4782
833.299	4831
833.437	4812
833.576	4854
833.714	4850
833.852	4904
833.991	4927
834.129	4984
834.267	4923
834.406	4923
834.544	5033
834.682	4957
834.821	4961
834.959	5208
835.097	4961
835.235	5189
835.373	5132
835.511	5109
835.65	5018
835.788	5075
835.926	4908
836.064	4927
836.202	4961
836.34	5136
836.478	5239
836.615	5121
836.753	5242
836.891	5315
837.029	5277
837.167	5201
837.305	5140
837.443	5136
837.58	5105
837.718	5265
837.856	5208
837.993	5143
838.131	5220
838.269	5227
838.406	5223
838.544	5166
838.681	5003
838.819	5018
838.956	4877
839.094	4911
839.231	5014
839.369	5037
839.506	5421
839.643	5288
839.781	5025
839.918	4995
840.055	5140
840.193	5060
840.33	5121
840.467	5159
840.604	5181
840.742	5455
840.879	5079
841.016	5090
841.153	5170
841.29	5391
841.427	5303
841.564	5292
841.701	5410
841.838	5307
841.975	5208
842.112	5299
842.249	5136
842.385	5132
842.522	5326
842.659	5193
842.796	5178
842.933	5166
843.069	5113
843.206	5155
843.343	5322
843.479	5201
843.616	5258
843.752	5045
843.889	5075
844.025	5201
844.162	5048
844.298	5246
844.435	5037
844.571	5048
844.708	5239
844.844	5269
844.98	5345
845.117	5303
845.253	5136
845.389	5052
845.525	5185
845.661	5178
845.798	5086
845.934	5098
846.07	5018
846.206	5189
846.342	5280
846.478	5208
846.614	4995
846.75	4999
846.886	4908
847.022	5128
847.158	5060
847.294	5086
847.429	5086
847.565	5075
847.701	5353
847.837	4847
847.972	4847
848.108	4919
848.244	4934
848.379	4797
848.515	4763
848.65	4736
848.786	4748
848.921	4763
849.057	4885
849.192	4915
849.328	4797
849.463	4816
849.598	4839
849.734	4740
849.869	4717
850.004	4622
850.14	4615
850.275	4611
850.41	4504
850.545	4542
850.68	4592
850.815	4611
850.95	4596
851.085	4877
851.22	4790
851.355	4668
851.49	4626
851.625	4611
851.76	4660
851.895	4550
852.03	4512
852.165	4675
852.299	4714
852.434	4809
852.569	4771
852.703	4771
852.838	4877
852.973	4896
853.107	4927
853.242	4736
853.376	4618
853.511	4538
853.645	4622
853.78	4831
853.914	4668
854.048	4649
854.183	4645
854.317	4687
854.451	4847
854.585	4691
854.72	4615
854.854	4778
854.988	4584
855.122	4626
855.256	4504
855.39	4660
855.524	4771
855.658	4687
855.792	4694
855.926	4725
856.06	4752
856.194	4790
856.327	4694
856.461	4668
856.595	4611
856.729	4618
856.862	4729
856.996	4672
857.13	4744
857.263	4763
857.397	4816
857.53	4641
857.664	4736
857.797	4786
857.931	4755
858.064	4687
858.197	4767
858.331	4660
858.464	4622
858.597	4508
858.731	4660
858.864	4637
858.997	4611
859.13	4634
859.263	4664
859.396	4687
859.529	4634
859.662	4584
859.795	4561
859.928	4660
860.061	4782
860.194	4778
860.327	4630
860.46	4607
860.592	4691
860.725	4725
860.858	4736
860.99	4584
861.123	4512
861.256	4554
861.388	4599
861.521	5277
861.653	4489
861.786	4436
861.918	4481
862.05	4497
862.183	4577
862.315	4580
862.447	4626
862.58	4565
862.712	4440
862.844	4360
862.976	4447
863.108	4493
863.24	4729
863.372	4344
863.504	4428
863.636	4394
863.768	4466
863.9	4394
864.032	4398
864.164	4375
864.296	4474
864.428	4523
864.559	4565
864.691	4550
864.823	4523
864.954	4485
865.086	4493
865.217	4466
865.349	4443
865.48	4474
865.612	4470
865.743	4607
865.875	4474
866.006	4478
866.137	4436
866.269	4466
866.4	4466
866.531	4451
866.662	4409
866.793	4421
866.924	4405
867.055	4489
867.186	4466
867.317	4398
867.448	4394
867.579	4375
867.71	4344
867.841	4383
867.972	4516
868.103	4523
868.233	4497
868.364	4402
868.495	4428
868.625	4649
868.756	4717
868.886	4565
869.017	4630
869.147	4771
869.278	4755
869.408	4618
869.539	4630
869.669	4733
869.799	4675
869.929	4721
870.06	4752
870.19	4873
870.32	4930
870.45	4934
870.58	5014
870.71	5128
870.84	5128
870.97	4927
871.1	4885
871.23	5162
871.36	5159
871.489	5029
871.619	5124
871.749	5098
871.879	5105
872.008	5174
872.138	5083
872.267	4976
872.397	4900
872.526	4809
872.656	4725
872.785	4782
872.915	4999
873.044	5029
873.173	5006
873.303	4919
873.432	4965
873.561	4961
873.69	4866
873.819	4824
873.948	4942
874.077	4839
874.206	4786
874.335	4858
874.464	4889
874.593	5090
874.722	4980
874.851	5075
874.979	5067
875.108	5003
875.237	4919
875.365	4889
875.494	4930
875.623	4991
875.751	4839
875.88	4870
876.008	4957
876.136	5041
876.265	5216
876.393	5326
876.521	5288
876.65	5242
876.778	5189
876.906	5109
877.034	5014
877.162	5090
877.29	4995
877.418	5098
877.546	5105
877.674	5060
877.802	5045
877.93	5014
878.058	4877
878.185	4889
878.313	4972
878.441	4965
878.568	4793
878.696	4896
878.824	4953
878.951	5003
879.079	5109
879.206	5337
879.333	5113
879.461	5014
879.588	4999
879.715	5143
879.842	5231
879.97	5010
880.097	4778
880.224	4736
880.351	4843
880.478	4809
880.605	4729
880.732	4854
880.859	5048
880.986	4900
881.112	4904
881.239	4782
881.366	4702
881.493	4615
881.619	4565
881.746	4660
881.872	4679
881.999	4668
882.125	4672
882.252	4790
882.378	4843
882.505	4946
882.631	4786
882.757	4691
882.883	4714
883.01	4755
883.136	4702
883.262	4577
883.388	4630
883.514	4812
883.64	4896
883.766	4782
883.892	4653
884.018	4725
884.143	4908
884.269	5010
884.395	4691
884.52	4554
884.646	4649
884.772	4637
884.897	4542
885.023	4714
885.148	4774
885.274	4850
885.399	4812
885.524	4675
885.65	4656
885.775	4733
885.9	4736
886.025	4873
886.15	4782
886.275	4759
886.4	4683
886.525	4755
886.65	4668
886.775	4710
886.9	4927
887.025	5060
887.149	4828
887.274	4683
887.399	4561
887.523	4626
887.648	4535
887.773	4584
887.897	4714
888.021	4774
888.146	4656
888.27	4835
888.395	4870
888.519	4816
888.643	4828
888.767	4835
888.891	4698
889.015	4584
889.139	4634
889.263	4580
889.387	4778
889.511	4911
889.635	4801
889.759	4611
889.883	4626
890.006	4717
890.13	4824
890.254	4634
890.377	4729
890.501	4561
890.624	4508
890.748	4607
890.871	4474
890.995	4443
891.118	4371
891.241	4561
891.364	4538
891.488	4615
891.611	4535
891.734	4508
891.857	4554
891.98	4523
892.103	4603
892.226	4569
892.349	4516
892.471	4402
892.594	4504
892.717	4603
892.839	4542
892.962	4550
893.085	4694
893.207	4615
893.33	4504
893.452	4500
893.575	4634
893.697	4580
893.819	4797
893.941	4847
894.064	4771
894.186	4573
894.308	4554
894.43	4691
894.552	4854
894.674	4725
894.796	4519
894.918	4565
895.04	4535
895.161	4668
895.283	4664
895.405	4584
895.526	4611
895.648	4649
895.769	4698
895.891	4710
896.012	4759
896.134	4752
896.255	4687
896.376	4630
896.498	4637
896.619	4683
896.74	4618
896.861	4641
896.982	4927
897.103	5029
897.224	4820
897.345	4736
897.466	4649
897.587	4744
897.708	4790
897.828	4809
897.949	4656
898.07	4580
898.19	4675
898.311	4839
898.431	4710
898.552	4714
898.672	4809
898.792	4828
898.913	4725
899.033	4611
899.153	4542
899.273	4443
899.393	4508
899.513	4580
899.633	4470
899.753	4558
899.873	4485
899.993	4622
900.113	4497
900.232	4599
900.352	4512
900.472	4459
900.591	4398
900.711	4462
900.83	4466
900.95	4626
901.069	4698
901.189	4531
901.308	4325
901.427	4352
901.546	4386
901.665	4481
901.784	4535
901.904	4409
902.023	4360
902.141	4162
902.26	4192
902.379	4306
902.498	4276
902.617	4238
902.735	4398
902.854	4360
902.973	4383
903.091	4192
903.21	4230
903.328	4249
903.446	4303
903.565	4242
903.683	4329
903.801	4268
903.919	4394
904.038	4466
904.156	4322
904.274	4428
904.392	4443
904.51	4428
904.627	4478
904.745	4573
904.863	4634
904.981	4432
905.098	4314
905.216	4367
905.334	4405
905.451	4443
905.569	4417
905.686	4580
905.803	4607
905.921	4409
906.038	4573
906.155	4459
906.272	4383
906.389	4436
906.506	4386
906.623	4413
906.74	4421
906.857	4352
906.974	4398
907.091	4596
907.208	4706
907.324	4599
907.441	4519
907.557	4348
907.674	4375
907.79	4341
907.907	4383
908.023	4493
908.139	4455
908.256	4451
908.372	4508
908.488	4466
908.604	4394
908.72	4356
908.836	4360
908.952	4398
909.068	4432
909.184	4580
909.3	4459
909.415	4618
909.531	4558
909.647	4383
909.762	4379
909.878	4344
909.993	4417
910.108	4443
910.224	4405
910.339	4462
910.454	4432
910.57	4356
910.685	4299
910.8	4687
910.915	4622
911.03	4481
911.145	4333
911.259	4322
911.374	4405
911.489	4284
911.604	4284
911.718	4169
911.833	4166
911.947	4067
912.062	4078
912.176	4230
912.291	4246
912.405	4280
912.519	4455
912.633	4523
912.748	4379
912.862	4295
912.976	4207
913.09	4131
913.204	4196
913.318	4253
913.431	4394
913.545	4329
913.659	4447
913.772	4363
913.886	4253
914	4215
914.113	4344
914.226	4455
914.34	4371
914.453	4265
914.566	4447
914.68	4299
914.793	4333
914.906	4192
915.019	4120
915.132	4078
915.245	4166
915.358	4246
915.47	4219
915.583	4314
915.696	4318
915.809	4398
915.921	4432
916.034	4268
916.146	4287
916.259	4234
916.371	4394
916.483	4344
916.595	4284
916.708	4367
916.82	4325
916.932	4306
917.044	4363
917.156	4287
917.268	4230
917.38	4265
917.491	4242
917.603	4383
917.715	4390
917.826	4398
917.938	4303
918.049	4249
918.161	4428
918.272	4516
918.384	4493
918.495	4451
918.606	4322
918.717	4238
918.828	4344
918.939	4371
919.05	4230
919.161	4299
919.272	4147
919.383	4219
919.494	4436
919.604	4630
919.715	4417
919.826	4367
919.936	4409
920.047	4523
920.157	4462
920.267	4660
920.378	4573
920.488	4535
920.598	4748
920.708	4881
920.818	4752
920.928	4729
921.038	4957
921.148	4904
921.258	4641
921.368	4527
921.477	4504
921.587	4459
921.697	4356
921.806	4504
921.916	4417
922.025	4234
922.134	4280
922.244	4230
922.353	4310
922.462	4211
922.571	4124
922.68	4002
922.789	3941
922.898	4025
923.007	3991
923.116	4116
923.224	4063
923.333	4051
923.442	3987
923.55	3983
923.659	4055
923.767	4090
923.876	4025
923.984	4139
924.092	4006
924.201	4078
924.309	4097
924.417	4082
924.525	4109
924.633	4150
924.741	4934
924.849	3896
924.956	4097
925.064	3945
925.172	3880
925.279	3945
925.387	4048
925.494	4063
925.602	4181
925.709	4169
925.816	4029
925.924	4188
926.031	4257
926.138	4139
926.245	4223
926.352	4051
926.459	4257
926.566	4303
926.673	4185
926.779	4105
926.886	4116
926.993	3983
927.099	3953
927.206	3960
927.312	3926
927.419	4036
927.525	4044
927.631	4059
927.737	3975
927.843	3922
927.95	3819
928.056	3968
928.162	4017
928.267	4078
928.373	4630
928.479	4109
928.585	3857
928.69	4021
928.796	4090
928.901	3972
929.007	3842
929.112	3983
929.218	3964
929.323	3994
929.428	3907
929.533	4078
929.638	3911
929.743	3979
929.848	4029
929.953	3964
930.058	3918
930.163	3751
930.267	3880
930.372	3987
930.477	3808
930.581	4105
930.685	3930
930.79	3800
930.894	3922
930.998	3850
931.103	4029
931.207	3709
931.311	3641
931.415	3667
931.519	3534
931.623	3523
