Data from test_V78500241_273.txt Node
Date: Fri Mar 25 16:50:54 CST 2022
User: usil
Spectrometer: V785-0024
Trigger mode: 0
Integration Time (sec): 4.000000E-1
Scans to average: 1
Nonlinearity correction enabled: false
Boxcar width: 0
Storing dark spectrum: false
XAxis mode: Wavelengths
Number of Pixels in Spectrum: 1024
>>>>>Begin Spectral Data<<<<<
801.071	8027
801.214	8031
801.356	7871
801.499	7883
801.641	7841
801.783	7811
801.926	7982
802.068	7932
802.211	8024
802.353	8027
802.496	7852
802.638	7845
802.78	7947
802.923	7955
803.065	7845
803.208	7837
803.35	7940
803.492	8035
803.635	8096
803.777	8065
803.919	8096
804.061	8488
804.204	8145
804.346	8035
804.488	7982
804.63	8145
804.773	8046
804.915	8126
805.057	8290
805.199	8088
805.341	8145
805.483	8252
805.626	8134
805.768	8065
805.91	8168
806.052	8187
806.194	8062
806.336	8301
806.478	8138
806.62	8065
806.762	7997
806.904	8229
807.046	8385
807.188	8366
807.33	8248
807.472	8301
807.614	8123
807.756	8073
807.898	7997
808.04	7917
808.182	7883
808.324	7940
808.465	7959
808.607	8046
808.749	8153
808.891	8221
809.033	8294
809.174	8134
809.316	8050
809.458	8062
809.6	7959
809.741	8039
809.883	8027
810.025	8065
810.166	8100
810.308	8123
810.45	8039
810.591	7811
810.733	7757
810.875	7674
811.016	7476
811.158	7499
811.299	7685
811.441	7712
811.582	7655
811.724	7567
811.865	7510
812.007	7571
812.148	7639
812.29	7582
812.431	7803
812.573	7879
812.714	7967
812.855	8081
812.997	8237
813.138	8286
813.279	8164
813.421	8157
813.562	8008
813.703	7814
813.845	7700
813.986	7434
814.127	7255
814.268	7244
814.41	7213
814.551	7122
814.692	7175
814.833	7091
814.974	7019
815.115	7141
815.256	6943
815.397	6905
815.539	6890
815.68	6798
815.821	6806
815.962	6859
816.103	6787
816.244	6715
816.385	6616
816.526	6631
816.666	6536
816.807	6281
816.948	6464
817.089	6467
817.23	6441
817.371	6353
817.512	6422
817.653	6376
817.793	6372
817.934	6361
818.075	6422
818.216	6391
818.356	6433
818.497	6209
818.638	6175
818.778	6091
818.919	6129
819.06	6129
819.2	6311
819.341	6292
819.481	6338
819.622	6506
819.762	6707
819.903	6696
820.043	6544
820.184	6578
820.324	6540
820.465	6681
820.605	6646
820.746	6601
820.886	6448
821.026	6703
821.167	6669
821.307	6814
821.447	6798
821.588	6642
821.728	6585
821.868	6502
822.008	6289
822.149	6365
822.289	6311
822.429	6159
822.569	6083
822.709	6136
822.849	5889
822.99	5927
823.13	5920
823.27	5916
823.41	5840
823.55	5764
823.69	5779
823.83	5752
823.97	5680
824.11	5543
824.25	5566
824.389	5600
824.529	5589
824.669	5478
824.809	5604
824.949	5672
825.089	5657
825.228	5589
825.368	5417
825.508	5379
825.648	5398
825.787	5376
825.927	5372
826.067	5376
826.206	5315
826.346	5425
826.485	5455
826.625	5474
826.765	5592
826.904	5455
827.044	5216
827.183	5170
827.323	5189
827.462	5288
827.601	5220
827.741	5273
827.88	5269
828.02	5136
828.159	5307
828.298	5299
828.437	5357
828.577	5330
828.716	5467
828.855	5448
828.994	5246
829.134	5193
829.273	5250
829.412	5155
829.551	5216
829.69	5220
829.829	5322
829.968	5425
830.107	5242
830.246	5307
830.385	5201
830.524	5193
830.663	5113
830.802	5029
830.941	4942
831.08	4908
831.219	5067
831.357	4972
831.496	5246
831.635	4934
831.774	4900
831.913	4885
832.051	4786
832.19	4752
832.329	4870
832.467	4744
832.606	4721
832.744	4774
832.883	4759
833.022	4786
833.16	4854
833.299	4809
833.437	4889
833.576	4896
833.714	4949
833.852	4892
833.991	4946
834.129	5037
834.267	5014
834.406	4915
834.544	5003
834.682	5003
834.821	5029
834.959	5204
835.097	5060
835.235	5140
835.373	5083
835.511	5132
835.65	5029
835.788	5083
835.926	4915
836.064	4900
836.202	4938
836.34	5231
836.478	5311
836.615	5166
836.753	5216
836.891	5284
837.029	5296
837.167	5227
837.305	5223
837.443	5201
837.58	5121
837.718	5315
837.856	5231
837.993	5227
838.131	5296
838.269	5250
838.406	5242
838.544	5239
838.681	5064
838.819	5033
838.956	4915
839.094	4930
839.231	4984
839.369	5113
839.506	5436
839.643	5311
839.781	5147
839.918	5022
840.055	5109
840.193	5128
840.33	5128
840.467	5208
840.604	5231
840.742	5455
840.879	5071
841.016	5159
841.153	5166
841.29	5478
841.427	5387
841.564	5349
841.701	5372
841.838	5288
841.975	5258
842.112	5322
842.249	5151
842.385	5162
842.522	5360
842.659	5204
842.796	5220
842.933	5299
843.069	5185
843.206	5189
843.343	5349
843.479	5223
843.616	5322
843.752	5022
843.889	5079
844.025	5239
844.162	5060
844.298	5250
844.435	5102
844.571	5102
844.708	5254
844.844	5353
844.98	5357
845.117	5334
845.253	5193
845.389	5048
845.525	5193
845.661	5132
845.798	5132
845.934	5170
846.07	5094
846.206	5220
846.342	5341
846.478	5201
846.614	5064
846.75	5037
846.886	5003
847.022	5193
847.158	5098
847.294	5170
847.429	5102
847.565	5094
847.701	5345
847.837	4889
847.972	4900
848.108	4968
848.244	4934
848.379	4805
848.515	4748
848.65	4736
848.786	4744
848.921	4759
849.057	4862
849.192	4953
849.328	4877
849.463	4889
849.598	4790
849.734	4790
849.869	4748
850.004	4672
850.14	4698
850.275	4668
850.41	4558
850.545	4607
850.68	4691
850.815	4634
850.95	4687
851.085	4877
851.22	4782
851.355	4710
851.49	4626
851.625	4675
851.76	4675
851.895	4584
852.03	4573
852.165	4702
852.299	4755
852.434	4812
852.569	4729
852.703	4831
852.838	4858
852.973	4972
853.107	5018
853.242	4763
853.376	4786
853.511	4580
853.645	4698
853.78	4862
853.914	4733
854.048	4729
854.183	4675
854.317	4710
854.451	4877
854.585	4706
854.72	4710
854.854	4790
854.988	4683
855.122	4664
855.256	4569
855.39	4755
855.524	4774
855.658	4721
855.792	4744
855.926	4729
856.06	4752
856.194	4866
856.327	4714
856.461	4607
856.595	4668
856.729	4660
856.862	4778
856.996	4733
857.13	4797
857.263	4805
857.397	4862
857.53	4675
857.664	4755
857.797	4782
857.931	4805
858.064	4714
858.197	4763
858.331	4706
858.464	4672
858.597	4588
858.731	4675
858.864	4653
858.997	4668
859.13	4691
859.263	4714
859.396	4694
859.529	4641
859.662	4668
859.795	4565
859.928	4664
860.061	4786
860.194	4812
860.327	4634
860.46	4622
860.592	4725
860.725	4740
860.858	4736
860.99	4626
861.123	4542
861.256	4561
861.388	4653
861.521	5471
861.653	4519
861.786	4500
861.918	4474
862.05	4523
862.183	4607
862.315	4622
862.447	4691
862.58	4588
862.712	4405
862.844	4329
862.976	4523
863.108	4493
863.24	4953
863.372	4383
863.504	4436
863.636	4424
863.768	4497
863.9	4493
864.032	4440
864.164	4455
864.296	4485
864.428	4573
864.559	4565
864.691	4554
864.823	4546
864.954	4504
865.086	4577
865.217	4550
865.349	4470
865.48	4451
865.612	4497
865.743	4660
865.875	4512
866.006	4485
866.137	4512
866.269	4474
866.4	4481
866.531	4474
866.662	4417
866.793	4481
866.924	4428
867.055	4531
867.186	4531
867.317	4459
867.448	4424
867.579	4493
867.71	4432
867.841	4371
867.972	4474
868.103	4508
868.233	4409
868.364	4478
868.495	4535
868.625	4683
868.756	4801
868.886	4622
869.017	4679
869.147	4809
869.278	4767
869.408	4752
869.539	4660
869.669	4740
869.799	4710
869.929	4805
870.06	4774
870.19	4984
870.32	4942
870.45	4961
870.58	5090
870.71	5075
870.84	5151
870.97	4965
871.1	4942
871.23	5201
871.36	5155
871.489	5014
871.619	5102
871.749	5090
871.879	5185
872.008	5174
872.138	5067
872.267	4968
872.397	4904
872.526	4816
872.656	4714
872.785	4866
872.915	4980
873.044	5052
873.173	4949
873.303	4965
873.432	4991
873.561	4999
873.69	4976
873.819	4839
873.948	4949
874.077	4839
874.206	4774
874.335	4870
874.464	4927
874.593	5060
874.722	5025
874.851	5124
874.979	5071
875.108	5064
875.237	4919
875.365	4900
875.494	4904
875.623	5041
875.751	4870
875.88	4870
876.008	4972
876.136	5052
876.265	5193
876.393	5395
876.521	5216
876.65	5280
876.778	5136
876.906	5121
877.034	5014
877.162	5060
877.29	5037
877.418	5105
877.546	5079
877.674	5060
877.802	5109
877.93	5094
878.058	4965
878.185	4896
878.313	4938
878.441	5003
878.568	4793
878.696	4885
878.824	4987
878.951	5003
879.079	5109
879.206	5330
879.333	5117
879.461	5029
879.588	5060
879.715	5170
879.842	5231
879.97	5048
880.097	4858
880.224	4763
880.351	4873
880.478	4820
880.605	4850
880.732	4850
880.859	5136
880.986	4915
881.112	4972
881.239	4805
881.366	4691
881.493	4630
881.619	4664
881.746	4698
881.872	4679
881.999	4660
882.125	4729
882.252	4805
882.378	4877
882.505	5022
882.631	4820
882.757	4702
882.883	4721
883.01	4748
883.136	4729
883.262	4656
883.388	4607
883.514	4801
883.64	4870
883.766	4793
883.892	4664
884.018	4729
884.143	4934
884.269	5045
884.395	4717
884.52	4668
884.646	4698
884.772	4656
884.897	4603
885.023	4706
885.148	4839
885.274	4866
885.399	4831
885.524	4736
885.65	4717
885.775	4767
885.9	4774
886.025	4885
886.15	4831
886.275	4759
886.4	4668
886.525	4736
886.65	4725
886.775	4721
886.9	4965
887.025	5029
887.149	4824
887.274	4702
887.399	4580
887.523	4626
887.648	4558
887.773	4645
887.897	4797
888.021	4782
888.146	4725
888.27	4782
888.395	4915
888.519	4820
888.643	4812
888.767	4831
888.891	4679
889.015	4653
889.139	4641
889.263	4615
889.387	4843
889.511	4900
889.635	4820
889.759	4664
889.883	4637
890.006	4755
890.13	4831
890.254	4717
890.377	4706
890.501	4546
890.624	4584
890.748	4630
890.871	4531
890.995	4428
891.118	4428
891.241	4527
891.364	4588
891.488	4668
891.611	4558
891.734	4527
891.857	4603
891.98	4580
892.103	4698
892.226	4626
892.349	4535
892.471	4405
892.594	4607
892.717	4592
892.839	4592
892.962	4634
893.085	4668
893.207	4599
893.33	4504
893.452	4577
893.575	4698
893.697	4603
893.819	4805
893.941	4824
894.064	4824
894.186	4618
894.308	4664
894.43	4733
894.552	4850
894.674	4778
894.796	4554
894.918	4611
895.04	4584
895.161	4706
895.283	4714
895.405	4615
895.526	4641
895.648	4687
895.769	4725
895.891	4767
896.012	4717
896.134	4717
896.255	4668
896.376	4664
896.498	4634
896.619	4694
896.74	4660
896.861	4679
896.982	4984
897.103	5132
897.224	4866
897.345	4812
897.466	4687
897.587	4782
897.708	4889
897.828	4797
897.949	4687
898.07	4599
898.19	4668
898.311	4866
898.431	4729
898.552	4752
898.672	4839
898.792	4828
898.913	4721
899.033	4649
899.153	4508
899.273	4447
899.393	4519
899.513	4558
899.633	4561
899.753	4523
899.873	4523
899.993	4630
900.113	4512
900.232	4641
900.352	4535
900.472	4561
900.591	4417
900.711	4497
900.83	4436
900.95	4611
901.069	4717
901.189	4599
901.308	4344
901.427	4318
901.546	4383
901.665	4531
901.784	4516
901.904	4428
902.023	4383
902.141	4207
902.26	4219
902.379	4352
902.498	4299
902.617	4246
902.735	4371
902.854	4455
902.973	4337
903.091	4253
903.21	4230
903.328	4325
903.446	4268
903.565	4291
903.683	4383
903.801	4272
903.919	4390
904.038	4440
904.156	4314
904.274	4447
904.392	4443
904.51	4459
904.627	4516
904.745	4558
904.863	4637
904.981	4398
905.098	4337
905.216	4375
905.334	4421
905.451	4447
905.569	4504
905.686	4599
905.803	4577
905.921	4447
906.038	4565
906.155	4489
906.272	4451
906.389	4497
906.506	4333
906.623	4367
906.74	4394
906.857	4310
906.974	4371
907.091	4535
907.208	4672
907.324	4618
907.441	4512
907.557	4348
907.674	4341
907.79	4348
907.907	4390
908.023	4519
908.139	4489
908.256	4440
908.372	4497
908.488	4466
908.604	4390
908.72	4337
908.836	4402
908.952	4398
909.068	4485
909.184	4558
909.3	4489
909.415	4607
909.531	4607
909.647	4348
909.762	4409
909.878	4341
909.993	4497
910.108	4443
910.224	4451
910.339	4531
910.454	4459
910.57	4367
910.685	4333
910.8	4641
910.915	4607
911.03	4527
911.145	4363
911.259	4360
911.374	4329
911.489	4344
911.604	4276
911.718	4147
911.833	4207
911.947	4112
912.062	4067
912.176	4219
912.291	4219
912.405	4325
912.519	4504
912.633	4561
912.748	4386
912.862	4352
912.976	4242
913.09	4143
913.204	4234
913.318	4234
913.431	4390
913.545	4417
913.659	4474
913.772	4421
913.886	4261
914	4249
914.113	4367
914.226	4424
914.34	4428
914.453	4230
914.566	4466
914.68	4360
914.793	4337
914.906	4166
915.019	4147
915.132	4128
915.245	4215
915.358	4200
915.47	4261
915.583	4276
915.696	4344
915.809	4428
915.921	4451
916.034	4299
916.146	4268
916.259	4215
916.371	4341
916.483	4379
916.595	4272
916.708	4303
916.82	4440
916.932	4356
917.044	4333
917.156	4383
917.268	4242
917.38	4291
917.491	4268
917.603	4360
917.715	4451
917.826	4493
917.938	4333
918.049	4234
918.161	4405
918.272	4592
918.384	4558
918.495	4424
918.606	4352
918.717	4291
918.828	4318
918.939	4390
919.05	4238
919.161	4360
919.272	4147
919.383	4234
919.494	4470
919.604	4656
919.715	4405
919.826	4348
919.936	4402
920.047	4531
920.157	4542
920.267	4721
920.378	4558
920.488	4516
920.598	4668
920.708	4892
920.818	4755
920.928	4805
921.038	4980
921.148	4915
921.258	4672
921.368	4561
921.477	4550
921.587	4447
921.697	4352
921.806	4569
921.916	4470
922.025	4325
922.134	4257
922.244	4249
922.353	4356
922.462	4154
922.571	4150
922.68	3979
922.789	3987
922.898	4044
923.007	4036
923.116	4112
923.224	4097
923.333	4131
923.442	4010
923.55	3945
923.659	4032
923.767	4154
923.876	4013
923.984	4124
924.092	4002
924.201	4082
924.309	4090
924.417	4147
924.525	4040
924.633	4048
924.741	5067
924.849	3960
924.956	4105
925.064	3994
925.172	3953
925.279	3956
925.387	4051
925.494	4025
925.602	4211
925.709	4196
925.816	4112
925.924	4116
926.031	4204
926.138	4139
926.245	4223
926.352	4090
926.459	4272
926.566	4322
926.673	4177
926.779	4090
926.886	4109
926.993	4013
927.099	3975
927.206	3922
927.312	3922
927.419	4097
927.525	4010
927.631	4116
927.737	3953
927.843	3945
927.95	3918
928.056	4002
928.162	3994
928.267	4086
928.373	4691
928.479	4154
928.585	3865
928.69	3987
928.796	4063
928.901	4010
929.007	3873
929.112	4036
929.218	4002
929.323	3964
929.428	3991
929.533	4112
929.638	3899
929.743	3983
929.848	4059
929.953	4013
930.058	3945
930.163	3816
930.267	3804
930.372	4002
930.477	3781
930.581	4135
930.685	3911
930.79	3819
930.894	3876
930.998	3869
931.103	4025
931.207	3724
931.311	3690
931.415	3728
931.519	3526
931.623	3580
