Data from test_V78500241_1514.txt Node
Date: Fri Mar 25 16:59:31 CST 2022
User: usil
Spectrometer: V785-0024
Trigger mode: 0
Integration Time (sec): 4.000000E-1
Scans to average: 1
Nonlinearity correction enabled: false
Boxcar width: 0
Storing dark spectrum: false
XAxis mode: Wavelengths
Number of Pixels in Spectrum: 1024
>>>>>Begin Spectral Data<<<<<
801.071	8050
801.214	8008
801.356	7871
801.499	7868
801.641	7784
801.783	7841
801.926	7906
802.068	7856
802.211	7925
802.353	7963
802.496	7830
802.638	7887
802.78	7925
802.923	7883
803.065	7849
803.208	7864
803.35	7921
803.492	8069
803.635	8142
803.777	7925
803.919	8081
804.061	8400
804.204	8123
804.346	8008
804.488	7959
804.63	8024
804.773	7925
804.915	8035
805.057	8324
805.199	8145
805.341	8183
805.483	8240
805.626	8180
805.768	8092
805.91	8218
806.052	8218
806.194	8035
806.336	8347
806.478	8027
806.62	8031
806.762	8081
806.904	8339
807.046	8454
807.188	8393
807.33	8240
807.472	8298
807.614	8195
807.756	8123
807.898	8008
808.04	7898
808.182	7940
808.324	7818
808.465	7959
808.607	8058
808.749	8107
808.891	8145
809.033	8286
809.174	8187
809.316	8008
809.458	8046
809.6	8005
809.741	8043
809.883	7959
810.025	8046
810.166	8031
810.308	8046
810.45	7917
810.591	7849
810.733	7696
810.875	7700
811.016	7510
811.158	7514
811.299	7628
811.441	7700
811.582	7670
811.724	7586
811.865	7529
812.007	7548
812.148	7518
812.29	7571
812.431	7696
812.573	7871
812.714	7967
812.855	8130
812.997	8206
813.138	8267
813.279	8244
813.421	8062
813.562	7944
813.703	7902
813.845	7753
813.986	7438
814.127	7270
814.268	7221
814.41	7228
814.551	7141
814.692	7187
814.833	7091
814.974	7126
815.115	7099
815.256	6954
815.397	6916
815.539	6935
815.68	6814
815.821	6722
815.962	6863
816.103	6798
816.244	6715
816.385	6513
816.526	6547
816.666	6490
816.807	6254
816.948	6414
817.089	6483
817.23	6426
817.371	6369
817.512	6399
817.653	6353
817.793	6350
817.934	6380
818.075	6388
818.216	6384
818.356	6407
818.497	6224
818.638	6053
818.778	6167
818.919	6110
819.06	6114
819.2	6266
819.341	6311
819.481	6403
819.622	6566
819.762	6684
819.903	6684
820.043	6570
820.184	6559
820.324	6494
820.465	6654
820.605	6642
820.746	6627
820.886	6498
821.026	6658
821.167	6684
821.307	6783
821.447	6741
821.588	6650
821.728	6566
821.868	6471
822.008	6350
822.149	6346
822.289	6323
822.429	6114
822.569	6072
822.709	6098
822.849	5927
822.99	5897
823.13	5935
823.27	5939
823.41	5756
823.55	5783
823.69	5707
823.83	5737
823.97	5688
824.11	5516
824.25	5474
824.389	5551
824.529	5520
824.669	5524
824.809	5604
824.949	5634
825.089	5581
825.228	5558
825.368	5349
825.508	5318
825.648	5315
825.787	5330
825.927	5368
826.067	5307
826.206	5288
826.346	5334
826.485	5406
826.625	5372
826.765	5528
826.904	5421
827.044	5288
827.183	5170
827.323	5117
827.462	5178
827.601	5147
827.741	5155
827.88	5216
828.02	5109
828.159	5227
828.298	5227
828.437	5326
828.577	5284
828.716	5398
828.855	5326
828.994	5185
829.134	5162
829.273	5132
829.412	5136
829.551	5162
829.69	5197
829.829	5258
829.968	5303
830.107	5235
830.246	5273
830.385	5162
830.524	5128
830.663	5048
830.802	4957
830.941	4889
831.08	4881
831.219	4961
831.357	4919
831.496	5105
831.635	4908
831.774	4835
831.913	4816
832.051	4736
832.19	4702
832.329	4854
832.467	4691
832.606	4622
832.744	4675
832.883	4672
833.022	4694
833.16	4763
833.299	4790
833.437	4790
833.576	4835
833.714	4805
833.852	4847
833.991	4908
834.129	4915
834.267	4946
834.406	4873
834.544	4927
834.682	4965
834.821	4968
834.959	5143
835.097	4965
835.235	5121
835.373	5041
835.511	5136
835.65	4976
835.788	5025
835.926	4892
836.064	4835
836.202	4911
836.34	5166
836.478	5181
836.615	5098
836.753	5185
836.891	5284
837.029	5208
837.167	5189
837.305	5136
837.443	5121
837.58	5018
837.718	5246
837.856	5185
837.993	5132
838.131	5170
838.269	5181
838.406	5162
838.544	5117
838.681	4987
838.819	4972
838.956	4850
839.094	4866
839.231	4957
839.369	5094
839.506	5429
839.643	5239
839.781	5022
839.918	4995
840.055	5102
840.193	5048
840.33	5029
840.467	5094
840.604	5193
840.742	5474
840.879	5056
841.016	5060
841.153	5143
841.29	5349
841.427	5315
841.564	5288
841.701	5322
841.838	5261
841.975	5189
842.112	5239
842.249	5140
842.385	5121
842.522	5269
842.659	5193
842.796	5079
842.933	5178
843.069	5181
843.206	5098
843.343	5250
843.479	5239
843.616	5315
843.752	5010
843.889	4961
844.025	5185
844.162	5006
844.298	5159
844.435	5102
844.571	5064
844.708	5170
844.844	5284
844.98	5303
845.117	5254
845.253	5151
845.389	5075
845.525	5140
845.661	5086
845.798	4980
845.934	5132
846.07	4972
846.206	5155
846.342	5280
846.478	5162
846.614	4980
846.75	4980
846.886	4900
847.022	5056
847.158	5014
847.294	5033
847.429	5102
847.565	5045
847.701	5220
847.837	4896
847.972	4774
848.108	4911
848.244	4934
848.379	4752
848.515	4740
848.65	4710
848.786	4717
848.921	4790
849.057	4828
849.192	4919
849.328	4812
849.463	4850
849.598	4782
849.734	4752
849.869	4687
850.004	4603
850.14	4691
850.275	4554
850.41	4523
850.545	4519
850.68	4584
850.815	4607
850.95	4622
851.085	4812
851.22	4714
851.355	4672
851.49	4596
851.625	4607
851.76	4649
851.895	4523
852.03	4531
852.165	4626
852.299	4668
852.434	4786
852.569	4706
852.703	4759
852.838	4866
852.973	4877
853.107	4915
853.242	4706
853.376	4649
853.511	4565
853.645	4561
853.78	4786
853.914	4679
854.048	4675
854.183	4645
854.317	4725
854.451	4801
854.585	4687
854.72	4630
854.854	4755
854.988	4546
855.122	4634
855.256	4516
855.39	4672
855.524	4752
855.658	4725
855.792	4725
855.926	4683
856.06	4736
856.194	4786
856.327	4664
856.461	4599
856.595	4634
856.729	4599
856.862	4740
856.996	4687
857.13	4721
857.263	4771
857.397	4820
857.53	4588
857.664	4729
857.797	4767
857.931	4801
858.064	4744
858.197	4725
858.331	4706
858.464	4607
858.597	4535
858.731	4660
858.864	4656
858.997	4584
859.13	4683
859.263	4698
859.396	4691
859.529	4599
859.662	4588
859.795	4588
859.928	4622
860.061	4774
860.194	4782
860.327	4607
860.46	4618
860.592	4725
860.725	4774
860.858	4725
860.99	4603
861.123	4508
861.256	4527
861.388	4687
861.521	5322
861.653	4493
861.786	4523
861.918	4497
862.05	4603
862.183	4649
862.315	4637
862.447	4660
862.58	4569
862.712	4440
862.844	4405
862.976	4523
863.108	4474
863.24	4793
863.372	4360
863.504	4470
863.636	4466
863.768	4546
863.9	4443
864.032	4405
864.164	4455
864.296	4504
864.428	4588
864.559	4580
864.691	4584
864.823	4577
864.954	4538
865.086	4538
865.217	4519
865.349	4436
865.48	4519
865.612	4516
865.743	4668
865.875	4478
866.006	4424
866.137	4546
866.269	4485
866.4	4470
866.531	4421
866.662	4424
866.793	4428
866.924	4462
867.055	4512
867.186	4481
867.317	4424
867.448	4462
867.579	4440
867.71	4459
867.841	4386
867.972	4451
868.103	4519
868.233	4512
868.364	4459
868.495	4508
868.625	4714
868.756	4786
868.886	4637
869.017	4664
869.147	4828
869.278	4790
869.408	4687
869.539	4656
869.669	4721
869.799	4706
869.929	4767
870.06	4759
870.19	5010
870.32	4949
870.45	4987
870.58	5052
870.71	5136
870.84	5098
870.97	4984
871.1	4953
871.23	5185
871.36	5132
871.489	5037
871.619	5083
871.749	5121
871.879	5181
872.008	5159
872.138	5041
872.267	5018
872.397	4858
872.526	4828
872.656	4706
872.785	4801
872.915	4930
873.044	5090
873.173	4930
873.303	4957
873.432	4987
873.561	4953
873.69	4866
873.819	4908
873.948	4949
874.077	4850
874.206	4778
874.335	4862
874.464	4923
874.593	5056
874.722	4976
874.851	5128
874.979	5037
875.108	5041
875.237	4923
875.365	4896
875.494	4889
875.623	4999
875.751	4904
875.88	4862
876.008	4972
876.136	5067
876.265	5208
876.393	5376
876.521	5303
876.65	5216
876.778	5170
876.906	5071
877.034	5052
877.162	5067
877.29	4976
877.418	5014
877.546	4987
877.674	5060
877.802	5048
877.93	5045
878.058	4984
878.185	4908
878.313	4999
878.441	4965
878.568	4835
878.696	4908
878.824	4961
878.951	5022
879.079	5060
879.206	5349
879.333	5136
879.461	5006
879.588	5033
879.715	5147
879.842	5239
879.97	5014
880.097	4862
880.224	4763
880.351	4870
880.478	4870
880.605	4793
880.732	4816
880.859	5121
880.986	4938
881.112	4934
881.239	4809
881.366	4653
881.493	4660
881.619	4637
881.746	4675
881.872	4622
881.999	4717
882.125	4767
882.252	4790
882.378	4835
882.505	5003
882.631	4786
882.757	4721
882.883	4740
883.01	4725
883.136	4717
883.262	4599
883.388	4679
883.514	4812
883.64	4873
883.766	4790
883.892	4683
884.018	4748
884.143	4911
884.269	5045
884.395	4702
884.52	4687
884.646	4637
884.772	4615
884.897	4577
885.023	4649
885.148	4831
885.274	4862
885.399	4866
885.524	4733
885.65	4687
885.775	4767
885.9	4721
886.025	4881
886.15	4774
886.275	4733
886.4	4698
886.525	4733
886.65	4691
886.775	4721
886.9	4904
887.025	5045
887.149	4831
887.274	4683
887.399	4599
887.523	4618
887.648	4565
887.773	4577
887.897	4786
888.021	4820
888.146	4717
888.27	4793
888.395	4991
888.519	4831
888.643	4850
888.767	4831
888.891	4691
889.015	4622
889.139	4710
889.263	4611
889.387	4759
889.511	4892
889.635	4812
889.759	4679
889.883	4687
890.006	4736
890.13	4866
890.254	4596
890.377	4714
890.501	4565
890.624	4523
890.748	4641
890.871	4561
890.995	4474
891.118	4409
891.241	4538
891.364	4584
891.488	4637
891.611	4481
891.734	4607
891.857	4611
891.98	4592
892.103	4664
892.226	4565
892.349	4569
892.471	4459
892.594	4554
892.717	4637
892.839	4618
892.962	4622
893.085	4668
893.207	4622
893.33	4470
893.452	4527
893.575	4641
893.697	4577
893.819	4828
893.941	4870
894.064	4782
894.186	4577
894.308	4618
894.43	4702
894.552	4828
894.674	4733
894.796	4546
894.918	4637
895.04	4645
895.161	4736
895.283	4683
895.405	4588
895.526	4691
895.648	4714
895.769	4744
895.891	4740
896.012	4782
896.134	4752
896.255	4706
896.376	4641
896.498	4622
896.619	4717
896.74	4603
896.861	4660
896.982	4911
897.103	5098
897.224	4847
897.345	4763
897.466	4687
897.587	4740
897.708	4847
897.828	4820
897.949	4714
898.07	4615
898.19	4691
898.311	4847
898.431	4710
898.552	4786
898.672	4831
898.792	4862
898.913	4736
899.033	4618
899.153	4481
899.273	4466
899.393	4497
899.513	4565
899.633	4542
899.753	4580
899.873	4527
899.993	4618
900.113	4592
900.232	4611
900.352	4497
900.472	4550
900.591	4413
900.711	4535
900.83	4474
900.95	4618
901.069	4698
901.189	4546
901.308	4398
901.427	4356
901.546	4394
901.665	4485
901.784	4554
901.904	4383
902.023	4310
902.141	4204
902.26	4177
902.379	4341
902.498	4234
902.617	4207
902.735	4402
902.854	4390
902.973	4375
903.091	4234
903.21	4257
903.328	4318
903.446	4299
903.565	4272
903.683	4398
903.801	4291
903.919	4428
904.038	4466
904.156	4295
904.274	4481
904.392	4398
904.51	4436
904.627	4538
904.745	4584
904.863	4660
904.981	4398
905.098	4310
905.216	4405
905.334	4383
905.451	4459
905.569	4447
905.686	4573
905.803	4565
905.921	4451
906.038	4554
906.155	4500
906.272	4386
906.389	4478
906.506	4341
906.623	4356
906.74	4383
906.857	4303
906.974	4390
907.091	4611
907.208	4733
907.324	4607
907.441	4481
907.557	4375
907.674	4390
907.79	4318
907.907	4398
908.023	4489
908.139	4497
908.256	4443
908.372	4459
908.488	4462
908.604	4329
908.72	4375
908.836	4417
908.952	4405
909.068	4462
909.184	4580
909.3	4489
909.415	4584
909.531	4588
909.647	4409
909.762	4394
909.878	4386
909.993	4451
910.108	4398
910.224	4402
910.339	4504
910.454	4421
910.57	4413
910.685	4318
910.8	4656
910.915	4622
911.03	4519
911.145	4325
911.259	4329
911.374	4390
911.489	4291
911.604	4306
911.718	4211
911.833	4181
911.947	4128
912.062	4074
912.176	4246
912.291	4276
912.405	4242
912.519	4554
912.633	4538
912.748	4386
912.862	4284
912.976	4227
913.09	4139
913.204	4188
913.318	4276
913.431	4409
913.545	4386
913.659	4455
913.772	4409
913.886	4272
914	4207
914.113	4367
914.226	4485
914.34	4451
914.453	4272
914.566	4447
914.68	4333
914.793	4356
914.906	4147
915.019	4158
915.132	4120
915.245	4196
915.358	4173
915.47	4257
915.583	4249
915.696	4284
915.809	4424
915.921	4394
916.034	4272
916.146	4272
916.259	4261
916.371	4447
916.483	4310
916.595	4249
916.708	4390
916.82	4360
916.932	4329
917.044	4344
917.156	4352
917.268	4253
917.38	4249
917.491	4261
917.603	4341
917.715	4417
917.826	4428
917.938	4394
918.049	4238
918.161	4402
918.272	4508
918.384	4573
918.495	4424
918.606	4333
918.717	4268
918.828	4344
918.939	4363
919.05	4322
919.161	4333
919.272	4147
919.383	4265
919.494	4474
919.604	4630
919.715	4367
919.826	4375
919.936	4424
920.047	4531
920.157	4493
920.267	4691
920.378	4561
920.488	4470
920.598	4736
920.708	4873
920.818	4714
920.928	4740
921.038	4957
921.148	4908
921.258	4664
921.368	4554
921.477	4481
921.587	4462
921.697	4386
921.806	4550
921.916	4470
922.025	4325
922.134	4284
922.244	4219
922.353	4306
922.462	4166
922.571	4143
922.68	4017
922.789	3994
922.898	4013
923.007	3987
923.116	4166
923.224	4093
923.333	4086
923.442	4006
923.55	3994
923.659	4040
923.767	4150
923.876	4013
923.984	4162
924.092	3994
924.201	4109
924.309	4143
924.417	4158
924.525	4116
924.633	4135
924.741	4911
924.849	3979
924.956	4086
925.064	3994
925.172	3907
925.279	3964
925.387	4082
925.494	4090
925.602	4272
925.709	4196
925.816	4040
925.924	4131
926.031	4249
926.138	4223
926.245	4242
926.352	4112
926.459	4287
926.566	4344
926.673	4215
926.779	4143
926.886	4109
926.993	3960
927.099	3972
927.206	4006
927.312	3983
927.419	4055
927.525	4067
927.631	4154
927.737	4021
927.843	3968
927.95	3873
928.056	4002
928.162	4029
928.267	4078
928.373	4653
928.479	4185
928.585	3949
928.69	4051
928.796	4109
928.901	3975
929.007	3857
929.112	4021
929.218	4021
929.323	3998
929.428	4021
929.533	4181
929.638	3956
929.743	3998
929.848	4112
929.953	4044
930.058	3972
930.163	3812
930.267	3869
930.372	4021
930.477	3865
930.581	4166
930.685	4032
930.79	3850
930.894	3918
930.998	3907
931.103	4040
931.207	3736
931.311	3747
931.415	3686
931.519	3564
931.623	3564
