Data from test_V78500241_1833.txt Node
Date: Fri Mar 25 17:01:44 CST 2022
User: usil
Spectrometer: V785-0024
Trigger mode: 0
Integration Time (sec): 4.000000E-1
Scans to average: 1
Nonlinearity correction enabled: false
Boxcar width: 0
Storing dark spectrum: false
XAxis mode: Wavelengths
Number of Pixels in Spectrum: 1024
>>>>>Begin Spectral Data<<<<<
801.071	8008
801.214	8012
801.356	7890
801.499	7845
801.641	7776
801.783	7799
801.926	7944
802.068	7860
802.211	8008
802.353	7917
802.496	7845
802.638	7826
802.78	7902
802.923	7940
803.065	7894
803.208	7841
803.35	7932
803.492	8027
803.635	8191
803.777	8008
803.919	8126
804.061	8389
804.204	8130
804.346	8054
804.488	7936
804.63	8035
804.773	7982
804.915	8050
805.057	8320
805.199	8172
805.341	8176
805.483	8237
805.626	8142
805.768	8107
805.91	8202
806.052	8221
806.194	8111
806.336	8267
806.478	8054
806.62	8096
806.762	8119
806.904	8328
807.046	8476
807.188	8374
807.33	8282
807.472	8393
807.614	8111
807.756	8153
807.898	7936
808.04	7887
808.182	7898
808.324	7871
808.465	7875
808.607	8058
808.749	8092
808.891	8164
809.033	8229
809.174	8210
809.316	8054
809.458	8065
809.6	7997
809.741	8065
809.883	7982
810.025	8092
810.166	8062
810.308	8024
810.45	8043
810.591	7803
810.733	7727
810.875	7662
811.016	7556
811.158	7521
811.299	7616
811.441	7620
811.582	7666
811.724	7609
811.865	7506
812.007	7597
812.148	7632
812.29	7586
812.431	7719
812.573	7826
812.714	7989
812.855	8115
812.997	8195
813.138	8279
813.279	8248
813.421	8062
813.562	7955
813.703	7883
813.845	7727
813.986	7350
814.127	7232
814.268	7175
814.41	7171
814.551	7164
814.692	7202
814.833	7175
814.974	7095
815.115	7072
815.256	6916
815.397	6932
815.539	6905
815.68	6852
815.821	6802
815.962	6886
816.103	6802
816.244	6700
816.385	6601
816.526	6620
816.666	6414
816.807	6319
816.948	6445
817.089	6471
817.23	6422
817.371	6384
817.512	6376
817.653	6369
817.793	6331
817.934	6391
818.075	6452
818.216	6483
818.356	6445
818.497	6209
818.638	6125
818.778	6129
818.919	6194
819.06	6159
819.2	6342
819.341	6292
819.481	6350
819.622	6486
819.762	6726
819.903	6642
820.043	6616
820.184	6574
820.324	6563
820.465	6738
820.605	6684
820.746	6570
820.886	6547
821.026	6627
821.167	6703
821.307	6776
821.447	6776
821.588	6650
821.728	6528
821.868	6506
822.008	6315
822.149	6403
822.289	6350
822.429	6098
822.569	6095
822.709	6083
822.849	5931
822.99	5866
823.13	5931
823.27	5935
823.41	5821
823.55	5764
823.69	5771
823.83	5729
823.97	5665
824.11	5558
824.25	5516
824.389	5520
824.529	5573
824.669	5566
824.809	5623
824.949	5611
825.089	5634
825.228	5566
825.368	5436
825.508	5341
825.648	5292
825.787	5429
825.927	5383
826.067	5345
826.206	5284
826.346	5353
826.485	5406
826.625	5398
826.765	5581
826.904	5467
827.044	5265
827.183	5227
827.323	5124
827.462	5269
827.601	5178
827.741	5151
827.88	5128
828.02	5113
828.159	5193
828.298	5292
828.437	5353
828.577	5303
828.716	5463
828.855	5315
828.994	5223
829.134	5170
829.273	5170
829.412	5094
829.551	5128
829.69	5181
829.829	5220
829.968	5357
830.107	5269
830.246	5277
830.385	5162
830.524	5124
830.663	5094
830.802	5010
830.941	4866
831.08	4896
831.219	4942
831.357	4919
831.496	5147
831.635	4885
831.774	4877
831.913	4797
832.051	4717
832.19	4691
832.329	4820
832.467	4721
832.606	4664
832.744	4736
832.883	4698
833.022	4691
833.16	4740
833.299	4771
833.437	4812
833.576	4835
833.714	4862
833.852	4828
833.991	4904
834.129	4961
834.267	4911
834.406	4873
834.544	4938
834.682	4953
834.821	4927
834.959	5178
835.097	5003
835.235	5178
835.373	5086
835.511	5090
835.65	5041
835.788	5025
835.926	4915
836.064	4862
836.202	4915
836.34	5140
836.478	5231
836.615	5151
836.753	5242
836.891	5261
837.029	5265
837.167	5155
837.305	5201
837.443	5132
837.58	5098
837.718	5239
837.856	5235
837.993	5170
838.131	5208
838.269	5178
838.406	5204
838.544	5155
838.681	5025
838.819	5022
838.956	4889
839.094	4881
839.231	4938
839.369	5037
839.506	5379
839.643	5261
839.781	5098
839.918	5018
840.055	5105
840.193	5094
840.33	5094
840.467	5140
840.604	5136
840.742	5440
840.879	5048
841.016	5117
841.153	5159
841.29	5330
841.427	5326
841.564	5326
841.701	5326
841.838	5239
841.975	5223
842.112	5220
842.249	5105
842.385	5124
842.522	5345
842.659	5128
842.796	5174
842.933	5193
843.069	5136
843.206	5143
843.343	5296
843.479	5254
843.616	5197
843.752	5006
843.889	5022
844.025	5212
844.162	4976
844.298	5273
844.435	5071
844.571	5048
844.708	5162
844.844	5284
844.98	5341
845.117	5311
845.253	5178
845.389	5052
845.525	5128
845.661	5124
845.798	5018
845.934	5094
846.07	5079
846.206	5181
846.342	5273
846.478	5155
846.614	5025
846.75	4968
846.886	4911
847.022	5193
847.158	4999
847.294	5025
847.429	5052
847.565	5060
847.701	5311
847.837	4877
847.972	4771
848.108	4942
848.244	4930
848.379	4736
848.515	4702
848.65	4702
848.786	4744
848.921	4778
849.057	4870
849.192	4858
849.328	4778
849.463	4790
849.598	4793
849.734	4752
849.869	4687
850.004	4634
850.14	4668
850.275	4542
850.41	4489
850.545	4607
850.68	4641
850.815	4599
850.95	4607
851.085	4809
851.22	4774
851.355	4653
851.49	4630
851.625	4637
851.76	4615
851.895	4611
852.03	4538
852.165	4603
852.299	4706
852.434	4759
852.569	4752
852.703	4736
852.838	4809
852.973	4919
853.107	4934
853.242	4721
853.376	4672
853.511	4527
853.645	4618
853.78	4790
853.914	4660
854.048	4656
854.183	4634
854.317	4740
854.451	4843
854.585	4702
854.72	4653
854.854	4702
854.988	4546
855.122	4649
855.256	4523
855.39	4683
855.524	4755
855.658	4744
855.792	4744
855.926	4755
856.06	4717
856.194	4767
856.327	4668
856.461	4611
856.595	4603
856.729	4634
856.862	4717
856.996	4645
857.13	4679
857.263	4721
857.397	4839
857.53	4622
857.664	4725
857.797	4767
857.931	4790
858.064	4622
858.197	4748
858.331	4618
858.464	4603
858.597	4516
858.731	4592
858.864	4653
858.997	4603
859.13	4634
859.263	4683
859.396	4656
859.529	4569
859.662	4603
859.795	4523
859.928	4653
860.061	4717
860.194	4744
860.327	4550
860.46	4554
860.592	4714
860.725	4649
860.858	4714
860.99	4565
861.123	4497
861.256	4554
861.388	4641
861.521	5360
861.653	4474
861.786	4424
861.918	4459
862.05	4523
862.183	4580
862.315	4607
862.447	4626
862.58	4508
862.712	4386
862.844	4363
862.976	4519
863.108	4474
863.24	4873
863.372	4280
863.504	4390
863.636	4398
863.768	4504
863.9	4443
864.032	4371
864.164	4360
864.296	4432
864.428	4516
864.559	4546
864.691	4538
864.823	4519
864.954	4497
865.086	4527
865.217	4462
865.349	4390
865.48	4478
865.612	4455
865.743	4618
865.875	4478
866.006	4470
866.137	4428
866.269	4424
866.4	4428
866.531	4428
866.662	4405
866.793	4398
866.924	4462
867.055	4493
867.186	4462
867.317	4421
867.448	4341
867.579	4390
867.71	4424
867.841	4375
867.972	4447
868.103	4489
868.233	4451
868.364	4459
868.495	4462
868.625	4664
868.756	4759
868.886	4569
869.017	4634
869.147	4729
869.278	4721
869.408	4653
869.539	4645
869.669	4729
869.799	4641
869.929	4706
870.06	4744
870.19	4904
870.32	4923
870.45	4908
870.58	5041
870.71	5094
870.84	5102
870.97	4938
871.1	4866
871.23	5155
871.36	5121
871.489	5075
871.619	5083
871.749	5098
871.879	5170
872.008	5124
872.138	5033
872.267	4968
872.397	4870
872.526	4790
872.656	4714
872.785	4828
872.915	4949
873.044	5018
873.173	4911
873.303	4995
873.432	4915
873.561	4942
873.69	4835
873.819	4824
873.948	4877
874.077	4797
874.206	4706
874.335	4782
874.464	4923
874.593	5025
874.722	4968
874.851	5090
874.979	5029
875.108	5067
875.237	4908
875.365	4873
875.494	4904
875.623	4987
875.751	4809
875.88	4908
876.008	5006
876.136	5014
876.265	5185
876.393	5353
876.521	5254
876.65	5227
876.778	5140
876.906	5060
877.034	5056
877.162	5014
877.29	4991
877.418	5041
877.546	5060
877.674	5037
877.802	4946
877.93	5003
878.058	4915
878.185	4870
878.313	4987
878.441	4942
878.568	4801
878.696	4896
878.824	4938
878.951	5025
879.079	5143
879.206	5337
879.333	5067
879.461	4999
879.588	4953
879.715	5083
879.842	5178
879.97	4968
880.097	4755
880.224	4721
880.351	4778
880.478	4877
880.605	4805
880.732	4812
880.859	5098
880.986	4892
881.112	4892
881.239	4733
881.366	4668
881.493	4641
881.619	4611
881.746	4630
881.872	4706
881.999	4645
882.125	4630
882.252	4805
882.378	4835
882.505	4949
882.631	4771
882.757	4668
882.883	4725
883.01	4752
883.136	4656
883.262	4561
883.388	4592
883.514	4797
883.64	4873
883.766	4820
883.892	4683
884.018	4683
884.143	4866
884.269	4961
884.395	4603
884.52	4580
884.646	4649
884.772	4561
884.897	4558
885.023	4687
885.148	4786
885.274	4896
885.399	4828
885.524	4733
885.65	4660
885.775	4767
885.9	4656
886.025	4805
886.15	4824
886.275	4706
886.4	4626
886.525	4702
886.65	4725
886.775	4679
886.9	4919
887.025	4961
887.149	4816
887.274	4653
887.399	4550
887.523	4577
887.648	4596
887.773	4588
887.897	4816
888.021	4828
888.146	4668
888.27	4835
888.395	4881
888.519	4793
888.643	4786
888.767	4793
888.891	4694
889.015	4584
889.139	4664
889.263	4599
889.387	4771
889.511	4870
889.635	4782
889.759	4630
889.883	4622
890.006	4721
890.13	4850
890.254	4634
890.377	4694
890.501	4535
890.624	4535
890.748	4630
890.871	4504
890.995	4470
891.118	4379
891.241	4500
891.364	4550
891.488	4637
891.611	4485
891.734	4550
891.857	4641
891.98	4561
892.103	4618
892.226	4615
892.349	4535
892.471	4386
892.594	4569
892.717	4565
892.839	4584
892.962	4611
893.085	4611
893.207	4592
893.33	4462
893.452	4577
893.575	4637
893.697	4565
893.819	4778
893.941	4839
894.064	4740
894.186	4596
894.308	4577
894.43	4748
894.552	4797
894.674	4752
894.796	4542
894.918	4592
895.04	4592
895.161	4710
895.283	4641
895.405	4558
895.526	4656
895.648	4694
895.769	4668
895.891	4733
896.012	4706
896.134	4748
896.255	4660
896.376	4599
896.498	4668
896.619	4694
896.74	4611
896.861	4596
896.982	4938
897.103	5117
897.224	4824
897.345	4706
897.466	4668
897.587	4763
897.708	4862
897.828	4725
897.949	4683
898.07	4569
898.19	4618
898.311	4816
898.431	4683
898.552	4763
898.672	4847
898.792	4824
898.913	4767
899.033	4611
899.153	4489
899.273	4413
899.393	4493
899.513	4508
899.633	4504
899.753	4577
899.873	4512
899.993	4569
900.113	4558
900.232	4622
900.352	4558
900.472	4478
900.591	4386
900.711	4481
900.83	4455
900.95	4611
901.069	4691
901.189	4512
901.308	4360
901.427	4325
901.546	4356
901.665	4451
901.784	4508
901.904	4409
902.023	4261
902.141	4234
902.26	4150
902.379	4299
902.498	4246
902.617	4188
902.735	4383
902.854	4394
902.973	4352
903.091	4230
903.21	4238
903.328	4333
903.446	4280
903.565	4223
903.683	4329
903.801	4268
903.919	4386
904.038	4432
904.156	4295
904.274	4462
904.392	4440
904.51	4394
904.627	4489
904.745	4550
904.863	4637
904.981	4390
905.098	4314
905.216	4344
905.334	4379
905.451	4394
905.569	4432
905.686	4542
905.803	4519
905.921	4383
906.038	4512
906.155	4527
906.272	4428
906.389	4447
906.506	4333
906.623	4348
906.74	4386
906.857	4337
906.974	4383
907.091	4573
907.208	4645
907.324	4550
907.441	4466
907.557	4352
907.674	4337
907.79	4310
907.907	4371
908.023	4527
908.139	4497
908.256	4413
908.372	4451
908.488	4432
908.604	4356
908.72	4299
908.836	4371
908.952	4413
909.068	4409
909.184	4569
909.3	4470
909.415	4546
909.531	4546
909.647	4348
909.762	4394
909.878	4337
909.993	4466
910.108	4348
910.224	4421
910.339	4417
910.454	4375
910.57	4390
910.685	4341
910.8	4649
910.915	4573
911.03	4478
911.145	4371
911.259	4352
911.374	4367
911.489	4280
911.604	4268
911.718	4173
911.833	4188
911.947	4105
912.062	4029
912.176	4177
912.291	4223
912.405	4261
912.519	4432
912.633	4497
912.748	4367
912.862	4303
912.976	4211
913.09	4040
913.204	4223
913.318	4227
913.431	4360
913.545	4383
913.659	4432
913.772	4303
913.886	4211
914	4230
914.113	4371
914.226	4390
914.34	4360
914.453	4211
914.566	4424
914.68	4280
914.793	4295
914.906	4200
915.019	4131
915.132	4082
915.245	4166
915.358	4196
915.47	4223
915.583	4249
915.696	4303
915.809	4417
915.921	4402
916.034	4276
916.146	4265
916.259	4192
916.371	4421
916.483	4341
916.595	4238
916.708	4325
916.82	4322
916.932	4344
917.044	4253
917.156	4367
917.268	4257
917.38	4265
917.491	4276
917.603	4303
917.715	4424
917.826	4451
917.938	4333
918.049	4230
918.161	4367
918.272	4504
918.384	4550
918.495	4459
918.606	4276
918.717	4249
918.828	4333
918.939	4379
919.05	4234
919.161	4333
919.272	4101
919.383	4238
919.494	4428
919.604	4611
919.715	4424
919.826	4371
919.936	4398
920.047	4516
920.157	4470
920.267	4706
920.378	4554
920.488	4500
920.598	4740
920.708	4870
920.818	4778
920.928	4725
921.038	4900
921.148	4923
921.258	4630
921.368	4558
921.477	4504
921.587	4470
921.697	4352
921.806	4546
921.916	4413
922.025	4265
922.134	4287
922.244	4207
922.353	4322
922.462	4128
922.571	4116
922.68	4025
922.789	3972
922.898	4059
923.007	3987
923.116	4101
923.224	4029
923.333	4116
923.442	3979
923.55	3991
923.659	4006
923.767	4101
923.876	4029
923.984	4131
924.092	3949
924.201	4082
924.309	4097
924.417	4093
924.525	4029
924.633	4063
924.741	5071
924.849	3926
924.956	4143
925.064	3956
925.172	3911
925.279	3979
925.387	4048
925.494	4055
925.602	4166
925.709	4135
925.816	4036
925.924	4139
926.031	4192
926.138	4147
926.245	4227
926.352	4063
926.459	4223
926.566	4306
926.673	4166
926.779	4086
926.886	4044
926.993	3960
927.099	3979
927.206	3960
927.312	3926
927.419	4074
927.525	4063
927.631	4063
927.737	3975
927.843	3892
927.95	3850
928.056	3937
928.162	3960
928.267	4029
928.373	4584
928.479	4097
928.585	3816
928.69	4025
928.796	4078
928.901	3964
929.007	3884
929.112	4010
929.218	3998
929.323	3941
929.428	3934
929.533	4105
929.638	3911
929.743	3937
929.848	4021
929.953	3983
930.058	3918
930.163	3797
930.267	3827
930.372	3907
930.477	3778
930.581	4112
930.685	3930
930.79	3800
930.894	3907
930.998	3857
931.103	4021
931.207	3694
931.311	3663
931.415	3694
931.519	3549
931.623	3545
