Data from test_V78500241_582.txt Node
Date: Fri Mar 25 16:53:02 CST 2022
User: usil
Spectrometer: V785-0024
Trigger mode: 0
Integration Time (sec): 4.000000E-1
Scans to average: 1
Nonlinearity correction enabled: false
Boxcar width: 0
Storing dark spectrum: false
XAxis mode: Wavelengths
Number of Pixels in Spectrum: 1024
>>>>>Begin Spectral Data<<<<<
801.071	8031
801.214	7928
801.356	7894
801.499	7849
801.641	7765
801.783	7852
801.926	7955
802.068	7967
802.211	8016
802.353	8027
802.496	7852
802.638	7986
802.78	7936
802.923	7936
803.065	7833
803.208	7826
803.35	7875
803.492	8088
803.635	8077
803.777	8092
803.919	8069
804.061	8396
804.204	8103
804.346	8050
804.488	7909
804.63	8130
804.773	7970
804.915	8020
805.057	8248
805.199	8145
805.341	8172
805.483	8294
805.626	8233
805.768	8111
805.91	8115
806.052	8187
806.194	8081
806.336	8263
806.478	8145
806.62	8054
806.762	8123
806.904	8221
807.046	8503
807.188	8275
807.33	8240
807.472	8339
807.614	8119
807.756	8126
807.898	7940
808.04	7788
808.182	7871
808.324	7902
808.465	7879
808.607	8020
808.749	8081
808.891	8240
809.033	8275
809.174	8145
809.316	8142
809.458	8046
809.6	7997
809.741	8016
809.883	8050
810.025	8084
810.166	8008
810.308	8050
810.45	8020
810.591	7845
810.733	7734
810.875	7647
811.016	7480
811.158	7548
811.299	7571
811.441	7674
811.582	7731
811.724	7563
811.865	7533
812.007	7559
812.148	7590
812.29	7609
812.431	7708
812.573	7913
812.714	7955
812.855	8145
812.997	8218
813.138	8286
813.279	8172
813.421	8183
813.562	8107
813.703	7860
813.845	7826
813.986	7506
814.127	7392
814.268	7308
814.41	7263
814.551	7164
814.692	7213
814.833	7061
814.974	7004
815.115	7099
815.256	6966
815.397	6973
815.539	6981
815.68	6852
815.821	6741
815.962	6894
816.103	6818
816.244	6738
816.385	6601
816.526	6585
816.666	6517
816.807	6266
816.948	6391
817.089	6460
817.23	6410
817.371	6353
817.512	6395
817.653	6323
817.793	6346
817.934	6403
818.075	6433
818.216	6433
818.356	6391
818.497	6228
818.638	6148
818.778	6106
818.919	6140
819.06	6144
819.2	6251
819.341	6327
819.481	6334
819.622	6475
819.762	6760
819.903	6719
820.043	6555
820.184	6597
820.324	6509
820.465	6631
820.605	6669
820.746	6665
820.886	6536
821.026	6612
821.167	6669
821.307	6837
821.447	6684
821.588	6589
821.728	6490
821.868	6502
822.008	6304
822.149	6353
822.289	6319
822.429	6163
822.569	6072
822.709	6121
822.849	5897
822.99	5916
823.13	5889
823.27	5927
823.41	5710
823.55	5707
823.69	5798
823.83	5764
823.97	5657
824.11	5558
824.25	5505
824.389	5573
824.529	5615
824.669	5474
824.809	5688
824.949	5642
825.089	5623
825.228	5589
825.368	5341
825.508	5296
825.648	5368
825.787	5376
825.927	5326
826.067	5292
826.206	5284
826.346	5353
826.485	5421
826.625	5421
826.765	5573
826.904	5478
827.044	5231
827.183	5227
827.323	5124
827.462	5288
827.601	5220
827.741	5136
827.88	5235
828.02	5113
828.159	5216
828.298	5307
828.437	5387
828.577	5273
828.716	5486
828.855	5307
828.994	5143
829.134	5113
829.273	5181
829.412	5117
829.551	5178
829.69	5117
829.829	5254
829.968	5311
830.107	5220
830.246	5242
830.385	5162
830.524	5094
830.663	5102
830.802	4938
830.941	4877
831.08	4889
831.219	4953
831.357	4991
831.496	5132
831.635	4915
831.774	4900
831.913	4847
832.051	4752
832.19	4706
832.329	4835
832.467	4714
832.606	4580
832.744	4778
832.883	4683
833.022	4736
833.16	4801
833.299	4831
833.437	4843
833.576	4835
833.714	4812
833.852	4866
833.991	4870
834.129	4946
834.267	4953
834.406	4923
834.544	4915
834.682	4991
834.821	4949
834.959	5155
835.097	4946
835.235	5143
835.373	5105
835.511	5102
835.65	4984
835.788	5003
835.926	4877
836.064	4911
836.202	4904
836.34	5174
836.478	5197
836.615	5174
836.753	5223
836.891	5299
837.029	5212
837.167	5212
837.305	5124
837.443	5090
837.58	5041
837.718	5212
837.856	5185
837.993	5174
838.131	5220
838.269	5174
838.406	5197
838.544	5166
838.681	4987
838.819	4991
838.956	4854
839.094	4896
839.231	4946
839.369	5102
839.506	5391
839.643	5288
839.781	5064
839.918	4949
840.055	5128
840.193	5136
840.33	5109
840.467	5105
840.604	5185
840.742	5455
840.879	5045
841.016	5102
841.153	5140
841.29	5372
841.427	5341
841.564	5326
841.701	5345
841.838	5311
841.975	5220
842.112	5208
842.249	5098
842.385	5109
842.522	5299
842.659	5208
842.796	5117
842.933	5174
843.069	5136
843.206	5185
843.343	5296
843.479	5235
843.616	5280
843.752	5010
843.889	4957
844.025	5185
844.162	5025
844.298	5147
844.435	5060
844.571	5060
844.708	5178
844.844	5277
844.98	5315
845.117	5265
845.253	5105
845.389	5018
845.525	5159
845.661	5162
845.798	5022
845.934	5086
846.07	5037
846.206	5159
846.342	5299
846.478	5140
846.614	5003
846.75	5014
846.886	4946
847.022	5170
847.158	4987
847.294	5067
847.429	5079
847.565	5052
847.701	5307
847.837	4843
847.972	4759
848.108	4908
848.244	4999
848.379	4717
848.515	4725
848.65	4660
848.786	4748
848.921	4771
849.057	4873
849.192	4889
849.328	4771
849.463	4824
849.598	4797
849.734	4744
849.869	4672
850.004	4626
850.14	4694
850.275	4603
850.41	4504
850.545	4569
850.68	4569
850.815	4660
850.95	4592
851.085	4847
851.22	4740
851.355	4649
851.49	4630
851.625	4630
851.76	4607
851.895	4523
852.03	4550
852.165	4630
852.299	4691
852.434	4820
852.569	4717
852.703	4820
852.838	4820
852.973	4885
853.107	4870
853.242	4763
853.376	4656
853.511	4561
853.645	4607
853.78	4820
853.914	4740
854.048	4653
854.183	4653
854.317	4683
854.451	4828
854.585	4687
854.72	4641
854.854	4809
854.988	4603
855.122	4615
855.256	4554
855.39	4645
855.524	4835
855.658	4683
855.792	4664
855.926	4710
856.06	4790
856.194	4778
856.327	4687
856.461	4611
856.595	4603
856.729	4641
856.862	4687
856.996	4664
857.13	4763
857.263	4778
857.397	4786
857.53	4618
857.664	4668
857.797	4752
857.931	4774
858.064	4649
858.197	4752
858.331	4653
858.464	4626
858.597	4508
858.731	4679
858.864	4672
858.997	4577
859.13	4615
859.263	4660
859.396	4687
859.529	4584
859.662	4550
859.795	4527
859.928	4615
860.061	4729
860.194	4763
860.327	4554
860.46	4573
860.592	4736
860.725	4733
860.858	4702
860.99	4561
861.123	4523
861.256	4466
861.388	4584
861.521	5261
861.653	4481
861.786	4413
861.918	4447
862.05	4512
862.183	4489
862.315	4577
862.447	4596
862.58	4546
862.712	4383
862.844	4276
862.976	4432
863.108	4474
863.24	4744
863.372	4344
863.504	4417
863.636	4428
863.768	4489
863.9	4474
864.032	4344
864.164	4398
864.296	4493
864.428	4573
864.559	4592
864.691	4542
864.823	4531
864.954	4527
865.086	4462
865.217	4424
865.349	4405
865.48	4470
865.612	4443
865.743	4664
865.875	4508
866.006	4462
866.137	4424
866.269	4421
866.4	4493
866.531	4424
866.662	4436
866.793	4386
866.924	4409
867.055	4481
867.186	4421
867.317	4409
867.448	4409
867.579	4386
867.71	4390
867.841	4394
867.972	4405
868.103	4481
868.233	4436
868.364	4466
868.495	4485
868.625	4679
868.756	4774
868.886	4508
869.017	4584
869.147	4786
869.278	4740
869.408	4683
869.539	4649
869.669	4675
869.799	4656
869.929	4805
870.06	4721
870.19	4965
870.32	4873
870.45	4911
870.58	4980
870.71	5033
870.84	5155
870.97	4976
871.1	4892
871.23	5178
871.36	5147
871.489	5083
871.619	5094
871.749	5098
871.879	5117
872.008	5147
872.138	5048
872.267	4995
872.397	4820
872.526	4862
872.656	4714
872.785	4786
872.915	4961
873.044	4991
873.173	4953
873.303	4904
873.432	4938
873.561	4968
873.69	4870
873.819	4866
873.948	4976
874.077	4839
874.206	4771
874.335	4828
874.464	4953
874.593	5029
874.722	4908
874.851	5075
874.979	5029
875.108	5045
875.237	4866
875.365	4858
875.494	4858
875.623	4930
875.751	4801
875.88	4885
876.008	4995
876.136	5003
876.265	5223
876.393	5330
876.521	5227
876.65	5212
876.778	5212
876.906	5098
877.034	4995
877.162	5045
877.29	4961
877.418	5022
877.546	5041
877.674	5014
877.802	4972
877.93	5006
878.058	4942
878.185	4881
878.313	4961
878.441	4953
878.568	4824
878.696	4854
878.824	4934
878.951	4987
879.079	5102
879.206	5345
879.333	5067
879.461	4942
879.588	5029
879.715	5105
879.842	5246
879.97	4995
880.097	4763
880.224	4729
880.351	4805
880.478	4862
880.605	4786
880.732	4748
880.859	5090
880.986	4995
881.112	4900
881.239	4771
881.366	4694
881.493	4542
881.619	4577
881.746	4679
881.872	4637
881.999	4653
882.125	4717
882.252	4793
882.378	4812
882.505	4987
882.631	4771
882.757	4645
882.883	4729
883.01	4729
883.136	4649
883.262	4603
883.388	4615
883.514	4835
883.64	4831
883.766	4774
883.892	4679
884.018	4714
884.143	4904
884.269	4984
884.395	4687
884.52	4603
884.646	4675
884.772	4577
884.897	4607
885.023	4626
885.148	4763
885.274	4870
885.399	4729
885.524	4748
885.65	4714
885.775	4717
885.9	4687
886.025	4881
886.15	4771
886.275	4717
886.4	4634
886.525	4721
886.65	4721
886.775	4668
886.9	4900
887.025	5060
887.149	4805
887.274	4618
887.399	4607
887.523	4550
887.648	4519
887.773	4561
887.897	4744
888.021	4763
888.146	4660
888.27	4828
888.395	4900
888.519	4805
888.643	4847
888.767	4843
888.891	4672
889.015	4565
889.139	4683
889.263	4653
889.387	4740
889.511	4881
889.635	4774
889.759	4615
889.883	4634
890.006	4740
890.13	4850
890.254	4649
890.377	4694
890.501	4561
890.624	4485
890.748	4656
890.871	4516
890.995	4432
891.118	4344
891.241	4535
891.364	4554
891.488	4668
891.611	4497
891.734	4554
891.857	4618
891.98	4489
892.103	4675
892.226	4573
892.349	4489
892.471	4375
892.594	4550
892.717	4596
892.839	4554
892.962	4592
893.085	4687
893.207	4615
893.33	4478
893.452	4531
893.575	4675
893.697	4626
893.819	4740
893.941	4828
894.064	4790
894.186	4550
894.308	4565
894.43	4714
894.552	4805
894.674	4752
894.796	4558
894.918	4641
895.04	4611
895.161	4694
895.283	4637
895.405	4580
895.526	4618
895.648	4710
895.769	4683
895.891	4706
896.012	4733
896.134	4725
896.255	4725
896.376	4630
896.498	4645
896.619	4637
896.74	4554
896.861	4607
896.982	4889
897.103	5060
897.224	4763
897.345	4725
897.466	4675
897.587	4763
897.708	4828
897.828	4767
897.949	4668
898.07	4527
898.19	4634
898.311	4809
898.431	4656
898.552	4725
898.672	4816
898.792	4755
898.913	4755
899.033	4653
899.153	4512
899.273	4428
899.393	4474
899.513	4538
899.633	4504
899.753	4531
899.873	4485
899.993	4577
900.113	4512
900.232	4558
900.352	4527
900.472	4489
900.591	4375
900.711	4478
900.83	4421
900.95	4565
901.069	4675
901.189	4504
901.308	4348
901.427	4333
901.546	4371
901.665	4500
901.784	4512
901.904	4386
902.023	4287
902.141	4181
902.26	4139
902.379	4238
902.498	4223
902.617	4219
902.735	4367
902.854	4405
902.973	4363
903.091	4150
903.21	4227
903.328	4306
903.446	4246
903.565	4227
903.683	4348
903.801	4284
903.919	4386
904.038	4428
904.156	4318
904.274	4459
904.392	4398
904.51	4417
904.627	4470
904.745	4588
904.863	4653
904.981	4398
905.098	4284
905.216	4413
905.334	4409
905.451	4459
905.569	4447
905.686	4516
905.803	4558
905.921	4379
906.038	4527
906.155	4474
906.272	4348
906.389	4443
906.506	4363
906.623	4363
906.74	4375
906.857	4341
906.974	4356
907.091	4546
907.208	4675
907.324	4550
907.441	4519
907.557	4329
907.674	4409
907.79	4310
907.907	4322
908.023	4485
908.139	4459
908.256	4398
908.372	4443
908.488	4462
908.604	4360
908.72	4344
908.836	4394
908.952	4344
909.068	4383
909.184	4535
909.3	4478
909.415	4580
909.531	4542
909.647	4344
909.762	4352
909.878	4344
909.993	4386
910.108	4390
910.224	4436
910.339	4497
910.454	4421
910.57	4333
910.685	4299
910.8	4679
910.915	4630
911.03	4516
911.145	4329
911.259	4352
911.374	4371
911.489	4341
911.604	4261
911.718	4249
911.833	4284
911.947	4063
912.062	4044
912.176	4246
912.291	4272
912.405	4291
912.519	4523
912.633	4493
912.748	4405
912.862	4352
912.976	4257
913.09	4112
913.204	4204
913.318	4299
913.431	4402
913.545	4413
913.659	4470
913.772	4390
913.886	4344
914	4257
914.113	4436
914.226	4462
914.34	4405
914.453	4272
914.566	4493
914.68	4344
914.793	4329
914.906	4207
915.019	4162
915.132	4082
915.245	4238
915.358	4261
915.47	4261
915.583	4356
915.696	4341
915.809	4466
915.921	4432
916.034	4303
916.146	4314
916.259	4242
916.371	4447
916.483	4390
916.595	4310
916.708	4375
916.82	4344
916.932	4402
917.044	4394
917.156	4352
917.268	4249
917.38	4284
917.491	4344
917.603	4390
917.715	4470
917.826	4478
917.938	4341
918.049	4265
918.161	4455
918.272	4596
918.384	4599
918.495	4497
918.606	4352
918.717	4276
918.828	4379
918.939	4421
919.05	4325
919.161	4344
919.272	4192
919.383	4303
919.494	4508
919.604	4691
919.715	4470
919.826	4394
919.936	4405
920.047	4573
920.157	4565
920.267	4752
920.378	4546
920.488	4538
920.598	4778
920.708	4877
920.818	4820
920.928	4812
921.038	4976
921.148	4908
921.258	4656
921.368	4584
921.477	4512
921.587	4443
921.697	4386
921.806	4592
921.916	4481
922.025	4299
922.134	4295
922.244	4253
922.353	4379
922.462	4211
922.571	4177
922.68	4059
922.789	4029
922.898	4036
923.007	4059
923.116	4158
923.224	4093
923.333	4112
923.442	3991
923.55	4002
923.659	4048
923.767	4116
923.876	4044
923.984	4139
924.092	4013
924.201	4112
924.309	4150
924.417	4135
924.525	4074
924.633	4139
924.741	5105
924.849	3979
924.956	4147
925.064	3975
925.172	3934
925.279	4006
925.387	4101
925.494	4074
925.602	4207
925.709	4192
925.816	4067
925.924	4143
926.031	4242
926.138	4223
926.245	4238
926.352	4154
926.459	4322
926.566	4310
926.673	4185
926.779	4135
926.886	4109
926.993	3983
927.099	3991
927.206	3941
927.312	3949
927.419	4063
927.525	4082
927.631	4124
927.737	3930
927.843	3972
927.95	3873
928.056	3956
928.162	4017
928.267	4090
928.373	4691
928.479	4192
928.585	3937
928.69	4086
928.796	4086
928.901	3960
929.007	3892
929.112	4059
929.218	3994
929.323	3953
929.428	3972
929.533	4135
929.638	3926
929.743	3991
929.848	4040
929.953	4055
930.058	3964
930.163	3812
930.267	3854
930.372	4010
930.477	3865
930.581	4128
930.685	3972
930.79	3831
930.894	3941
930.998	3899
931.103	4086
931.207	3728
931.311	3698
931.415	3717
931.519	3549
931.623	3584
