Data from test_V78500241_2627.txt Node
Date: Fri Mar 25 17:07:16 CST 2022
User: usil
Spectrometer: V785-0024
Trigger mode: 0
Integration Time (sec): 4.000000E-1
Scans to average: 1
Nonlinearity correction enabled: false
Boxcar width: 0
Storing dark spectrum: false
XAxis mode: Wavelengths
Number of Pixels in Spectrum: 1024
>>>>>Begin Spectral Data<<<<<
801.071	8046
801.214	7928
801.356	7932
801.499	7849
801.641	7784
801.783	7811
801.926	7936
802.068	7974
802.211	7989
802.353	7959
802.496	7852
802.638	7936
802.78	7928
802.923	7932
803.065	7883
803.208	7852
803.35	7982
803.492	8111
803.635	8221
803.777	8065
803.919	8142
804.061	8377
804.204	8138
804.346	8024
804.488	7947
804.63	8096
804.773	8035
804.915	8096
805.057	8385
805.199	8123
805.341	8225
805.483	8290
805.626	8279
805.768	8134
805.91	8240
806.052	8153
806.194	8065
806.336	8279
806.478	8153
806.62	8062
806.762	8119
806.904	8210
807.046	8526
807.188	8343
807.33	8275
807.472	8320
807.614	8123
807.756	8103
807.898	7982
808.04	7841
808.182	7875
808.324	7868
808.465	7940
808.607	8107
808.749	8096
808.891	8218
809.033	8305
809.174	8237
809.316	8107
809.458	8027
809.6	8035
809.741	8031
809.883	8088
810.025	8119
810.166	8077
810.308	8001
810.45	7982
810.591	7871
810.733	7715
810.875	7693
811.016	7449
811.158	7483
811.299	7628
811.441	7670
811.582	7723
811.724	7594
811.865	7472
812.007	7578
812.148	7624
812.29	7636
812.431	7712
812.573	7879
812.714	7936
812.855	8130
812.997	8218
813.138	8320
813.279	8180
813.421	8130
813.562	7932
813.703	7871
813.845	7826
813.986	7415
814.127	7274
814.268	7247
814.41	7202
814.551	7198
814.692	7221
814.833	7095
814.974	7149
815.115	7141
815.256	6973
815.397	7023
815.539	7015
815.68	6798
815.821	6856
815.962	6844
816.103	6795
816.244	6681
816.385	6635
816.526	6654
816.666	6502
816.807	6304
816.948	6467
817.089	6448
817.23	6422
817.371	6414
817.512	6388
817.653	6403
817.793	6365
817.934	6399
818.075	6460
818.216	6418
818.356	6388
818.497	6201
818.638	6186
818.778	6125
818.919	6197
819.06	6117
819.2	6357
819.341	6350
819.481	6369
819.622	6578
819.762	6749
819.903	6787
820.043	6635
820.184	6555
820.324	6532
820.465	6738
820.605	6738
820.746	6681
820.886	6540
821.026	6646
821.167	6734
821.307	6810
821.447	6711
821.588	6662
821.728	6551
821.868	6490
822.008	6346
822.149	6372
822.289	6353
822.429	6148
822.569	6106
822.709	6152
822.849	5927
822.99	5950
823.13	5897
823.27	5939
823.41	5802
823.55	5798
823.69	5745
823.83	5836
823.97	5661
824.11	5589
824.25	5547
824.389	5532
824.529	5573
824.669	5577
824.809	5661
824.949	5684
825.089	5577
825.228	5520
825.368	5398
825.508	5360
825.648	5357
825.787	5402
825.927	5398
826.067	5299
826.206	5269
826.346	5337
826.485	5436
826.625	5452
826.765	5554
826.904	5493
827.044	5277
827.183	5193
827.323	5170
827.462	5273
827.601	5098
827.741	5170
827.88	5178
828.02	5064
828.159	5216
828.298	5269
828.437	5357
828.577	5246
828.716	5452
828.855	5315
828.994	5147
829.134	5117
829.273	5220
829.412	5155
829.551	5151
829.69	5151
829.829	5239
829.968	5387
830.107	5216
830.246	5250
830.385	5151
830.524	5140
830.663	5041
830.802	4968
830.941	4877
831.08	4862
831.219	4999
831.357	4923
831.496	5147
831.635	4972
831.774	4850
831.913	4797
832.051	4733
832.19	4793
832.329	4801
832.467	4725
832.606	4656
832.744	4706
832.883	4702
833.022	4687
833.16	4748
833.299	4831
833.437	4820
833.576	4801
833.714	4885
833.852	4828
833.991	4915
834.129	4930
834.267	4866
834.406	4923
834.544	4991
834.682	5022
834.821	4919
834.959	5143
835.097	4965
835.235	5121
835.373	5105
835.511	5113
835.65	5048
835.788	4987
835.926	4850
836.064	4862
836.202	4946
836.34	5151
836.478	5185
836.615	5109
836.753	5193
836.891	5292
837.029	5254
837.167	5174
837.305	5128
837.443	5098
837.58	5064
837.718	5208
837.856	5189
837.993	5143
838.131	5208
838.269	5254
838.406	5159
838.544	5231
838.681	5018
838.819	4980
838.956	4957
839.094	4889
839.231	4900
839.369	5071
839.506	5421
839.643	5242
839.781	5060
839.918	4991
840.055	5071
840.193	5143
840.33	5128
840.467	5083
840.604	5193
840.742	5410
840.879	5045
841.016	5079
841.153	5166
841.29	5414
841.427	5284
841.564	5307
841.701	5425
841.838	5246
841.975	5235
842.112	5269
842.249	5056
842.385	5121
842.522	5322
842.659	5143
842.796	5208
842.933	5208
843.069	5159
843.206	5124
843.343	5315
843.479	5277
843.616	5315
843.752	5037
843.889	4984
844.025	5178
844.162	4999
844.298	5181
844.435	5052
844.571	5067
844.708	5181
844.844	5265
844.98	5303
845.117	5254
845.253	5185
845.389	5060
845.525	5193
845.661	5075
845.798	5048
845.934	5113
846.07	5083
846.206	5208
846.342	5261
846.478	5155
846.614	5033
846.75	5010
846.886	4953
847.022	5151
847.158	5014
847.294	5022
847.429	5094
847.565	5090
847.701	5318
847.837	4889
847.972	4778
848.108	4953
848.244	4881
848.379	4771
848.515	4729
848.65	4679
848.786	4710
848.921	4733
849.057	4870
849.192	4873
849.328	4801
849.463	4824
849.598	4793
849.734	4736
849.869	4649
850.004	4561
850.14	4691
850.275	4596
850.41	4584
850.545	4535
850.68	4580
850.815	4611
850.95	4653
851.085	4835
851.22	4733
851.355	4649
851.49	4599
851.625	4618
851.76	4630
851.895	4546
852.03	4481
852.165	4694
852.299	4729
852.434	4759
852.569	4702
852.703	4763
852.838	4847
852.973	4923
853.107	4892
853.242	4725
853.376	4679
853.511	4558
853.645	4584
853.78	4805
853.914	4675
854.048	4679
854.183	4660
854.317	4706
854.451	4835
854.585	4721
854.72	4634
854.854	4721
854.988	4596
855.122	4656
855.256	4527
855.39	4626
855.524	4767
855.658	4752
855.792	4683
855.926	4740
856.06	4767
856.194	4816
856.327	4706
856.461	4611
856.595	4599
856.729	4679
856.862	4774
856.996	4729
857.13	4763
857.263	4752
857.397	4793
857.53	4660
857.664	4790
857.797	4771
857.931	4782
858.064	4771
858.197	4793
858.331	4641
858.464	4630
858.597	4584
858.731	4660
858.864	4710
858.997	4717
859.13	4694
859.263	4698
859.396	4759
859.529	4618
859.662	4558
859.795	4523
859.928	4698
860.061	4790
860.194	4774
860.327	4645
860.46	4607
860.592	4744
860.725	4786
860.858	4763
860.99	4618
861.123	4607
861.256	4607
861.388	4615
861.521	5429
861.653	4519
861.786	4455
861.918	4516
862.05	4550
862.183	4569
862.315	4618
862.447	4694
862.58	4599
862.712	4432
862.844	4352
862.976	4493
863.108	4550
863.24	4824
863.372	4356
863.504	4500
863.636	4432
863.768	4512
863.9	4478
864.032	4394
864.164	4466
864.296	4489
864.428	4561
864.559	4596
864.691	4558
864.823	4626
864.954	4527
865.086	4527
865.217	4432
865.349	4451
865.48	4546
865.612	4519
865.743	4649
865.875	4527
866.006	4512
866.137	4508
866.269	4500
866.4	4462
866.531	4481
866.662	4432
866.793	4451
866.924	4508
867.055	4497
867.186	4508
867.317	4459
867.448	4474
867.579	4440
867.71	4466
867.841	4405
867.972	4500
868.103	4451
868.233	4497
868.364	4504
868.495	4542
868.625	4710
868.756	4748
868.886	4580
869.017	4660
869.147	4801
869.278	4885
869.408	4698
869.539	4664
869.669	4752
869.799	4691
869.929	4839
870.06	4748
870.19	5003
870.32	4927
870.45	4953
870.58	5083
870.71	5121
870.84	5094
870.97	5018
871.1	4930
871.23	5159
871.36	5223
871.489	5079
871.619	5102
871.749	5105
871.879	5159
872.008	5193
872.138	5136
872.267	4995
872.397	4889
872.526	4866
872.656	4748
872.785	4850
872.915	4965
873.044	5025
873.173	4972
873.303	5029
873.432	4980
873.561	5010
873.69	4934
873.819	4858
873.948	4949
874.077	4870
874.206	4843
874.335	4850
874.464	4968
874.593	5102
874.722	4976
874.851	5174
874.979	5075
875.108	5022
875.237	4968
875.365	4908
875.494	4984
875.623	5048
875.751	4870
875.88	4919
876.008	5029
876.136	5067
876.265	5239
876.393	5360
876.521	5284
876.65	5277
876.778	5151
876.906	5060
877.034	5025
877.162	5105
877.29	5010
877.418	5083
877.546	5098
877.674	5121
877.802	5064
877.93	5025
878.058	4972
878.185	4900
878.313	4995
878.441	5003
878.568	4839
878.696	4949
878.824	4976
878.951	5018
879.079	5193
879.206	5292
879.333	5140
879.461	5041
879.588	5064
879.715	5239
879.842	5284
879.97	5052
880.097	4801
880.224	4755
880.351	4850
880.478	4801
880.605	4824
880.732	4850
880.859	5102
880.986	4938
881.112	4972
881.239	4839
881.366	4691
881.493	4653
881.619	4653
881.746	4691
881.872	4679
881.999	4672
882.125	4744
882.252	4790
882.378	4881
882.505	5014
882.631	4793
882.757	4710
882.883	4793
883.01	4763
883.136	4714
883.262	4645
883.388	4641
883.514	4782
883.64	4877
883.766	4828
883.892	4736
884.018	4774
884.143	4934
884.269	4999
884.395	4778
884.52	4672
884.646	4687
884.772	4630
884.897	4588
885.023	4752
885.148	4850
885.274	4923
885.399	4877
885.524	4748
885.65	4691
885.775	4774
885.9	4774
886.025	4892
886.15	4809
886.275	4748
886.4	4698
886.525	4759
886.65	4706
886.775	4687
886.9	4984
887.025	5018
887.149	4843
887.274	4675
887.399	4630
887.523	4641
887.648	4645
887.773	4615
887.897	4759
888.021	4805
888.146	4656
888.27	4858
888.395	4961
888.519	4809
888.643	4828
888.767	4839
888.891	4736
889.015	4588
889.139	4687
889.263	4645
889.387	4774
889.511	4885
889.635	4839
889.759	4645
889.883	4698
890.006	4778
890.13	4927
890.254	4679
890.377	4706
890.501	4554
890.624	4558
890.748	4656
890.871	4584
890.995	4500
891.118	4348
891.241	4538
891.364	4554
891.488	4641
891.611	4508
891.734	4607
891.857	4653
891.98	4626
892.103	4637
892.226	4656
892.349	4535
892.471	4462
892.594	4603
892.717	4618
892.839	4615
892.962	4626
893.085	4672
893.207	4577
893.33	4481
893.452	4516
893.575	4683
893.697	4607
893.819	4809
893.941	4854
894.064	4839
894.186	4607
894.308	4588
894.43	4782
894.552	4847
894.674	4790
894.796	4596
894.918	4630
895.04	4626
895.161	4767
895.283	4637
895.405	4573
895.526	4710
895.648	4717
895.769	4710
895.891	4736
896.012	4759
896.134	4736
896.255	4675
896.376	4702
896.498	4630
896.619	4736
896.74	4618
896.861	4645
896.982	4946
897.103	5147
897.224	4866
897.345	4740
897.466	4694
897.587	4786
897.708	4885
897.828	4797
897.949	4706
898.07	4630
898.19	4706
898.311	4847
898.431	4725
898.552	4717
898.672	4866
898.792	4805
898.913	4790
899.033	4694
899.153	4504
899.273	4478
899.393	4535
899.513	4607
899.633	4588
899.753	4573
899.873	4565
899.993	4630
900.113	4611
900.232	4603
900.352	4546
900.472	4516
900.591	4409
900.711	4481
900.83	4459
900.95	4649
901.069	4710
901.189	4561
901.308	4371
901.427	4363
901.546	4390
901.665	4527
901.784	4550
901.904	4371
902.023	4344
902.141	4200
902.26	4192
902.379	4379
902.498	4215
902.617	4276
902.735	4352
902.854	4466
902.973	4363
903.091	4272
903.21	4261
903.328	4287
903.446	4291
903.565	4280
903.683	4371
903.801	4291
903.919	4432
904.038	4436
904.156	4322
904.274	4455
904.392	4413
904.51	4443
904.627	4481
904.745	4622
904.863	4656
904.981	4421
905.098	4265
905.216	4341
905.334	4466
905.451	4390
905.569	4440
905.686	4596
905.803	4577
905.921	4443
906.038	4527
906.155	4504
906.272	4413
906.389	4485
906.506	4383
906.623	4436
906.74	4459
906.857	4329
906.974	4371
907.091	4615
907.208	4687
907.324	4565
907.441	4493
907.557	4367
907.674	4333
907.79	4352
907.907	4424
908.023	4497
908.139	4542
908.256	4440
908.372	4550
908.488	4443
908.604	4394
908.72	4371
908.836	4363
908.952	4417
909.068	4459
909.184	4603
909.3	4500
909.415	4588
909.531	4546
909.647	4383
909.762	4402
909.878	4405
909.993	4428
910.108	4462
910.224	4481
910.339	4519
910.454	4424
910.57	4344
910.685	4322
910.8	4653
910.915	4603
911.03	4478
911.145	4333
911.259	4405
911.374	4383
911.489	4314
911.604	4287
911.718	4154
911.833	4207
911.947	4093
912.062	4040
912.176	4261
912.291	4291
912.405	4265
912.519	4440
912.633	4459
912.748	4386
912.862	4356
912.976	4230
913.09	4120
913.204	4154
913.318	4284
913.431	4367
913.545	4398
913.659	4443
913.772	4379
913.886	4299
914	4230
914.113	4379
914.226	4470
914.34	4379
914.453	4230
914.566	4443
914.68	4272
914.793	4314
914.906	4135
915.019	4150
915.132	4139
915.245	4215
915.358	4192
915.47	4291
915.583	4318
915.696	4325
915.809	4413
915.921	4443
916.034	4276
916.146	4261
916.259	4219
916.371	4409
916.483	4367
916.595	4287
916.708	4344
916.82	4322
916.932	4322
917.044	4348
917.156	4341
917.268	4291
917.38	4287
917.491	4257
917.603	4318
917.715	4409
917.826	4478
917.938	4367
918.049	4268
918.161	4409
918.272	4531
918.384	4558
918.495	4405
918.606	4303
918.717	4265
918.828	4333
918.939	4344
919.05	4268
919.161	4344
919.272	4131
919.383	4211
919.494	4451
919.604	4618
919.715	4413
919.826	4352
919.936	4421
920.047	4592
920.157	4508
920.267	4687
920.378	4527
920.488	4500
920.598	4740
920.708	4934
920.818	4748
920.928	4782
921.038	4900
921.148	4915
921.258	4615
921.368	4592
921.477	4508
921.587	4478
921.697	4356
921.806	4569
921.916	4459
922.025	4265
922.134	4306
922.244	4215
922.353	4348
922.462	4150
922.571	4135
922.68	4010
922.789	3994
922.898	4082
923.007	4013
923.116	4112
923.224	4051
923.333	4093
923.442	4013
923.55	3975
923.659	3998
923.767	4135
923.876	4040
923.984	4158
924.092	4040
924.201	4128
924.309	4124
924.417	4158
924.525	4105
924.633	4109
924.741	5121
924.849	3934
924.956	4139
925.064	4025
925.172	3896
925.279	4021
925.387	4097
925.494	4059
925.602	4253
925.709	4192
925.816	4044
925.924	4166
926.031	4268
926.138	4246
926.245	4253
926.352	4124
926.459	4276
926.566	4352
926.673	4181
926.779	4158
926.886	4128
926.993	4040
927.099	4002
927.206	3983
927.312	3964
927.419	4120
927.525	4055
927.631	4177
927.737	4044
927.843	4010
927.95	3884
928.056	4063
928.162	3998
928.267	4120
928.373	4672
928.479	4169
928.585	3922
928.69	4128
928.796	4116
928.901	3987
929.007	3899
929.112	4059
929.218	4010
929.323	3983
929.428	4040
929.533	4120
929.638	4021
929.743	4013
929.848	4116
929.953	4082
930.058	3983
930.163	3819
930.267	3888
930.372	4040
930.477	3857
930.581	4147
930.685	3979
930.79	3861
930.894	3941
930.998	3880
931.103	4105
931.207	3743
931.311	3762
931.415	3755
931.519	3591
931.623	3603
