Data from test_V78500241_472.txt Node
Date: Fri Mar 25 16:52:17 CST 2022
User: usil
Spectrometer: V785-0024
Trigger mode: 0
Integration Time (sec): 4.000000E-1
Scans to average: 1
Nonlinearity correction enabled: false
Boxcar width: 0
Storing dark spectrum: false
XAxis mode: Wavelengths
Number of Pixels in Spectrum: 1024
>>>>>Begin Spectral Data<<<<<
801.071	8065
801.214	8001
801.356	7959
801.499	7875
801.641	7849
801.783	7875
801.926	7967
802.068	7947
802.211	7997
802.353	8024
802.496	7936
802.638	7898
802.78	7997
802.923	7906
803.065	7845
803.208	7833
803.35	8039
803.492	8031
803.635	8092
803.777	7955
803.919	8123
804.061	8385
804.204	8073
804.346	8046
804.488	7887
804.63	8043
804.773	7921
804.915	8077
805.057	8294
805.199	8187
805.341	8229
805.483	8298
805.626	8123
805.768	8073
805.91	8096
806.052	8191
806.194	8100
806.336	8271
806.478	8107
806.62	8107
806.762	8115
806.904	8282
807.046	8396
807.188	8294
807.33	8309
807.472	8263
807.614	8103
807.756	8130
807.898	8031
808.04	7833
808.182	7959
808.324	7947
808.465	7887
808.607	8024
808.749	8103
808.891	8138
809.033	8320
809.174	8134
809.316	8119
809.458	8058
809.6	8005
809.741	8084
809.883	8062
810.025	8062
810.166	8069
810.308	8065
810.45	8008
810.591	7852
810.733	7727
810.875	7677
811.016	7525
811.158	7552
811.299	7609
811.441	7803
811.582	7708
811.724	7533
811.865	7502
812.007	7628
812.148	7594
812.29	7567
812.431	7803
812.573	7925
812.714	8001
812.855	8153
812.997	8301
813.138	8408
813.279	8267
813.421	8161
813.562	8046
813.703	7906
813.845	7860
813.986	7537
814.127	7350
814.268	7331
814.41	7213
814.551	7244
814.692	7228
814.833	7031
814.974	7156
815.115	7221
815.256	6943
815.397	6905
815.539	7008
815.68	6776
815.821	6856
815.962	6848
816.103	6821
816.244	6715
816.385	6623
816.526	6612
816.666	6532
816.807	6369
816.948	6464
817.089	6433
817.23	6460
817.371	6372
817.512	6357
817.653	6369
817.793	6403
817.934	6353
818.075	6460
818.216	6452
818.356	6372
818.497	6262
818.638	6068
818.778	6163
818.919	6057
819.06	6136
819.2	6285
819.341	6289
819.481	6342
819.622	6559
819.762	6684
819.903	6616
820.043	6544
820.184	6570
820.324	6555
820.465	6673
820.605	6703
820.746	6574
820.886	6452
821.026	6608
821.167	6711
821.307	6787
821.447	6726
821.588	6593
821.728	6582
821.868	6471
822.008	6258
822.149	6361
822.289	6376
822.429	6133
822.569	6083
822.709	6117
822.849	5923
822.99	5954
823.13	5916
823.27	5916
823.41	5741
823.55	5760
823.69	5722
823.83	5794
823.97	5699
824.11	5528
824.25	5509
824.389	5581
824.529	5566
824.669	5562
824.809	5585
824.949	5634
825.089	5592
825.228	5520
825.368	5364
825.508	5330
825.648	5353
825.787	5357
825.927	5322
826.067	5307
826.206	5277
826.346	5391
826.485	5493
826.625	5337
826.765	5585
826.904	5482
827.044	5239
827.183	5212
827.323	5166
827.462	5254
827.601	5181
827.741	5208
827.88	5212
828.02	5117
828.159	5265
828.298	5288
828.437	5379
828.577	5280
828.716	5493
828.855	5322
828.994	5159
829.134	5147
829.273	5178
829.412	5162
829.551	5159
829.69	5174
829.829	5250
829.968	5387
830.107	5254
830.246	5269
830.385	5189
830.524	5113
830.663	5090
830.802	4984
830.941	4885
831.08	4870
831.219	5006
831.357	4946
831.496	5162
831.635	4972
831.774	4923
831.913	4862
832.051	4714
832.19	4774
832.329	4862
832.467	4694
832.606	4622
832.744	4744
832.883	4683
833.022	4721
833.16	4839
833.299	4774
833.437	4786
833.576	4835
833.714	4881
833.852	4870
833.991	4873
834.129	4991
834.267	4995
834.406	4900
834.544	4987
834.682	4991
834.821	4923
834.959	5170
835.097	5018
835.235	5197
835.373	5075
835.511	5105
835.65	4972
835.788	5056
835.926	4892
836.064	4889
836.202	4908
836.34	5189
836.478	5185
836.615	5109
836.753	5170
836.891	5296
837.029	5258
837.167	5162
837.305	5204
837.443	5143
837.58	5037
837.718	5246
837.856	5147
837.993	5128
838.131	5227
838.269	5212
838.406	5170
838.544	5201
838.681	5033
838.819	4999
838.956	4870
839.094	4930
839.231	4976
839.369	5075
839.506	5379
839.643	5265
839.781	5048
839.918	4991
840.055	5083
840.193	5086
840.33	5136
840.467	5147
840.604	5128
840.742	5478
840.879	5083
841.016	5124
841.153	5166
841.29	5398
841.427	5341
841.564	5315
841.701	5318
841.838	5292
841.975	5265
842.112	5280
842.249	5128
842.385	5094
842.522	5307
842.659	5189
842.796	5136
842.933	5181
843.069	5117
843.206	5185
843.343	5296
843.479	5193
843.616	5246
843.752	5045
843.889	5056
844.025	5201
844.162	5033
844.298	5174
844.435	5067
844.571	5064
844.708	5208
844.844	5299
844.98	5284
845.117	5246
845.253	5189
845.389	5071
845.525	5178
845.661	5166
845.798	5014
845.934	5143
846.07	5098
846.206	5193
846.342	5258
846.478	5193
846.614	5025
846.75	4953
846.886	4919
847.022	5121
847.158	5018
847.294	5025
847.429	5094
847.565	5033
847.701	5288
847.837	4862
847.972	4801
848.108	4927
848.244	4942
848.379	4744
848.515	4729
848.65	4710
848.786	4725
848.921	4824
849.057	4870
849.192	4923
849.328	4809
849.463	4850
849.598	4801
849.734	4752
849.869	4698
850.004	4626
850.14	4694
850.275	4592
850.41	4550
850.545	4535
850.68	4618
850.815	4668
850.95	4622
851.085	4831
851.22	4744
851.355	4698
851.49	4596
851.625	4626
851.76	4714
851.895	4516
852.03	4519
852.165	4645
852.299	4744
852.434	4782
852.569	4767
852.703	4805
852.838	4843
852.973	4961
853.107	4965
853.242	4744
853.376	4660
853.511	4584
853.645	4634
853.78	4778
853.914	4698
854.048	4675
854.183	4603
854.317	4675
854.451	4835
854.585	4683
854.72	4622
854.854	4748
854.988	4584
855.122	4588
855.256	4531
855.39	4668
855.524	4782
855.658	4748
855.792	4672
855.926	4702
856.06	4774
856.194	4820
856.327	4714
856.461	4618
856.595	4645
856.729	4607
856.862	4698
856.996	4725
857.13	4778
857.263	4759
857.397	4816
857.53	4630
857.664	4744
857.797	4786
857.931	4782
858.064	4683
858.197	4755
858.331	4615
858.464	4626
858.597	4565
858.731	4653
858.864	4664
858.997	4596
859.13	4687
859.263	4675
859.396	4694
859.529	4611
859.662	4592
859.795	4542
859.928	4596
860.061	4725
860.194	4790
860.327	4592
860.46	4538
860.592	4702
860.725	4759
860.858	4702
860.99	4569
861.123	4508
861.256	4481
861.388	4641
861.521	5261
861.653	4459
861.786	4440
861.918	4455
862.05	4538
862.183	4550
862.315	4588
862.447	4656
862.58	4573
862.712	4421
862.844	4322
862.976	4497
863.108	4474
863.24	4778
863.372	4386
863.504	4470
863.636	4402
863.768	4459
863.9	4432
864.032	4371
864.164	4409
864.296	4470
864.428	4546
864.559	4569
864.691	4497
864.823	4512
864.954	4504
865.086	4546
865.217	4462
865.349	4344
865.48	4489
865.612	4489
865.743	4622
865.875	4481
866.006	4459
866.137	4523
866.269	4451
866.4	4451
866.531	4409
866.662	4424
866.793	4436
866.924	4405
867.055	4481
867.186	4447
867.317	4405
867.448	4417
867.579	4421
867.71	4367
867.841	4356
867.972	4493
868.103	4481
868.233	4466
868.364	4462
868.495	4493
868.625	4683
868.756	4797
868.886	4573
869.017	4656
869.147	4744
869.278	4755
869.408	4710
869.539	4637
869.669	4744
869.799	4679
869.929	4717
870.06	4717
870.19	4957
870.32	4946
870.45	4961
870.58	5006
870.71	5098
870.84	5102
870.97	4968
871.1	4889
871.23	5121
871.36	5143
871.489	5003
871.619	5041
871.749	5128
871.879	5075
872.008	5136
872.138	4968
872.267	4995
872.397	4797
872.526	4809
872.656	4736
872.785	4767
872.915	5014
873.044	5041
873.173	4927
873.303	4976
873.432	4923
873.561	4968
873.69	4828
873.819	4820
873.948	4923
874.077	4797
874.206	4759
874.335	4801
874.464	4938
874.593	5090
874.722	4934
874.851	5105
874.979	5048
875.108	5079
875.237	4938
875.365	4873
875.494	4892
875.623	4972
875.751	4824
875.88	4858
876.008	4953
876.136	5014
876.265	5197
876.393	5299
876.521	5269
876.65	5296
876.778	5117
876.906	5060
877.034	5029
877.162	5033
877.29	4957
877.418	5086
877.546	5048
877.674	5067
877.802	5018
877.93	5029
878.058	4953
878.185	4847
878.313	4968
878.441	4961
878.568	4812
878.696	4915
878.824	4980
878.951	4972
879.079	5060
879.206	5307
879.333	5086
879.461	4942
879.588	5022
879.715	5155
879.842	5216
879.97	5064
880.097	4824
880.224	4702
880.351	4862
880.478	4828
880.605	4736
880.732	4805
880.859	5098
880.986	4873
881.112	4904
881.239	4824
881.366	4706
881.493	4554
881.619	4622
881.746	4611
881.872	4637
881.999	4630
882.125	4717
882.252	4797
882.378	4809
882.505	4934
882.631	4790
882.757	4668
882.883	4714
883.01	4714
883.136	4634
883.262	4599
883.388	4584
883.514	4831
883.64	4831
883.766	4831
883.892	4660
884.018	4752
884.143	4896
884.269	5003
884.395	4653
884.52	4634
884.646	4611
884.772	4588
884.897	4592
885.023	4706
885.148	4824
885.274	4862
885.399	4870
885.524	4740
885.65	4725
885.775	4733
885.9	4649
886.025	4854
886.15	4778
886.275	4687
886.4	4645
886.525	4752
886.65	4668
886.775	4653
886.9	4889
887.025	5041
887.149	4858
887.274	4645
887.399	4584
887.523	4607
887.648	4596
887.773	4558
887.897	4793
888.021	4763
888.146	4664
888.27	4812
888.395	4934
888.519	4793
888.643	4809
888.767	4831
888.891	4683
889.015	4611
889.139	4641
889.263	4599
889.387	4801
889.511	4847
889.635	4793
889.759	4637
889.883	4656
890.006	4721
890.13	4801
890.254	4664
890.377	4691
890.501	4550
890.624	4550
890.748	4694
890.871	4481
890.995	4455
891.118	4375
891.241	4527
891.364	4580
891.488	4653
891.611	4459
891.734	4493
891.857	4649
891.98	4538
892.103	4611
892.226	4592
892.349	4531
892.471	4443
892.594	4531
892.717	4596
892.839	4580
892.962	4569
893.085	4653
893.207	4603
893.33	4443
893.452	4519
893.575	4668
893.697	4577
893.819	4805
893.941	4812
894.064	4771
894.186	4649
894.308	4588
894.43	4721
894.552	4786
894.674	4736
894.796	4577
894.918	4542
895.04	4565
895.161	4653
895.283	4649
895.405	4580
895.526	4653
895.648	4733
895.769	4702
895.891	4748
896.012	4736
896.134	4733
896.255	4641
896.376	4615
896.498	4645
896.619	4683
896.74	4622
896.861	4683
896.982	4923
897.103	5048
897.224	4824
897.345	4744
897.466	4641
897.587	4721
897.708	4877
897.828	4774
897.949	4656
898.07	4607
898.19	4630
898.311	4843
898.431	4645
898.552	4714
898.672	4782
898.792	4812
898.913	4698
899.033	4660
899.153	4443
899.273	4383
899.393	4523
899.513	4565
899.633	4516
899.753	4538
899.873	4504
899.993	4588
900.113	4527
900.232	4573
900.352	4546
900.472	4489
900.591	4409
900.711	4516
900.83	4390
900.95	4573
901.069	4660
901.189	4538
901.308	4363
901.427	4348
901.546	4440
901.665	4535
901.784	4493
901.904	4367
902.023	4318
902.141	4211
902.26	4185
902.379	4310
902.498	4238
902.617	4223
902.735	4413
902.854	4371
902.973	4344
903.091	4268
903.21	4215
903.328	4329
903.446	4284
903.565	4272
903.683	4341
903.801	4303
903.919	4413
904.038	4386
904.156	4344
904.274	4402
904.392	4390
904.51	4424
904.627	4508
904.745	4580
904.863	4649
904.981	4375
905.098	4295
905.216	4405
905.334	4405
905.451	4451
905.569	4424
905.686	4550
905.803	4577
905.921	4417
906.038	4523
906.155	4478
906.272	4379
906.389	4512
906.506	4375
906.623	4402
906.74	4413
906.857	4367
906.974	4367
907.091	4558
907.208	4706
907.324	4626
907.441	4489
907.557	4337
907.674	4363
907.79	4325
907.907	4390
908.023	4481
908.139	4519
908.256	4367
908.372	4443
908.488	4451
908.604	4383
908.72	4322
908.836	4360
908.952	4409
909.068	4436
909.184	4554
909.3	4481
909.415	4596
909.531	4569
909.647	4375
909.762	4409
909.878	4371
909.993	4451
910.108	4390
910.224	4386
910.339	4447
910.454	4375
910.57	4390
910.685	4314
910.8	4698
910.915	4630
911.03	4462
911.145	4295
911.259	4299
911.374	4360
911.489	4314
911.604	4257
911.718	4223
911.833	4196
911.947	4124
912.062	4010
912.176	4227
912.291	4257
912.405	4287
912.519	4421
912.633	4500
912.748	4436
912.862	4337
912.976	4200
913.09	4078
913.204	4192
913.318	4227
913.431	4360
913.545	4348
913.659	4474
913.772	4375
913.886	4265
914	4249
914.113	4398
914.226	4470
914.34	4383
914.453	4219
914.566	4402
914.68	4348
914.793	4287
914.906	4219
915.019	4158
915.132	4093
915.245	4188
915.358	4211
915.47	4192
915.583	4276
915.696	4322
915.809	4417
915.921	4443
916.034	4249
916.146	4253
916.259	4211
916.371	4405
916.483	4363
916.595	4249
916.708	4333
916.82	4363
916.932	4306
917.044	4329
917.156	4341
917.268	4215
917.38	4249
917.491	4284
917.603	4360
917.715	4424
917.826	4398
917.938	4341
918.049	4265
918.161	4436
918.272	4580
918.384	4554
918.495	4432
918.606	4306
918.717	4219
918.828	4329
918.939	4390
919.05	4295
919.161	4333
919.272	4116
919.383	4215
919.494	4451
919.604	4584
919.715	4409
919.826	4322
919.936	4417
920.047	4466
920.157	4493
920.267	4691
920.378	4561
920.488	4516
920.598	4725
920.708	4892
920.818	4767
920.928	4793
921.038	4896
921.148	4953
921.258	4637
921.368	4561
921.477	4447
921.587	4451
921.697	4367
921.806	4500
921.916	4409
922.025	4272
922.134	4287
922.244	4234
922.353	4344
922.462	4215
922.571	4101
922.68	4017
922.789	4002
922.898	4013
923.007	3975
923.116	4082
923.224	4086
923.333	4097
923.442	3949
923.55	3968
923.659	4013
923.767	4135
923.876	3991
923.984	4090
924.092	4002
924.201	4090
924.309	4131
924.417	4192
924.525	4078
924.633	4059
924.741	5022
924.849	3926
924.956	4143
925.064	3918
925.172	3884
925.279	3972
925.387	4071
925.494	4067
925.602	4215
925.709	4177
925.816	4040
925.924	4131
926.031	4223
926.138	4169
926.245	4181
926.352	4090
926.459	4299
926.566	4295
926.673	4124
926.779	4105
926.886	4078
926.993	3964
927.099	3937
927.206	3930
927.312	3930
927.419	4048
927.525	3979
927.631	4071
927.737	3968
927.843	3945
927.95	3816
928.056	3945
928.162	3975
928.267	4040
928.373	4653
928.479	4109
928.585	3876
928.69	3998
928.796	4090
928.901	3949
929.007	3846
929.112	4010
929.218	3968
929.323	3934
929.428	3918
929.533	4105
929.638	3926
929.743	3922
929.848	4032
929.953	4010
930.058	3918
930.163	3759
930.267	3823
930.372	3983
930.477	3816
930.581	4093
930.685	3937
930.79	3781
930.894	3884
930.998	3880
931.103	4032
931.207	3724
931.311	3667
931.415	3622
931.519	3545
931.623	3511
