Data from test_V78500241_1724.txt Node
Date: Fri Mar 25 17:00:59 CST 2022
User: usil
Spectrometer: V785-0024
Trigger mode: 0
Integration Time (sec): 4.000000E-1
Scans to average: 1
Nonlinearity correction enabled: false
Boxcar width: 0
Storing dark spectrum: false
XAxis mode: Wavelengths
Number of Pixels in Spectrum: 1024
>>>>>Begin Spectral Data<<<<<
801.071	7982
801.214	7974
801.356	7879
801.499	7856
801.641	7795
801.783	7799
801.926	7940
802.068	7959
802.211	7963
802.353	8039
802.496	7826
802.638	7803
802.78	7879
802.923	7974
803.065	7830
803.208	7868
803.35	7982
803.492	8111
803.635	8153
803.777	8008
803.919	8103
804.061	8427
804.204	8176
804.346	8035
804.488	7955
804.63	8142
804.773	8012
804.915	8142
805.057	8237
805.199	8157
805.341	8202
805.483	8282
805.626	8168
805.768	8176
805.91	8206
806.052	8229
806.194	8149
806.336	8339
806.478	8073
806.62	8088
806.762	8157
806.904	8248
807.046	8537
807.188	8381
807.33	8225
807.472	8328
807.614	8153
807.756	8126
807.898	8024
808.04	7875
808.182	7955
808.324	7860
808.465	7936
808.607	8016
808.749	8065
808.891	8183
809.033	8267
809.174	8244
809.316	8077
809.458	8092
809.6	7993
809.741	8115
809.883	8054
810.025	8069
810.166	8084
810.308	7997
810.45	8016
810.591	7826
810.733	7750
810.875	7655
811.016	7506
811.158	7476
811.299	7609
811.441	7613
811.582	7647
811.724	7632
811.865	7480
812.007	7636
812.148	7525
812.29	7647
812.431	7795
812.573	7856
812.714	7925
812.855	8103
812.997	8191
813.138	8328
813.279	8161
813.421	8031
813.562	8039
813.703	7780
813.845	7715
813.986	7449
814.127	7270
814.268	7270
814.41	7183
814.551	7179
814.692	7198
814.833	7072
814.974	7137
815.115	7126
815.256	6928
815.397	6970
815.539	6947
815.68	6840
815.821	6787
815.962	6833
816.103	6764
816.244	6738
816.385	6620
816.526	6635
816.666	6483
816.807	6277
816.948	6422
817.089	6452
817.23	6441
817.371	6334
817.512	6346
817.653	6308
817.793	6292
817.934	6391
818.075	6467
818.216	6414
818.356	6391
818.497	6224
818.638	6102
818.778	6152
818.919	6121
819.06	6136
819.2	6323
819.341	6338
819.481	6369
819.622	6513
819.762	6734
819.903	6768
820.043	6612
820.184	6578
820.324	6620
820.465	6700
820.605	6703
820.746	6703
820.886	6498
821.026	6646
821.167	6749
821.307	6840
821.447	6715
821.588	6696
821.728	6582
821.868	6566
822.008	6334
822.149	6350
822.289	6353
822.429	6205
822.569	6190
822.709	6106
822.849	5904
822.99	5885
823.13	5958
823.27	5950
823.41	5809
823.55	5805
823.69	5805
823.83	5779
823.97	5691
824.11	5493
824.25	5547
824.389	5608
824.529	5573
824.669	5577
824.809	5688
824.949	5668
825.089	5634
825.228	5611
825.368	5444
825.508	5414
825.648	5318
825.787	5425
825.927	5406
826.067	5360
826.206	5349
826.346	5417
826.485	5463
826.625	5444
826.765	5562
826.904	5497
827.044	5303
827.183	5261
827.323	5181
827.462	5265
827.601	5136
827.741	5231
827.88	5265
828.02	5140
828.159	5216
828.298	5322
828.437	5414
828.577	5318
828.716	5509
828.855	5353
828.994	5208
829.134	5181
829.273	5235
829.412	5193
829.551	5181
829.69	5235
829.829	5337
829.968	5448
830.107	5315
830.246	5322
830.385	5204
830.524	5155
830.663	5098
830.802	4984
830.941	4896
831.08	4942
831.219	4999
831.357	5018
831.496	5162
831.635	4968
831.774	4938
831.913	4870
832.051	4755
832.19	4774
832.329	4828
832.467	4725
832.606	4679
832.744	4774
832.883	4771
833.022	4752
833.16	4816
833.299	4816
833.437	4850
833.576	4889
833.714	4934
833.852	4881
833.991	4911
834.129	5006
834.267	5010
834.406	4873
834.544	4991
834.682	5029
834.821	4968
834.959	5223
835.097	5006
835.235	5193
835.373	5151
835.511	5136
835.65	5029
835.788	5033
835.926	4889
836.064	4881
836.202	4946
836.34	5258
836.478	5261
836.615	5170
836.753	5273
836.891	5269
837.029	5292
837.167	5246
837.305	5235
837.443	5155
837.58	5121
837.718	5269
837.856	5201
837.993	5166
838.131	5284
838.269	5223
838.406	5235
838.544	5235
838.681	5064
838.819	4991
838.956	4896
839.094	4938
839.231	5010
839.369	5136
839.506	5429
839.643	5273
839.781	5025
839.918	5064
840.055	5098
840.193	5086
840.33	5162
840.467	5220
840.604	5197
840.742	5471
840.879	5098
841.016	5124
841.153	5185
841.29	5417
841.427	5357
841.564	5318
841.701	5368
841.838	5288
841.975	5216
842.112	5349
842.249	5143
842.385	5105
842.522	5353
842.659	5166
842.796	5162
842.933	5258
843.069	5201
843.206	5174
843.343	5307
843.479	5280
843.616	5288
843.752	5060
843.889	5022
844.025	5254
844.162	5037
844.298	5254
844.435	5117
844.571	5060
844.708	5246
844.844	5326
844.98	5379
845.117	5330
845.253	5098
845.389	5071
845.525	5155
845.661	5178
845.798	5064
845.934	5159
846.07	5048
846.206	5242
846.342	5299
846.478	5220
846.614	5060
846.75	4968
846.886	4900
847.022	5140
847.158	5067
847.294	5102
847.429	5105
847.565	5128
847.701	5341
847.837	4892
847.972	4854
848.108	4976
848.244	4938
848.379	4828
848.515	4793
848.65	4687
848.786	4694
848.921	4774
849.057	4919
849.192	4938
849.328	4828
849.463	4858
849.598	4809
849.734	4759
849.869	4725
850.004	4714
850.14	4672
850.275	4622
850.41	4535
850.545	4622
850.68	4645
850.815	4675
850.95	4649
851.085	4862
851.22	4748
851.355	4725
851.49	4618
851.625	4710
851.76	4683
851.895	4603
852.03	4577
852.165	4668
852.299	4736
852.434	4816
852.569	4717
852.703	4809
852.838	4873
852.973	4889
853.107	4961
853.242	4786
853.376	4687
853.511	4569
853.645	4656
853.78	4854
853.914	4706
854.048	4702
854.183	4645
854.317	4782
854.451	4896
854.585	4683
854.72	4683
854.854	4805
854.988	4645
855.122	4706
855.256	4561
855.39	4771
855.524	4824
855.658	4755
855.792	4694
855.926	4729
856.06	4805
856.194	4778
856.327	4717
856.461	4641
856.595	4649
856.729	4618
856.862	4771
856.996	4714
857.13	4755
857.263	4809
857.397	4828
857.53	4679
857.664	4755
857.797	4733
857.931	4786
858.064	4683
858.197	4733
858.331	4668
858.464	4649
858.597	4531
858.731	4668
858.864	4653
858.997	4607
859.13	4691
859.263	4656
859.396	4748
859.529	4554
859.662	4645
859.795	4546
859.928	4649
860.061	4748
860.194	4771
860.327	4664
860.46	4577
860.592	4733
860.725	4717
860.858	4687
860.99	4577
861.123	4531
861.256	4565
861.388	4618
861.521	5277
861.653	4504
861.786	4485
861.918	4455
862.05	4516
862.183	4546
862.315	4592
862.447	4641
862.58	4588
862.712	4428
862.844	4371
862.976	4535
863.108	4481
863.24	4885
863.372	4375
863.504	4421
863.636	4462
863.768	4508
863.9	4504
864.032	4360
864.164	4394
864.296	4470
864.428	4573
864.559	4538
864.691	4596
864.823	4527
864.954	4493
865.086	4489
865.217	4466
865.349	4436
865.48	4493
865.612	4466
865.743	4603
865.875	4470
866.006	4443
866.137	4493
866.269	4443
866.4	4459
866.531	4455
866.662	4447
866.793	4394
866.924	4428
867.055	4497
867.186	4474
867.317	4413
867.448	4398
867.579	4398
867.71	4432
867.841	4375
867.972	4451
868.103	4447
868.233	4436
868.364	4451
868.495	4561
868.625	4668
868.756	4797
868.886	4599
869.017	4622
869.147	4725
869.278	4793
869.408	4683
869.539	4656
869.669	4763
869.799	4687
869.929	4786
870.06	4736
870.19	4961
870.32	4908
870.45	4915
870.58	4999
870.71	5109
870.84	5048
870.97	4972
871.1	4881
871.23	5147
871.36	5124
871.489	5029
871.619	5071
871.749	5117
871.879	5086
872.008	5174
872.138	5102
872.267	4995
872.397	4919
872.526	4786
872.656	4736
872.785	4835
872.915	4942
873.044	4999
873.173	4968
873.303	5006
873.432	5003
873.561	4965
873.69	4866
873.819	4858
873.948	4984
874.077	4870
874.206	4782
874.335	4847
874.464	4930
874.593	5064
874.722	4961
874.851	5128
874.979	5086
875.108	5025
875.237	4870
875.365	4934
875.494	4919
875.623	4999
875.751	4862
875.88	4885
876.008	4991
876.136	5071
876.265	5197
876.393	5307
876.521	5235
876.65	5265
876.778	5143
876.906	5128
877.034	5033
877.162	5090
877.29	5045
877.418	5067
877.546	5067
877.674	5105
877.802	5022
877.93	5018
878.058	4938
878.185	4870
878.313	4984
878.441	5018
878.568	4816
878.696	4850
878.824	4972
878.951	4976
879.079	5102
879.206	5261
879.333	5105
879.461	4995
879.588	4991
879.715	5094
879.842	5231
879.97	5025
880.097	4797
880.224	4736
880.351	4843
880.478	4854
880.605	4847
880.732	4824
880.859	5124
880.986	4927
881.112	4930
881.239	4831
881.366	4725
881.493	4615
881.619	4550
881.746	4637
881.872	4729
881.999	4668
882.125	4683
882.252	4831
882.378	4835
882.505	4961
882.631	4824
882.757	4649
882.883	4774
883.01	4710
883.136	4645
883.262	4569
883.388	4592
883.514	4843
883.64	4911
883.766	4782
883.892	4698
884.018	4744
884.143	4953
884.269	5048
884.395	4687
884.52	4656
884.646	4694
884.772	4577
884.897	4546
885.023	4706
885.148	4816
885.274	4873
885.399	4850
885.524	4733
885.65	4717
885.775	4744
885.9	4698
886.025	4862
886.15	4816
886.275	4721
886.4	4683
886.525	4736
886.65	4706
886.775	4649
886.9	4919
887.025	5025
887.149	4790
887.274	4668
887.399	4607
887.523	4611
887.648	4611
887.773	4577
887.897	4782
888.021	4797
888.146	4683
888.27	4816
888.395	4923
888.519	4831
888.643	4771
888.767	4816
888.891	4672
889.015	4558
889.139	4660
889.263	4622
889.387	4725
889.511	4877
889.635	4763
889.759	4664
889.883	4618
890.006	4782
890.13	4828
890.254	4577
890.377	4694
890.501	4592
890.624	4516
890.748	4641
890.871	4497
890.995	4474
891.118	4398
891.241	4497
891.364	4538
891.488	4637
891.611	4485
891.734	4535
891.857	4615
891.98	4527
892.103	4664
892.226	4626
892.349	4485
892.471	4443
892.594	4512
892.717	4630
892.839	4535
892.962	4630
893.085	4679
893.207	4592
893.33	4455
893.452	4599
893.575	4698
893.697	4561
893.819	4778
893.941	4831
894.064	4733
894.186	4542
894.308	4550
894.43	4774
894.552	4835
894.674	4748
894.796	4554
894.918	4630
895.04	4573
895.161	4771
895.283	4717
895.405	4622
895.526	4641
895.648	4664
895.769	4675
895.891	4725
896.012	4767
896.134	4691
896.255	4714
896.376	4656
896.498	4596
896.619	4672
896.74	4607
896.861	4668
896.982	4919
897.103	5071
897.224	4850
897.345	4782
897.466	4649
897.587	4698
897.708	4866
897.828	4816
897.949	4664
898.07	4611
898.19	4672
898.311	4805
898.431	4656
898.552	4698
898.672	4752
898.792	4824
898.913	4740
899.033	4565
899.153	4512
899.273	4413
899.393	4478
899.513	4538
899.633	4523
899.753	4558
899.873	4558
899.993	4565
900.113	4508
900.232	4580
900.352	4561
900.472	4493
900.591	4432
900.711	4516
900.83	4474
900.95	4599
901.069	4687
901.189	4542
901.308	4394
901.427	4314
901.546	4394
901.665	4466
901.784	4485
901.904	4363
902.023	4344
902.141	4192
902.26	4188
902.379	4322
902.498	4287
902.617	4253
902.735	4325
902.854	4413
902.973	4352
903.091	4227
903.21	4223
903.328	4295
903.446	4295
903.565	4238
903.683	4352
903.801	4230
903.919	4386
904.038	4436
904.156	4356
904.274	4447
904.392	4379
904.51	4405
904.627	4493
904.745	4577
904.863	4630
904.981	4398
905.098	4276
905.216	4398
905.334	4451
905.451	4436
905.569	4455
905.686	4508
905.803	4569
905.921	4398
906.038	4588
906.155	4493
906.272	4436
906.389	4470
906.506	4360
906.623	4322
906.74	4383
906.857	4287
906.974	4352
907.091	4546
907.208	4729
907.324	4584
907.441	4462
907.557	4375
907.674	4341
907.79	4371
907.907	4341
908.023	4512
908.139	4459
908.256	4462
908.372	4443
908.488	4409
908.604	4322
908.72	4299
908.836	4398
908.952	4371
909.068	4432
909.184	4565
909.3	4489
909.415	4618
909.531	4542
909.647	4344
909.762	4352
909.878	4329
909.993	4459
910.108	4413
910.224	4413
910.339	4440
910.454	4428
910.57	4344
910.685	4306
910.8	4679
910.915	4599
911.03	4462
911.145	4356
911.259	4314
911.374	4436
911.489	4284
911.604	4257
911.718	4162
911.833	4150
911.947	4097
912.062	4044
912.176	4227
912.291	4185
912.405	4238
912.519	4447
912.633	4485
912.748	4379
912.862	4318
912.976	4227
913.09	4093
913.204	4166
913.318	4276
913.431	4360
913.545	4363
913.659	4440
913.772	4356
913.886	4249
914	4207
914.113	4306
914.226	4402
914.34	4436
914.453	4230
914.566	4470
914.68	4306
914.793	4303
914.906	4177
915.019	4093
915.132	4086
915.245	4154
915.358	4215
915.47	4227
915.583	4253
915.696	4265
915.809	4409
915.921	4398
916.034	4265
916.146	4246
916.259	4257
916.371	4379
916.483	4337
916.595	4261
916.708	4348
916.82	4371
916.932	4291
917.044	4314
917.156	4310
917.268	4272
917.38	4280
917.491	4242
917.603	4383
917.715	4428
917.826	4413
917.938	4348
918.049	4223
918.161	4443
918.272	4519
918.384	4550
918.495	4455
918.606	4284
918.717	4242
918.828	4333
918.939	4356
919.05	4314
919.161	4291
919.272	4131
919.383	4242
919.494	4428
919.604	4649
919.715	4421
919.826	4341
919.936	4405
920.047	4554
920.157	4474
920.267	4717
920.378	4573
920.488	4531
920.598	4694
920.708	4881
920.818	4740
920.928	4744
921.038	4927
921.148	4923
921.258	4611
921.368	4558
921.477	4504
921.587	4436
921.697	4337
921.806	4542
921.916	4421
922.025	4272
922.134	4246
922.244	4215
922.353	4333
922.462	4200
922.571	4128
922.68	4017
922.789	3960
922.898	4051
923.007	4040
923.116	4124
923.224	4071
923.333	4036
923.442	3998
923.55	3972
923.659	3991
923.767	4101
923.876	4006
923.984	4135
924.092	4002
924.201	4059
924.309	4074
924.417	4097
924.525	4074
924.633	4120
924.741	4892
924.849	3934
924.956	4154
925.064	3953
925.172	3922
925.279	3949
925.387	4101
925.494	4067
925.602	4204
925.709	4211
925.816	4021
925.924	4090
926.031	4257
926.138	4166
926.245	4158
926.352	4067
926.459	4227
926.566	4310
926.673	4143
926.779	4082
926.886	4109
926.993	3972
927.099	3960
927.206	3960
927.312	3953
927.419	4082
927.525	4013
927.631	4078
927.737	3994
927.843	3941
927.95	3869
928.056	3918
928.162	3994
928.267	4071
928.373	4702
928.479	4139
928.585	3884
928.69	4006
928.796	4055
928.901	3960
929.007	3823
929.112	3983
929.218	3934
929.323	3934
929.428	3953
929.533	4078
929.638	3937
929.743	3937
929.848	4036
929.953	4002
930.058	3930
930.163	3751
930.267	3835
930.372	4002
930.477	3800
930.581	4078
930.685	3918
930.79	3785
930.894	3899
930.998	3850
931.103	4036
931.207	3732
931.311	3686
931.415	3675
931.519	3519
931.623	3545
