Data from test_V78500241_991.txt Node
Date: Fri Mar 25 16:55:53 CST 2022
User: usil
Spectrometer: V785-0024
Trigger mode: 0
Integration Time (sec): 4.000000E-1
Scans to average: 1
Nonlinearity correction enabled: false
Boxcar width: 0
Storing dark spectrum: false
XAxis mode: Wavelengths
Number of Pixels in Spectrum: 1024
>>>>>Begin Spectral Data<<<<<
801.071	7982
801.214	8046
801.356	7883
801.499	7803
801.641	7788
801.783	7864
801.926	7932
802.068	7864
802.211	7936
802.353	7887
802.496	7788
802.638	7860
802.78	7883
802.923	7921
803.065	7894
803.208	7890
803.35	7982
803.492	8149
803.635	8149
803.777	7997
803.919	8119
804.061	8431
804.204	8103
804.346	8084
804.488	7944
804.63	8119
804.773	7978
804.915	8005
805.057	8259
805.199	8084
805.341	8214
805.483	8191
805.626	8191
805.768	8107
805.91	8161
806.052	8172
806.194	8088
806.336	8210
806.478	8157
806.62	8024
806.762	8115
806.904	8263
807.046	8415
807.188	8336
807.33	8248
807.472	8301
807.614	8161
807.756	8107
807.898	8016
808.04	7890
808.182	7841
808.324	7940
808.465	7875
808.607	7982
808.749	8031
808.891	8183
809.033	8244
809.174	8229
809.316	8088
809.458	8058
809.6	7982
809.741	7963
809.883	8001
810.025	8039
810.166	8092
810.308	8046
810.45	8046
810.591	7883
810.733	7712
810.875	7681
811.016	7556
811.158	7529
811.299	7495
811.441	7628
811.582	7666
811.724	7586
811.865	7487
812.007	7533
812.148	7571
812.29	7586
812.431	7715
812.573	7887
812.714	8016
812.855	8062
812.997	8157
813.138	8305
813.279	8149
813.421	8054
813.562	7967
813.703	7879
813.845	7814
813.986	7438
814.127	7278
814.268	7202
814.41	7221
814.551	7152
814.692	7122
814.833	7069
814.974	7099
815.115	7091
815.256	6920
815.397	6897
815.539	6901
815.68	6772
815.821	6814
815.962	6928
816.103	6776
816.244	6726
816.385	6578
816.526	6604
816.666	6448
816.807	6346
816.948	6388
817.089	6437
817.23	6433
817.371	6418
817.512	6410
817.653	6357
817.793	6372
817.934	6388
818.075	6460
818.216	6410
818.356	6372
818.497	6266
818.638	6083
818.778	6178
818.919	6182
819.06	6159
819.2	6308
819.341	6350
819.481	6338
819.622	6479
819.762	6681
819.903	6665
820.043	6623
820.184	6612
820.324	6570
820.465	6681
820.605	6654
820.746	6635
820.886	6559
821.026	6639
821.167	6681
821.307	6779
821.447	6730
821.588	6593
821.728	6540
821.868	6502
822.008	6338
822.149	6353
822.289	6308
822.429	6140
822.569	6102
822.709	6155
822.849	5927
822.99	5912
823.13	5870
823.27	5897
823.41	5809
823.55	5748
823.69	5726
823.83	5771
823.97	5646
824.11	5512
824.25	5482
824.389	5562
824.529	5558
824.669	5463
824.809	5634
824.949	5619
825.089	5608
825.228	5505
825.368	5353
825.508	5334
825.648	5322
825.787	5364
825.927	5357
826.067	5292
826.206	5296
826.346	5364
826.485	5478
826.625	5425
826.765	5535
826.904	5376
827.044	5197
827.183	5212
827.323	5121
827.462	5223
827.601	5151
827.741	5201
827.88	5178
828.02	5090
828.159	5208
828.298	5280
828.437	5307
828.577	5250
828.716	5455
828.855	5322
828.994	5140
829.134	5181
829.273	5162
829.412	5113
829.551	5102
829.69	5102
829.829	5208
829.968	5372
830.107	5216
830.246	5220
830.385	5128
830.524	5113
830.663	5048
830.802	4900
830.941	4866
831.08	4881
831.219	4984
831.357	5010
831.496	5132
831.635	4938
831.774	4824
831.913	4790
832.051	4698
832.19	4755
832.329	4839
832.467	4683
832.606	4607
832.744	4675
832.883	4710
833.022	4736
833.16	4801
833.299	4862
833.437	4782
833.576	4786
833.714	4828
833.852	4850
833.991	4885
834.129	4980
834.267	4892
834.406	4873
834.544	4946
834.682	4984
834.821	4938
834.959	5159
835.097	4968
835.235	5098
835.373	5022
835.511	5056
835.65	4987
835.788	5010
835.926	4919
836.064	4850
836.202	4877
836.34	5178
836.478	5143
836.615	5083
836.753	5155
836.891	5307
837.029	5227
837.167	5197
837.305	5174
837.443	5159
837.58	5003
837.718	5273
837.856	5174
837.993	5090
838.131	5223
838.269	5174
838.406	5231
838.544	5143
838.681	5033
838.819	5056
838.956	4896
839.094	4881
839.231	4961
839.369	5071
839.506	5402
839.643	5261
839.781	5056
839.918	4976
840.055	5117
840.193	5086
840.33	5083
840.467	5083
840.604	5220
840.742	5425
840.879	4987
841.016	5079
841.153	5105
841.29	5372
841.427	5261
841.564	5296
841.701	5303
841.838	5277
841.975	5223
842.112	5242
842.249	5075
842.385	5124
842.522	5292
842.659	5170
842.796	5102
842.933	5143
843.069	5162
843.206	5208
843.343	5277
843.479	5128
843.616	5235
843.752	5048
843.889	4965
844.025	5201
844.162	4995
844.298	5216
844.435	5045
844.571	5010
844.708	5204
844.844	5246
844.98	5303
845.117	5292
845.253	5155
845.389	5033
845.525	5197
845.661	5124
845.798	5025
845.934	5128
846.07	5048
846.206	5140
846.342	5277
846.478	5162
846.614	5079
846.75	5003
846.886	4949
847.022	5121
847.158	4987
847.294	5075
847.429	5045
847.565	5071
847.701	5330
847.837	4835
847.972	4790
848.108	4930
848.244	4938
848.379	4774
848.515	4733
848.65	4649
848.786	4736
848.921	4763
849.057	4816
849.192	4885
849.328	4801
849.463	4850
849.598	4748
849.734	4774
849.869	4702
850.004	4611
850.14	4599
850.275	4596
850.41	4508
850.545	4523
850.68	4580
850.815	4596
850.95	4622
851.085	4839
851.22	4694
851.355	4626
851.49	4622
851.625	4588
851.76	4637
851.895	4550
852.03	4497
852.165	4588
852.299	4672
852.434	4740
852.569	4733
852.703	4778
852.838	4828
852.973	4953
853.107	4889
853.242	4729
853.376	4653
853.511	4508
853.645	4615
853.78	4748
853.914	4694
854.048	4660
854.183	4664
854.317	4672
854.451	4873
854.585	4622
854.72	4672
854.854	4694
854.988	4626
855.122	4645
855.256	4481
855.39	4691
855.524	4721
855.658	4694
855.792	4702
855.926	4725
856.06	4717
856.194	4771
856.327	4649
856.461	4596
856.595	4626
856.729	4569
856.862	4706
856.996	4656
857.13	4763
857.263	4721
857.397	4748
857.53	4649
857.664	4698
857.797	4736
857.931	4778
858.064	4687
858.197	4782
858.331	4634
858.464	4565
858.597	4481
858.731	4596
858.864	4645
858.997	4607
859.13	4580
859.263	4630
859.396	4634
859.529	4599
859.662	4554
859.795	4500
859.928	4588
860.061	4717
860.194	4721
860.327	4546
860.46	4573
860.592	4706
860.725	4679
860.858	4729
860.99	4558
861.123	4550
861.256	4561
861.388	4596
861.521	5223
861.653	4459
861.786	4462
861.918	4424
862.05	4485
862.183	4607
862.315	4561
862.447	4675
862.58	4516
862.712	4386
862.844	4337
862.976	4417
863.108	4436
863.24	4828
863.372	4310
863.504	4402
863.636	4386
863.768	4478
863.9	4436
864.032	4344
864.164	4367
864.296	4462
864.428	4504
864.559	4580
864.691	4523
864.823	4466
864.954	4478
865.086	4497
865.217	4470
865.349	4386
865.48	4402
865.612	4481
865.743	4645
865.875	4493
866.006	4383
866.137	4421
866.269	4390
866.4	4398
866.531	4383
866.662	4398
866.793	4386
866.924	4417
867.055	4440
867.186	4432
867.317	4386
867.448	4329
867.579	4322
867.71	4417
867.841	4348
867.972	4386
868.103	4447
868.233	4428
868.364	4455
868.495	4466
868.625	4641
868.756	4774
868.886	4519
869.017	4592
869.147	4774
869.278	4752
869.408	4679
869.539	4622
869.669	4649
869.799	4618
869.929	4782
870.06	4733
870.19	4915
870.32	4900
870.45	4923
870.58	4991
870.71	5098
870.84	5064
870.97	4930
871.1	4896
871.23	5109
871.36	5075
871.489	5033
871.619	5052
871.749	5105
871.879	5098
872.008	5162
872.138	5098
872.267	4984
872.397	4828
872.526	4824
872.656	4729
872.785	4790
872.915	4892
873.044	4972
873.173	4911
873.303	4930
873.432	4930
873.561	4930
873.69	4820
873.819	4786
873.948	4911
874.077	4809
874.206	4763
874.335	4778
874.464	4847
874.593	5064
874.722	4927
874.851	5098
874.979	5079
875.108	5006
875.237	4896
875.365	4873
875.494	4892
875.623	4923
875.751	4786
875.88	4858
876.008	4980
876.136	5010
876.265	5193
876.393	5299
876.521	5227
876.65	5220
876.778	5124
876.906	5029
877.034	5022
877.162	5029
877.29	4927
877.418	5018
877.546	5037
877.674	5052
877.802	5003
877.93	5003
878.058	4927
878.185	4904
878.313	4881
878.441	4953
878.568	4816
878.696	4877
878.824	4968
878.951	4987
879.079	5094
879.206	5231
879.333	5121
879.461	4953
879.588	5048
879.715	5086
879.842	5223
879.97	5029
880.097	4736
880.224	4752
880.351	4820
880.478	4809
880.605	4755
880.732	4778
880.859	5075
880.986	4862
881.112	4889
881.239	4771
881.366	4653
881.493	4607
881.619	4565
881.746	4603
881.872	4611
881.999	4618
882.125	4660
882.252	4774
882.378	4790
882.505	4938
882.631	4816
882.757	4611
882.883	4649
883.01	4687
883.136	4691
883.262	4607
883.388	4554
883.514	4816
883.64	4892
883.766	4763
883.892	4645
884.018	4744
884.143	4900
884.269	4976
884.395	4672
884.52	4607
884.646	4596
884.772	4569
884.897	4516
885.023	4630
885.148	4714
885.274	4809
885.399	4812
885.524	4683
885.65	4672
885.775	4767
885.9	4672
886.025	4858
886.15	4805
886.275	4714
886.4	4615
886.525	4706
886.65	4630
886.775	4641
886.9	4858
887.025	5010
887.149	4805
887.274	4603
887.399	4531
887.523	4538
887.648	4531
887.773	4531
887.897	4706
888.021	4733
888.146	4702
888.27	4782
888.395	4889
888.519	4797
888.643	4774
888.767	4790
888.891	4653
889.015	4599
889.139	4660
889.263	4592
889.387	4744
889.511	4873
889.635	4809
889.759	4637
889.883	4622
890.006	4702
890.13	4797
890.254	4634
890.377	4668
890.501	4523
890.624	4546
890.748	4626
890.871	4493
890.995	4455
891.118	4383
891.241	4519
891.364	4573
891.488	4641
891.611	4493
891.734	4546
891.857	4546
891.98	4588
892.103	4683
892.226	4615
892.349	4531
892.471	4432
892.594	4508
892.717	4599
892.839	4599
892.962	4596
893.085	4694
893.207	4622
893.33	4527
893.452	4512
893.575	4736
893.697	4653
893.819	4820
893.941	4889
894.064	4767
894.186	4588
894.308	4584
894.43	4736
894.552	4900
894.674	4759
894.796	4580
894.918	4675
895.04	4615
895.161	4748
895.283	4672
895.405	4634
895.526	4683
895.648	4744
895.769	4729
895.891	4710
896.012	4767
896.134	4759
896.255	4725
896.376	4649
896.498	4569
896.619	4717
896.74	4607
896.861	4649
896.982	4911
897.103	5075
897.224	4858
897.345	4786
897.466	4740
897.587	4778
897.708	4847
897.828	4771
897.949	4679
898.07	4630
898.19	4668
898.311	4877
898.431	4725
898.552	4759
898.672	4828
898.792	4816
898.913	4774
899.033	4634
899.153	4523
899.273	4436
899.393	4558
899.513	4569
899.633	4542
899.753	4535
899.873	4527
899.993	4573
900.113	4527
900.232	4637
900.352	4550
900.472	4470
900.591	4405
900.711	4485
900.83	4455
900.95	4599
901.069	4706
901.189	4584
901.308	4432
901.427	4371
901.546	4386
901.665	4542
901.784	4542
901.904	4398
902.023	4375
902.141	4265
902.26	4230
902.379	4322
902.498	4268
902.617	4272
902.735	4352
902.854	4489
902.973	4409
903.091	4204
903.21	4246
903.328	4329
903.446	4280
903.565	4253
903.683	4383
903.801	4253
903.919	4386
904.038	4474
904.156	4360
904.274	4436
904.392	4375
904.51	4466
904.627	4497
904.745	4603
904.863	4603
904.981	4424
905.098	4287
905.216	4363
905.334	4436
905.451	4470
905.569	4424
905.686	4569
905.803	4558
905.921	4428
906.038	4588
906.155	4523
906.272	4413
906.389	4493
906.506	4333
906.623	4413
906.74	4417
906.857	4318
906.974	4440
907.091	4603
907.208	4694
907.324	4607
907.441	4531
907.557	4379
907.674	4329
907.79	4352
907.907	4367
908.023	4516
908.139	4508
908.256	4459
908.372	4440
908.488	4451
908.604	4383
908.72	4337
908.836	4409
908.952	4440
909.068	4478
909.184	4599
909.3	4542
909.415	4615
909.531	4599
909.647	4386
909.762	4375
909.878	4310
909.993	4443
910.108	4478
910.224	4424
910.339	4531
910.454	4379
910.57	4409
910.685	4314
910.8	4637
910.915	4596
911.03	4538
911.145	4398
911.259	4333
911.374	4344
911.489	4303
911.604	4306
911.718	4215
911.833	4211
911.947	4109
912.062	4013
912.176	4249
912.291	4261
912.405	4284
912.519	4531
912.633	4519
912.748	4394
912.862	4322
912.976	4215
913.09	4120
913.204	4223
913.318	4295
913.431	4421
913.545	4402
913.659	4428
913.772	4375
913.886	4261
914	4257
914.113	4390
914.226	4455
914.34	4447
914.453	4268
914.566	4455
914.68	4299
914.793	4348
914.906	4204
915.019	4128
915.132	4078
915.245	4219
915.358	4257
915.47	4306
915.583	4299
915.696	4310
915.809	4413
915.921	4436
916.034	4280
916.146	4322
916.259	4215
916.371	4398
916.483	4371
916.595	4291
916.708	4375
916.82	4322
916.932	4348
917.044	4341
917.156	4325
917.268	4253
917.38	4318
917.491	4257
917.603	4333
917.715	4470
917.826	4436
917.938	4363
918.049	4249
918.161	4405
918.272	4538
918.384	4561
918.495	4462
918.606	4329
918.717	4295
918.828	4371
918.939	4367
919.05	4299
919.161	4348
919.272	4204
919.383	4272
919.494	4413
919.604	4679
919.715	4402
919.826	4352
919.936	4481
920.047	4561
920.157	4546
920.267	4721
920.378	4622
920.488	4538
920.598	4721
920.708	4892
920.818	4843
920.928	4797
921.038	4976
921.148	4946
921.258	4596
921.368	4573
921.477	4489
921.587	4512
921.697	4413
921.806	4516
921.916	4440
922.025	4329
922.134	4295
922.244	4272
922.353	4352
922.462	4215
922.571	4150
922.68	4010
922.789	4010
922.898	4097
923.007	4021
923.116	4090
923.224	4044
923.333	4078
923.442	3994
923.55	3975
923.659	4051
923.767	4166
923.876	4006
923.984	4139
924.092	4025
924.201	4124
924.309	4124
924.417	4135
924.525	4082
924.633	4105
924.741	5102
924.849	3964
924.956	4116
925.064	3956
925.172	3918
925.279	3956
925.387	4109
925.494	4074
925.602	4230
925.709	4207
925.816	4025
925.924	4177
926.031	4249
926.138	4173
926.245	4188
926.352	4131
926.459	4230
926.566	4306
926.673	4200
926.779	4147
926.886	4112
926.993	4029
927.099	3979
927.206	3991
927.312	3926
927.419	4071
927.525	4021
927.631	4082
927.737	3975
927.843	3956
927.95	3842
928.056	3975
928.162	3994
928.267	4097
928.373	4714
928.479	4143
928.585	3892
928.69	4032
928.796	4097
928.901	4002
929.007	3842
929.112	4051
929.218	4048
929.323	3949
929.428	3941
929.533	4147
929.638	3956
929.743	3960
929.848	4025
929.953	4032
930.058	3953
930.163	3781
930.267	3854
930.372	3945
930.477	3884
930.581	4090
930.685	3945
930.79	3850
930.894	3915
930.998	3857
931.103	4051
931.207	3705
931.311	3705
931.415	3709
931.519	3538
931.623	3591
