Data from test_V78500241_473.txt Node
Date: Fri Mar 25 16:52:17 CST 2022
User: usil
Spectrometer: V785-0024
Trigger mode: 0
Integration Time (sec): 4.000000E-1
Scans to average: 1
Nonlinearity correction enabled: false
Boxcar width: 0
Storing dark spectrum: false
XAxis mode: Wavelengths
Number of Pixels in Spectrum: 1024
>>>>>Begin Spectral Data<<<<<
801.071	7986
801.214	7974
801.356	7860
801.499	7902
801.641	7792
801.783	7826
801.926	8012
802.068	7947
802.211	8001
802.353	8050
802.496	7860
802.638	7951
802.78	7951
802.923	7860
803.065	7837
803.208	7852
803.35	7917
803.492	8062
803.635	8043
803.777	7959
803.919	8103
804.061	8374
804.204	8103
804.346	8035
804.488	7940
804.63	7993
804.773	7925
804.915	8054
805.057	8221
805.199	8164
805.341	8252
805.483	8282
805.626	8164
805.768	8012
805.91	8126
806.052	8164
806.194	8043
806.336	8286
806.478	8157
806.62	8130
806.762	8119
806.904	8218
807.046	8355
807.188	8362
807.33	8214
807.472	8282
807.614	8130
807.756	8100
807.898	7944
808.04	7928
808.182	7932
808.324	7902
808.465	7879
808.607	8012
808.749	8084
808.891	8202
809.033	8229
809.174	8244
809.316	8016
809.458	8058
809.6	8001
809.741	8077
809.883	7959
810.025	8130
810.166	8054
810.308	7986
810.45	7978
810.591	7936
810.733	7723
810.875	7582
811.016	7510
811.158	7430
811.299	7613
811.441	7776
811.582	7689
811.724	7586
811.865	7597
812.007	7597
812.148	7643
812.29	7620
812.431	7715
812.573	7913
812.714	8035
812.855	8149
812.997	8248
813.138	8423
813.279	8290
813.421	8134
813.562	8008
813.703	7856
813.845	7788
813.986	7548
814.127	7396
814.268	7346
814.41	7194
814.551	7145
814.692	7236
814.833	7069
814.974	7080
815.115	7122
815.256	6962
815.397	6867
815.539	6901
815.68	6829
815.821	6821
815.962	6878
816.103	6863
816.244	6719
816.385	6627
816.526	6593
816.666	6494
816.807	6357
816.948	6422
817.089	6475
817.23	6403
817.371	6395
817.512	6395
817.653	6346
817.793	6342
817.934	6403
818.075	6429
818.216	6361
818.356	6414
818.497	6292
818.638	6041
818.778	6190
818.919	6125
819.06	6163
819.2	6289
819.341	6300
819.481	6361
819.622	6475
819.762	6734
819.903	6715
820.043	6604
820.184	6582
820.324	6547
820.465	6623
820.605	6593
820.746	6612
820.886	6448
821.026	6692
821.167	6677
821.307	6818
821.447	6772
821.588	6662
821.728	6559
821.868	6483
822.008	6350
822.149	6410
822.289	6376
822.429	6136
822.569	6038
822.709	6098
822.849	5923
822.99	5897
823.13	5935
823.27	5935
823.41	5756
823.55	5798
823.69	5798
823.83	5771
823.97	5684
824.11	5528
824.25	5474
824.389	5524
824.529	5570
824.669	5562
824.809	5585
824.949	5627
825.089	5604
825.228	5573
825.368	5360
825.508	5334
825.648	5288
825.787	5395
825.927	5387
826.067	5273
826.206	5235
826.346	5402
826.485	5383
826.625	5455
826.765	5570
826.904	5478
827.044	5269
827.183	5143
827.323	5132
827.462	5220
827.601	5159
827.741	5223
827.88	5220
828.02	5067
828.159	5296
828.298	5307
828.437	5322
828.577	5280
828.716	5486
828.855	5292
828.994	5155
829.134	5143
829.273	5166
829.412	5136
829.551	5117
829.69	5166
829.829	5242
829.968	5383
830.107	5239
830.246	5235
830.385	5170
830.524	5140
830.663	5105
830.802	4942
830.941	4870
831.08	4862
831.219	5022
831.357	4984
831.496	5132
831.635	4896
831.774	4866
831.913	4873
832.051	4706
832.19	4782
832.329	4858
832.467	4710
832.606	4637
832.744	4736
832.883	4694
833.022	4733
833.16	4797
833.299	4801
833.437	4812
833.576	4870
833.714	4866
833.852	4835
833.991	4850
834.129	4904
834.267	4965
834.406	4885
834.544	5022
834.682	4896
834.821	4987
834.959	5166
835.097	5025
835.235	5147
835.373	5109
835.511	5105
835.65	5010
835.788	5025
835.926	4824
836.064	4847
836.202	4908
836.34	5143
836.478	5223
836.615	5166
836.753	5204
836.891	5299
837.029	5277
837.167	5181
837.305	5109
837.443	5128
837.58	4995
837.718	5231
837.856	5162
837.993	5208
838.131	5201
838.269	5170
838.406	5242
838.544	5174
838.681	5086
838.819	5010
838.956	4843
839.094	4949
839.231	4957
839.369	5037
839.506	5372
839.643	5227
839.781	4991
839.918	4999
840.055	5113
840.193	5102
840.33	5090
840.467	5102
840.604	5193
840.742	5501
840.879	5086
841.016	5124
841.153	5132
841.29	5391
841.427	5376
841.564	5307
841.701	5341
841.838	5242
841.975	5254
842.112	5280
842.249	5117
842.385	5113
842.522	5337
842.659	5220
842.796	5185
842.933	5181
843.069	5132
843.206	5174
843.343	5315
843.479	5239
843.616	5265
843.752	5029
843.889	5086
844.025	5227
844.162	5041
844.298	5208
844.435	5079
844.571	5006
844.708	5166
844.844	5292
844.98	5417
845.117	5315
845.253	5159
845.389	5071
845.525	5155
845.661	5166
845.798	5045
845.934	5162
846.07	5041
846.206	5159
846.342	5265
846.478	5189
846.614	4999
846.75	4953
846.886	4923
847.022	5136
847.158	5033
847.294	5052
847.429	5105
847.565	5067
847.701	5337
847.837	4866
847.972	4790
848.108	4957
848.244	4927
848.379	4782
848.515	4725
848.65	4683
848.786	4755
848.921	4755
849.057	4820
849.192	4885
849.328	4831
849.463	4870
849.598	4755
849.734	4733
849.869	4691
850.004	4626
850.14	4691
850.275	4573
850.41	4542
850.545	4569
850.68	4626
850.815	4607
850.95	4618
851.085	4820
851.22	4725
851.355	4637
851.49	4641
851.625	4668
851.76	4668
851.895	4580
852.03	4531
852.165	4660
852.299	4729
852.434	4797
852.569	4736
852.703	4759
852.838	4896
852.973	4873
853.107	4908
853.242	4748
853.376	4649
853.511	4550
853.645	4630
853.78	4782
853.914	4672
854.048	4675
854.183	4649
854.317	4653
854.451	4782
854.585	4664
854.72	4622
854.854	4691
854.988	4584
855.122	4603
855.256	4493
855.39	4706
855.524	4801
855.658	4717
855.792	4733
855.926	4702
856.06	4755
856.194	4763
856.327	4721
856.461	4641
856.595	4637
856.729	4580
856.862	4774
856.996	4679
857.13	4702
857.263	4778
857.397	4820
857.53	4634
857.664	4763
857.797	4721
857.931	4801
858.064	4698
858.197	4740
858.331	4645
858.464	4649
858.597	4558
858.731	4710
858.864	4626
858.997	4558
859.13	4637
859.263	4656
859.396	4710
859.529	4592
859.662	4569
859.795	4523
859.928	4618
860.061	4755
860.194	4828
860.327	4569
860.46	4554
860.592	4736
860.725	4679
860.858	4721
860.99	4611
861.123	4519
861.256	4554
861.388	4611
861.521	5299
861.653	4466
861.786	4447
861.918	4462
862.05	4493
862.183	4580
862.315	4622
862.447	4683
862.58	4569
862.712	4394
862.844	4329
862.976	4527
863.108	4478
863.24	4774
863.372	4333
863.504	4405
863.636	4379
863.768	4443
863.9	4447
864.032	4348
864.164	4413
864.296	4462
864.428	4584
864.559	4550
864.691	4542
864.823	4523
864.954	4470
865.086	4531
865.217	4424
865.349	4405
865.48	4432
865.612	4478
865.743	4615
865.875	4451
866.006	4394
866.137	4474
866.269	4451
866.4	4428
866.531	4447
866.662	4413
866.793	4371
866.924	4424
867.055	4493
867.186	4455
867.317	4367
867.448	4386
867.579	4375
867.71	4356
867.841	4352
867.972	4455
868.103	4443
868.233	4436
868.364	4474
868.495	4497
868.625	4702
868.756	4767
868.886	4580
869.017	4660
869.147	4752
869.278	4774
869.408	4691
869.539	4675
869.669	4752
869.799	4694
869.929	4805
870.06	4698
870.19	4953
870.32	4938
870.45	4938
870.58	4984
870.71	5109
870.84	5022
870.97	4896
871.1	4942
871.23	5124
871.36	5105
871.489	5029
871.619	5048
871.749	5117
871.879	5079
872.008	5197
872.138	5079
872.267	4968
872.397	4843
872.526	4805
872.656	4721
872.785	4801
872.915	4961
873.044	5022
873.173	4908
873.303	4984
873.432	4946
873.561	4953
873.69	4934
873.819	4877
873.948	4866
874.077	4828
874.206	4790
874.335	4782
874.464	4927
874.593	5079
874.722	4930
874.851	5086
874.979	5037
875.108	5037
875.237	4911
875.365	4892
875.494	4873
875.623	4961
875.751	4858
875.88	4885
876.008	4930
876.136	5041
876.265	5185
876.393	5330
876.521	5216
876.65	5250
876.778	5155
876.906	5064
877.034	5041
877.162	5033
877.29	4984
877.418	5090
877.546	5067
877.674	5052
877.802	5037
877.93	5010
878.058	4938
878.185	4858
878.313	4968
878.441	4934
878.568	4778
878.696	4877
878.824	4942
878.951	4999
879.079	5090
879.206	5303
879.333	5136
879.461	5018
879.588	4957
879.715	5159
879.842	5223
879.97	5010
880.097	4801
880.224	4714
880.351	4805
880.478	4805
880.605	4809
880.732	4816
880.859	5128
880.986	4839
881.112	4858
881.239	4729
881.366	4691
881.493	4603
881.619	4618
881.746	4687
881.872	4637
881.999	4649
882.125	4694
882.252	4767
882.378	4839
882.505	4892
882.631	4805
882.757	4656
882.883	4752
883.01	4782
883.136	4668
883.262	4592
883.388	4596
883.514	4828
883.64	4862
883.766	4767
883.892	4660
884.018	4721
884.143	4927
884.269	5018
884.395	4698
884.52	4580
884.646	4641
884.772	4584
884.897	4565
885.023	4656
885.148	4805
885.274	4858
885.399	4782
885.524	4694
885.65	4706
885.775	4748
885.9	4710
886.025	4896
886.15	4786
886.275	4740
886.4	4653
886.525	4740
886.65	4641
886.775	4721
886.9	4904
887.025	5075
887.149	4786
887.274	4668
887.399	4577
887.523	4599
887.648	4573
887.773	4580
887.897	4740
888.021	4790
888.146	4622
888.27	4736
888.395	4877
888.519	4782
888.643	4839
888.767	4850
888.891	4691
889.015	4634
889.139	4691
889.263	4554
889.387	4809
889.511	4862
889.635	4771
889.759	4622
889.883	4653
890.006	4759
890.13	4809
890.254	4584
890.377	4710
890.501	4508
890.624	4527
890.748	4660
890.871	4535
890.995	4447
891.118	4386
891.241	4531
891.364	4580
891.488	4679
891.611	4485
891.734	4542
891.857	4573
891.98	4535
892.103	4675
892.226	4577
892.349	4546
892.471	4424
892.594	4550
892.717	4649
892.839	4580
892.962	4573
893.085	4664
893.207	4641
893.33	4459
893.452	4504
893.575	4675
893.697	4569
893.819	4820
893.941	4824
894.064	4733
894.186	4573
894.308	4535
894.43	4691
894.552	4828
894.674	4759
894.796	4527
894.918	4630
895.04	4603
895.161	4702
895.283	4630
895.405	4603
895.526	4584
895.648	4656
895.769	4710
895.891	4710
896.012	4725
896.134	4687
896.255	4634
896.376	4668
896.498	4622
896.619	4660
896.74	4641
896.861	4664
896.982	4896
897.103	5071
897.224	4839
897.345	4740
897.466	4615
897.587	4748
897.708	4885
897.828	4801
897.949	4660
898.07	4656
898.19	4626
898.311	4843
898.431	4679
898.552	4733
898.672	4847
898.792	4786
898.913	4714
899.033	4637
899.153	4478
899.273	4394
899.393	4512
899.513	4554
899.633	4508
899.753	4569
899.873	4523
899.993	4592
900.113	4519
900.232	4637
900.352	4542
900.472	4485
900.591	4386
900.711	4466
900.83	4421
900.95	4599
901.069	4615
901.189	4512
901.308	4379
901.427	4363
901.546	4398
901.665	4470
901.784	4489
901.904	4409
902.023	4337
902.141	4173
902.26	4188
902.379	4238
902.498	4284
902.617	4200
902.735	4318
902.854	4383
902.973	4356
903.091	4238
903.21	4257
903.328	4344
903.446	4261
903.565	4276
903.683	4371
903.801	4261
903.919	4356
904.038	4409
904.156	4322
904.274	4462
904.392	4402
904.51	4451
904.627	4497
904.745	4599
904.863	4649
904.981	4344
905.098	4329
905.216	4371
905.334	4455
905.451	4386
905.569	4432
905.686	4588
905.803	4546
905.921	4436
906.038	4546
906.155	4478
906.272	4390
906.389	4474
906.506	4383
906.623	4386
906.74	4424
906.857	4310
906.974	4325
907.091	4550
907.208	4641
907.324	4607
907.441	4478
907.557	4318
907.674	4363
907.79	4318
907.907	4386
908.023	4508
908.139	4470
908.256	4424
908.372	4497
908.488	4485
908.604	4333
908.72	4303
908.836	4390
908.952	4394
909.068	4413
909.184	4618
909.3	4459
909.415	4634
909.531	4565
909.647	4402
909.762	4379
909.878	4325
909.993	4413
910.108	4451
910.224	4409
910.339	4500
910.454	4451
910.57	4394
910.685	4310
910.8	4634
910.915	4580
911.03	4478
911.145	4318
911.259	4329
911.374	4371
911.489	4352
911.604	4280
911.718	4185
911.833	4200
911.947	4093
912.062	4032
912.176	4177
912.291	4246
912.405	4261
912.519	4405
912.633	4481
912.748	4413
912.862	4306
912.976	4215
913.09	4105
913.204	4166
913.318	4246
913.431	4375
913.545	4341
913.659	4451
913.772	4322
913.886	4234
914	4227
914.113	4383
914.226	4409
914.34	4363
914.453	4284
914.566	4417
914.68	4314
914.793	4356
914.906	4131
915.019	4097
915.132	4124
915.245	4169
915.358	4200
915.47	4223
915.583	4265
915.696	4325
915.809	4421
915.921	4436
916.034	4246
916.146	4261
916.259	4268
916.371	4432
916.483	4352
916.595	4253
916.708	4314
916.82	4356
916.932	4280
917.044	4360
917.156	4337
917.268	4219
917.38	4303
917.491	4261
917.603	4318
917.715	4443
917.826	4500
917.938	4740
918.049	4618
918.161	4417
918.272	4577
918.384	4588
918.495	4428
918.606	4276
918.717	4234
918.828	4299
918.939	4352
919.05	4238
919.161	4291
919.272	4078
919.383	4253
919.494	4421
919.604	4584
919.715	4428
919.826	4379
919.936	4363
920.047	4519
920.157	4508
920.267	4679
920.378	4542
920.488	4493
920.598	4767
920.708	4896
920.818	4717
920.928	4755
921.038	4976
921.148	4911
921.258	4603
921.368	4550
921.477	4462
921.587	4436
921.697	4341
921.806	4554
921.916	4466
922.025	4280
922.134	4299
922.244	4215
922.353	4352
922.462	4181
922.571	4131
922.68	4002
922.789	3991
922.898	4017
923.007	4010
923.116	4086
923.224	4029
923.333	4128
923.442	3979
923.55	3960
923.659	3991
923.767	4074
923.876	4013
923.984	4116
924.092	3994
924.201	4074
924.309	4147
924.417	4120
924.525	4063
924.633	4078
924.741	5090
924.849	3854
924.956	4154
925.064	3994
925.172	3907
925.279	3979
925.387	4044
925.494	4097
925.602	4234
925.709	4158
925.816	4055
925.924	4169
926.031	4246
926.138	4219
926.245	4242
926.352	4105
926.459	4341
926.566	4341
926.673	4150
926.779	4109
926.886	4048
926.993	4055
927.099	3975
927.206	3941
927.312	4021
927.419	4090
927.525	4109
927.631	4177
927.737	4013
927.843	3998
927.95	3907
928.056	3968
928.162	4032
928.267	4120
928.373	4725
928.479	4147
928.585	3899
928.69	4086
928.796	4082
928.901	4055
929.007	3899
929.112	4074
929.218	4029
929.323	3983
929.428	3987
929.533	4181
929.638	3922
929.743	3968
929.848	4071
929.953	4006
930.058	3987
930.163	3850
930.267	3865
930.372	4036
930.477	3861
930.581	4181
930.685	4010
930.79	3838
930.894	3956
930.998	3903
931.103	4074
931.207	3736
931.311	3713
931.415	3751
931.519	3587
931.623	3568
