Data from test_V78500241_1116.txt Node
Date: Fri Mar 25 16:56:45 CST 2022
User: usil
Spectrometer: V785-0024
Trigger mode: 0
Integration Time (sec): 4.000000E-1
Scans to average: 1
Nonlinearity correction enabled: false
Boxcar width: 0
Storing dark spectrum: false
XAxis mode: Wavelengths
Number of Pixels in Spectrum: 1024
>>>>>Begin Spectral Data<<<<<
801.071	8039
801.214	8069
801.356	7871
801.499	7822
801.641	7826
801.783	7784
801.926	7906
802.068	7902
802.211	7936
802.353	7947
802.496	7822
802.638	7921
802.78	7909
802.923	7932
803.065	7879
803.208	7902
803.35	7902
803.492	8043
803.635	8138
803.777	7970
803.919	8157
804.061	8476
804.204	8073
804.346	8100
804.488	7898
804.63	8103
804.773	7986
804.915	8069
805.057	8237
805.199	8176
805.341	8240
805.483	8202
805.626	8084
805.768	8077
805.91	8206
806.052	8191
806.194	8111
806.336	8313
806.478	8081
806.62	8077
806.762	8107
806.904	8168
807.046	8412
807.188	8320
807.33	8221
807.472	8282
807.614	8084
807.756	8103
807.898	7970
808.04	7875
808.182	7902
808.324	7841
808.465	7932
808.607	8031
808.749	8103
808.891	8199
809.033	8252
809.174	8195
809.316	8081
809.458	8001
809.6	7906
809.741	8027
809.883	8046
810.025	8024
810.166	8092
810.308	7982
810.45	7947
810.591	7852
810.733	7708
810.875	7616
811.016	7468
811.158	7468
811.299	7628
811.441	7719
811.582	7666
811.724	7632
811.865	7559
812.007	7525
812.148	7525
812.29	7632
812.431	7674
812.573	7921
812.714	8012
812.855	8081
812.997	8126
813.138	8313
813.279	8191
813.421	8084
813.562	7978
813.703	7906
813.845	7734
813.986	7403
814.127	7217
814.268	7175
814.41	7141
814.551	7091
814.692	7145
814.833	7012
814.974	7012
815.115	7088
815.256	6973
815.397	6894
815.539	6894
815.68	6776
815.821	6776
815.962	6837
816.103	6779
816.244	6776
816.385	6601
816.526	6601
816.666	6448
816.807	6319
816.948	6414
817.089	6456
817.23	6384
817.371	6380
817.512	6346
817.653	6380
817.793	6350
817.934	6426
818.075	6414
818.216	6384
818.356	6365
818.497	6232
818.638	6057
818.778	6251
818.919	6152
819.06	6148
819.2	6311
819.341	6319
819.481	6353
819.622	6555
819.762	6669
819.903	6734
820.043	6566
820.184	6517
820.324	6490
820.465	6696
820.605	6642
820.746	6608
820.886	6506
821.026	6604
821.167	6669
821.307	6779
821.447	6779
821.588	6688
821.728	6513
821.868	6448
822.008	6323
822.149	6315
822.289	6315
822.429	6102
822.569	6053
822.709	6133
822.849	5866
822.99	5908
823.13	5893
823.27	5897
823.41	5714
823.55	5764
823.69	5741
823.83	5786
823.97	5619
824.11	5516
824.25	5509
824.389	5539
824.529	5558
824.669	5493
824.809	5547
824.949	5646
825.089	5570
825.228	5570
825.368	5368
825.508	5372
825.648	5311
825.787	5318
825.927	5322
826.067	5303
826.206	5334
826.346	5364
826.485	5402
826.625	5360
826.765	5573
826.904	5433
827.044	5204
827.183	5155
827.323	5083
827.462	5242
827.601	5178
827.741	5170
827.88	5227
828.02	5113
828.159	5212
828.298	5292
828.437	5364
828.577	5258
828.716	5440
828.855	5296
828.994	5105
829.134	5159
829.273	5151
829.412	5128
829.551	5109
829.69	5098
829.829	5250
829.968	5330
830.107	5296
830.246	5216
830.385	5143
830.524	5083
830.663	5045
830.802	4957
830.941	4862
831.08	4850
831.219	4946
831.357	4984
831.496	5121
831.635	4930
831.774	4824
831.913	4850
832.051	4714
832.19	4691
832.329	4797
832.467	4656
832.606	4622
832.744	4706
832.883	4733
833.022	4740
833.16	4816
833.299	4752
833.437	4828
833.576	4790
833.714	4816
833.852	4828
833.991	4839
834.129	4946
834.267	4972
834.406	4847
834.544	4957
834.682	4995
834.821	4949
834.959	5121
835.097	4949
835.235	5128
835.373	5109
835.511	5090
835.65	5037
835.788	5029
835.926	4862
836.064	4862
836.202	4911
836.34	5189
836.478	5231
836.615	5117
836.753	5185
836.891	5303
837.029	5250
837.167	5090
837.305	5155
837.443	5151
837.58	5071
837.718	5254
837.856	5162
837.993	5128
838.131	5193
838.269	5162
838.406	5189
838.544	5174
838.681	4976
838.819	4976
838.956	4816
839.094	4885
839.231	4980
839.369	5060
839.506	5395
839.643	5280
839.781	5041
839.918	5014
840.055	5075
840.193	5105
840.33	5121
840.467	5117
840.604	5159
840.742	5353
840.879	5045
841.016	5064
841.153	5098
841.29	5376
841.427	5303
841.564	5315
841.701	5322
841.838	5246
841.975	5223
842.112	5265
842.249	5136
842.385	5056
842.522	5296
842.659	5124
842.796	5079
842.933	5212
843.069	5102
843.206	5143
843.343	5288
843.479	5216
843.616	5242
843.752	5045
843.889	4991
844.025	5239
844.162	4995
844.298	5193
844.435	5083
844.571	5045
844.708	5220
844.844	5277
844.98	5277
845.117	5216
845.253	5121
845.389	5090
845.525	5090
845.661	5113
845.798	4999
845.934	5124
846.07	5003
846.206	5102
846.342	5258
846.478	5223
846.614	4984
846.75	4915
846.886	4900
847.022	5132
847.158	5018
847.294	5014
847.429	5037
847.565	5071
847.701	5307
847.837	4862
847.972	4763
848.108	4946
848.244	4946
848.379	4763
848.515	4721
848.65	4691
848.786	4740
848.921	4759
849.057	4858
849.192	4900
849.328	4801
849.463	4850
849.598	4759
849.734	4714
849.869	4675
850.004	4649
850.14	4691
850.275	4626
850.41	4592
850.545	4626
850.68	4626
850.815	4679
850.95	4618
851.085	4835
851.22	4828
851.355	4725
851.49	4599
851.625	4641
851.76	4660
851.895	4558
852.03	4599
852.165	4714
852.299	4767
852.434	4866
852.569	4714
852.703	4771
852.838	4824
852.973	4946
853.107	4946
853.242	4786
853.376	4710
853.511	4592
853.645	4599
853.78	4839
853.914	4725
854.048	4706
854.183	4675
854.317	4740
854.451	4919
854.585	4748
854.72	4706
854.854	4752
854.988	4668
855.122	4721
855.256	4550
855.39	4660
855.524	4782
855.658	4721
855.792	4702
855.926	4725
856.06	4771
856.194	4850
856.327	4714
856.461	4580
856.595	4668
856.729	4660
856.862	4714
856.996	4698
857.13	4767
857.263	4748
857.397	4820
857.53	4733
857.664	4725
857.797	4774
857.931	4774
858.064	4687
858.197	4752
858.331	4679
858.464	4634
858.597	4569
858.731	4641
858.864	4675
858.997	4653
859.13	4668
859.263	4694
859.396	4714
859.529	4615
859.662	4565
859.795	4531
859.928	4637
860.061	4797
860.194	4771
860.327	4611
860.46	4622
860.592	4729
860.725	4740
860.858	4740
860.99	4592
861.123	4561
861.256	4538
861.388	4607
861.521	5410
861.653	4523
861.786	4462
861.918	4500
862.05	4489
862.183	4577
862.315	4584
862.447	4710
862.58	4569
862.712	4428
862.844	4360
862.976	4443
863.108	4516
863.24	4763
863.372	4360
863.504	4489
863.636	4436
863.768	4527
863.9	4394
864.032	4432
864.164	4409
864.296	4504
864.428	4546
864.559	4588
864.691	4580
864.823	4546
864.954	4493
865.086	4538
865.217	4466
865.349	4421
865.48	4493
865.612	4512
865.743	4641
865.875	4474
866.006	4462
866.137	4428
866.269	4500
866.4	4478
866.531	4432
866.662	4386
866.793	4470
866.924	4417
867.055	4546
867.186	4440
867.317	4451
867.448	4398
867.579	4398
867.71	4470
867.841	4329
867.972	4519
868.103	4424
868.233	4428
868.364	4512
868.495	4519
868.625	4683
868.756	4759
868.886	4580
869.017	4634
869.147	4771
869.278	4786
869.408	4733
869.539	4664
869.669	4725
869.799	4706
869.929	4740
870.06	4786
870.19	5006
870.32	4938
870.45	4915
870.58	5060
870.71	5132
870.84	5098
870.97	4953
871.1	4934
871.23	5117
871.36	5189
871.489	5018
871.619	5121
871.749	5102
871.879	5162
872.008	5189
872.138	5071
872.267	4980
872.397	4892
872.526	4809
872.656	4763
872.785	4812
872.915	4965
873.044	5045
873.173	4961
873.303	4919
873.432	4991
873.561	5018
873.69	4881
873.819	4839
873.948	4900
874.077	4816
874.206	4774
874.335	4847
874.464	4965
874.593	5052
874.722	5029
874.851	5079
874.979	5086
875.108	5048
875.237	4919
875.365	4885
875.494	4961
875.623	5010
875.751	4843
875.88	4881
876.008	4999
876.136	5022
876.265	5265
876.393	5337
876.521	5299
876.65	5197
876.778	5197
876.906	5056
877.034	5052
877.162	5083
877.29	4953
877.418	5098
877.546	5041
877.674	5025
877.802	4995
877.93	5041
878.058	4984
878.185	4885
878.313	4938
878.441	4965
878.568	4801
878.696	4885
878.824	4957
878.951	4976
879.079	5121
879.206	5284
879.333	5117
879.461	5018
879.588	4995
879.715	5109
879.842	5299
879.97	5022
880.097	4805
880.224	4755
880.351	4877
880.478	4904
880.605	4831
880.732	4774
880.859	5151
880.986	4881
881.112	4915
881.239	4805
881.366	4710
881.493	4611
881.619	4626
881.746	4679
881.872	4641
881.999	4683
882.125	4744
882.252	4843
882.378	4790
882.505	4946
882.631	4881
882.757	4706
882.883	4733
883.01	4793
883.136	4717
883.262	4584
883.388	4592
883.514	4828
883.64	4885
883.766	4801
883.892	4675
884.018	4778
884.143	4911
884.269	5029
884.395	4698
884.52	4653
884.646	4656
884.772	4641
884.897	4569
885.023	4664
885.148	4786
885.274	4885
885.399	4816
885.524	4710
885.65	4698
885.775	4759
885.9	4744
886.025	4862
886.15	4809
886.275	4748
886.4	4679
886.525	4736
886.65	4683
886.775	4679
886.9	4927
887.025	5056
887.149	4896
887.274	4679
887.399	4596
887.523	4675
887.648	4588
887.773	4603
887.897	4767
888.021	4809
888.146	4664
888.27	4828
888.395	4900
888.519	4828
888.643	4824
888.767	4862
888.891	4691
889.015	4634
889.139	4660
889.263	4607
889.387	4755
889.511	4885
889.635	4828
889.759	4664
889.883	4622
890.006	4774
890.13	4835
890.254	4664
890.377	4698
890.501	4542
890.624	4508
890.748	4702
890.871	4558
890.995	4451
891.118	4417
891.241	4523
891.364	4558
891.488	4656
891.611	4470
891.734	4508
891.857	4592
891.98	4599
892.103	4630
892.226	4618
892.349	4508
892.471	4455
892.594	4565
892.717	4577
892.839	4592
892.962	4634
893.085	4664
893.207	4596
893.33	4436
893.452	4504
893.575	4672
893.697	4603
893.819	4843
893.941	4866
894.064	4782
894.186	4626
894.308	4577
894.43	4725
894.552	4862
894.674	4733
894.796	4577
894.918	4611
895.04	4569
895.161	4656
895.283	4694
895.405	4592
895.526	4645
895.648	4664
895.769	4702
895.891	4759
896.012	4725
896.134	4733
896.255	4687
896.376	4603
896.498	4637
896.619	4691
896.74	4596
896.861	4675
896.982	4889
897.103	5109
897.224	4824
897.345	4767
897.466	4714
897.587	4763
897.708	4839
897.828	4759
897.949	4649
898.07	4607
898.19	4675
898.311	4824
898.431	4672
898.552	4755
898.672	4854
898.792	4778
898.913	4767
899.033	4664
899.153	4455
899.273	4436
899.393	4519
899.513	4538
899.633	4577
899.753	4573
899.873	4519
899.993	4569
900.113	4565
900.232	4584
900.352	4542
900.472	4489
900.591	4394
900.711	4504
900.83	4428
900.95	4607
901.069	4702
901.189	4527
901.308	4390
901.427	4329
901.546	4409
901.665	4470
901.784	4531
901.904	4356
902.023	4413
902.141	4257
902.26	4166
902.379	4284
902.498	4234
902.617	4238
902.735	4398
902.854	4394
902.973	4413
903.091	4196
903.21	4211
903.328	4306
903.446	4314
903.565	4284
903.683	4360
903.801	4303
903.919	4379
904.038	4481
904.156	4344
904.274	4451
904.392	4394
904.51	4474
904.627	4485
904.745	4618
904.863	4596
904.981	4383
905.098	4295
905.216	4405
905.334	4436
905.451	4493
905.569	4455
905.686	4538
905.803	4558
905.921	4390
906.038	4573
906.155	4474
906.272	4375
906.389	4493
906.506	4383
906.623	4466
906.74	4390
906.857	4329
906.974	4375
907.091	4554
907.208	4660
907.324	4569
907.441	4542
907.557	4360
907.674	4367
907.79	4284
907.907	4394
908.023	4405
908.139	4512
908.256	4409
908.372	4508
908.488	4451
908.604	4413
908.72	4348
908.836	4443
908.952	4409
909.068	4447
909.184	4546
909.3	4493
909.415	4588
909.531	4580
909.647	4344
909.762	4417
909.878	4394
909.993	4432
910.108	4443
910.224	4348
910.339	4481
910.454	4432
910.57	4367
910.685	4386
910.8	4656
910.915	4603
911.03	4485
911.145	4329
911.259	4379
911.374	4379
911.489	4295
911.604	4322
911.718	4166
911.833	4200
911.947	4120
912.062	4006
912.176	4230
912.291	4253
912.405	4265
912.519	4447
912.633	4500
912.748	4440
912.862	4284
912.976	4192
913.09	4109
913.204	4173
913.318	4268
913.431	4367
913.545	4413
913.659	4455
913.772	4394
913.886	4230
914	4238
914.113	4371
914.226	4405
914.34	4337
914.453	4253
914.566	4455
914.68	4341
914.793	4303
914.906	4139
915.019	4116
915.132	4063
915.245	4181
915.358	4219
915.47	4223
915.583	4295
915.696	4318
915.809	4386
915.921	4417
916.034	4230
916.146	4268
916.259	4249
916.371	4390
916.483	4367
916.595	4257
916.708	4360
916.82	4348
916.932	4322
917.044	4360
917.156	4348
917.268	4242
917.38	4280
917.491	4276
917.603	4348
917.715	4421
917.826	4443
917.938	4367
918.049	4272
918.161	4379
918.272	4558
918.384	4580
918.495	4478
918.606	4348
918.717	4257
918.828	4329
918.939	4367
919.05	4272
919.161	4360
919.272	4143
919.383	4253
919.494	4470
919.604	4645
919.715	4447
919.826	4409
919.936	4424
920.047	4561
920.157	4474
920.267	4710
920.378	4573
920.488	4508
920.598	4824
920.708	4930
920.818	4786
920.928	4774
921.038	4995
921.148	4927
921.258	4717
921.368	4596
921.477	4565
921.587	4508
921.697	4421
921.806	4573
921.916	4478
922.025	4287
922.134	4329
922.244	4268
922.353	4398
922.462	4188
922.571	4211
922.68	4059
922.789	4021
922.898	4040
923.007	4013
923.116	4116
923.224	4116
923.333	4101
923.442	4013
923.55	4044
923.659	4078
923.767	4131
923.876	4051
923.984	4143
924.092	4032
924.201	4143
924.309	4158
924.417	4169
924.525	4063
924.633	4147
924.741	5075
924.849	3960
924.956	4173
925.064	4032
925.172	3903
925.279	3972
925.387	4071
925.494	4032
925.602	4261
925.709	4223
925.816	4131
925.924	4188
926.031	4223
926.138	4200
926.245	4219
926.352	4135
926.459	4322
926.566	4383
926.673	4200
926.779	4154
926.886	4101
926.993	4032
927.099	4029
927.206	3983
927.312	3960
927.419	4158
927.525	4040
927.631	4173
927.737	3937
927.843	3994
927.95	3880
928.056	3964
928.162	4006
928.267	4078
928.373	4672
928.479	4150
928.585	3884
928.69	4063
928.796	4101
928.901	4040
929.007	3884
929.112	4021
929.218	3983
929.323	3968
929.428	3979
929.533	4166
929.638	3941
929.743	3979
929.848	4051
929.953	4059
930.058	3934
930.163	3823
930.267	3831
930.372	3968
930.477	3823
930.581	4147
930.685	3991
930.79	3850
930.894	3888
930.998	3915
931.103	4055
931.207	3740
931.311	3713
931.415	3701
931.519	3584
931.623	3606
