Data from test_V78500241_219.txt Node
Date: Fri Mar 25 16:50:31 CST 2022
User: usil
Spectrometer: V785-0024
Trigger mode: 0
Integration Time (sec): 4.000000E-1
Scans to average: 1
Nonlinearity correction enabled: false
Boxcar width: 0
Storing dark spectrum: false
XAxis mode: Wavelengths
Number of Pixels in Spectrum: 1024
>>>>>Begin Spectral Data<<<<<
801.071	7982
801.214	7974
801.356	7811
801.499	7814
801.641	7795
801.783	7822
801.926	7921
802.068	7989
802.211	7997
802.353	7978
802.496	7875
802.638	7837
802.78	7898
802.923	7936
803.065	7818
803.208	7860
803.35	7944
803.492	8069
803.635	8149
803.777	8043
803.919	8134
804.061	8385
804.204	8134
804.346	7974
804.488	7898
804.63	8096
804.773	7982
804.915	8050
805.057	8195
805.199	8100
805.341	8168
805.483	8218
805.626	8153
805.768	8031
805.91	8134
806.052	8225
806.194	8069
806.336	8237
806.478	8081
806.62	8035
806.762	8138
806.904	8206
807.046	8446
807.188	8259
807.33	8271
807.472	8286
807.614	8096
807.756	8172
807.898	7986
808.04	7852
808.182	7845
808.324	7898
808.465	7928
808.607	8031
808.749	8119
808.891	8221
809.033	8324
809.174	8210
809.316	8096
809.458	8107
809.6	7970
809.741	8043
809.883	8020
810.025	8050
810.166	8100
810.308	8024
810.45	8096
810.591	7890
810.733	7757
810.875	7712
811.016	7582
811.158	7567
811.299	7601
811.441	7594
811.582	7738
811.724	7578
811.865	7544
812.007	7605
812.148	7613
812.29	7677
812.431	7677
812.573	7909
812.714	7959
812.855	8103
812.997	8233
813.138	8328
813.279	8240
813.421	8119
813.562	8054
813.703	7822
813.845	7731
813.986	7445
814.127	7324
814.268	7202
814.41	7171
814.551	7175
814.692	7221
814.833	7152
814.974	7110
815.115	7149
815.256	7042
815.397	6924
815.539	6913
815.68	6837
815.821	6779
815.962	6848
816.103	6818
816.244	6730
816.385	6650
816.526	6673
816.666	6494
816.807	6323
816.948	6460
817.089	6471
817.23	6441
817.371	6426
817.512	6426
817.653	6376
817.793	6357
817.934	6414
818.075	6448
818.216	6372
818.356	6403
818.497	6262
818.638	6087
818.778	6148
818.919	6152
819.06	6087
819.2	6292
819.341	6296
819.481	6334
819.622	6494
819.762	6783
819.903	6673
820.043	6555
820.184	6551
820.324	6582
820.465	6681
820.605	6597
820.746	6639
820.886	6475
821.026	6631
821.167	6726
821.307	6760
821.447	6787
821.588	6662
821.728	6589
821.868	6563
822.008	6281
822.149	6323
822.289	6361
822.429	6178
822.569	6083
822.709	6076
822.849	5958
822.99	5889
823.13	5920
823.27	5912
823.41	5809
823.55	5798
823.69	5775
823.83	5847
823.97	5726
824.11	5497
824.25	5501
824.389	5551
824.529	5592
824.669	5539
824.809	5646
824.949	5668
825.089	5619
825.228	5490
825.368	5357
825.508	5337
825.648	5353
825.787	5334
825.927	5368
826.067	5277
826.206	5307
826.346	5395
826.485	5383
826.625	5391
826.765	5562
826.904	5448
827.044	5231
827.183	5185
827.323	5086
827.462	5280
827.601	5204
827.741	5216
827.88	5201
828.02	5136
828.159	5239
828.298	5299
828.437	5322
828.577	5277
828.716	5535
828.855	5250
828.994	5204
829.134	5155
829.273	5246
829.412	5143
829.551	5132
829.69	5151
829.829	5239
829.968	5360
830.107	5223
830.246	5288
830.385	5140
830.524	5105
830.663	5075
830.802	4999
830.941	4927
831.08	4866
831.219	5006
831.357	5014
831.496	5193
831.635	4942
831.774	4919
831.913	4854
832.051	4763
832.19	4748
832.329	4858
832.467	4702
832.606	4641
832.744	4691
832.883	4714
833.022	4740
833.16	4786
833.299	4835
833.437	4812
833.576	4786
833.714	4839
833.852	4923
833.991	4873
834.129	4976
834.267	4995
834.406	4976
834.544	4942
834.682	4934
834.821	4968
834.959	5174
835.097	4976
835.235	5162
835.373	5098
835.511	5071
835.65	5006
835.788	5006
835.926	4946
836.064	4923
836.202	4938
836.34	5117
836.478	5216
836.615	5090
836.753	5185
836.891	5280
837.029	5254
837.167	5128
837.305	5162
837.443	5201
837.58	5090
837.718	5299
837.856	5193
837.993	5181
838.131	5208
838.269	5197
838.406	5220
838.544	5231
838.681	5064
838.819	4999
838.956	4957
839.094	4866
839.231	4957
839.369	5105
839.506	5463
839.643	5284
839.781	5029
839.918	5025
840.055	5029
840.193	5086
840.33	5075
840.467	5151
840.604	5140
840.742	5421
840.879	5090
841.016	5048
841.153	5162
841.29	5326
841.427	5330
841.564	5315
841.701	5337
841.838	5296
841.975	5216
842.112	5220
842.249	5197
842.385	5052
842.522	5280
842.659	5151
842.796	5159
842.933	5216
843.069	5136
843.206	5162
843.343	5296
843.479	5246
843.616	5307
843.752	5029
843.889	4984
844.025	5277
844.162	5006
844.298	5204
844.435	5045
844.571	5014
844.708	5197
844.844	5296
844.98	5364
845.117	5284
845.253	5086
845.389	5033
845.525	5151
845.661	5220
845.798	5010
845.934	5151
846.07	5041
846.206	5178
846.342	5280
846.478	5178
846.614	5025
846.75	4946
846.886	4908
847.022	5151
847.158	5025
847.294	5052
847.429	5090
847.565	5067
847.701	5311
847.837	4889
847.972	4862
848.108	4995
848.244	4961
848.379	4786
848.515	4683
848.65	4736
848.786	4725
848.921	4797
849.057	4850
849.192	4942
849.328	4771
849.463	4862
849.598	4774
849.734	4774
849.869	4660
850.004	4645
850.14	4668
850.275	4622
850.41	4493
850.545	4577
850.68	4611
850.815	4611
850.95	4637
851.085	4866
851.22	4729
851.355	4675
851.49	4618
851.625	4668
851.76	4637
851.895	4592
852.03	4550
852.165	4622
852.299	4774
852.434	4790
852.569	4710
852.703	4733
852.838	4843
852.973	4957
853.107	4870
853.242	4744
853.376	4626
853.511	4573
853.645	4634
853.78	4778
853.914	4694
854.048	4645
854.183	4653
854.317	4714
854.451	4881
854.585	4675
854.72	4660
854.854	4733
854.988	4637
855.122	4603
855.256	4535
855.39	4691
855.524	4767
855.658	4752
855.792	4687
855.926	4706
856.06	4744
856.194	4767
856.327	4675
856.461	4634
856.595	4615
856.729	4634
856.862	4740
856.996	4733
857.13	4767
857.263	4721
857.397	4820
857.53	4679
857.664	4733
857.797	4771
857.931	4782
858.064	4729
858.197	4725
858.331	4656
858.464	4603
858.597	4519
858.731	4611
858.864	4653
858.997	4538
859.13	4664
859.263	4702
859.396	4706
859.529	4637
859.662	4538
859.795	4565
859.928	4649
860.061	4767
860.194	4782
860.327	4592
860.46	4542
860.592	4733
860.725	4717
860.858	4714
860.99	4535
861.123	4535
861.256	4485
861.388	4630
861.521	5288
861.653	4474
861.786	4405
861.918	4413
862.05	4512
862.183	4611
862.315	4626
862.447	4664
862.58	4565
862.712	4386
862.844	4344
862.976	4508
863.108	4447
863.24	4896
863.372	4348
863.504	4421
863.636	4478
863.768	4470
863.9	4428
864.032	4428
864.164	4409
864.296	4459
864.428	4516
864.559	4527
864.691	4519
864.823	4531
864.954	4504
865.086	4519
865.217	4470
865.349	4474
865.48	4462
865.612	4455
865.743	4653
865.875	4443
866.006	4421
866.137	4470
866.269	4436
866.4	4421
866.531	4409
866.662	4375
866.793	4424
866.924	4459
867.055	4535
867.186	4455
867.317	4383
867.448	4402
867.579	4402
867.71	4390
867.841	4405
867.972	4485
868.103	4485
868.233	4424
868.364	4424
868.495	4500
868.625	4725
868.756	4767
868.886	4580
869.017	4634
869.147	4771
869.278	4771
869.408	4672
869.539	4641
869.669	4729
869.799	4691
869.929	4755
870.06	4767
870.19	4972
870.32	4870
870.45	4953
870.58	5006
870.71	5090
870.84	5079
870.97	4942
871.1	4949
871.23	5159
871.36	5143
871.489	5079
871.619	5121
871.749	5113
871.879	5128
872.008	5174
872.138	5094
872.267	5018
872.397	4942
872.526	4797
872.656	4698
872.785	4835
872.915	4949
873.044	5052
873.173	4942
873.303	4957
873.432	4995
873.561	4984
873.69	4885
873.819	4812
873.948	4904
874.077	4831
874.206	4721
874.335	4790
874.464	4881
874.593	5060
874.722	4934
874.851	5117
874.979	5086
875.108	5025
875.237	4957
875.365	4881
875.494	4908
875.623	5003
875.751	4797
875.88	4900
876.008	4972
876.136	5037
876.265	5193
876.393	5383
876.521	5235
876.65	5258
876.778	5170
876.906	5090
877.034	5037
877.162	5064
877.29	4987
877.418	5109
877.546	5079
877.674	5041
877.802	5018
877.93	5033
878.058	4923
878.185	4809
878.313	4980
878.441	4938
878.568	4790
878.696	4809
878.824	4961
878.951	4942
879.079	5162
879.206	5269
879.333	5143
879.461	4995
879.588	5025
879.715	5136
879.842	5261
879.97	5041
880.097	4843
880.224	4771
880.351	4809
880.478	4870
880.605	4850
880.732	4778
880.859	5159
880.986	4881
881.112	4949
881.239	4771
881.366	4687
881.493	4588
881.619	4611
881.746	4649
881.872	4664
881.999	4626
882.125	4687
882.252	4809
882.378	4847
882.505	4957
882.631	4774
882.757	4615
882.883	4752
883.01	4706
883.136	4649
883.262	4622
883.388	4630
883.514	4885
883.64	4908
883.766	4774
883.892	4656
884.018	4721
884.143	4923
884.269	5010
884.395	4717
884.52	4615
884.646	4675
884.772	4588
884.897	4519
885.023	4694
885.148	4812
885.274	4839
885.399	4809
885.524	4740
885.65	4687
885.775	4736
885.9	4694
886.025	4896
886.15	4790
886.275	4714
886.4	4691
886.525	4736
886.65	4698
886.775	4641
886.9	4908
887.025	4987
887.149	4793
887.274	4660
887.399	4592
887.523	4615
887.648	4599
887.773	4603
887.897	4767
888.021	4759
888.146	4694
888.27	4858
888.395	4889
888.519	4831
888.643	4824
888.767	4839
888.891	4687
889.015	4630
889.139	4668
889.263	4546
889.387	4733
889.511	4843
889.635	4801
889.759	4672
889.883	4637
890.006	4740
890.13	4809
890.254	4634
890.377	4649
890.501	4569
890.624	4592
890.748	4622
890.871	4489
890.995	4470
891.118	4394
891.241	4554
891.364	4550
891.488	4615
891.611	4489
891.734	4535
891.857	4584
891.98	4599
892.103	4611
892.226	4588
892.349	4523
892.471	4417
892.594	4577
892.717	4637
892.839	4584
892.962	4577
893.085	4702
893.207	4611
893.33	4489
893.452	4493
893.575	4714
893.697	4603
893.819	4809
893.941	4896
894.064	4774
894.186	4577
894.308	4607
894.43	4752
894.552	4820
894.674	4717
894.796	4516
894.918	4603
895.04	4558
895.161	4744
895.283	4672
895.405	4558
895.526	4660
895.648	4694
895.769	4717
895.891	4736
896.012	4767
896.134	4721
896.255	4714
896.376	4637
896.498	4637
896.619	4668
896.74	4611
896.861	4656
896.982	4919
897.103	5083
897.224	4858
897.345	4721
897.466	4672
897.587	4702
897.708	4870
897.828	4839
897.949	4683
898.07	4531
898.19	4649
898.311	4767
898.431	4645
898.552	4755
898.672	4858
898.792	4801
898.913	4759
899.033	4645
899.153	4535
899.273	4405
899.393	4554
899.513	4500
899.633	4550
899.753	4546
899.873	4550
899.993	4558
900.113	4546
900.232	4615
900.352	4558
900.472	4500
900.591	4386
900.711	4497
900.83	4455
900.95	4634
901.069	4721
901.189	4546
901.308	4417
901.427	4280
901.546	4379
901.665	4432
901.784	4489
901.904	4394
902.023	4356
902.141	4147
902.26	4169
902.379	4363
902.498	4234
902.617	4253
902.735	4390
902.854	4402
902.973	4386
903.091	4219
903.21	4234
903.328	4280
903.446	4276
903.565	4291
903.683	4333
903.801	4284
903.919	4421
904.038	4421
904.156	4337
904.274	4424
904.392	4383
904.51	4451
904.627	4451
904.745	4588
904.863	4656
904.981	4413
905.098	4291
905.216	4344
905.334	4443
905.451	4470
905.569	4459
905.686	4596
905.803	4596
905.921	4402
906.038	4599
906.155	4508
906.272	4436
906.389	4432
906.506	4379
906.623	4375
906.74	4402
906.857	4341
906.974	4413
907.091	4546
907.208	4615
907.324	4569
907.441	4516
907.557	4394
907.674	4386
907.79	4325
907.907	4390
908.023	4519
908.139	4546
908.256	4402
908.372	4504
908.488	4447
908.604	4386
908.72	4352
908.836	4409
908.952	4367
909.068	4455
909.184	4554
909.3	4474
909.415	4592
909.531	4561
909.647	4363
909.762	4386
909.878	4363
909.993	4459
910.108	4436
910.224	4432
910.339	4497
910.454	4375
910.57	4360
910.685	4299
910.8	4679
910.915	4599
911.03	4500
911.145	4318
911.259	4363
911.374	4379
911.489	4306
911.604	4272
911.718	4177
911.833	4200
911.947	4101
912.062	4040
912.176	4211
912.291	4287
912.405	4261
912.519	4497
912.633	4512
912.748	4360
912.862	4329
912.976	4268
913.09	4101
913.204	4173
913.318	4265
913.431	4394
913.545	4371
913.659	4443
913.772	4322
913.886	4295
914	4253
914.113	4417
914.226	4424
914.34	4402
914.453	4204
914.566	4462
914.68	4329
914.793	4360
914.906	4185
915.019	4090
915.132	4105
915.245	4181
915.358	4166
915.47	4223
915.583	4272
915.696	4325
915.809	4409
915.921	4440
916.034	4272
916.146	4242
916.259	4265
916.371	4421
916.483	4363
916.595	4261
916.708	4280
916.82	4333
916.932	4306
917.044	4375
917.156	4344
917.268	4268
917.38	4291
917.491	4265
917.603	4356
917.715	4402
917.826	4478
917.938	4325
918.049	4299
918.161	4394
918.272	4538
918.384	4592
918.495	4489
918.606	4322
918.717	4284
918.828	4379
918.939	4394
919.05	4265
919.161	4333
919.272	4185
919.383	4211
919.494	4474
919.604	4611
919.715	4459
919.826	4402
919.936	4386
920.047	4504
920.157	4535
920.267	4702
920.378	4569
920.488	4485
920.598	4694
920.708	4934
920.818	4752
920.928	4786
921.038	4942
921.148	4934
921.258	4649
921.368	4580
921.477	4489
921.587	4436
921.697	4383
921.806	4554
921.916	4466
922.025	4249
922.134	4276
922.244	4268
922.353	4363
922.462	4200
922.571	4177
922.68	4025
922.789	3987
922.898	4025
923.007	4036
923.116	4112
923.224	4021
923.333	4078
923.442	3991
923.55	3983
923.659	4032
923.767	4112
923.876	3994
923.984	4147
924.092	3953
924.201	4128
924.309	4097
924.417	4158
924.525	4086
924.633	4139
924.741	5079
924.849	3922
924.956	4128
925.064	3979
925.172	3876
925.279	3960
925.387	4078
925.494	4051
925.602	4223
925.709	4265
925.816	4036
925.924	4177
926.031	4242
926.138	4204
926.245	4177
926.352	4101
926.459	4230
926.566	4299
926.673	4181
926.779	4093
926.886	4093
926.993	3964
927.099	3975
927.206	3968
927.312	3937
927.419	4021
927.525	4048
927.631	4135
927.737	3994
927.843	3934
927.95	3827
928.056	3991
928.162	3975
928.267	4082
928.373	4569
928.479	4128
928.585	3869
928.69	4032
928.796	4093
928.901	3991
929.007	3865
929.112	3975
929.218	4013
929.323	3964
929.428	4010
929.533	4124
929.638	3922
929.743	3941
929.848	4059
929.953	3964
930.058	3949
930.163	3770
930.267	3827
930.372	3994
930.477	3854
930.581	4086
930.685	3937
930.79	3823
930.894	3892
930.998	3831
931.103	4055
931.207	3713
931.311	3698
931.415	3679
931.519	3496
931.623	3526
