Data from test_V78500241_750.txt Node
Date: Fri Mar 25 16:54:13 CST 2022
User: usil
Spectrometer: V785-0024
Trigger mode: 0
Integration Time (sec): 4.000000E-1
Scans to average: 1
Nonlinearity correction enabled: false
Boxcar width: 0
Storing dark spectrum: false
XAxis mode: Wavelengths
Number of Pixels in Spectrum: 1024
>>>>>Begin Spectral Data<<<<<
801.071	8024
801.214	8046
801.356	7932
801.499	7830
801.641	7837
801.783	7841
801.926	8008
802.068	8005
802.211	8050
802.353	7978
802.496	7883
802.638	7871
802.78	7898
802.923	7917
803.065	7902
803.208	7887
803.35	7967
803.492	8111
803.635	8199
803.777	8024
803.919	8180
804.061	8423
804.204	8126
804.346	8046
804.488	7978
804.63	8058
804.773	8035
804.915	8111
805.057	8313
805.199	8195
805.341	8176
805.483	8305
805.626	8221
805.768	8103
805.91	8157
806.052	8202
806.194	8096
806.336	8290
806.478	8088
806.62	8100
806.762	8115
806.904	8343
807.046	8419
807.188	8343
807.33	8339
807.472	8305
807.614	8168
807.756	8145
807.898	8001
808.04	7883
808.182	7917
808.324	7894
808.465	7887
808.607	8024
808.749	8172
808.891	8126
809.033	8256
809.174	8271
809.316	8092
809.458	8145
809.6	7982
809.741	8012
809.883	8084
810.025	8134
810.166	8126
810.308	8103
810.45	7986
810.591	7970
810.733	7700
810.875	7742
811.016	7491
811.158	7491
811.299	7597
811.441	7750
811.582	7689
811.724	7597
811.865	7445
812.007	7548
812.148	7605
812.29	7597
812.431	7734
812.573	7792
812.714	7959
812.855	8088
812.997	8195
813.138	8305
813.279	8206
813.421	8168
813.562	8054
813.703	7936
813.845	7795
813.986	7480
814.127	7274
814.268	7206
814.41	7179
814.551	7099
814.692	7160
814.833	6985
814.974	7076
815.115	7069
815.256	6916
815.397	6928
815.539	6989
815.68	6840
815.821	6798
815.962	6852
816.103	6833
816.244	6798
816.385	6662
816.526	6616
816.666	6486
816.807	6304
816.948	6399
817.089	6399
817.23	6483
817.371	6388
817.512	6391
817.653	6357
817.793	6388
817.934	6380
818.075	6448
818.216	6441
818.356	6384
818.497	6239
818.638	6125
818.778	6178
818.919	6182
819.06	6155
819.2	6300
819.341	6388
819.481	6338
819.622	6532
819.762	6711
819.903	6673
820.043	6597
820.184	6551
820.324	6563
820.465	6734
820.605	6703
820.746	6658
820.886	6490
821.026	6616
821.167	6722
821.307	6798
821.447	6753
821.588	6677
821.728	6525
821.868	6532
822.008	6289
822.149	6369
822.289	6369
822.429	6205
822.569	6060
822.709	6121
822.849	5889
822.99	5908
823.13	5912
823.27	5912
823.41	5840
823.55	5809
823.69	5821
823.83	5798
823.97	5642
824.11	5501
824.25	5543
824.389	5589
824.529	5600
824.669	5512
824.809	5604
824.949	5657
825.089	5623
825.228	5551
825.368	5398
825.508	5337
825.648	5368
825.787	5425
825.927	5334
826.067	5299
826.206	5303
826.346	5429
826.485	5376
826.625	5425
826.765	5547
826.904	5478
827.044	5273
827.183	5261
827.323	5109
827.462	5246
827.601	5254
827.741	5181
827.88	5193
828.02	5113
828.159	5284
828.298	5280
828.437	5383
828.577	5345
828.716	5459
828.855	5315
828.994	5185
829.134	5155
829.273	5227
829.412	5143
829.551	5086
829.69	5140
829.829	5227
829.968	5368
830.107	5277
830.246	5292
830.385	5178
830.524	5124
830.663	5086
830.802	4995
830.941	4900
831.08	4873
831.219	5006
831.357	4942
831.496	5136
831.635	4904
831.774	4854
831.913	4854
832.051	4702
832.19	4767
832.329	4843
832.467	4687
832.606	4656
832.744	4687
832.883	4744
833.022	4710
833.16	4805
833.299	4843
833.437	4824
833.576	4854
833.714	4904
833.852	4870
833.991	4927
834.129	4980
834.267	4942
834.406	4892
834.544	4919
834.682	4999
834.821	4972
834.959	5185
835.097	4991
835.235	5143
835.373	5109
835.511	5079
835.65	5052
835.788	4995
835.926	4961
836.064	4862
836.202	4900
836.34	5185
836.478	5269
836.615	5102
836.753	5136
836.891	5277
837.029	5208
837.167	5235
837.305	5143
837.443	5113
837.58	5090
837.718	5231
837.856	5201
837.993	5155
838.131	5197
838.269	5242
838.406	5197
838.544	5151
838.681	5041
838.819	5010
838.956	4915
839.094	4923
839.231	4953
839.369	5105
839.506	5402
839.643	5307
839.781	5045
839.918	5075
840.055	5140
840.193	5105
840.33	5109
840.467	5094
840.604	5250
840.742	5436
840.879	5090
841.016	5083
841.153	5166
841.29	5376
841.427	5322
841.564	5349
841.701	5376
841.838	5284
841.975	5223
842.112	5322
842.249	5185
842.385	5121
842.522	5372
842.659	5193
842.796	5178
842.933	5212
843.069	5117
843.206	5132
843.343	5254
843.479	5280
843.616	5250
843.752	5025
843.889	4980
844.025	5208
844.162	4972
844.298	5197
844.435	5052
844.571	5045
844.708	5193
844.844	5318
844.98	5334
845.117	5284
845.253	5109
845.389	5140
845.525	5159
845.661	5159
845.798	4980
845.934	5193
846.07	5060
846.206	5216
846.342	5269
846.478	5170
846.614	5033
846.75	4938
846.886	4965
847.022	5147
847.158	5010
847.294	5025
847.429	5147
847.565	5010
847.701	5258
847.837	4820
847.972	4801
848.108	4984
848.244	4923
848.379	4771
848.515	4736
848.65	4714
848.786	4786
848.921	4767
849.057	4889
849.192	4892
849.328	4812
849.463	4900
849.598	4828
849.734	4755
849.869	4717
850.004	4637
850.14	4637
850.275	4584
850.41	4542
850.545	4577
850.68	4641
850.815	4599
850.95	4660
851.085	4873
851.22	4782
851.355	4637
851.49	4691
851.625	4645
851.76	4641
851.895	4561
852.03	4573
852.165	4672
852.299	4717
852.434	4835
852.569	4759
852.703	4801
852.838	4896
852.973	4972
853.107	4949
853.242	4793
853.376	4729
853.511	4580
853.645	4641
853.78	4858
853.914	4733
854.048	4714
854.183	4675
854.317	4714
854.451	4892
854.585	4736
854.72	4649
854.854	4805
854.988	4656
855.122	4679
855.256	4599
855.39	4706
855.524	4793
855.658	4759
855.792	4771
855.926	4702
856.06	4755
856.194	4854
856.327	4763
856.461	4668
856.595	4645
856.729	4618
856.862	4774
856.996	4736
857.13	4771
857.263	4752
857.397	4816
857.53	4740
857.664	4736
857.797	4763
857.931	4820
858.064	4721
858.197	4782
858.331	4653
858.464	4687
858.597	4516
858.731	4645
858.864	4660
858.997	4637
859.13	4698
859.263	4714
859.396	4771
859.529	4653
859.662	4580
859.795	4561
859.928	4729
860.061	4812
860.194	4809
860.327	4645
860.46	4656
860.592	4767
860.725	4729
860.858	4733
860.99	4603
861.123	4535
861.256	4546
861.388	4675
861.521	5391
861.653	4493
861.786	4508
861.918	4546
862.05	4558
862.183	4550
862.315	4607
862.447	4706
862.58	4580
862.712	4455
862.844	4360
862.976	4493
863.108	4451
863.24	4915
863.372	4360
863.504	4497
863.636	4443
863.768	4481
863.9	4497
864.032	4424
864.164	4447
864.296	4519
864.428	4558
864.559	4588
864.691	4607
864.823	4531
864.954	4504
865.086	4535
865.217	4508
865.349	4459
865.48	4504
865.612	4535
865.743	4649
865.875	4497
866.006	4485
866.137	4523
866.269	4485
866.4	4470
866.531	4481
866.662	4386
866.793	4447
866.924	4462
867.055	4535
867.186	4481
867.317	4436
867.448	4428
867.579	4428
867.71	4413
867.841	4379
867.972	4516
868.103	4481
868.233	4466
868.364	4519
868.495	4485
868.625	4649
868.756	4790
868.886	4611
869.017	4687
869.147	4816
869.278	4782
869.408	4683
869.539	4675
869.669	4752
869.799	4683
869.929	4771
870.06	4755
870.19	4968
870.32	4946
870.45	5022
870.58	5006
870.71	5113
870.84	5121
870.97	5014
871.1	4900
871.23	5132
871.36	5185
871.489	5067
871.619	5117
871.749	5132
871.879	5143
872.008	5204
872.138	5075
872.267	5022
872.397	4831
872.526	4843
872.656	4748
872.785	4862
872.915	5022
873.044	5064
873.173	4995
873.303	5003
873.432	4980
873.561	4980
873.69	4900
873.819	4843
873.948	4946
874.077	4850
874.206	4805
874.335	4786
874.464	4930
874.593	5041
874.722	5003
874.851	5155
874.979	5136
875.108	5025
875.237	4987
875.365	4908
875.494	4915
875.623	5014
875.751	4862
875.88	4953
876.008	5056
876.136	5113
876.265	5181
876.393	5349
876.521	5273
876.65	5239
876.778	5128
876.906	5083
877.034	5041
877.162	4991
877.29	4968
877.418	5064
877.546	5079
877.674	5037
877.802	5052
877.93	5014
878.058	4953
878.185	4968
878.313	5022
878.441	5006
878.568	4839
878.696	4911
878.824	5003
878.951	5071
879.079	5121
879.206	5315
879.333	5109
879.461	5006
879.588	5006
879.715	5170
879.842	5231
879.97	5056
880.097	4809
880.224	4740
880.351	4885
880.478	4847
880.605	4805
880.732	4805
880.859	5102
880.986	4881
881.112	4919
881.239	4839
881.366	4668
881.493	4558
881.619	4618
881.746	4645
881.872	4660
881.999	4683
882.125	4675
882.252	4744
882.378	4793
882.505	4991
882.631	4786
882.757	4702
882.883	4763
883.01	4725
883.136	4691
883.262	4611
883.388	4645
883.514	4862
883.64	4877
883.766	4801
883.892	4759
884.018	4717
884.143	4930
884.269	5018
884.395	4771
884.52	4668
884.646	4664
884.772	4584
884.897	4554
885.023	4755
885.148	4805
885.274	4866
885.399	4847
885.524	4736
885.65	4694
885.775	4771
885.9	4774
886.025	4889
886.15	4752
886.275	4744
886.4	4698
886.525	4740
886.65	4702
886.775	4729
886.9	4927
887.025	5075
887.149	4816
887.274	4687
887.399	4603
887.523	4626
887.648	4573
887.773	4622
887.897	4740
888.021	4790
888.146	4725
888.27	4786
888.395	4900
888.519	4843
888.643	4763
888.767	4858
888.891	4717
889.015	4637
889.139	4618
889.263	4603
889.387	4790
889.511	4873
889.635	4774
889.759	4653
889.883	4668
890.006	4752
890.13	4831
890.254	4607
890.377	4698
890.501	4504
890.624	4523
890.748	4672
890.871	4577
890.995	4428
891.118	4398
891.241	4558
891.364	4546
891.488	4649
891.611	4485
891.734	4554
891.857	4687
891.98	4565
892.103	4679
892.226	4561
892.349	4569
892.471	4436
892.594	4592
892.717	4615
892.839	4618
892.962	4618
893.085	4683
893.207	4630
893.33	4466
893.452	4542
893.575	4691
893.697	4592
893.819	4812
893.941	4824
894.064	4736
894.186	4603
894.308	4596
894.43	4717
894.552	4843
894.674	4805
894.796	4538
894.918	4672
895.04	4554
895.161	4694
895.283	4672
895.405	4577
895.526	4637
895.648	4744
895.769	4771
895.891	4714
896.012	4759
896.134	4721
896.255	4691
896.376	4645
896.498	4641
896.619	4679
896.74	4622
896.861	4702
896.982	4930
897.103	5022
897.224	4828
897.345	4767
897.466	4656
897.587	4763
897.708	4915
897.828	4752
897.949	4698
898.07	4569
898.19	4599
898.311	4850
898.431	4717
898.552	4733
898.672	4828
898.792	4831
898.913	4755
899.033	4630
899.153	4542
899.273	4474
899.393	4550
899.513	4516
899.633	4569
899.753	4550
899.873	4466
899.993	4607
900.113	4554
900.232	4615
900.352	4569
900.472	4538
900.591	4436
900.711	4489
900.83	4447
900.95	4611
901.069	4668
901.189	4580
901.308	4394
901.427	4352
901.546	4413
901.665	4546
901.784	4481
901.904	4421
902.023	4318
902.141	4181
902.26	4181
902.379	4352
902.498	4272
902.617	4230
902.735	4337
902.854	4447
902.973	4394
903.091	4204
903.21	4207
903.328	4287
903.446	4265
903.565	4276
903.683	4375
903.801	4348
903.919	4413
904.038	4451
904.156	4314
904.274	4478
904.392	4421
904.51	4462
904.627	4432
904.745	4607
904.863	4596
904.981	4367
905.098	4314
905.216	4386
905.334	4466
905.451	4493
905.569	4512
905.686	4546
905.803	4527
905.921	4409
906.038	4615
906.155	4519
906.272	4390
906.389	4485
906.506	4363
906.623	4386
906.74	4386
906.857	4375
906.974	4367
907.091	4584
907.208	4706
907.324	4596
907.441	4542
907.557	4360
907.674	4383
907.79	4337
907.907	4424
908.023	4462
908.139	4523
908.256	4436
908.372	4474
908.488	4478
908.604	4356
908.72	4318
908.836	4424
908.952	4390
909.068	4417
909.184	4584
909.3	4478
909.415	4603
909.531	4580
909.647	4413
909.762	4360
909.878	4356
909.993	4447
910.108	4421
910.224	4367
910.339	4436
910.454	4409
910.57	4436
910.685	4310
910.8	4675
910.915	4630
911.03	4504
911.145	4356
911.259	4398
911.374	4375
911.489	4295
911.604	4295
911.718	4211
911.833	4188
911.947	4124
912.062	4036
912.176	4238
912.291	4310
912.405	4291
912.519	4455
912.633	4485
912.748	4409
912.862	4333
912.976	4227
913.09	4150
913.204	4173
913.318	4268
913.431	4409
913.545	4413
913.659	4428
913.772	4405
913.886	4265
914	4215
914.113	4386
914.226	4451
914.34	4383
914.453	4257
914.566	4424
914.68	4291
914.793	4337
914.906	4154
915.019	4139
915.132	4090
915.245	4253
915.358	4219
915.47	4238
915.583	4261
915.696	4306
915.809	4375
915.921	4470
916.034	4272
916.146	4246
916.259	4261
916.371	4348
916.483	4363
916.595	4276
916.708	4363
916.82	4329
916.932	4306
917.044	4375
917.156	4352
917.268	4234
917.38	4303
917.491	4276
917.603	4383
917.715	4462
917.826	4436
917.938	4371
918.049	4295
918.161	4405
918.272	4565
918.384	4504
918.495	4455
918.606	4284
918.717	4287
918.828	4386
918.939	4394
919.05	4265
919.161	4352
919.272	4154
919.383	4234
919.494	4432
919.604	4592
919.715	4474
919.826	4367
919.936	4428
920.047	4512
920.157	4519
920.267	4702
920.378	4550
920.488	4546
920.598	4740
920.708	4923
920.818	4748
920.928	4786
921.038	4896
921.148	4919
921.258	4637
921.368	4596
921.477	4546
921.587	4455
921.697	4386
921.806	4535
921.916	4474
922.025	4310
922.134	4219
922.244	4246
922.353	4329
922.462	4219
922.571	4139
922.68	4010
922.789	4013
922.898	4032
923.007	3994
923.116	4143
923.224	4055
923.333	4112
923.442	4025
923.55	3972
923.659	4059
923.767	4074
923.876	4002
923.984	4093
924.092	4051
924.201	4124
924.309	4120
924.417	4090
924.525	4086
924.633	4105
924.741	4904
924.849	3884
924.956	4169
925.064	3983
925.172	3937
925.279	3991
925.387	4067
925.494	4090
925.602	4249
925.709	4211
925.816	4002
925.924	4150
926.031	4268
926.138	4166
926.245	4192
926.352	4082
926.459	4242
926.566	4337
926.673	4192
926.779	4078
926.886	4109
926.993	3926
927.099	3922
927.206	3892
927.312	3918
927.419	4082
927.525	4044
927.631	4082
927.737	3998
927.843	3926
927.95	3861
928.056	3926
928.162	4006
928.267	4040
928.373	4725
928.479	4120
928.585	3903
928.69	4059
928.796	4109
928.901	3983
929.007	3857
929.112	4002
929.218	3964
929.323	4010
929.428	3915
929.533	4147
929.638	3892
929.743	3975
929.848	4040
929.953	4021
930.058	3968
930.163	3800
930.267	3850
930.372	3975
930.477	3816
930.581	4116
930.685	3937
930.79	3816
930.894	3907
930.998	3899
931.103	4025
931.207	3732
931.311	3720
931.415	3686
931.519	3500
931.623	3633
