Data from test_V78500241_2459.txt Node
Date: Fri Mar 25 17:06:06 CST 2022
User: usil
Spectrometer: V785-0024
Trigger mode: 0
Integration Time (sec): 4.000000E-1
Scans to average: 1
Nonlinearity correction enabled: false
Boxcar width: 0
Storing dark spectrum: false
XAxis mode: Wavelengths
Number of Pixels in Spectrum: 1024
>>>>>Begin Spectral Data<<<<<
801.071	8054
801.214	8088
801.356	7936
801.499	7856
801.641	7799
801.783	7788
801.926	8012
802.068	7970
802.211	7970
802.353	7982
802.496	7883
802.638	7917
802.78	7940
802.923	7963
803.065	7944
803.208	7849
803.35	7974
803.492	8161
803.635	8164
803.777	7986
803.919	8172
804.061	8434
804.204	8145
804.346	8088
804.488	7986
804.63	8103
804.773	8020
804.915	8191
805.057	8305
805.199	8202
805.341	8221
805.483	8275
805.626	8271
805.768	8100
805.91	8210
806.052	8176
806.194	8126
806.336	8351
806.478	8123
806.62	8062
806.762	8096
806.904	8305
807.046	8465
807.188	8324
807.33	8324
807.472	8355
807.614	8123
807.756	8138
807.898	8012
808.04	7947
808.182	7936
808.324	7871
808.465	7932
808.607	8084
808.749	8153
808.891	8252
809.033	8309
809.174	8191
809.316	8126
809.458	8100
809.6	8046
809.741	8077
809.883	7997
810.025	8088
810.166	8031
810.308	8012
810.45	7982
810.591	7826
810.733	7792
810.875	7693
811.016	7548
811.158	7529
811.299	7552
811.441	7696
811.582	7704
811.724	7540
811.865	7590
812.007	7616
812.148	7666
812.29	7677
812.431	7738
812.573	7841
812.714	8024
812.855	8065
812.997	8199
813.138	8313
813.279	8180
813.421	8027
813.562	8027
813.703	7849
813.845	7757
813.986	7422
814.127	7301
814.268	7259
814.41	7187
814.551	7145
814.692	7206
814.833	7118
814.974	7095
815.115	7171
815.256	7015
815.397	6932
815.539	6905
815.68	6791
815.821	6833
815.962	6848
816.103	6814
816.244	6707
816.385	6700
816.526	6601
816.666	6540
816.807	6327
816.948	6467
817.089	6494
817.23	6422
817.371	6445
817.512	6433
817.653	6380
817.793	6342
817.934	6350
818.075	6460
818.216	6445
818.356	6384
818.497	6213
818.638	6144
818.778	6190
818.919	6148
819.06	6205
819.2	6296
819.341	6369
819.481	6384
819.622	6528
819.762	6798
819.903	6673
820.043	6547
820.184	6616
820.324	6612
820.465	6681
820.605	6688
820.746	6684
820.886	6547
821.026	6703
821.167	6772
821.307	6894
821.447	6882
821.588	6703
821.728	6684
821.868	6528
822.008	6399
822.149	6372
822.289	6414
822.429	6178
822.569	6182
822.709	6197
822.849	5984
822.99	5954
823.13	5961
823.27	5977
823.41	5794
823.55	5824
823.69	5790
823.83	5824
823.97	5737
824.11	5562
824.25	5535
824.389	5615
824.529	5623
824.669	5653
824.809	5627
824.949	5737
825.089	5661
825.228	5627
825.368	5429
825.508	5391
825.648	5395
825.787	5395
825.927	5391
826.067	5311
826.206	5341
826.346	5391
826.485	5459
826.625	5455
826.765	5600
826.904	5501
827.044	5322
827.183	5231
827.323	5162
827.462	5299
827.601	5223
827.741	5223
827.88	5273
828.02	5197
828.159	5273
828.298	5360
828.437	5368
828.577	5288
828.716	5535
828.855	5341
828.994	5201
829.134	5204
829.273	5235
829.412	5181
829.551	5220
829.69	5185
829.829	5292
829.968	5410
830.107	5258
830.246	5337
830.385	5204
830.524	5162
830.663	5143
830.802	5067
830.941	4968
831.08	4885
831.219	4961
831.357	4987
831.496	5254
831.635	4987
831.774	4881
831.913	4862
832.051	4710
832.19	4771
832.329	4877
832.467	4729
832.606	4694
832.744	4786
832.883	4774
833.022	4778
833.16	4850
833.299	4828
833.437	4873
833.576	4896
833.714	4870
833.852	4934
833.991	4930
834.129	4999
834.267	5006
834.406	4881
834.544	4999
834.682	5048
834.821	5025
834.959	5143
835.097	5025
835.235	5159
835.373	5128
835.511	5174
835.65	5071
835.788	5064
835.926	4904
836.064	4870
836.202	4980
836.34	5250
836.478	5246
836.615	5181
836.753	5227
836.891	5292
837.029	5235
837.167	5258
837.305	5216
837.443	5220
837.58	5147
837.718	5311
837.856	5212
837.993	5204
838.131	5261
838.269	5269
838.406	5197
838.544	5227
838.681	5029
838.819	5018
838.956	4957
839.094	4930
839.231	5006
839.369	5102
839.506	5452
839.643	5311
839.781	5079
839.918	5014
840.055	5098
840.193	5128
840.33	5136
840.467	5143
840.604	5201
840.742	5417
840.879	5098
841.016	5185
841.153	5189
841.29	5429
841.427	5414
841.564	5360
841.701	5364
841.838	5322
841.975	5288
842.112	5288
842.249	5124
842.385	5140
842.522	5364
842.659	5208
842.796	5140
842.933	5197
843.069	5136
843.206	5197
843.343	5330
843.479	5292
843.616	5315
843.752	5064
843.889	5052
844.025	5261
844.162	5025
844.298	5318
844.435	5117
844.571	5083
844.708	5227
844.844	5288
844.98	5337
845.117	5246
845.253	5143
845.389	5128
845.525	5208
845.661	5220
845.798	5071
845.934	5189
846.07	5090
846.206	5242
846.342	5318
846.478	5246
846.614	5033
846.75	4995
846.886	4961
847.022	5178
847.158	5052
847.294	5102
847.429	5102
847.565	5109
847.701	5326
847.837	4877
847.972	4812
848.108	4995
848.244	4953
848.379	4812
848.515	4801
848.65	4740
848.786	4774
848.921	4797
849.057	4904
849.192	4938
849.328	4843
849.463	4881
849.598	4809
849.734	4790
849.869	4755
850.004	4649
850.14	4679
850.275	4656
850.41	4580
850.545	4599
850.68	4672
850.815	4668
850.95	4664
851.085	4873
851.22	4801
851.355	4717
851.49	4687
851.625	4691
851.76	4645
851.895	4592
852.03	4588
852.165	4656
852.299	4793
852.434	4809
852.569	4763
852.703	4805
852.838	4835
852.973	4942
853.107	4999
853.242	4782
853.376	4702
853.511	4538
853.645	4649
853.78	4847
853.914	4717
854.048	4710
854.183	4679
854.317	4725
854.451	4820
854.585	4706
854.72	4630
854.854	4805
854.988	4588
855.122	4698
855.256	4569
855.39	4698
855.524	4797
855.658	4748
855.792	4714
855.926	4721
856.06	4733
856.194	4790
856.327	4714
856.461	4664
856.595	4660
856.729	4653
856.862	4736
856.996	4706
857.13	4752
857.263	4831
857.397	4812
857.53	4698
857.664	4752
857.797	4771
857.931	4771
858.064	4714
858.197	4755
858.331	4668
858.464	4626
858.597	4565
858.731	4634
858.864	4630
858.997	4611
859.13	4714
859.263	4683
859.396	4687
859.529	4607
859.662	4618
859.795	4565
859.928	4637
860.061	4850
860.194	4782
860.327	4641
860.46	4565
860.592	4744
860.725	4767
860.858	4744
860.99	4603
861.123	4535
861.256	4558
861.388	4649
861.521	5258
861.653	4508
861.786	4478
861.918	4508
862.05	4535
862.183	4626
862.315	4630
862.447	4679
862.58	4554
862.712	4424
862.844	4337
862.976	4512
863.108	4508
863.24	4911
863.372	4390
863.504	4413
863.636	4398
863.768	4531
863.9	4508
864.032	4417
864.164	4443
864.296	4500
864.428	4558
864.559	4580
864.691	4504
864.823	4474
864.954	4516
865.086	4508
865.217	4519
865.349	4447
865.48	4504
865.612	4516
865.743	4679
865.875	4462
866.006	4417
866.137	4470
866.269	4466
866.4	4455
866.531	4474
866.662	4413
866.793	4417
866.924	4443
867.055	4538
867.186	4485
867.317	4455
867.448	4363
867.579	4455
867.71	4402
867.841	4371
867.972	4561
868.103	4512
868.233	4527
868.364	4470
868.495	4512
868.625	4702
868.756	4805
868.886	4546
869.017	4645
869.147	4759
869.278	4786
869.408	4710
869.539	4653
869.669	4687
869.799	4710
869.929	4782
870.06	4763
870.19	4953
870.32	4942
870.45	4930
870.58	5079
870.71	5109
870.84	5086
870.97	4961
871.1	4904
871.23	5170
871.36	5143
871.489	5075
871.619	5094
871.749	5102
871.879	5174
872.008	5216
872.138	5079
872.267	4987
872.397	4892
872.526	4858
872.656	4774
872.785	4805
872.915	4957
873.044	5037
873.173	4980
873.303	4968
873.432	4991
873.561	4972
873.69	4915
873.819	4862
873.948	4965
874.077	4850
874.206	4763
874.335	4839
874.464	4927
874.593	5079
874.722	4976
874.851	5147
874.979	5102
875.108	5071
875.237	4987
875.365	4949
875.494	4915
875.623	4968
875.751	4908
875.88	4904
876.008	5071
876.136	5060
876.265	5231
876.393	5349
876.521	5330
876.65	5288
876.778	5181
876.906	5056
877.034	5086
877.162	5056
877.29	5045
877.418	5117
877.546	5075
877.674	5014
877.802	5033
877.93	5143
878.058	4965
878.185	4858
878.313	4946
878.441	5033
878.568	4820
878.696	4911
878.824	4984
878.951	5056
879.079	5098
879.206	5288
879.333	5083
879.461	4972
879.588	5037
879.715	5132
879.842	5296
879.97	5022
880.097	4805
880.224	4809
880.351	4850
880.478	4843
880.605	4835
880.732	4797
880.859	5132
880.986	4885
881.112	4934
881.239	4847
881.366	4679
881.493	4660
881.619	4577
881.746	4645
881.872	4660
881.999	4675
882.125	4679
882.252	4805
882.378	4858
882.505	4972
882.631	4805
882.757	4710
882.883	4759
883.01	4748
883.136	4714
883.262	4615
883.388	4634
883.514	4831
883.64	4889
883.766	4809
883.892	4717
884.018	4793
884.143	4934
884.269	4984
884.395	4637
884.52	4637
884.646	4687
884.772	4634
884.897	4622
885.023	4679
885.148	4790
885.274	4919
885.399	4843
885.524	4736
885.65	4736
885.775	4763
885.9	4694
886.025	4892
886.15	4824
886.275	4717
886.4	4664
886.525	4702
886.65	4702
886.775	4710
886.9	4946
887.025	5071
887.149	4824
887.274	4698
887.399	4615
887.523	4618
887.648	4596
887.773	4599
887.897	4790
888.021	4774
888.146	4660
888.27	4843
888.395	4938
888.519	4782
888.643	4843
888.767	4847
888.891	4630
889.015	4607
889.139	4656
889.263	4554
889.387	4752
889.511	4915
889.635	4835
889.759	4622
889.883	4618
890.006	4717
890.13	4831
890.254	4672
890.377	4679
890.501	4565
890.624	4504
890.748	4645
890.871	4523
890.995	4462
891.118	4459
891.241	4497
891.364	4584
891.488	4675
891.611	4489
891.734	4561
891.857	4618
891.98	4519
892.103	4653
892.226	4531
892.349	4535
892.471	4424
892.594	4508
892.717	4596
892.839	4580
892.962	4592
893.085	4637
893.207	4577
893.33	4493
893.452	4535
893.575	4694
893.697	4596
893.819	4748
893.941	4839
894.064	4809
894.186	4577
894.308	4577
894.43	4774
894.552	4847
894.674	4755
894.796	4573
894.918	4618
895.04	4630
895.161	4710
895.283	4675
895.405	4592
895.526	4599
895.648	4717
895.769	4729
895.891	4733
896.012	4782
896.134	4736
896.255	4656
896.376	4607
896.498	4649
896.619	4683
896.74	4645
896.861	4618
896.982	4987
897.103	5121
897.224	4866
897.345	4755
897.466	4675
897.587	4755
897.708	4873
897.828	4790
897.949	4744
898.07	4596
898.19	4664
898.311	4862
898.431	4717
898.552	4759
898.672	4824
898.792	4828
898.913	4736
899.033	4626
899.153	4535
899.273	4455
899.393	4523
899.513	4516
899.633	4538
899.753	4542
899.873	4512
899.993	4626
900.113	4531
900.232	4580
900.352	4554
900.472	4519
900.591	4409
900.711	4512
900.83	4451
900.95	4603
901.069	4656
901.189	4535
901.308	4352
901.427	4314
901.546	4409
901.665	4428
901.784	4531
901.904	4417
902.023	4295
902.141	4158
902.26	4181
902.379	4348
902.498	4223
902.617	4280
902.735	4386
902.854	4440
902.973	4386
903.091	4211
903.21	4249
903.328	4303
903.446	4268
903.565	4246
903.683	4341
903.801	4265
903.919	4432
904.038	4432
904.156	4295
904.274	4440
904.392	4436
904.51	4455
904.627	4455
904.745	4588
904.863	4649
904.981	4386
905.098	4310
905.216	4436
905.334	4409
905.451	4386
905.569	4462
905.686	4573
905.803	4546
905.921	4428
906.038	4538
906.155	4550
906.272	4428
906.389	4493
906.506	4375
906.623	4386
906.74	4405
906.857	4280
906.974	4398
907.091	4577
907.208	4653
907.324	4554
907.441	4527
907.557	4348
907.674	4371
907.79	4356
907.907	4375
908.023	4504
908.139	4493
908.256	4405
908.372	4497
908.488	4485
908.604	4413
908.72	4383
908.836	4371
908.952	4367
909.068	4455
909.184	4615
909.3	4447
909.415	4599
909.531	4523
909.647	4367
909.762	4405
909.878	4337
909.993	4409
910.108	4386
910.224	4443
910.339	4497
910.454	4421
910.57	4356
910.685	4303
910.8	4626
910.915	4573
911.03	4550
911.145	4318
911.259	4337
911.374	4421
911.489	4306
911.604	4322
911.718	4211
911.833	4177
911.947	4105
912.062	4048
912.176	4192
912.291	4287
912.405	4207
912.519	4535
912.633	4542
912.748	4409
912.862	4318
912.976	4188
913.09	4158
913.204	4143
913.318	4234
913.431	4367
913.545	4356
913.659	4440
913.772	4375
913.886	4261
914	4246
914.113	4390
914.226	4398
914.34	4398
914.453	4253
914.566	4481
914.68	4356
914.793	4322
914.906	4204
915.019	4128
915.132	4093
915.245	4150
915.358	4230
915.47	4227
915.583	4295
915.696	4322
915.809	4436
915.921	4409
916.034	4272
916.146	4268
916.259	4230
916.371	4341
916.483	4363
916.595	4227
916.708	4325
916.82	4325
916.932	4325
917.044	4379
917.156	4329
917.268	4242
917.38	4265
917.491	4303
917.603	4352
917.715	4443
917.826	4489
917.938	4409
918.049	4223
918.161	4432
918.272	4588
918.384	4527
918.495	4447
918.606	4310
918.717	4280
918.828	4390
918.939	4375
919.05	4230
919.161	4303
919.272	4173
919.383	4276
919.494	4432
919.604	4573
919.715	4432
919.826	4341
919.936	4424
920.047	4481
920.157	4481
920.267	4714
920.378	4542
920.488	4538
920.598	4744
920.708	4927
920.818	4736
920.928	4729
921.038	4980
921.148	4896
921.258	4634
921.368	4588
921.477	4470
921.587	4493
921.697	4405
921.806	4565
921.916	4375
922.025	4223
922.134	4238
922.244	4215
922.353	4337
922.462	4150
922.571	4150
922.68	4010
922.789	3983
922.898	4048
923.007	4006
923.116	4105
923.224	4067
923.333	4074
923.442	3975
923.55	3979
923.659	4025
923.767	4051
923.876	3972
923.984	4158
924.092	4017
924.201	4120
924.309	4101
924.417	4116
924.525	4044
924.633	4105
924.741	5067
924.849	3922
924.956	4192
925.064	3949
925.172	3896
925.279	3979
925.387	4044
925.494	4074
925.602	4196
925.709	4192
925.816	4029
925.924	4139
926.031	4261
926.138	4154
926.245	4207
926.352	4086
926.459	4295
926.566	4329
926.673	4154
926.779	4105
926.886	4112
926.993	4002
927.099	3968
927.206	3983
927.312	3964
927.419	4074
927.525	4044
927.631	4067
927.737	3975
927.843	3983
927.95	3857
928.056	3983
928.162	3983
928.267	4032
928.373	4668
928.479	4109
928.585	3888
928.69	4010
928.796	4109
928.901	3960
929.007	3827
929.112	4006
929.218	3983
929.323	3926
929.428	3956
929.533	4090
929.638	3926
929.743	3968
929.848	4055
929.953	3987
930.058	3922
930.163	3755
930.267	3819
930.372	3968
930.477	3850
930.581	4109
930.685	3934
930.79	3876
930.894	3854
930.998	3873
931.103	4013
931.207	3717
931.311	3728
931.415	3675
931.519	3466
931.623	3572
