Data from test_V78500241_2420.txt Node
Date: Fri Mar 25 17:05:49 CST 2022
User: usil
Spectrometer: V785-0024
Trigger mode: 0
Integration Time (sec): 4.000000E-1
Scans to average: 1
Nonlinearity correction enabled: false
Boxcar width: 0
Storing dark spectrum: false
XAxis mode: Wavelengths
Number of Pixels in Spectrum: 1024
>>>>>Begin Spectral Data<<<<<
801.071	8020
801.214	8008
801.356	7822
801.499	7871
801.641	7746
801.783	7772
801.926	7894
802.068	7936
802.211	7936
802.353	7970
802.496	7795
802.638	7871
802.78	7932
802.923	7913
803.065	7906
803.208	7826
803.35	7951
803.492	8065
803.635	8138
803.777	7982
803.919	8073
804.061	8412
804.204	8145
804.346	8039
804.488	7913
804.63	8077
804.773	7997
804.915	8096
805.057	8290
805.199	8062
805.341	8221
805.483	8161
805.626	8282
805.768	8058
805.91	8168
806.052	8180
806.194	8084
806.336	8256
806.478	8073
806.62	8050
806.762	8142
806.904	8248
807.046	8415
807.188	8317
807.33	8252
807.472	8263
807.614	8157
807.756	8096
807.898	8084
808.04	7868
808.182	7868
808.324	7887
808.465	7928
808.607	8046
808.749	8126
808.891	8218
809.033	8263
809.174	8191
809.316	8145
809.458	8134
809.6	8020
809.741	8027
809.883	8077
810.025	8149
810.166	8005
810.308	8073
810.45	8058
810.591	7875
810.733	7746
810.875	7681
811.016	7609
811.158	7483
811.299	7609
811.441	7696
811.582	7674
811.724	7616
811.865	7575
812.007	7651
812.148	7556
812.29	7628
812.431	7792
812.573	7940
812.714	8016
812.855	8168
812.997	8271
813.138	8336
813.279	8210
813.421	8062
813.562	7993
813.703	7925
813.845	7803
813.986	7506
814.127	7324
814.268	7255
814.41	7141
814.551	7152
814.692	7206
814.833	7137
814.974	7160
815.115	7194
815.256	6981
815.397	6924
815.539	6924
815.68	6795
815.821	6840
815.962	6894
816.103	6856
816.244	6707
816.385	6612
816.526	6654
816.666	6559
816.807	6361
816.948	6479
817.089	6532
817.23	6555
817.371	6448
817.512	6433
817.653	6433
817.793	6395
817.934	6388
818.075	6448
818.216	6479
818.356	6437
818.497	6235
818.638	6194
818.778	6197
818.919	6220
819.06	6163
819.2	6414
819.341	6327
819.481	6467
819.622	6536
819.762	6791
819.903	6741
820.043	6631
820.184	6604
820.324	6623
820.465	6730
820.605	6734
820.746	6654
820.886	6540
821.026	6662
821.167	6764
821.307	6837
821.447	6818
821.588	6662
821.728	6623
821.868	6513
822.008	6403
822.149	6429
822.289	6426
822.429	6239
822.569	6091
822.709	6136
822.849	5992
822.99	5950
823.13	5920
823.27	5980
823.41	5885
823.55	5878
823.69	5779
823.83	5855
823.97	5714
824.11	5554
824.25	5539
824.389	5589
824.529	5638
824.669	5539
824.809	5611
824.949	5726
825.089	5642
825.228	5509
825.368	5406
825.508	5353
825.648	5341
825.787	5387
825.927	5398
826.067	5334
826.206	5334
826.346	5360
826.485	5429
826.625	5467
826.765	5516
826.904	5524
827.044	5250
827.183	5288
827.323	5132
827.462	5250
827.601	5242
827.741	5277
827.88	5223
828.02	5174
828.159	5239
828.298	5303
828.437	5379
828.577	5299
828.716	5516
828.855	5334
828.994	5231
829.134	5132
829.273	5151
829.412	5201
829.551	5162
829.69	5147
829.829	5261
829.968	5410
830.107	5265
830.246	5239
830.385	5155
830.524	5132
830.663	5121
830.802	4972
830.941	4873
831.08	4889
831.219	5022
831.357	4991
831.496	5151
831.635	5022
831.774	4896
831.913	4896
832.051	4725
832.19	4767
832.329	4854
832.467	4710
832.606	4702
832.744	4752
832.883	4748
833.022	4733
833.16	4839
833.299	4892
833.437	4862
833.576	4881
833.714	4854
833.852	4892
833.991	4957
834.129	5018
834.267	4953
834.406	4858
834.544	5010
834.682	5025
834.821	4957
834.959	5258
835.097	5018
835.235	5216
835.373	5124
835.511	5201
835.65	5010
835.788	5037
835.926	4961
836.064	4873
836.202	4999
836.34	5216
836.478	5239
836.615	5193
836.753	5269
836.891	5303
837.029	5261
837.167	5204
837.305	5193
837.443	5178
837.58	5124
837.718	5242
837.856	5220
837.993	5147
838.131	5246
838.269	5220
838.406	5307
838.544	5212
838.681	5075
838.819	5029
838.956	4911
839.094	4885
839.231	4991
839.369	5094
839.506	5505
839.643	5273
839.781	5079
839.918	5048
840.055	5090
840.193	5098
840.33	5178
840.467	5128
840.604	5193
840.742	5505
840.879	5151
841.016	5083
841.153	5136
841.29	5379
841.427	5368
841.564	5368
841.701	5395
841.838	5303
841.975	5189
842.112	5326
842.249	5162
842.385	5136
842.522	5353
842.659	5162
842.796	5162
842.933	5197
843.069	5166
843.206	5166
843.343	5360
843.479	5269
843.616	5231
843.752	5105
843.889	5064
844.025	5254
844.162	5003
844.298	5185
844.435	5113
844.571	5079
844.708	5208
844.844	5376
844.98	5364
845.117	5349
845.253	5178
845.389	5109
845.525	5189
845.661	5208
845.798	5052
845.934	5117
846.07	5090
846.206	5201
846.342	5288
846.478	5239
846.614	5048
846.75	4991
846.886	4957
847.022	5155
847.158	5132
847.294	5086
847.429	5079
847.565	5067
847.701	5330
847.837	4850
847.972	4828
848.108	4976
848.244	4987
848.379	4816
848.515	4755
848.65	4767
848.786	4755
848.921	4774
849.057	4900
849.192	4911
849.328	4858
849.463	4839
849.598	4828
849.734	4755
849.869	4721
850.004	4630
850.14	4664
850.275	4611
850.41	4592
850.545	4561
850.68	4588
850.815	4687
850.95	4611
851.085	4858
851.22	4740
851.355	4702
851.49	4618
851.625	4698
851.76	4698
851.895	4618
852.03	4535
852.165	4660
852.299	4729
852.434	4790
852.569	4782
852.703	4793
852.838	4915
852.973	4965
853.107	4946
853.242	4759
853.376	4649
853.511	4550
853.645	4626
853.78	4809
853.914	4668
854.048	4660
854.183	4683
854.317	4694
854.451	4900
854.585	4649
854.72	4698
854.854	4790
854.988	4660
855.122	4675
855.256	4531
855.39	4706
855.524	4793
855.658	4710
855.792	4698
855.926	4767
856.06	4736
856.194	4839
856.327	4721
856.461	4577
856.595	4660
856.729	4611
856.862	4771
856.996	4763
857.13	4740
857.263	4733
857.397	4816
857.53	4664
857.664	4763
857.797	4767
857.931	4820
858.064	4702
858.197	4744
858.331	4710
858.464	4641
858.597	4584
858.731	4706
858.864	4660
858.997	4664
859.13	4675
859.263	4687
859.396	4725
859.529	4611
859.662	4584
859.795	4561
859.928	4653
860.061	4763
860.194	4771
860.327	4607
860.46	4588
860.592	4710
860.725	4771
860.858	4721
860.99	4603
861.123	4558
861.256	4550
861.388	4618
861.521	5311
861.653	4466
861.786	4466
861.918	4519
862.05	4531
862.183	4558
862.315	4607
862.447	4630
862.58	4577
862.712	4440
862.844	4363
862.976	4485
863.108	4466
863.24	4820
863.372	4341
863.504	4402
863.636	4383
863.768	4493
863.9	4459
864.032	4398
864.164	4462
864.296	4512
864.428	4584
864.559	4588
864.691	4538
864.823	4531
864.954	4554
865.086	4550
865.217	4470
865.349	4440
865.48	4466
865.612	4497
865.743	4668
865.875	4538
866.006	4478
866.137	4462
866.269	4440
866.4	4436
866.531	4436
866.662	4413
866.793	4447
866.924	4436
867.055	4489
867.186	4451
867.317	4421
867.448	4348
867.579	4447
867.71	4451
867.841	4375
867.972	4447
868.103	4451
868.233	4481
868.364	4440
868.495	4512
868.625	4683
868.756	4774
868.886	4577
869.017	4626
869.147	4755
869.278	4774
869.408	4702
869.539	4645
869.669	4694
869.799	4668
869.929	4767
870.06	4748
870.19	4987
870.32	4889
870.45	4957
870.58	5025
870.71	5143
870.84	5098
870.97	4999
871.1	4866
871.23	5136
871.36	5166
871.489	5003
871.619	5067
871.749	5090
871.879	5178
872.008	5174
872.138	5086
872.267	4987
872.397	4835
872.526	4843
872.656	4744
872.785	4835
872.915	4991
873.044	5060
873.173	4953
873.303	4949
873.432	4934
873.561	4968
873.69	4892
873.819	4873
873.948	4930
874.077	4824
874.206	4736
874.335	4843
874.464	4968
874.593	5052
874.722	4942
874.851	5132
874.979	5064
875.108	5052
875.237	4930
875.365	4873
875.494	4919
875.623	5048
875.751	4843
875.88	4908
876.008	5029
876.136	5094
876.265	5231
876.393	5383
876.521	5311
876.65	5280
876.778	5189
876.906	5136
877.034	5064
877.162	5090
877.29	5003
877.418	5117
877.546	5048
877.674	5109
877.802	5071
877.93	5029
878.058	4965
878.185	4908
878.313	4991
878.441	5003
878.568	4812
878.696	4870
878.824	4987
878.951	5029
879.079	5189
879.206	5376
879.333	5128
879.461	5006
879.588	5025
879.715	5159
879.842	5242
879.97	5045
880.097	4858
880.224	4805
880.351	4824
880.478	4873
880.605	4828
880.732	4809
880.859	5140
880.986	4957
881.112	4980
881.239	4850
881.366	4763
881.493	4645
881.619	4592
881.746	4649
881.872	4664
881.999	4725
882.125	4740
882.252	4835
882.378	4850
882.505	4965
882.631	4858
882.757	4740
882.883	4778
883.01	4736
883.136	4717
883.262	4634
883.388	4645
883.514	4843
883.64	4908
883.766	4873
883.892	4694
884.018	4744
884.143	4908
884.269	5029
884.395	4725
884.52	4725
884.646	4691
884.772	4622
884.897	4596
885.023	4717
885.148	4873
885.274	4919
885.399	4843
885.524	4729
885.65	4755
885.775	4812
885.9	4771
886.025	4911
886.15	4812
886.275	4748
886.4	4714
886.525	4793
886.65	4710
886.775	4748
886.9	4927
887.025	5117
887.149	4793
887.274	4748
887.399	4622
887.523	4634
887.648	4596
887.773	4603
887.897	4759
888.021	4866
888.146	4702
888.27	4862
888.395	4946
888.519	4828
888.643	4850
888.767	4866
888.891	4736
889.015	4649
889.139	4687
889.263	4675
889.387	4790
889.511	4870
889.635	4782
889.759	4729
889.883	4691
890.006	4752
890.13	4812
890.254	4717
890.377	4679
890.501	4573
890.624	4531
890.748	4672
890.871	4538
890.995	4519
891.118	4417
891.241	4577
891.364	4561
891.488	4637
891.611	4569
891.734	4569
891.857	4641
891.98	4580
892.103	4668
892.226	4630
892.349	4500
892.471	4436
892.594	4554
892.717	4660
892.839	4592
892.962	4630
893.085	4687
893.207	4649
893.33	4531
893.452	4554
893.575	4672
893.697	4603
893.819	4831
893.941	4839
894.064	4820
894.186	4637
894.308	4618
894.43	4793
894.552	4858
894.674	4793
894.796	4569
894.918	4645
895.04	4626
895.161	4752
895.283	4740
895.405	4588
895.526	4702
895.648	4736
895.769	4714
895.891	4759
896.012	4733
896.134	4759
896.255	4694
896.376	4687
896.498	4687
896.619	4679
896.74	4645
896.861	4664
896.982	4965
897.103	5105
897.224	4908
897.345	4755
897.466	4675
897.587	4793
897.708	4911
897.828	4797
897.949	4733
898.07	4611
898.19	4672
898.311	4885
898.431	4748
898.552	4793
898.672	4866
898.792	4790
898.913	4744
899.033	4694
899.153	4558
899.273	4535
899.393	4527
899.513	4538
899.633	4531
899.753	4599
899.873	4516
899.993	4626
900.113	4565
900.232	4634
900.352	4554
900.472	4523
900.591	4428
900.711	4550
900.83	4443
900.95	4660
901.069	4694
901.189	4588
901.308	4443
901.427	4405
901.546	4402
901.665	4508
901.784	4546
901.904	4443
902.023	4360
902.141	4215
902.26	4177
902.379	4337
902.498	4303
902.617	4253
902.735	4436
902.854	4440
902.973	4379
903.091	4242
903.21	4287
903.328	4356
903.446	4295
903.565	4303
903.683	4348
903.801	4322
903.919	4474
904.038	4466
904.156	4333
904.274	4451
904.392	4424
904.51	4440
904.627	4512
904.745	4588
904.863	4664
904.981	4398
905.098	4383
905.216	4360
905.334	4504
905.451	4470
905.569	4481
905.686	4565
905.803	4599
905.921	4413
906.038	4535
906.155	4481
906.272	4417
906.389	4512
906.506	4394
906.623	4390
906.74	4436
906.857	4322
906.974	4398
907.091	4630
907.208	4740
907.324	4660
907.441	4550
907.557	4424
907.674	4363
907.79	4337
907.907	4421
908.023	4561
908.139	4512
908.256	4527
908.372	4527
908.488	4512
908.604	4398
908.72	4379
908.836	4417
908.952	4443
909.068	4451
909.184	4615
909.3	4542
909.415	4630
909.531	4588
909.647	4360
909.762	4371
909.878	4329
909.993	4478
910.108	4436
910.224	4447
910.339	4470
910.454	4455
910.57	4394
910.685	4398
910.8	4710
910.915	4615
911.03	4550
911.145	4348
911.259	4367
911.374	4352
911.489	4306
911.604	4383
911.718	4215
911.833	4211
911.947	4086
912.062	4059
912.176	4242
912.291	4249
912.405	4329
912.519	4424
912.633	4504
912.748	4417
912.862	4352
912.976	4219
913.09	4112
913.204	4204
913.318	4276
913.431	4405
913.545	4375
913.659	4424
913.772	4360
913.886	4253
914	4246
914.113	4421
914.226	4516
914.34	4447
914.453	4261
914.566	4428
914.68	4322
914.793	4379
914.906	4173
915.019	4147
915.132	4143
915.245	4215
915.358	4261
915.47	4253
915.583	4280
915.696	4360
915.809	4424
915.921	4489
916.034	4287
916.146	4280
916.259	4234
916.371	4394
916.483	4375
916.595	4238
916.708	4337
916.82	4344
916.932	4360
917.044	4375
917.156	4352
917.268	4280
917.38	4261
917.491	4314
917.603	4356
917.715	4409
917.826	4474
917.938	4367
918.049	4276
918.161	4417
918.272	4596
918.384	4573
918.495	4421
918.606	4303
918.717	4303
918.828	4344
918.939	4394
919.05	4314
919.161	4352
919.272	4166
919.383	4276
919.494	4523
919.604	4607
919.715	4470
919.826	4367
919.936	4390
920.047	4546
920.157	4531
920.267	4740
920.378	4596
920.488	4538
920.598	4717
920.708	4896
920.818	4767
920.928	4771
921.038	4957
921.148	4934
921.258	4679
921.368	4588
921.477	4550
921.587	4462
921.697	4424
921.806	4565
921.916	4436
922.025	4246
922.134	4295
922.244	4261
922.353	4371
922.462	4166
922.571	4188
922.68	4044
922.789	3968
922.898	4036
923.007	4029
923.116	4162
923.224	4093
923.333	4101
923.442	4010
923.55	3991
923.659	4051
923.767	4120
923.876	4002
923.984	4128
924.092	4025
924.201	4086
924.309	4116
924.417	4116
924.525	4051
924.633	4120
924.741	5048
924.849	3960
924.956	4131
925.064	3979
925.172	3941
925.279	3972
925.387	4063
925.494	4097
925.602	4242
925.709	4169
925.816	4082
925.924	4131
926.031	4246
926.138	4211
926.245	4200
926.352	4097
926.459	4253
926.566	4329
926.673	4185
926.779	4105
926.886	4093
926.993	3987
927.099	3987
927.206	3983
927.312	3987
927.419	4116
927.525	4074
927.631	4097
927.737	3972
927.843	3956
927.95	3846
928.056	3964
928.162	3979
928.267	4044
928.373	4683
928.479	4169
928.585	3899
928.69	4036
928.796	4078
928.901	3998
929.007	3835
929.112	4013
929.218	3975
929.323	3983
929.428	3956
929.533	4116
929.638	3941
929.743	3968
929.848	4040
929.953	3991
930.058	3968
930.163	3812
930.267	3831
930.372	3983
930.477	3835
930.581	4101
930.685	4032
930.79	3827
930.894	3865
930.998	3865
931.103	4048
931.207	3740
931.311	3698
931.415	3709
931.519	3561
931.623	3549
