Data from test_V78500241_1283.txt Node
Date: Fri Mar 25 16:57:55 CST 2022
User: usil
Spectrometer: V785-0024
Trigger mode: 0
Integration Time (sec): 4.000000E-1
Scans to average: 1
Nonlinearity correction enabled: false
Boxcar width: 0
Storing dark spectrum: false
XAxis mode: Wavelengths
Number of Pixels in Spectrum: 1024
>>>>>Begin Spectral Data<<<<<
801.071	7974
801.214	8012
801.356	7860
801.499	7875
801.641	7761
801.783	7792
801.926	7909
802.068	7890
802.211	7967
802.353	7951
802.496	7852
802.638	7833
802.78	7921
802.923	7906
803.065	7902
803.208	7887
803.35	7993
803.492	8123
803.635	8172
803.777	8031
803.919	8180
804.061	8469
804.204	8218
804.346	8005
804.488	7974
804.63	8111
804.773	8062
804.915	8115
805.057	8233
805.199	8111
805.341	8168
805.483	8259
805.626	8298
805.768	8107
805.91	8244
806.052	8176
806.194	8107
806.336	8218
806.478	8054
806.62	8088
806.762	8191
806.904	8309
807.046	8488
807.188	8347
807.33	8237
807.472	8328
807.614	8111
807.756	8225
807.898	8054
808.04	7947
808.182	7871
808.324	7936
808.465	7947
808.607	8096
808.749	8073
808.891	8130
809.033	8275
809.174	8134
809.316	8039
809.458	8012
809.6	8016
809.741	7982
809.883	8008
810.025	8100
810.166	8084
810.308	8111
810.45	8008
810.591	7894
810.733	7792
810.875	7693
811.016	7571
811.158	7480
811.299	7636
811.441	7616
811.582	7651
811.724	7556
811.865	7563
812.007	7609
812.148	7544
812.29	7616
812.431	7632
812.573	7868
812.714	7860
812.855	8054
812.997	8202
813.138	8332
813.279	8130
813.421	8096
813.562	8008
813.703	7841
813.845	7685
813.986	7407
814.127	7240
814.268	7274
814.41	7194
814.551	7137
814.692	7183
814.833	7027
814.974	7088
815.115	7114
815.256	6962
815.397	6867
815.539	6985
815.68	6821
815.821	6791
815.962	6856
816.103	6848
816.244	6688
816.385	6650
816.526	6654
816.666	6506
816.807	6323
816.948	6437
817.089	6460
817.23	6410
817.371	6372
817.512	6391
817.653	6304
817.793	6319
817.934	6407
818.075	6460
818.216	6407
818.356	6399
818.497	6247
818.638	6129
818.778	6049
818.919	6171
819.06	6152
819.2	6270
819.341	6334
819.481	6384
819.622	6544
819.762	6703
819.903	6692
820.043	6574
820.184	6540
820.324	6604
820.465	6703
820.605	6665
820.746	6585
820.886	6460
821.026	6677
821.167	6726
821.307	6783
821.447	6757
821.588	6582
821.728	6513
821.868	6403
822.008	6273
822.149	6376
822.289	6292
822.429	6098
822.569	6038
822.709	6136
822.849	5908
822.99	5931
823.13	5973
823.27	5923
823.41	5805
823.55	5786
823.69	5729
823.83	5775
823.97	5695
824.11	5478
824.25	5448
824.389	5520
824.529	5604
824.669	5512
824.809	5646
824.949	5646
825.089	5566
825.228	5539
825.368	5379
825.508	5296
825.648	5376
825.787	5360
825.927	5353
826.067	5303
826.206	5265
826.346	5357
826.485	5364
826.625	5444
826.765	5535
826.904	5471
827.044	5208
827.183	5204
827.323	5117
827.462	5235
827.601	5151
827.741	5208
827.88	5204
828.02	5109
828.159	5189
828.298	5318
828.437	5345
828.577	5273
828.716	5463
828.855	5288
828.994	5155
829.134	5132
829.273	5185
829.412	5140
829.551	5113
829.69	5105
829.829	5208
829.968	5360
830.107	5242
830.246	5277
830.385	5155
830.524	5128
830.663	5037
830.802	4938
830.941	4881
831.08	4854
831.219	5006
831.357	4984
831.496	5162
831.635	4889
831.774	4854
831.913	4786
832.051	4714
832.19	4736
832.329	4824
832.467	4672
832.606	4630
832.744	4771
832.883	4668
833.022	4694
833.16	4740
833.299	4820
833.437	4790
833.576	4797
833.714	4843
833.852	4870
833.991	4892
834.129	4976
834.267	4919
834.406	4934
834.544	4987
834.682	4961
834.821	4953
834.959	5178
835.097	4987
835.235	5151
835.373	5041
835.511	5132
835.65	5006
835.788	5010
835.926	4862
836.064	4896
836.202	4892
836.34	5143
836.478	5208
836.615	5170
836.753	5208
836.891	5322
837.029	5261
837.167	5170
837.305	5178
837.443	5132
837.58	5029
837.718	5220
837.856	5178
837.993	5166
838.131	5212
838.269	5208
838.406	5201
838.544	5189
838.681	4999
838.819	5014
838.956	4866
839.094	4862
839.231	4968
839.369	5056
839.506	5398
839.643	5216
839.781	5048
839.918	4972
840.055	5117
840.193	5117
840.33	5067
840.467	5174
840.604	5105
840.742	5429
840.879	5094
841.016	5071
841.153	5117
841.29	5364
841.427	5341
841.564	5280
841.701	5334
841.838	5254
841.975	5185
842.112	5277
842.249	5147
842.385	5075
842.522	5334
842.659	5162
842.796	5102
842.933	5166
843.069	5136
843.206	5151
843.343	5246
843.479	5246
843.616	5284
843.752	5010
843.889	4976
844.025	5197
844.162	5025
844.298	5216
844.435	5079
844.571	5018
844.708	5170
844.844	5318
844.98	5296
845.117	5246
845.253	5121
845.389	5025
845.525	5181
845.661	5117
845.798	5014
845.934	5102
846.07	5033
846.206	5117
846.342	5254
846.478	5235
846.614	5052
846.75	4968
846.886	4942
847.022	5113
847.158	4984
847.294	5014
847.429	5079
847.565	4999
847.701	5334
847.837	4820
847.972	4824
848.108	4911
848.244	4961
848.379	4729
848.515	4748
848.65	4679
848.786	4767
848.921	4774
849.057	4862
849.192	4873
849.328	4786
849.463	4805
849.598	4793
849.734	4740
849.869	4714
850.004	4622
850.14	4630
850.275	4588
850.41	4531
850.545	4554
850.68	4592
850.815	4596
850.95	4615
851.085	4850
851.22	4755
851.355	4664
851.49	4603
851.625	4577
851.76	4656
851.895	4546
852.03	4519
852.165	4618
852.299	4672
852.434	4793
852.569	4733
852.703	4733
852.838	4828
852.973	4942
853.107	4946
853.242	4744
853.376	4626
853.511	4569
853.645	4596
853.78	4828
853.914	4691
854.048	4630
854.183	4622
854.317	4733
854.451	4812
854.585	4691
854.72	4637
854.854	4733
854.988	4561
855.122	4618
855.256	4500
855.39	4649
855.524	4755
855.658	4710
855.792	4733
855.926	4683
856.06	4736
856.194	4809
856.327	4656
856.461	4607
856.595	4550
856.729	4599
856.862	4740
856.996	4668
857.13	4725
857.263	4725
857.397	4793
857.53	4630
857.664	4706
857.797	4801
857.931	4774
858.064	4721
858.197	4733
858.331	4634
858.464	4615
858.597	4504
858.731	4607
858.864	4664
858.997	4596
859.13	4660
859.263	4634
859.396	4675
859.529	4565
859.662	4519
859.795	4519
859.928	4599
860.061	4733
860.194	4771
860.327	4535
860.46	4493
860.592	4675
860.725	4660
860.858	4683
860.99	4588
861.123	4504
861.256	4470
861.388	4615
861.521	5159
861.653	4500
861.786	4455
861.918	4470
862.05	4508
862.183	4538
862.315	4588
862.447	4664
862.58	4546
862.712	4356
862.844	4363
862.976	4481
863.108	4485
863.24	4847
863.372	4306
863.504	4409
863.636	4424
863.768	4497
863.9	4428
864.032	4402
864.164	4367
864.296	4512
864.428	4538
864.559	4527
864.691	4538
864.823	4554
864.954	4485
865.086	4481
865.217	4485
865.349	4352
865.48	4432
865.612	4459
865.743	4649
865.875	4402
866.006	4409
866.137	4424
866.269	4428
866.4	4383
866.531	4451
866.662	4432
866.793	4398
866.924	4424
867.055	4474
867.186	4409
867.317	4386
867.448	4333
867.579	4356
867.71	4371
867.841	4363
867.972	4432
868.103	4443
868.233	4462
868.364	4447
868.495	4489
868.625	4660
868.756	4748
868.886	4561
869.017	4630
869.147	4744
869.278	4778
869.408	4637
869.539	4634
869.669	4702
869.799	4645
869.929	4782
870.06	4675
870.19	4938
870.32	4908
870.45	4957
870.58	4999
870.71	5064
870.84	5086
870.97	4889
871.1	4892
871.23	5117
871.36	5128
871.489	5037
871.619	5098
871.749	5060
871.879	5162
872.008	5147
872.138	5056
872.267	4965
872.397	4782
872.526	4812
872.656	4691
872.785	4752
872.915	4991
873.044	5010
873.173	4915
873.303	4976
873.432	4930
873.561	4942
873.69	4892
873.819	4812
873.948	4896
874.077	4809
874.206	4717
874.335	4801
874.464	4930
874.593	5018
874.722	4927
874.851	5071
874.979	5033
875.108	5029
875.237	4892
875.365	4892
875.494	4892
875.623	4961
875.751	4828
875.88	4889
876.008	5014
876.136	5003
876.265	5140
876.393	5315
876.521	5239
876.65	5246
876.778	5136
876.906	5052
877.034	5010
877.162	5037
877.29	5003
877.418	5090
877.546	4976
877.674	5052
877.802	4995
877.93	4991
878.058	4953
878.185	4839
878.313	4915
878.441	4942
878.568	4797
878.696	4881
878.824	4923
878.951	4984
879.079	5170
879.206	5288
879.333	5117
879.461	4984
879.588	4991
879.715	5094
879.842	5212
879.97	5003
880.097	4771
880.224	4771
880.351	4793
880.478	4847
880.605	4771
880.732	4797
880.859	5079
880.986	4885
881.112	4904
881.239	4744
881.366	4675
881.493	4649
881.619	4603
881.746	4626
881.872	4653
881.999	4679
882.125	4683
882.252	4767
882.378	4816
882.505	4968
882.631	4805
882.757	4691
882.883	4733
883.01	4710
883.136	4645
883.262	4584
883.388	4580
883.514	4850
883.64	4828
883.766	4778
883.892	4698
884.018	4729
884.143	4904
884.269	5029
884.395	4634
884.52	4596
884.646	4683
884.772	4527
884.897	4588
885.023	4615
885.148	4714
885.274	4812
885.399	4771
885.524	4702
885.65	4668
885.775	4710
885.9	4656
886.025	4854
886.15	4767
886.275	4717
886.4	4691
886.525	4748
886.65	4656
886.775	4637
886.9	4900
887.025	5025
887.149	4797
887.274	4645
887.399	4584
887.523	4596
887.648	4588
887.773	4622
887.897	4763
888.021	4805
888.146	4668
888.27	4790
888.395	4896
888.519	4771
888.643	4809
888.767	4801
888.891	4607
889.015	4573
889.139	4588
889.263	4599
889.387	4736
889.511	4862
889.635	4752
889.759	4645
889.883	4683
890.006	4748
890.13	4801
890.254	4546
890.377	4622
890.501	4531
890.624	4542
890.748	4649
890.871	4481
890.995	4428
891.118	4390
891.241	4481
891.364	4523
891.488	4615
891.611	4493
891.734	4523
891.857	4599
891.98	4527
892.103	4607
892.226	4622
892.349	4550
892.471	4451
892.594	4531
892.717	4603
892.839	4569
892.962	4615
893.085	4649
893.207	4584
893.33	4466
893.452	4550
893.575	4653
893.697	4584
893.819	4793
893.941	4790
894.064	4782
894.186	4577
894.308	4489
894.43	4759
894.552	4831
894.674	4755
894.796	4550
894.918	4660
895.04	4580
895.161	4656
895.283	4645
895.405	4588
895.526	4615
895.648	4691
895.769	4675
895.891	4729
896.012	4752
896.134	4733
896.255	4660
896.376	4626
896.498	4664
896.619	4664
896.74	4607
896.861	4645
896.982	4885
897.103	5071
897.224	4812
897.345	4706
897.466	4687
897.587	4675
897.708	4824
897.828	4759
897.949	4672
898.07	4554
898.19	4584
898.311	4786
898.431	4630
898.552	4744
898.672	4790
898.792	4774
898.913	4736
899.033	4580
899.153	4504
899.273	4402
899.393	4508
899.513	4512
899.633	4508
899.753	4527
899.873	4527
899.993	4580
900.113	4592
900.232	4573
900.352	4527
900.472	4459
900.591	4398
900.711	4459
900.83	4405
900.95	4588
901.069	4645
901.189	4519
901.308	4360
901.427	4363
901.546	4352
901.665	4478
901.784	4470
901.904	4386
902.023	4299
902.141	4158
902.26	4158
902.379	4295
902.498	4234
902.617	4185
902.735	4295
902.854	4348
902.973	4409
903.091	4211
903.21	4200
903.328	4299
903.446	4249
903.565	4253
903.683	4337
903.801	4272
903.919	4386
904.038	4402
904.156	4318
904.274	4413
904.392	4367
904.51	4436
904.627	4497
904.745	4542
904.863	4634
904.981	4383
905.098	4287
905.216	4337
905.334	4432
905.451	4424
905.569	4424
905.686	4561
905.803	4558
905.921	4421
906.038	4565
906.155	4432
906.272	4394
906.389	4455
906.506	4310
906.623	4333
906.74	4379
906.857	4337
906.974	4348
907.091	4485
907.208	4637
907.324	4565
907.441	4447
907.557	4318
907.674	4337
907.79	4341
907.907	4394
908.023	4481
908.139	4470
908.256	4424
908.372	4466
908.488	4402
908.604	4344
908.72	4295
908.836	4383
908.952	4386
909.068	4417
909.184	4569
909.3	4424
909.415	4596
909.531	4538
909.647	4329
909.762	4386
909.878	4337
909.993	4447
910.108	4421
910.224	4398
910.339	4478
910.454	4455
910.57	4318
910.685	4341
910.8	4649
910.915	4580
911.03	4527
911.145	4341
911.259	4337
911.374	4417
911.489	4268
911.604	4265
911.718	4192
911.833	4200
911.947	4090
912.062	4067
912.176	4265
912.291	4207
912.405	4234
912.519	4436
912.633	4489
912.748	4352
912.862	4268
912.976	4188
913.09	4158
913.204	4124
913.318	4242
913.431	4337
913.545	4367
913.659	4436
913.772	4360
913.886	4291
914	4185
914.113	4329
914.226	4375
914.34	4409
914.453	4215
914.566	4394
914.68	4280
914.793	4337
914.906	4162
915.019	4128
915.132	4063
915.245	4150
915.358	4169
915.47	4238
915.583	4265
915.696	4284
915.809	4371
915.921	4428
916.034	4230
916.146	4265
916.259	4200
916.371	4402
916.483	4383
916.595	4261
916.708	4344
916.82	4303
916.932	4314
917.044	4284
917.156	4299
917.268	4177
917.38	4249
917.491	4314
917.603	4344
917.715	4394
917.826	4451
917.938	4341
918.049	4253
918.161	4363
918.272	4523
918.384	4535
918.495	4417
918.606	4303
918.717	4204
918.828	4322
918.939	4379
919.05	4280
919.161	4314
919.272	4131
919.383	4234
919.494	4424
919.604	4645
919.715	4478
919.826	4352
919.936	4356
920.047	4497
920.157	4481
920.267	4679
920.378	4512
920.488	4432
920.598	4717
920.708	4889
920.818	4763
920.928	4763
921.038	4870
921.148	4896
921.258	4630
921.368	4558
921.477	4531
921.587	4424
921.697	4333
921.806	4538
921.916	4413
922.025	4242
922.134	4265
922.244	4253
922.353	4303
922.462	4177
922.571	4116
922.68	3991
922.789	3991
922.898	3979
923.007	3991
923.116	4067
923.224	4040
923.333	4090
923.442	3949
923.55	3956
923.659	4010
923.767	4112
923.876	3975
923.984	4071
924.092	3979
924.201	4071
924.309	4078
924.417	4112
924.525	4036
924.633	4082
924.741	5029
924.849	3983
924.956	4112
925.064	3937
925.172	3934
925.279	3956
925.387	4071
925.494	4071
925.602	4207
925.709	4147
925.816	4055
925.924	4128
926.031	4207
926.138	4154
926.245	4196
926.352	4097
926.459	4234
926.566	4287
926.673	4097
926.779	4093
926.886	4067
926.993	3934
927.099	3941
927.206	3953
927.312	3934
927.419	4044
927.525	4006
927.631	4128
927.737	3937
927.843	3930
927.95	3766
928.056	3949
928.162	3979
928.267	4036
928.373	4691
928.479	4124
928.585	3846
928.69	3991
928.796	4048
928.901	3949
929.007	3838
929.112	4025
929.218	3983
929.323	3960
929.428	3941
929.533	4067
929.638	3915
929.743	3968
929.848	4013
929.953	3987
930.058	3953
930.163	3728
930.267	3774
930.372	3956
930.477	3835
930.581	4090
930.685	3975
930.79	3838
930.894	3842
930.998	3838
931.103	4036
931.207	3720
931.311	3690
931.415	3644
931.519	3553
931.623	3561
