Data from test_V78500241_267.txt Node
Date: Fri Mar 25 16:50:51 CST 2022
User: usil
Spectrometer: V785-0024
Trigger mode: 0
Integration Time (sec): 4.000000E-1
Scans to average: 1
Nonlinearity correction enabled: false
Boxcar width: 0
Storing dark spectrum: false
XAxis mode: Wavelengths
Number of Pixels in Spectrum: 1024
>>>>>Begin Spectral Data<<<<<
801.071	8069
801.214	8138
801.356	7909
801.499	7871
801.641	7875
801.783	7887
801.926	8043
802.068	7970
802.211	7993
802.353	8027
802.496	7940
802.638	7967
802.78	8035
802.923	7982
803.065	7868
803.208	7894
803.35	8054
803.492	8046
803.635	8138
803.777	8077
803.919	8138
804.061	8492
804.204	8176
804.346	8107
804.488	7993
804.63	8149
804.773	8046
804.915	8062
805.057	8256
805.199	8176
805.341	8187
805.483	8244
805.626	8214
805.768	8142
805.91	8229
806.052	8233
806.194	8103
806.336	8313
806.478	8157
806.62	8096
806.762	8145
806.904	8298
807.046	8495
807.188	8332
807.33	8362
807.472	8286
807.614	8138
807.756	8065
807.898	8012
808.04	7845
808.182	7875
808.324	7947
808.465	7978
808.607	8153
808.749	8100
808.891	8199
809.033	8301
809.174	8301
809.316	8043
809.458	8130
809.6	8012
809.741	8058
809.883	7993
810.025	8027
810.166	8149
810.308	8016
810.45	8050
810.591	7864
810.733	7738
810.875	7708
811.016	7521
811.158	7518
811.299	7685
811.441	7780
811.582	7715
811.724	7628
811.865	7601
812.007	7590
812.148	7616
812.29	7639
812.431	7780
812.573	7951
812.714	7993
812.855	8206
812.997	8233
813.138	8290
813.279	8199
813.421	8092
813.562	8027
813.703	7913
813.845	7837
813.986	7468
814.127	7278
814.268	7274
814.41	7305
814.551	7152
814.692	7225
814.833	7095
814.974	7091
815.115	7080
815.256	6939
815.397	6939
815.539	6958
815.68	6867
815.821	6798
815.962	6894
816.103	6897
816.244	6692
816.385	6654
816.526	6684
816.666	6608
816.807	6357
816.948	6460
817.089	6502
817.23	6464
817.371	6433
817.512	6414
817.653	6353
817.793	6403
817.934	6429
818.075	6502
818.216	6429
818.356	6380
818.497	6281
818.638	6155
818.778	6144
818.919	6155
819.06	6125
819.2	6300
819.341	6346
819.481	6388
819.622	6540
819.762	6764
819.903	6711
820.043	6620
820.184	6604
820.324	6563
820.465	6696
820.605	6715
820.746	6703
820.886	6525
821.026	6669
821.167	6711
821.307	6772
821.447	6722
821.588	6711
821.728	6570
821.868	6532
822.008	6311
822.149	6388
822.289	6437
822.429	6209
822.569	6106
822.709	6129
822.849	5931
822.99	5961
823.13	5927
823.27	5923
823.41	5824
823.55	5798
823.69	5798
823.83	5786
823.97	5653
824.11	5600
824.25	5516
824.389	5551
824.529	5551
824.669	5585
824.809	5649
824.949	5680
825.089	5634
825.228	5585
825.368	5417
825.508	5429
825.648	5349
825.787	5379
825.927	5395
826.067	5277
826.206	5288
826.346	5398
826.485	5391
826.625	5421
826.765	5596
826.904	5539
827.044	5269
827.183	5201
827.323	5147
827.462	5307
827.601	5193
827.741	5185
827.88	5242
828.02	5174
828.159	5246
828.298	5311
828.437	5391
828.577	5299
828.716	5490
828.855	5353
828.994	5151
829.134	5162
829.273	5170
829.412	5170
829.551	5178
829.69	5166
829.829	5273
829.968	5395
830.107	5311
830.246	5292
830.385	5166
830.524	5189
830.663	5121
830.802	5037
830.941	4961
831.08	4889
831.219	4999
831.357	4980
831.496	5204
831.635	4911
831.774	4843
831.913	4873
832.051	4793
832.19	4721
832.329	4816
832.467	4706
832.606	4672
832.744	4774
832.883	4786
833.022	4744
833.16	4850
833.299	4854
833.437	4812
833.576	4873
833.714	4873
833.852	4862
833.991	4919
834.129	4987
834.267	4968
834.406	4923
834.544	4976
834.682	4980
834.821	4957
834.959	5181
835.097	4965
835.235	5181
835.373	5052
835.511	5098
835.65	5083
835.788	5029
835.926	4911
836.064	4843
836.202	4980
836.34	5197
836.478	5231
836.615	5178
836.753	5223
836.891	5280
837.029	5185
837.167	5242
837.305	5193
837.443	5159
837.58	5109
837.718	5223
837.856	5212
837.993	5155
838.131	5212
838.269	5212
838.406	5261
838.544	5174
838.681	5045
838.819	5041
838.956	4946
839.094	4923
839.231	4976
839.369	5121
839.506	5482
839.643	5273
839.781	5079
839.918	5037
840.055	5090
840.193	5067
840.33	5155
840.467	5151
840.604	5197
840.742	5448
840.879	5071
841.016	5098
841.153	5162
841.29	5391
841.427	5410
841.564	5330
841.701	5372
841.838	5334
841.975	5231
842.112	5231
842.249	5197
842.385	5124
842.522	5345
842.659	5181
842.796	5201
842.933	5246
843.069	5185
843.206	5140
843.343	5326
843.479	5273
843.616	5284
843.752	5048
843.889	5022
844.025	5189
844.162	4995
844.298	5162
844.435	5090
844.571	5025
844.708	5231
844.844	5307
844.98	5322
845.117	5357
845.253	5124
845.389	5083
845.525	5193
845.661	5174
845.798	5064
845.934	5124
846.07	5071
846.206	5220
846.342	5284
846.478	5181
846.614	4995
846.75	4980
846.886	4995
847.022	5162
847.158	5094
847.294	5098
847.429	5083
847.565	5071
847.701	5318
847.837	4839
847.972	4843
848.108	5018
848.244	4923
848.379	4744
848.515	4733
848.65	4691
848.786	4710
848.921	4816
849.057	4866
849.192	4953
849.328	4854
849.463	4942
849.598	4805
849.734	4786
849.869	4710
850.004	4668
850.14	4698
850.275	4546
850.41	4588
850.545	4596
850.68	4603
850.815	4634
850.95	4664
851.085	4843
851.22	4774
851.355	4733
851.49	4687
851.625	4618
851.76	4645
851.895	4584
852.03	4542
852.165	4637
852.299	4736
852.434	4850
852.569	4805
852.703	4786
852.838	4831
852.973	4938
853.107	4942
853.242	4725
853.376	4721
853.511	4561
853.645	4637
853.78	4797
853.914	4675
854.048	4637
854.183	4615
854.317	4710
854.451	4862
854.585	4679
854.72	4668
854.854	4725
854.988	4622
855.122	4622
855.256	4550
855.39	4656
855.524	4786
855.658	4717
855.792	4672
855.926	4793
856.06	4767
856.194	4862
856.327	4744
856.461	4588
856.595	4641
856.729	4675
856.862	4759
856.996	4691
857.13	4717
857.263	4774
857.397	4816
857.53	4668
857.664	4755
857.797	4774
857.931	4790
858.064	4721
858.197	4763
858.331	4653
858.464	4702
858.597	4546
858.731	4618
858.864	4664
858.997	4615
859.13	4702
859.263	4679
859.396	4702
859.529	4626
859.662	4596
859.795	4500
859.928	4618
860.061	4793
860.194	4763
860.327	4714
860.46	4546
860.592	4717
860.725	4740
860.858	4725
860.99	4588
861.123	4512
861.256	4584
861.388	4615
861.521	5512
861.653	4474
861.786	4474
861.918	4489
862.05	4550
862.183	4523
862.315	4599
862.447	4668
862.58	4554
862.712	4455
862.844	4310
862.976	4493
863.108	4489
863.24	4892
863.372	4348
863.504	4459
863.636	4398
863.768	4455
863.9	4474
864.032	4379
864.164	4443
864.296	4493
864.428	4592
864.559	4554
864.691	4531
864.823	4493
864.954	4516
865.086	4493
865.217	4478
865.349	4428
865.48	4485
865.612	4523
865.743	4622
865.875	4516
866.006	4424
866.137	4436
866.269	4447
866.4	4424
866.531	4462
866.662	4390
866.793	4383
866.924	4417
867.055	4500
867.186	4455
867.317	4428
867.448	4386
867.579	4394
867.71	4413
867.841	4360
867.972	4436
868.103	4424
868.233	4455
868.364	4432
868.495	4474
868.625	4668
868.756	4801
868.886	4569
869.017	4641
869.147	4755
869.278	4790
869.408	4649
869.539	4611
869.669	4694
869.799	4675
869.929	4717
870.06	4748
870.19	5006
870.32	4938
870.45	4923
870.58	5025
870.71	5090
870.84	5075
870.97	4934
871.1	4896
871.23	5128
871.36	5117
871.489	4972
871.619	5056
871.749	5098
871.879	5121
872.008	5143
872.138	5086
872.267	5018
872.397	4850
872.526	4820
872.656	4748
872.785	4831
872.915	4942
873.044	5102
873.173	4949
873.303	4991
873.432	4957
873.561	5010
873.69	4870
873.819	4877
873.948	4908
874.077	4850
874.206	4801
874.335	4793
874.464	4892
874.593	5014
874.722	4961
874.851	5121
874.979	5052
875.108	5113
875.237	4870
875.365	4900
875.494	4854
875.623	4987
875.751	4809
875.88	4923
876.008	4980
876.136	5003
876.265	5223
876.393	5315
876.521	5250
876.65	5197
876.778	5212
876.906	5090
877.034	5022
877.162	5048
877.29	4984
877.418	5102
877.546	5033
877.674	5048
877.802	5067
877.93	5048
878.058	4930
878.185	4892
878.313	4957
878.441	4953
878.568	4774
878.696	4850
878.824	4991
878.951	5010
879.079	5136
879.206	5299
879.333	5075
879.461	4987
879.588	5037
879.715	5086
879.842	5269
879.97	5029
880.097	4835
880.224	4763
880.351	4793
880.478	4900
880.605	4812
880.732	4843
880.859	5056
880.986	4938
881.112	4938
881.239	4763
881.366	4645
881.493	4584
881.619	4611
881.746	4599
881.872	4645
881.999	4672
882.125	4725
882.252	4790
882.378	4847
882.505	4953
882.631	4835
882.757	4664
882.883	4736
883.01	4755
883.136	4691
883.262	4599
883.388	4637
883.514	4858
883.64	4843
883.766	4809
883.892	4675
884.018	4729
884.143	4908
884.269	5022
884.395	4653
884.52	4691
884.646	4672
884.772	4596
884.897	4558
885.023	4660
885.148	4793
885.274	4843
885.399	4774
885.524	4656
885.65	4725
885.775	4778
885.9	4782
886.025	4896
886.15	4801
886.275	4714
886.4	4706
886.525	4740
886.65	4710
886.775	4645
886.9	4885
887.025	4980
887.149	4793
887.274	4672
887.399	4615
887.523	4637
887.648	4569
887.773	4592
887.897	4778
888.021	4786
888.146	4694
888.27	4793
888.395	4927
888.519	4873
888.643	4820
888.767	4824
888.891	4687
889.015	4653
889.139	4672
889.263	4634
889.387	4763
889.511	4858
889.635	4828
889.759	4649
889.883	4706
890.006	4763
890.13	4797
890.254	4656
890.377	4645
890.501	4516
890.624	4565
890.748	4645
890.871	4527
890.995	4481
891.118	4379
891.241	4478
891.364	4554
891.488	4607
891.611	4497
891.734	4565
891.857	4577
891.98	4558
892.103	4664
892.226	4580
892.349	4538
892.471	4363
892.594	4569
892.717	4599
892.839	4599
892.962	4607
893.085	4694
893.207	4622
893.33	4436
893.452	4519
893.575	4710
893.697	4596
893.819	4793
893.941	4850
894.064	4831
894.186	4565
894.308	4535
894.43	4679
894.552	4847
894.674	4782
894.796	4569
894.918	4592
895.04	4573
895.161	4736
895.283	4615
895.405	4618
895.526	4645
895.648	4683
895.769	4706
895.891	4702
896.012	4721
896.134	4721
896.255	4660
896.376	4672
896.498	4634
896.619	4706
896.74	4641
896.861	4630
896.982	4904
897.103	5147
897.224	4843
897.345	4774
897.466	4691
897.587	4752
897.708	4858
897.828	4767
897.949	4675
898.07	4565
898.19	4603
898.311	4854
898.431	4675
898.552	4759
898.672	4820
898.792	4839
898.913	4706
899.033	4664
899.153	4519
899.273	4436
899.393	4493
899.513	4573
899.633	4698
899.753	4497
899.873	4531
899.993	5383
900.113	4592
900.232	4596
900.352	4569
900.472	4478
900.591	4474
900.711	4527
900.83	4436
900.95	4596
901.069	4672
901.189	4550
901.308	4402
901.427	4325
901.546	4405
901.665	4440
901.784	4554
901.904	4356
902.023	4322
902.141	4158
902.26	4158
902.379	4337
902.498	4215
902.617	4230
902.735	4394
902.854	4485
902.973	4371
903.091	4238
903.21	4234
903.328	4295
903.446	4265
903.565	4257
903.683	4363
903.801	4310
903.919	4386
904.038	4462
904.156	4287
904.274	4459
904.392	4440
904.51	4443
904.627	4478
904.745	4573
904.863	4645
904.981	4405
905.098	4371
905.216	4402
905.334	4398
905.451	4436
905.569	4462
905.686	4516
905.803	4577
905.921	4363
906.038	4573
906.155	4504
906.272	4394
906.389	4447
906.506	4348
906.623	4379
906.74	4424
906.857	4333
906.974	4333
907.091	4561
907.208	4641
907.324	4577
907.441	4466
907.557	4352
907.674	4367
907.79	4306
907.907	4363
908.023	4459
908.139	4474
908.256	4436
908.372	4481
908.488	4497
908.604	4348
908.72	4322
908.836	4394
908.952	4333
909.068	4440
909.184	4554
909.3	4497
909.415	4599
909.531	4550
909.647	4394
909.762	4348
909.878	4375
909.993	4405
910.108	4413
910.224	4428
910.339	4478
910.454	4451
910.57	4409
910.685	4363
910.8	4626
910.915	4641
911.03	4489
911.145	4341
911.259	4268
911.374	4379
911.489	4344
911.604	4280
911.718	4166
911.833	4219
911.947	4093
912.062	4044
912.176	4219
912.291	4223
912.405	4204
912.519	4455
912.633	4489
912.748	4402
912.862	4268
912.976	4200
913.09	4112
913.204	4204
913.318	4272
913.431	4402
913.545	4398
913.659	4394
913.772	4322
913.886	4291
914	4234
914.113	4375
914.226	4398
914.34	4371
914.453	4276
914.566	4455
914.68	4280
914.793	4367
914.906	4128
915.019	4101
915.132	4105
915.245	4158
915.358	4257
915.47	4295
915.583	4287
915.696	4348
915.809	4421
915.921	4428
916.034	4268
916.146	4204
916.259	4234
916.371	4341
916.483	4356
916.595	4314
916.708	4322
916.82	4363
916.932	4333
917.044	4337
917.156	4325
917.268	4249
917.38	4268
917.491	4261
917.603	4386
917.715	4462
917.826	4459
917.938	4310
918.049	4238
918.161	4428
918.272	4546
918.384	4569
918.495	4409
918.606	4303
918.717	4249
918.828	4333
918.939	4383
919.05	4265
919.161	4363
919.272	4109
919.383	4219
919.494	4474
919.604	4603
919.715	4428
919.826	4348
919.936	4405
920.047	4512
920.157	4500
920.267	4714
920.378	4489
920.488	4531
920.598	4717
920.708	4892
920.818	4763
920.928	4782
921.038	4953
921.148	4942
921.258	4618
921.368	4565
921.477	4493
921.587	4485
921.697	4398
921.806	4580
921.916	4402
922.025	4295
922.134	4291
922.244	4234
922.353	4341
922.462	4192
922.571	4112
922.68	4025
922.789	3964
922.898	4032
923.007	4021
923.116	4071
923.224	4078
923.333	4029
923.442	4010
923.55	4006
923.659	4010
923.767	4135
923.876	3998
923.984	4166
924.092	3994
924.201	4055
924.309	4124
924.417	4135
924.525	4086
924.633	4105
924.741	5086
924.849	3888
924.956	4143
925.064	3949
925.172	3869
925.279	3941
925.387	4051
925.494	4074
925.602	4276
925.709	4166
925.816	4048
925.924	4128
926.031	4249
926.138	4181
926.245	4219
926.352	4109
926.459	4284
926.566	4287
926.673	4181
926.779	4067
926.886	4090
926.993	3983
927.099	3934
927.206	3934
927.312	3907
927.419	4055
927.525	4006
927.631	4074
927.737	3968
927.843	3983
927.95	3880
928.056	3937
928.162	3991
928.267	4059
928.373	4710
928.479	4078
928.585	3869
928.69	4021
928.796	4055
928.901	3979
929.007	3838
929.112	3998
929.218	3960
929.323	3915
929.428	3918
929.533	4143
929.638	3896
929.743	3998
929.848	4051
929.953	3953
930.058	3960
930.163	3793
930.267	3842
930.372	3964
930.477	3781
930.581	4109
930.685	3937
930.79	3842
930.894	3884
930.998	3842
931.103	4044
931.207	3705
931.311	3717
931.415	3690
931.519	3526
931.623	3564
