Data from test_V78500241_1163.txt Node
Date: Fri Mar 25 16:57:05 CST 2022
User: usil
Spectrometer: V785-0024
Trigger mode: 0
Integration Time (sec): 4.000000E-1
Scans to average: 1
Nonlinearity correction enabled: false
Boxcar width: 0
Storing dark spectrum: false
XAxis mode: Wavelengths
Number of Pixels in Spectrum: 1024
>>>>>Begin Spectral Data<<<<<
801.071	7974
801.214	8058
801.356	7856
801.499	7826
801.641	7731
801.783	7871
801.926	7921
802.068	7940
802.211	7989
802.353	7974
802.496	7811
802.638	7776
802.78	7860
802.923	7921
803.065	7913
803.208	7856
803.35	7986
803.492	8062
803.635	8134
803.777	8126
803.919	8096
804.061	8469
804.204	8157
804.346	8081
804.488	7951
804.63	8130
804.773	8001
804.915	8130
805.057	8294
805.199	8164
805.341	8206
805.483	8240
805.626	8164
805.768	8157
805.91	8142
806.052	8145
806.194	8084
806.336	8191
806.478	8084
806.62	8111
806.762	8107
806.904	8317
807.046	8408
807.188	8290
807.33	8271
807.472	8282
807.614	8096
807.756	8130
807.898	8008
808.04	7871
808.182	7860
808.324	7928
808.465	7856
808.607	8100
808.749	8119
808.891	8130
809.033	8218
809.174	8187
809.316	8016
809.458	8027
809.6	7982
809.741	8065
809.883	7970
810.025	8024
810.166	8039
810.308	8035
810.45	7978
810.591	7909
810.733	7704
810.875	7655
811.016	7514
811.158	7525
811.299	7620
811.441	7696
811.582	7738
811.724	7567
811.865	7506
812.007	7518
812.148	7582
812.29	7636
812.431	7769
812.573	7913
812.714	7970
812.855	8111
812.997	8233
813.138	8259
813.279	8191
813.421	8096
813.562	7997
813.703	7868
813.845	7715
813.986	7445
814.127	7228
814.268	7183
814.41	7183
814.551	7164
814.692	7164
814.833	7031
814.974	7107
815.115	7110
815.256	6993
815.397	6901
815.539	6928
815.68	6840
815.821	6768
815.962	6882
816.103	6810
816.244	6692
816.385	6616
816.526	6620
816.666	6460
816.807	6296
816.948	6407
817.089	6467
817.23	6433
817.371	6353
817.512	6395
817.653	6357
817.793	6342
817.934	6410
818.075	6464
818.216	6452
818.356	6315
818.497	6266
818.638	6079
818.778	6152
818.919	6102
819.06	6144
819.2	6365
819.341	6273
819.481	6365
819.622	6471
819.762	6711
819.903	6749
820.043	6563
820.184	6574
820.324	6551
820.465	6650
820.605	6639
820.746	6642
820.886	6483
821.026	6703
821.167	6707
821.307	6806
821.447	6764
821.588	6654
821.728	6506
821.868	6426
822.008	6338
822.149	6361
822.289	6285
822.429	6110
822.569	6034
822.709	6121
822.849	5882
822.99	5874
823.13	5882
823.27	5942
823.41	5786
823.55	5737
823.69	5745
823.83	5764
823.97	5676
824.11	5570
824.25	5516
824.389	5589
824.529	5539
824.669	5539
824.809	5634
824.949	5665
825.089	5577
825.228	5543
825.368	5360
825.508	5368
825.648	5311
825.787	5357
825.927	5330
826.067	5292
826.206	5326
826.346	5383
826.485	5341
826.625	5395
826.765	5547
826.904	5455
827.044	5246
827.183	5185
827.323	5079
827.462	5258
827.601	5181
827.741	5162
827.88	5166
828.02	5132
828.159	5216
828.298	5284
828.437	5364
828.577	5235
828.716	5520
828.855	5269
828.994	5170
829.134	5124
829.273	5223
829.412	5181
829.551	5121
829.69	5166
829.829	5269
829.968	5387
830.107	5242
830.246	5277
830.385	5147
830.524	5109
830.663	5010
830.802	4968
830.941	4854
831.08	4854
831.219	4930
831.357	4930
831.496	5136
831.635	4881
831.774	4828
831.913	4862
832.051	4710
832.19	4733
832.329	4877
832.467	4672
832.606	4626
832.744	4774
832.883	4691
833.022	4691
833.16	4778
833.299	4755
833.437	4774
833.576	4774
833.714	4831
833.852	4862
833.991	4839
834.129	4930
834.267	4923
834.406	4938
834.544	4961
834.682	4984
834.821	4927
834.959	5170
835.097	5003
835.235	5140
835.373	5079
835.511	5132
835.65	4968
835.788	4991
835.926	4892
836.064	4870
836.202	4889
836.34	5121
836.478	5204
836.615	5113
836.753	5159
836.891	5208
837.029	5201
837.167	5197
837.305	5098
837.443	5086
837.58	5018
837.718	5231
837.856	5143
837.993	5155
838.131	5212
838.269	5208
838.406	5193
838.544	5193
838.681	5014
838.819	5029
838.956	4881
839.094	4858
839.231	4949
839.369	5052
839.506	5421
839.643	5185
839.781	5067
839.918	5052
840.055	5071
840.193	5071
840.33	5086
840.467	5083
840.604	5223
840.742	5417
840.879	5025
841.016	5071
841.153	5140
841.29	5307
841.427	5311
841.564	5326
841.701	5406
841.838	5254
841.975	5201
842.112	5223
842.249	5128
842.385	5105
842.522	5326
842.659	5174
842.796	5079
842.933	5181
843.069	5121
843.206	5071
843.343	5315
843.479	5223
843.616	5189
843.752	5022
843.889	5006
844.025	5208
844.162	5052
844.298	5231
844.435	5113
844.571	5006
844.708	5204
844.844	5292
844.98	5334
845.117	5284
845.253	5117
845.389	5022
845.525	5189
845.661	5098
845.798	5033
845.934	5052
846.07	5079
846.206	5193
846.342	5288
846.478	5155
846.614	5025
846.75	4972
846.886	4904
847.022	5136
847.158	5056
847.294	5052
847.429	5102
847.565	4991
847.701	5292
847.837	4835
847.972	4828
848.108	4961
848.244	4889
848.379	4820
848.515	4729
848.65	4733
848.786	4744
848.921	4767
849.057	4908
849.192	4850
849.328	4820
849.463	4767
849.598	4790
849.734	4717
849.869	4679
850.004	4607
850.14	4679
850.275	4607
850.41	4504
850.545	4535
850.68	4599
850.815	4653
850.95	4577
851.085	4831
851.22	4714
851.355	4668
851.49	4580
851.625	4603
851.76	4630
851.895	4535
852.03	4550
852.165	4611
852.299	4691
852.434	4782
852.569	4717
852.703	4774
852.838	4801
852.973	4892
853.107	4919
853.242	4691
853.376	4656
853.511	4565
853.645	4611
853.78	4801
853.914	4622
854.048	4641
854.183	4630
854.317	4698
854.451	4828
854.585	4691
854.72	4630
854.854	4733
854.988	4592
855.122	4584
855.256	4516
855.39	4664
855.524	4736
855.658	4698
855.792	4706
855.926	4733
856.06	4725
856.194	4801
856.327	4714
856.461	4607
856.595	4618
856.729	4637
856.862	4733
856.996	4664
857.13	4767
857.263	4725
857.397	4820
857.53	4637
857.664	4748
857.797	4733
857.931	4771
858.064	4660
858.197	4729
858.331	4630
858.464	4596
858.597	4497
858.731	4649
858.864	4584
858.997	4561
859.13	4637
859.263	4675
859.396	4687
859.529	4599
859.662	4565
859.795	4523
859.928	4569
860.061	4691
860.194	4774
860.327	4649
860.46	4596
860.592	4702
860.725	4740
860.858	4748
860.99	4535
861.123	4535
861.256	4474
861.388	4565
861.521	5212
861.653	4451
861.786	4459
861.918	4451
862.05	4497
862.183	4508
862.315	4611
862.447	4558
862.58	4542
862.712	4398
862.844	4299
862.976	4417
863.108	4436
863.24	4900
863.372	4348
863.504	4383
863.636	4390
863.768	4516
863.9	4386
864.032	4363
864.164	4436
864.296	4417
864.428	4504
864.559	4554
864.691	4573
864.823	4497
864.954	4478
865.086	4497
865.217	4455
865.349	4405
865.48	4417
865.612	4466
865.743	4592
865.875	4497
866.006	4424
866.137	4474
866.269	4466
866.4	4436
866.531	4375
866.662	4337
866.793	4375
866.924	4375
867.055	4440
867.186	4485
867.317	4424
867.448	4375
867.579	4352
867.71	4383
867.841	4398
867.972	4462
868.103	4428
868.233	4432
868.364	4447
868.495	4459
868.625	4634
868.756	4714
868.886	4577
869.017	4611
869.147	4763
869.278	4793
869.408	4668
869.539	4611
869.669	4740
869.799	4634
869.929	4740
870.06	4694
870.19	4965
870.32	4896
870.45	4908
870.58	4980
870.71	5086
870.84	5102
870.97	4968
871.1	4870
871.23	5109
871.36	5079
871.489	5006
871.619	5060
871.749	5090
871.879	5132
872.008	5178
872.138	5006
872.267	4980
872.397	4839
872.526	4835
872.656	4706
872.785	4793
872.915	4908
873.044	5071
873.173	4911
873.303	4923
873.432	4949
873.561	4904
873.69	4873
873.819	4896
873.948	4915
874.077	4809
874.206	4774
874.335	4793
874.464	4915
874.593	5033
874.722	4942
874.851	5113
874.979	5029
875.108	5033
875.237	4904
875.365	4877
875.494	4896
875.623	4919
875.751	4786
875.88	4854
876.008	4968
876.136	5022
876.265	5185
876.393	5322
876.521	5223
876.65	5201
876.778	5117
876.906	5041
877.034	4942
877.162	5052
877.29	4957
877.418	5029
877.546	5041
877.674	4980
877.802	5083
877.93	5006
878.058	4896
878.185	4839
878.313	4904
878.441	4923
878.568	4759
878.696	4847
878.824	4984
878.951	4968
879.079	5083
879.206	5265
879.333	5102
879.461	4968
879.588	4976
879.715	5071
879.842	5231
879.97	5048
880.097	4782
880.224	4786
880.351	4809
880.478	4801
880.605	4816
880.732	4752
880.859	5060
880.986	4915
881.112	4881
881.239	4710
881.366	4691
881.493	4596
881.619	4607
881.746	4618
881.872	4634
881.999	4641
882.125	4691
882.252	4790
882.378	4786
882.505	4930
882.631	4801
882.757	4607
882.883	4725
883.01	4717
883.136	4649
883.262	4584
883.388	4584
883.514	4831
883.64	4820
883.766	4786
883.892	4675
884.018	4664
884.143	4881
884.269	5010
884.395	4634
884.52	4542
884.646	4607
884.772	4618
884.897	4527
885.023	4637
885.148	4793
885.274	4850
885.399	4782
885.524	4694
885.65	4691
885.775	4717
885.9	4710
886.025	4850
886.15	4786
886.275	4714
886.4	4622
886.525	4710
886.65	4656
886.775	4702
886.9	4873
887.025	4976
887.149	4805
887.274	4645
887.399	4554
887.523	4538
887.648	4561
887.773	4558
887.897	4721
888.021	4778
888.146	4672
888.27	4835
888.395	4835
888.519	4752
888.643	4805
888.767	4835
888.891	4691
889.015	4618
889.139	4630
889.263	4565
889.387	4771
889.511	4854
889.635	4774
889.759	4611
889.883	4653
890.006	4748
890.13	4862
890.254	4668
890.377	4672
890.501	4538
890.624	4493
890.748	4618
890.871	4485
890.995	4432
891.118	4367
891.241	4474
891.364	4550
891.488	4622
891.611	4481
891.734	4531
891.857	4554
891.98	4527
892.103	4626
892.226	4542
892.349	4489
892.471	4440
892.594	4580
892.717	4516
892.839	4531
892.962	4554
893.085	4622
893.207	4546
893.33	4447
893.452	4493
893.575	4645
893.697	4500
893.819	4763
893.941	4843
894.064	4763
894.186	4592
894.308	4546
894.43	4725
894.552	4816
894.674	4729
894.796	4504
894.918	4603
895.04	4607
895.161	4653
895.283	4641
895.405	4497
895.526	4603
895.648	4725
895.769	4668
895.891	4679
896.012	4733
896.134	4714
896.255	4626
896.376	4561
896.498	4588
896.619	4672
896.74	4615
896.861	4622
896.982	4877
897.103	5010
897.224	4831
897.345	4767
897.466	4675
897.587	4721
897.708	4820
897.828	4736
897.949	4603
898.07	4561
898.19	4637
898.311	4790
898.431	4668
898.552	4748
898.672	4831
898.792	4782
898.913	4721
899.033	4580
899.153	4485
899.273	4402
899.393	4470
899.513	4554
899.633	4512
899.753	4519
899.873	4474
899.993	4542
900.113	4538
900.232	4588
900.352	4519
900.472	4504
900.591	4356
900.711	4451
900.83	4413
900.95	4588
901.069	4653
901.189	4527
901.308	4333
901.427	4318
901.546	4363
901.665	4432
901.784	4542
901.904	4405
902.023	4329
902.141	4200
902.26	4169
902.379	4322
902.498	4230
902.617	4268
902.735	4409
902.854	4386
902.973	4348
903.091	4242
903.21	4242
903.328	4314
903.446	4238
903.565	4246
903.683	4325
903.801	4249
903.919	4436
904.038	4497
904.156	4310
904.274	4474
904.392	4421
904.51	4436
904.627	4497
904.745	4626
904.863	4687
904.981	4428
905.098	4363
905.216	4383
905.334	4451
905.451	4459
905.569	4428
905.686	4573
905.803	4573
905.921	4421
906.038	4573
906.155	4497
906.272	4424
906.389	4440
906.506	4379
906.623	4432
906.74	4421
906.857	4325
906.974	4428
907.091	4554
907.208	4725
907.324	4626
907.441	4535
907.557	4413
907.674	4363
907.79	4371
907.907	4398
908.023	4504
908.139	4478
908.256	4462
908.372	4481
908.488	4508
908.604	4390
908.72	4295
908.836	4417
908.952	4398
909.068	4443
909.184	4596
909.3	4527
909.415	4649
909.531	4573
909.647	4390
909.762	4451
909.878	4375
909.993	4504
910.108	4466
910.224	4405
910.339	4546
910.454	4443
910.57	4394
910.685	4367
910.8	4672
910.915	4679
911.03	4527
911.145	4390
911.259	4386
911.374	4421
911.489	4325
911.604	4322
911.718	4188
911.833	4246
911.947	4105
912.062	4090
912.176	4265
912.291	4280
912.405	4234
912.519	4440
912.633	4538
912.748	4402
912.862	4348
912.976	4234
913.09	4143
913.204	4211
913.318	4325
913.431	4356
913.545	4409
913.659	4466
913.772	4398
913.886	4299
914	4291
914.113	4440
914.226	4432
914.34	4417
914.453	4257
914.566	4432
914.68	4363
914.793	4329
914.906	4181
915.019	4128
915.132	4131
915.245	4227
915.358	4234
915.47	4257
915.583	4295
915.696	4333
915.809	4428
915.921	4432
916.034	4257
916.146	4287
916.259	4265
916.371	4405
916.483	4367
916.595	4322
916.708	4337
916.82	4383
916.932	4356
917.044	4322
917.156	4291
917.268	4261
917.38	4337
917.491	4329
917.603	4383
917.715	4462
917.826	4459
917.938	4333
918.049	4253
918.161	4428
918.272	4538
918.384	4546
918.495	4466
918.606	4299
918.717	4280
918.828	4352
918.939	4413
919.05	4322
919.161	4341
919.272	4150
919.383	4230
919.494	4428
919.604	4653
919.715	4459
919.826	4360
919.936	4432
920.047	4542
920.157	4489
920.267	4706
920.378	4588
920.488	4531
920.598	4759
920.708	4946
920.818	4752
920.928	4793
921.038	4896
921.148	4942
921.258	4679
921.368	4607
921.477	4558
921.587	4455
921.697	4386
921.806	4565
921.916	4424
922.025	4257
922.134	4325
922.244	4253
922.353	4333
922.462	4207
922.571	4131
922.68	4063
922.789	4010
922.898	4048
923.007	4017
923.116	4147
923.224	4101
923.333	4097
923.442	4029
923.55	4063
923.659	4048
923.767	4109
923.876	4025
923.984	4177
924.092	3983
924.201	4082
924.309	4135
924.417	4181
924.525	4109
924.633	4166
924.741	5098
924.849	3960
924.956	4188
925.064	3998
925.172	3934
925.279	3941
925.387	4082
925.494	4067
925.602	4204
925.709	4234
925.816	4086
925.924	4112
926.031	4246
926.138	4219
926.245	4280
926.352	4158
926.459	4284
926.566	4360
926.673	4177
926.779	4097
926.886	4120
926.993	3994
927.099	3964
927.206	3956
927.312	3949
927.419	4055
927.525	4059
927.631	4147
927.737	3964
927.843	3964
927.95	3873
928.056	3968
928.162	4021
928.267	4078
928.373	4710
928.479	4139
928.585	3880
928.69	4051
928.796	4093
928.901	3991
929.007	3884
929.112	4063
929.218	4036
929.323	4021
929.428	3964
929.533	4124
929.638	3945
929.743	4055
929.848	4067
929.953	4025
930.058	3945
930.163	3819
930.267	3857
930.372	3972
930.477	3797
930.581	4048
930.685	3964
930.79	3857
930.894	3888
930.998	3876
931.103	4051
931.207	3747
931.311	3663
931.415	3679
931.519	3542
931.623	3603
