Data from test_V78500241_659.txt Node
Date: Fri Mar 25 16:53:35 CST 2022
User: usil
Spectrometer: V785-0024
Trigger mode: 0
Integration Time (sec): 4.000000E-1
Scans to average: 1
Nonlinearity correction enabled: false
Boxcar width: 0
Storing dark spectrum: false
XAxis mode: Wavelengths
Number of Pixels in Spectrum: 1024
>>>>>Begin Spectral Data<<<<<
801.071	8046
801.214	8024
801.356	7852
801.499	7799
801.641	7776
801.783	7856
801.926	7997
802.068	7932
802.211	7989
802.353	7917
802.496	7936
802.638	7989
802.78	7849
802.923	7864
803.065	7818
803.208	7864
803.35	7963
803.492	8115
803.635	8103
803.777	7963
803.919	8180
804.061	8366
804.204	8039
804.346	7997
804.488	7959
804.63	8130
804.773	7970
804.915	8111
805.057	8244
805.199	8191
805.341	8244
805.483	8320
805.626	8202
805.768	8081
805.91	8161
806.052	8183
806.194	8024
806.336	8324
806.478	8065
806.62	8035
806.762	8153
806.904	8286
807.046	8473
807.188	8317
807.33	8336
807.472	8309
807.614	8172
807.756	8221
807.898	7970
808.04	7826
808.182	7917
808.324	7955
808.465	7902
808.607	8035
808.749	8088
808.891	8183
809.033	8244
809.174	8157
809.316	8081
809.458	7997
809.6	7970
809.741	8073
809.883	7944
810.025	8100
810.166	8073
810.308	8043
810.45	8050
810.591	7921
810.733	7708
810.875	7662
811.016	7575
811.158	7468
811.299	7590
811.441	7715
811.582	7628
811.724	7571
811.865	7506
812.007	7575
812.148	7628
812.29	7578
812.431	7685
812.573	7875
812.714	7997
812.855	8130
812.997	8183
813.138	8339
813.279	8183
813.421	8195
813.562	8005
813.703	7887
813.845	7784
813.986	7499
814.127	7362
814.268	7228
814.41	7145
814.551	7152
814.692	7171
814.833	7091
814.974	7107
815.115	7129
815.256	6905
815.397	6985
815.539	7004
815.68	6894
815.821	6738
815.962	6863
816.103	6806
816.244	6669
816.385	6582
816.526	6559
816.666	6513
816.807	6342
816.948	6372
817.089	6494
817.23	6410
817.371	6353
817.512	6426
817.653	6391
817.793	6350
817.934	6445
818.075	6494
818.216	6429
818.356	6365
818.497	6239
818.638	6064
818.778	6205
818.919	6076
819.06	6152
819.2	6243
819.341	6296
819.481	6331
819.622	6479
819.762	6654
819.903	6650
820.043	6578
820.184	6509
820.324	6521
820.465	6623
820.605	6593
820.746	6578
820.886	6513
821.026	6623
821.167	6692
821.307	6726
821.447	6722
821.588	6608
821.728	6536
821.868	6521
822.008	6338
822.149	6334
822.289	6361
822.429	6140
822.569	6106
822.709	6095
822.849	5912
822.99	5916
823.13	5870
823.27	5893
823.41	5794
823.55	5783
823.69	5760
823.83	5794
823.97	5695
824.11	5524
824.25	5516
824.389	5600
824.529	5596
824.669	5551
824.809	5592
824.949	5665
825.089	5596
825.228	5512
825.368	5402
825.508	5307
825.648	5307
825.787	5357
825.927	5326
826.067	5299
826.206	5277
826.346	5406
826.485	5402
826.625	5387
826.765	5505
826.904	5486
827.044	5273
827.183	5159
827.323	5162
827.462	5216
827.601	5102
827.741	5174
827.88	5242
828.02	5117
828.159	5254
828.298	5261
828.437	5368
828.577	5299
828.716	5467
828.855	5299
828.994	5166
829.134	5151
829.273	5166
829.412	5140
829.551	5155
829.69	5151
829.829	5258
829.968	5341
830.107	5250
830.246	5246
830.385	5166
830.524	5094
830.663	5003
830.802	4999
830.941	4839
831.08	4862
831.219	5018
831.357	4908
831.496	5151
831.635	4889
831.774	4809
831.913	4850
832.051	4710
832.19	4763
832.329	4797
832.467	4721
832.606	4645
832.744	4694
832.883	4683
833.022	4691
833.16	4759
833.299	4778
833.437	4828
833.576	4828
833.714	4881
833.852	4904
833.991	4881
834.129	4934
834.267	4919
834.406	4873
834.544	4949
834.682	5010
834.821	4930
834.959	5151
835.097	5014
835.235	5098
835.373	5086
835.511	5067
835.65	4995
835.788	4991
835.926	4858
836.064	4877
836.202	4881
836.34	5151
836.478	5235
836.615	5147
836.753	5170
836.891	5307
837.029	5201
837.167	5178
837.305	5147
837.443	5155
837.58	5052
837.718	5208
837.856	5136
837.993	5094
838.131	5197
838.269	5216
838.406	5166
838.544	5178
838.681	4980
838.819	4968
838.956	4881
839.094	4889
839.231	4984
839.369	5090
839.506	5421
839.643	5239
839.781	5067
839.918	5018
840.055	5086
840.193	5083
840.33	5117
840.467	5121
840.604	5197
840.742	5436
840.879	5067
841.016	5033
841.153	5132
841.29	5360
841.427	5353
841.564	5303
841.701	5345
841.838	5254
841.975	5166
842.112	5273
842.249	5143
842.385	5060
842.522	5330
842.659	5155
842.796	5140
842.933	5170
843.069	5083
843.206	5151
843.343	5303
843.479	5273
843.616	5280
843.752	5018
843.889	5025
844.025	5185
844.162	5086
844.298	5178
844.435	5075
844.571	5022
844.708	5212
844.844	5337
844.98	5307
845.117	5261
845.253	5124
845.389	5083
845.525	5128
845.661	5128
845.798	5010
845.934	5083
846.07	5064
846.206	5181
846.342	5239
846.478	5227
846.614	4976
846.75	4927
846.886	4968
847.022	5140
847.158	5045
847.294	5109
847.429	5025
847.565	5048
847.701	5311
847.837	4816
847.972	4831
848.108	4991
848.244	4915
848.379	4774
848.515	4664
848.65	4717
848.786	4771
848.921	4763
849.057	4843
849.192	4885
849.328	4790
849.463	4820
849.598	4778
849.734	4744
849.869	4668
850.004	4634
850.14	4691
850.275	4618
850.41	4580
850.545	4561
850.68	4584
850.815	4615
850.95	4656
851.085	4797
851.22	4755
851.355	4641
851.49	4615
851.625	4599
851.76	4637
851.895	4542
852.03	4504
852.165	4634
852.299	4752
852.434	4767
852.569	4721
852.703	4786
852.838	4862
852.973	4930
853.107	4934
853.242	4702
853.376	4675
853.511	4546
853.645	4599
853.78	4828
853.914	4691
854.048	4679
854.183	4645
854.317	4721
854.451	4881
854.585	4622
854.72	4649
854.854	4706
854.988	4622
855.122	4615
855.256	4489
855.39	4645
855.524	4774
855.658	4721
855.792	4694
855.926	4733
856.06	4736
856.194	4736
856.327	4683
856.461	4592
856.595	4615
856.729	4615
856.862	4717
856.996	4691
857.13	4698
857.263	4805
857.397	4717
857.53	4641
857.664	4733
857.797	4755
857.931	4805
858.064	4668
858.197	4679
858.331	4637
858.464	4596
858.597	4478
858.731	4588
858.864	4641
858.997	4615
859.13	4637
859.263	4656
859.396	4710
859.529	4599
859.662	4577
859.795	4558
859.928	4645
860.061	4752
860.194	4774
860.327	4618
860.46	4546
860.592	4664
860.725	4714
860.858	4687
860.99	4599
861.123	4500
861.256	4504
861.388	4645
861.521	5349
861.653	4478
861.786	4413
861.918	4504
862.05	4561
862.183	4554
862.315	4573
862.447	4618
862.58	4596
862.712	4409
862.844	4303
862.976	4485
863.108	4481
863.24	4839
863.372	4322
863.504	4402
863.636	4394
863.768	4474
863.9	4428
864.032	4371
864.164	4405
864.296	4500
864.428	4512
864.559	4565
864.691	4474
864.823	4546
864.954	4508
865.086	4489
865.217	4421
865.349	4417
865.48	4428
865.612	4470
865.743	4573
865.875	4504
866.006	4451
866.137	4470
866.269	4421
866.4	4428
866.531	4421
866.662	4398
866.793	4409
866.924	4470
867.055	4462
867.186	4417
867.317	4386
867.448	4398
867.579	4390
867.71	4386
867.841	4379
867.972	4481
868.103	4466
868.233	4478
868.364	4417
868.495	4470
868.625	4672
868.756	4755
868.886	4592
869.017	4618
869.147	4748
869.278	4744
869.408	4645
869.539	4626
869.669	4694
869.799	4683
869.929	4767
870.06	4733
870.19	4957
870.32	4885
870.45	4942
870.58	5025
870.71	5094
870.84	5094
870.97	4942
871.1	4877
871.23	5098
871.36	5071
871.489	5014
871.619	5029
871.749	5045
871.879	5075
872.008	5185
872.138	5033
872.267	4965
872.397	4850
872.526	4786
872.656	4721
872.785	4782
872.915	4968
873.044	5006
873.173	4953
873.303	4965
873.432	4877
873.561	4923
873.69	4892
873.819	4862
873.948	4873
874.077	4831
874.206	4694
874.335	4801
874.464	4889
874.593	5048
874.722	4965
874.851	5079
874.979	5060
875.108	5052
875.237	4934
875.365	4877
875.494	4866
875.623	4965
875.751	4843
875.88	4930
876.008	4980
876.136	5010
876.265	5181
876.393	5353
876.521	5223
876.65	5250
876.778	5189
876.906	5045
877.034	5003
877.162	5041
877.29	4965
877.418	5029
877.546	5006
877.674	5037
877.802	5003
877.93	5003
878.058	4919
878.185	4889
878.313	4919
878.441	4923
878.568	4809
878.696	4858
878.824	4968
878.951	4949
879.079	5155
879.206	5284
879.333	5090
879.461	4980
879.588	4980
879.715	5128
879.842	5201
879.97	5014
880.097	4782
880.224	4744
880.351	4820
880.478	4820
880.605	4850
880.732	4809
880.859	5094
880.986	4870
881.112	4915
881.239	4847
881.366	4660
881.493	4603
881.619	4603
881.746	4637
881.872	4664
881.999	4622
882.125	4672
882.252	4805
882.378	4839
882.505	4896
882.631	4782
882.757	4630
882.883	4691
883.01	4759
883.136	4626
883.262	4569
883.388	4618
883.514	4767
883.64	4908
883.766	4786
883.892	4664
884.018	4710
884.143	4915
884.269	5029
884.395	4668
884.52	4618
884.646	4611
884.772	4554
884.897	4592
885.023	4630
885.148	4774
885.274	4873
885.399	4729
885.524	4672
885.65	4660
885.775	4755
885.9	4702
886.025	4843
886.15	4748
886.275	4733
886.4	4664
886.525	4729
886.65	4691
886.775	4630
886.9	4873
887.025	5048
887.149	4816
887.274	4672
887.399	4592
887.523	4596
887.648	4588
887.773	4538
887.897	4801
888.021	4736
888.146	4649
888.27	4824
888.395	4915
888.519	4767
888.643	4793
888.767	4805
888.891	4698
889.015	4611
889.139	4641
889.263	4596
889.387	4778
889.511	4866
889.635	4786
889.759	4599
889.883	4630
890.006	4736
890.13	4843
890.254	4622
890.377	4672
890.501	4527
890.624	4538
890.748	4698
890.871	4546
890.995	4405
891.118	4409
891.241	4508
891.364	4527
891.488	4626
891.611	4550
891.734	4550
891.857	4634
891.98	4573
892.103	4683
892.226	4596
892.349	4531
892.471	4390
892.594	4546
892.717	4615
892.839	4538
892.962	4577
893.085	4683
893.207	4630
893.33	4436
893.452	4546
893.575	4733
893.697	4599
893.819	4870
893.941	4889
894.064	4774
894.186	4588
894.308	4626
894.43	4782
894.552	4862
894.674	4790
894.796	4611
894.918	4637
895.04	4637
895.161	4759
895.283	4664
895.405	4607
895.526	4687
895.648	4740
895.769	4748
895.891	4736
896.012	4820
896.134	4759
896.255	4679
896.376	4668
896.498	4672
896.619	4694
896.74	4615
896.861	4740
896.982	4984
897.103	5124
897.224	4908
897.345	4812
897.466	4694
897.587	4752
897.708	4908
897.828	4873
897.949	4721
898.07	4584
898.19	4649
898.311	4866
898.431	4710
898.552	4778
898.672	4896
898.792	4820
898.913	4778
899.033	4664
899.153	4558
899.273	4493
899.393	4550
899.513	4580
899.633	4584
899.753	4599
899.873	4546
899.993	4634
900.113	4550
900.232	4664
900.352	4531
900.472	4531
900.591	4455
900.711	4523
900.83	4481
900.95	4615
901.069	4744
901.189	4615
901.308	4398
901.427	4348
901.546	4360
901.665	4504
901.784	4546
901.904	4432
902.023	4333
902.141	4234
902.26	4230
902.379	4314
902.498	4249
902.617	4242
902.735	4390
902.854	4440
902.973	4402
903.091	4287
903.21	4287
903.328	4284
903.446	4341
903.565	4303
903.683	4375
903.801	4325
903.919	4379
904.038	4451
904.156	4367
904.274	4421
904.392	4409
904.51	4459
904.627	4512
904.745	4622
904.863	4714
904.981	4466
905.098	4284
905.216	4436
905.334	4516
905.451	4508
905.569	4466
905.686	4569
905.803	4565
905.921	4432
906.038	4565
906.155	4565
906.272	4390
906.389	4531
906.506	4367
906.623	4375
906.74	4379
906.857	4348
906.974	4424
907.091	4550
907.208	4683
907.324	4656
907.441	4497
907.557	4394
907.674	4398
907.79	4363
907.907	4417
908.023	4497
908.139	4504
908.256	4447
908.372	4462
908.488	4462
908.604	4348
908.72	4337
908.836	4352
908.952	4390
909.068	4474
909.184	4596
909.3	4493
909.415	4573
909.531	4634
909.647	4383
909.762	4367
909.878	4379
909.993	4489
910.108	4443
910.224	4398
910.339	4497
910.454	4428
910.57	4413
910.685	4329
910.8	4675
910.915	4607
911.03	4542
911.145	4341
911.259	4360
911.374	4394
911.489	4352
911.604	4306
911.718	4227
911.833	4261
911.947	4109
912.062	4093
912.176	4204
912.291	4272
912.405	4246
912.519	4481
912.633	4542
912.748	4371
912.862	4379
912.976	4223
913.09	4135
913.204	4192
913.318	4276
913.431	4402
913.545	4383
913.659	4474
913.772	4394
913.886	4314
914	4299
914.113	4375
914.226	4474
914.34	4428
914.453	4268
914.566	4432
914.68	4371
914.793	4329
914.906	4207
915.019	4147
915.132	4147
915.245	4246
915.358	4246
915.47	4291
915.583	4318
915.696	4333
915.809	4405
915.921	4421
916.034	4295
916.146	4287
916.259	4276
916.371	4390
916.483	4371
916.595	4310
916.708	4352
916.82	4367
916.932	4363
917.044	4337
917.156	4409
917.268	4287
917.38	4284
917.491	4287
917.603	4379
917.715	4424
917.826	4504
917.938	4390
918.049	4238
918.161	4421
918.272	4599
918.384	4546
918.495	4504
918.606	4344
918.717	4276
918.828	4379
918.939	4409
919.05	4280
919.161	4352
919.272	4154
919.383	4261
919.494	4481
919.604	4641
919.715	4428
919.826	4386
919.936	4405
920.047	4516
920.157	4535
920.267	4717
920.378	4550
920.488	4516
920.598	4797
920.708	4881
920.818	4763
920.928	4774
921.038	4927
921.148	4919
921.258	4622
921.368	4550
921.477	4573
921.587	4504
921.697	4398
921.806	4580
921.916	4428
922.025	4295
922.134	4318
922.244	4280
922.353	4367
922.462	4169
922.571	4177
922.68	4006
922.789	3998
922.898	4059
923.007	4025
923.116	4082
923.224	4086
923.333	4097
923.442	3983
923.55	4021
923.659	4067
923.767	4120
923.876	4071
923.984	4147
924.092	4017
924.201	4120
924.309	4158
924.417	4139
924.525	4082
924.633	4112
924.741	5094
924.849	3899
924.956	4124
925.064	3972
925.172	3949
925.279	3994
925.387	4090
925.494	4101
925.602	4207
925.709	4154
925.816	4067
925.924	4143
926.031	4227
926.138	4188
926.245	4242
926.352	4154
926.459	4276
926.566	4318
926.673	4162
926.779	4173
926.886	4173
926.993	4040
927.099	3983
927.206	3983
927.312	3975
927.419	4082
927.525	4067
927.631	4112
927.737	3983
927.843	4013
927.95	3884
928.056	3960
928.162	4021
928.267	4029
928.373	4679
928.479	4150
928.585	3888
928.69	4051
928.796	4139
928.901	3972
929.007	3861
929.112	4029
929.218	4006
929.323	3983
929.428	3964
929.533	4097
929.638	3934
929.743	3968
929.848	4040
929.953	4017
930.058	3937
930.163	3827
930.267	3880
930.372	4029
930.477	3857
930.581	4112
930.685	3983
930.79	3831
930.894	3941
930.998	3884
931.103	4059
931.207	3751
931.311	3701
931.415	3713
931.519	3580
931.623	3587
