Data from test_V78500241_1528.txt Node
Date: Fri Mar 25 16:59:37 CST 2022
User: usil
Spectrometer: V785-0024
Trigger mode: 0
Integration Time (sec): 4.000000E-1
Scans to average: 1
Nonlinearity correction enabled: false
Boxcar width: 0
Storing dark spectrum: false
XAxis mode: Wavelengths
Number of Pixels in Spectrum: 1024
>>>>>Begin Spectral Data<<<<<
801.071	8065
801.214	8020
801.356	7818
801.499	7928
801.641	7734
801.783	7731
801.926	7928
802.068	7890
802.211	7989
802.353	7974
802.496	7807
802.638	7906
802.78	7906
802.923	7959
803.065	7871
803.208	7818
803.35	7947
803.492	8046
803.635	8157
803.777	7989
803.919	8096
804.061	8404
804.204	8142
804.346	8088
804.488	7947
804.63	8115
804.773	7944
804.915	8073
805.057	8275
805.199	8126
805.341	8225
805.483	8271
805.626	8195
805.768	8069
805.91	8183
806.052	8218
806.194	8100
806.336	8240
806.478	8043
806.62	8005
806.762	8084
806.904	8206
807.046	8495
807.188	8328
807.33	8168
807.472	8355
807.614	8134
807.756	8199
807.898	7940
808.04	7902
808.182	7890
808.324	7860
808.465	7921
808.607	8126
808.749	8103
808.891	8168
809.033	8275
809.174	8176
809.316	8039
809.458	8084
809.6	8024
809.741	8043
809.883	8005
810.025	8096
810.166	8020
810.308	7974
810.45	7967
810.591	7822
810.733	7704
810.875	7685
811.016	7441
811.158	7472
811.299	7544
811.441	7647
811.582	7731
811.724	7601
811.865	7525
812.007	7582
812.148	7575
812.29	7586
812.431	7712
812.573	7830
812.714	7913
812.855	8103
812.997	8244
813.138	8343
813.279	8210
813.421	8054
813.562	7928
813.703	7864
813.845	7761
813.986	7419
814.127	7206
814.268	7240
814.41	7213
814.551	7156
814.692	7251
814.833	7107
814.974	7183
815.115	7107
815.256	6954
815.397	6890
815.539	6958
815.68	6848
815.821	6738
815.962	6894
816.103	6715
816.244	6730
816.385	6623
816.526	6623
816.666	6448
816.807	6270
816.948	6441
817.089	6407
817.23	6380
817.371	6327
817.512	6372
817.653	6334
817.793	6407
817.934	6433
818.075	6395
818.216	6460
818.356	6403
818.497	6277
818.638	6053
818.778	6175
818.919	6117
819.06	6175
819.2	6277
819.341	6292
819.481	6376
819.622	6437
819.762	6642
819.903	6734
820.043	6612
820.184	6589
820.324	6635
820.465	6677
820.605	6681
820.746	6585
820.886	6490
821.026	6578
821.167	6681
821.307	6787
821.447	6772
821.588	6620
821.728	6551
821.868	6456
822.008	6346
822.149	6323
822.289	6315
822.429	6140
822.569	6110
822.709	6057
822.849	5904
822.99	5851
823.13	5836
823.27	5882
823.41	5794
823.55	5821
823.69	5786
823.83	5760
823.97	5688
824.11	5539
824.25	5501
824.389	5520
824.529	5539
824.669	5478
824.809	5630
824.949	5623
825.089	5619
825.228	5581
825.368	5364
825.508	5334
825.648	5326
825.787	5387
825.927	5326
826.067	5265
826.206	5318
826.346	5353
826.485	5387
826.625	5387
826.765	5539
826.904	5509
827.044	5227
827.183	5204
827.323	5064
827.462	5216
827.601	5155
827.741	5197
827.88	5216
828.02	5075
828.159	5170
828.298	5307
828.437	5311
828.577	5258
828.716	5478
828.855	5277
828.994	5178
829.134	5128
829.273	5151
829.412	5140
829.551	5166
829.69	5204
829.829	5246
829.968	5330
830.107	5242
830.246	5254
830.385	5162
830.524	5121
830.663	5045
830.802	4961
830.941	4896
831.08	4908
831.219	4961
831.357	4987
831.496	5162
831.635	4927
831.774	4797
831.913	4812
832.051	4717
832.19	4744
832.329	4812
832.467	4653
832.606	4603
832.744	4725
832.883	4717
833.022	4687
833.16	4725
833.299	4790
833.437	4812
833.576	4854
833.714	4847
833.852	4904
833.991	4896
834.129	4946
834.267	4938
834.406	4877
834.544	4991
834.682	4953
834.821	4923
834.959	5162
835.097	5014
835.235	5064
835.373	5075
835.511	5090
835.65	4980
835.788	5014
835.926	4915
836.064	4858
836.202	4915
836.34	5128
836.478	5220
836.615	5090
836.753	5280
836.891	5235
837.029	5227
837.167	5242
837.305	5151
837.443	5170
837.58	5041
837.718	5208
837.856	5212
837.993	5102
838.131	5246
838.269	5223
838.406	5204
838.544	5098
838.681	5052
838.819	4995
838.956	4881
839.094	4900
839.231	4980
839.369	5098
839.506	5383
839.643	5227
839.781	5045
839.918	5052
840.055	5052
840.193	5071
840.33	5117
840.467	5113
840.604	5128
840.742	5471
840.879	5010
841.016	5102
841.153	5185
841.29	5303
841.427	5318
841.564	5250
841.701	5383
841.838	5227
841.975	5254
842.112	5261
842.249	5162
842.385	5094
842.522	5376
842.659	5197
842.796	5178
842.933	5178
843.069	5136
843.206	5216
843.343	5273
843.479	5223
843.616	5235
843.752	5048
843.889	4980
844.025	5250
844.162	5048
844.298	5159
844.435	5029
844.571	5056
844.708	5147
844.844	5280
844.98	5315
845.117	5307
845.253	5102
845.389	5090
845.525	5166
845.661	5124
845.798	5010
845.934	5132
846.07	4987
846.206	5166
846.342	5315
846.478	5105
846.614	4976
846.75	4968
846.886	4938
847.022	5132
847.158	5029
847.294	5029
847.429	5102
847.565	5048
847.701	5353
847.837	4812
847.972	4774
848.108	4984
848.244	4908
848.379	4790
848.515	4748
848.65	4702
848.786	4717
848.921	4771
849.057	4854
849.192	4900
849.328	4774
849.463	4862
849.598	4790
849.734	4786
849.869	4706
850.004	4649
850.14	4649
850.275	4596
850.41	4508
850.545	4546
850.68	4611
850.815	4645
850.95	4588
851.085	4824
851.22	4744
851.355	4687
851.49	4611
851.625	4615
851.76	4577
851.895	4615
852.03	4516
852.165	4611
852.299	4679
852.434	4786
852.569	4683
852.703	4744
852.838	4809
852.973	4892
853.107	4911
853.242	4714
853.376	4656
853.511	4546
853.645	4649
853.78	4778
853.914	4653
854.048	4660
854.183	4565
854.317	4717
854.451	4885
854.585	4672
854.72	4596
854.854	4752
854.988	4577
855.122	4645
855.256	4508
855.39	4641
855.524	4733
855.658	4675
855.792	4675
855.926	4675
856.06	4778
856.194	4805
856.327	4622
856.461	4607
856.595	4588
856.729	4645
856.862	4755
856.996	4664
857.13	4656
857.263	4698
857.397	4771
857.53	4626
857.664	4721
857.797	4797
857.931	4748
858.064	4687
858.197	4706
858.331	4637
858.464	4618
858.597	4542
858.731	4599
858.864	4649
858.997	4573
859.13	4668
859.263	4664
859.396	4649
859.529	4603
859.662	4565
859.795	4523
859.928	4573
860.061	4675
860.194	4767
860.327	4622
860.46	4565
860.592	4714
860.725	4782
860.858	4675
860.99	4531
861.123	4508
861.256	4519
861.388	4538
861.521	5265
861.653	4447
861.786	4436
861.918	4478
862.05	4527
862.183	4523
862.315	4611
862.447	4656
862.58	4538
862.712	4432
862.844	4310
862.976	4421
863.108	4440
863.24	4774
863.372	4314
863.504	4413
863.636	4398
863.768	4436
863.9	4455
864.032	4371
864.164	4352
864.296	4451
864.428	4531
864.559	4523
864.691	4500
864.823	4546
864.954	4462
865.086	4497
865.217	4436
865.349	4428
865.48	4466
865.612	4462
865.743	4592
865.875	4424
866.006	4436
866.137	4481
866.269	4417
866.4	4447
866.531	4432
866.662	4417
866.793	4402
866.924	4398
867.055	4519
867.186	4417
867.317	4405
867.448	4329
867.579	4402
867.71	4413
867.841	4352
867.972	4440
868.103	4417
868.233	4451
868.364	4413
868.495	4489
868.625	4683
868.756	4771
868.886	4550
869.017	4630
869.147	4771
869.278	4805
869.408	4672
869.539	4687
869.669	4740
869.799	4645
869.929	4763
870.06	4740
870.19	4889
870.32	4866
870.45	4923
870.58	5022
870.71	5090
870.84	5075
870.97	4957
871.1	4873
871.23	5159
871.36	5102
871.489	5041
871.619	5064
871.749	5083
871.879	5109
872.008	5208
872.138	5045
872.267	4915
872.397	4854
872.526	4797
872.656	4717
872.785	4801
872.915	4946
873.044	5052
873.173	4984
873.303	4972
873.432	4946
873.561	4930
873.69	4877
873.819	4870
873.948	4896
874.077	4858
874.206	4759
874.335	4748
874.464	4930
874.593	5045
874.722	4965
874.851	5033
874.979	5003
875.108	5022
875.237	4904
875.365	4805
875.494	4923
875.623	4976
875.751	4797
875.88	4858
876.008	4999
876.136	5037
876.265	5189
876.393	5337
876.521	5178
876.65	5212
876.778	5136
876.906	5033
877.034	4999
877.162	4999
877.29	4965
877.418	5060
877.546	5060
877.674	4995
877.802	5064
877.93	5033
878.058	4972
878.185	4839
878.313	4915
878.441	4934
878.568	4831
878.696	4873
878.824	4968
878.951	4987
879.079	5094
879.206	5265
879.333	5071
879.461	5003
879.588	4965
879.715	5124
879.842	5208
879.97	5006
880.097	4778
880.224	4786
880.351	4828
880.478	4801
880.605	4797
880.732	4759
880.859	5075
880.986	4839
881.112	4949
881.239	4778
881.366	4622
881.493	4615
881.619	4588
881.746	4611
881.872	4641
881.999	4637
882.125	4706
882.252	4763
882.378	4812
882.505	4892
882.631	4793
882.757	4668
882.883	4717
883.01	4740
883.136	4645
883.262	4584
883.388	4626
883.514	4786
883.64	4828
883.766	4755
883.892	4645
884.018	4721
884.143	4873
884.269	4961
884.395	4683
884.52	4656
884.646	4592
884.772	4580
884.897	4569
885.023	4653
885.148	4812
885.274	4805
885.399	4763
885.524	4694
885.65	4687
885.775	4793
885.9	4694
886.025	4816
886.15	4828
886.275	4683
886.4	4637
886.525	4782
886.65	4706
886.775	4698
886.9	4900
887.025	4991
887.149	4801
887.274	4702
887.399	4573
887.523	4618
887.648	4558
887.773	4569
887.897	4790
888.021	4786
888.146	4668
888.27	4797
888.395	4908
888.519	4778
888.643	4812
888.767	4797
888.891	4656
889.015	4622
889.139	4645
889.263	4565
889.387	4774
889.511	4843
889.635	4755
889.759	4580
889.883	4668
890.006	4679
890.13	4828
890.254	4611
890.377	4637
890.501	4516
890.624	4535
890.748	4656
890.871	4497
890.995	4421
891.118	4348
891.241	4497
891.364	4497
891.488	4573
891.611	4447
891.734	4554
891.857	4535
891.98	4538
892.103	4660
892.226	4573
892.349	4504
892.471	4379
892.594	4565
892.717	4592
892.839	4554
892.962	4607
893.085	4672
893.207	4622
893.33	4462
893.452	4500
893.575	4660
893.697	4577
893.819	4786
893.941	4805
894.064	4744
894.186	4558
894.308	4561
894.43	4710
894.552	4797
894.674	4801
894.796	4554
894.918	4622
895.04	4569
895.161	4691
895.283	4664
895.405	4542
895.526	4656
895.648	4725
895.769	4615
895.891	4694
896.012	4733
896.134	4672
896.255	4698
896.376	4626
896.498	4637
896.619	4702
896.74	4592
896.861	4664
896.982	4896
897.103	5067
897.224	4755
897.345	4733
897.466	4664
897.587	4679
897.708	4816
897.828	4790
897.949	4626
898.07	4599
898.19	4611
898.311	4835
898.431	4664
898.552	4744
898.672	4824
898.792	4774
898.913	4729
899.033	4596
899.153	4519
899.273	4451
899.393	4500
899.513	4550
899.633	4538
899.753	4519
899.873	4481
899.993	4580
900.113	4558
900.232	4615
900.352	4573
900.472	4497
900.591	4402
900.711	4512
900.83	4432
900.95	4584
901.069	4656
901.189	4497
901.308	4367
901.427	4287
901.546	4352
901.665	4459
901.784	4478
901.904	4405
902.023	4287
902.141	4185
902.26	4185
902.379	4280
902.498	4276
902.617	4181
902.735	4363
902.854	4386
902.973	4325
903.091	4185
903.21	4173
903.328	4291
903.446	4291
903.565	4287
903.683	4322
903.801	4272
903.919	4383
904.038	4466
904.156	4337
904.274	4390
904.392	4371
904.51	4432
904.627	4459
904.745	4603
904.863	4637
904.981	4371
905.098	4329
905.216	4356
905.334	4428
905.451	4440
905.569	4428
905.686	4592
905.803	4523
905.921	4451
906.038	4569
906.155	4455
906.272	4402
906.389	4447
906.506	4322
906.623	4405
906.74	4405
906.857	4257
906.974	4398
907.091	4592
907.208	4683
907.324	4588
907.441	4508
907.557	4344
907.674	4310
907.79	4303
907.907	4413
908.023	4500
908.139	4447
908.256	4402
908.372	4489
908.488	4432
908.604	4318
908.72	4299
908.836	4337
908.952	4352
909.068	4447
909.184	4561
909.3	4447
909.415	4584
909.531	4500
909.647	4367
909.762	4379
909.878	4314
909.993	4428
910.108	4390
910.224	4421
910.339	4504
910.454	4409
910.57	4329
910.685	4287
910.8	4626
910.915	4550
911.03	4493
911.145	4333
911.259	4306
911.374	4348
911.489	4348
911.604	4295
911.718	4219
911.833	4177
911.947	4074
912.062	3998
912.176	4249
912.291	4207
912.405	4242
912.519	4481
912.633	4504
912.748	4360
912.862	4329
912.976	4219
913.09	4135
913.204	4173
913.318	4230
913.431	4383
913.545	4367
913.659	4447
913.772	4367
913.886	4242
914	4211
914.113	4375
914.226	4451
914.34	4371
914.453	4246
914.566	4424
914.68	4284
914.793	4341
914.906	4112
915.019	4120
915.132	3998
915.245	4124
915.358	4211
915.47	4272
915.583	4242
915.696	4325
915.809	4371
915.921	4409
916.034	4253
916.146	4261
916.259	4227
916.371	4375
916.483	4337
916.595	4227
916.708	4325
916.82	4310
916.932	4318
917.044	4284
917.156	4356
917.268	4196
917.38	4284
917.491	4249
917.603	4329
917.715	4443
917.826	4402
917.938	4348
918.049	4158
918.161	4398
918.272	4527
918.384	4550
918.495	4478
918.606	4299
918.717	4272
918.828	4287
918.939	4341
919.05	4238
919.161	4344
919.272	4093
919.383	4280
919.494	4436
919.604	4599
919.715	4466
919.826	4306
919.936	4367
920.047	4546
920.157	4478
920.267	4717
920.378	4546
920.488	4455
920.598	4683
920.708	4919
920.818	4786
920.928	4725
921.038	4885
921.148	4908
921.258	4641
921.368	4546
921.477	4523
921.587	4440
921.697	4356
921.806	4546
921.916	4409
922.025	4272
922.134	4295
922.244	4192
922.353	4341
922.462	4158
922.571	4124
922.68	3994
922.789	4002
922.898	3994
923.007	3987
923.116	4093
923.224	4071
923.333	4051
923.442	3979
923.55	3983
923.659	4036
923.767	4086
923.876	3991
923.984	4093
924.092	3930
924.201	4036
924.309	4093
924.417	4109
924.525	4040
924.633	4051
924.741	4911
924.849	3930
924.956	4128
925.064	3941
925.172	3896
925.279	3968
925.387	4093
925.494	4059
925.602	4185
925.709	4181
925.816	3994
925.924	4120
926.031	4249
926.138	4162
926.245	4166
926.352	4090
926.459	4242
926.566	4318
926.673	4181
926.779	4063
926.886	4082
926.993	3937
927.099	3930
927.206	3918
927.312	3941
927.419	4078
927.525	4040
927.631	4093
927.737	3945
927.843	3956
927.95	3838
928.056	3896
928.162	3994
928.267	4036
928.373	4561
928.479	4109
928.585	3873
928.69	4021
928.796	4032
928.901	3911
929.007	3812
929.112	3960
929.218	3941
929.323	3949
929.428	3945
929.533	4105
929.638	3915
929.743	3949
929.848	4036
929.953	3968
930.058	3926
930.163	3804
930.267	3823
930.372	3975
930.477	3774
930.581	4074
930.685	3915
930.79	3857
930.894	3896
930.998	3842
931.103	3994
931.207	3686
931.311	3720
931.415	3717
931.519	3519
931.623	3545
