Data from test_V78500241_619.txt Node
Date: Fri Mar 25 16:53:18 CST 2022
User: usil
Spectrometer: V785-0024
Trigger mode: 0
Integration Time (sec): 4.000000E-1
Scans to average: 1
Nonlinearity correction enabled: false
Boxcar width: 0
Storing dark spectrum: false
XAxis mode: Wavelengths
Number of Pixels in Spectrum: 1024
>>>>>Begin Spectral Data<<<<<
801.071	8043
801.214	8012
801.356	7822
801.499	7883
801.641	7830
801.783	7849
801.926	8103
802.068	8024
802.211	7970
802.353	8031
802.496	7894
802.638	7864
802.78	7890
802.923	7936
803.065	7769
803.208	7807
803.35	7963
803.492	8088
803.635	8100
803.777	8005
803.919	8069
804.061	8332
804.204	8138
804.346	8012
804.488	7944
804.63	8111
804.773	8012
804.915	8100
805.057	8279
805.199	8233
805.341	8229
805.483	8282
805.626	8191
805.768	8107
805.91	8123
806.052	8138
806.194	8176
806.336	8298
806.478	8043
806.62	8123
806.762	8138
806.904	8256
807.046	8579
807.188	8362
807.33	8259
807.472	8263
807.614	8183
807.756	8149
807.898	7944
808.04	7841
808.182	7879
808.324	7936
808.465	7826
808.607	8081
808.749	8058
808.891	8202
809.033	8267
809.174	8119
809.316	8058
809.458	8035
809.6	7989
809.741	8012
809.883	8016
810.025	8046
810.166	7974
810.308	7989
810.45	7925
810.591	7947
810.733	7822
810.875	7666
811.016	7548
811.158	7464
811.299	7613
811.441	7677
811.582	7647
811.724	7590
811.865	7533
812.007	7628
812.148	7575
812.29	7655
812.431	7799
812.573	7860
812.714	7970
812.855	8119
812.997	8267
813.138	8351
813.279	8199
813.421	8138
813.562	8005
813.703	7852
813.845	7666
813.986	7491
814.127	7259
814.268	7221
814.41	7240
814.551	7129
814.692	7126
814.833	7088
814.974	7069
815.115	7160
815.256	7015
815.397	6882
815.539	7008
815.68	6859
815.821	6810
815.962	6935
816.103	6768
816.244	6692
816.385	6612
816.526	6631
816.666	6528
816.807	6239
816.948	6448
817.089	6452
817.23	6437
817.371	6353
817.512	6315
817.653	6369
817.793	6338
817.934	6414
818.075	6486
818.216	6486
818.356	6429
818.497	6213
818.638	6155
818.778	6133
818.919	6190
819.06	6186
819.2	6384
819.341	6334
819.481	6410
819.622	6544
819.762	6711
819.903	6681
820.043	6616
820.184	6574
820.324	6528
820.465	6639
820.605	6623
820.746	6593
820.886	6456
821.026	6642
821.167	6642
821.307	6779
821.447	6696
821.588	6662
821.728	6574
821.868	6475
822.008	6254
822.149	6311
822.289	6353
822.429	6209
822.569	6064
822.709	6079
822.849	5893
822.99	5874
823.13	5882
823.27	5901
823.41	5741
823.55	5767
823.69	5764
823.83	5783
823.97	5592
824.11	5524
824.25	5562
824.389	5573
824.529	5638
824.669	5562
824.809	5680
824.949	5619
825.089	5608
825.228	5585
825.368	5387
825.508	5341
825.648	5330
825.787	5334
825.927	5391
826.067	5334
826.206	5265
826.346	5341
826.485	5368
826.625	5395
826.765	5474
826.904	5497
827.044	5303
827.183	5170
827.323	5113
827.462	5231
827.601	5159
827.741	5197
827.88	5201
828.02	5124
828.159	5261
828.298	5292
828.437	5337
828.577	5307
828.716	5463
828.855	5280
828.994	5098
829.134	5113
829.273	5109
829.412	5128
829.551	5128
829.69	5128
829.829	5212
829.968	5414
830.107	5261
830.246	5246
830.385	5185
830.524	5143
830.663	5037
830.802	4987
830.941	4889
831.08	4896
831.219	4991
831.357	4968
831.496	5124
831.635	4919
831.774	4870
831.913	4828
832.051	4752
832.19	4771
832.329	4862
832.467	4702
832.606	4603
832.744	4706
832.883	4733
833.022	4752
833.16	4790
833.299	4843
833.437	4797
833.576	4835
833.714	4816
833.852	4877
833.991	4889
834.129	4938
834.267	4915
834.406	4915
834.544	4953
834.682	4995
834.821	5029
834.959	5147
835.097	4972
835.235	5109
835.373	5048
835.511	5094
835.65	4999
835.788	5006
835.926	4870
836.064	4889
836.202	4908
836.34	5128
836.478	5166
836.615	5132
836.753	5223
836.891	5273
837.029	5189
837.167	5208
837.305	5147
837.443	5132
837.58	5071
837.718	5318
837.856	5159
837.993	5162
838.131	5231
838.269	5201
838.406	5246
838.544	5162
838.681	5048
838.819	5025
838.956	4900
839.094	4873
839.231	4923
839.369	5041
839.506	5372
839.643	5318
839.781	5067
839.918	5037
840.055	5136
840.193	5143
840.33	5121
840.467	5159
840.604	5197
840.742	5414
840.879	5056
841.016	5094
841.153	5132
841.29	5330
841.427	5337
841.564	5303
841.701	5383
841.838	5273
841.975	5220
842.112	5280
842.249	5147
842.385	5098
842.522	5299
842.659	5174
842.796	5166
842.933	5159
843.069	5132
843.206	5121
843.343	5288
843.479	5204
843.616	5242
843.752	5067
843.889	4980
844.025	5185
844.162	5006
844.298	5174
844.435	5045
844.571	5086
844.708	5242
844.844	5292
844.98	5311
845.117	5292
845.253	5098
845.389	5086
845.525	5140
845.661	5136
845.798	5052
845.934	5174
846.07	5025
846.206	5132
846.342	5246
846.478	5181
846.614	5014
846.75	4957
846.886	4938
847.022	5143
847.158	5033
847.294	5067
847.429	5113
847.565	5033
847.701	5330
847.837	4850
847.972	4801
848.108	4900
848.244	4999
848.379	4790
848.515	4740
848.65	4656
848.786	4748
848.921	4786
849.057	4843
849.192	4862
849.328	4778
849.463	4843
849.598	4740
849.734	4736
849.869	4698
850.004	4675
850.14	4683
850.275	4592
850.41	4519
850.545	4573
850.68	4607
850.815	4615
850.95	4626
851.085	4790
851.22	4725
851.355	4683
851.49	4626
851.625	4645
851.76	4630
851.895	4542
852.03	4497
852.165	4664
852.299	4691
852.434	4717
852.569	4767
852.703	4771
852.838	4831
852.973	4919
853.107	4885
853.242	4717
853.376	4679
853.511	4546
853.645	4554
853.78	4828
853.914	4694
854.048	4656
854.183	4683
854.317	4660
854.451	4816
854.585	4660
854.72	4622
854.854	4736
854.988	4603
855.122	4622
855.256	4523
855.39	4687
855.524	4801
855.658	4698
855.792	4691
855.926	4740
856.06	4725
856.194	4793
856.327	4664
856.461	4577
856.595	4630
856.729	4573
856.862	4782
856.996	4675
857.13	4672
857.263	4782
857.397	4809
857.53	4664
857.664	4752
857.797	4736
857.931	4714
858.064	4649
858.197	4786
858.331	4630
858.464	4641
858.597	4519
858.731	4611
858.864	4622
858.997	4554
859.13	4664
859.263	4622
859.396	4687
859.529	4577
859.662	4565
859.795	4512
859.928	4592
860.061	4759
860.194	4763
860.327	4592
860.46	4554
860.592	4702
860.725	4687
860.858	4660
860.99	4622
861.123	4508
861.256	4485
861.388	4649
861.521	5364
861.653	4447
861.786	4440
861.918	4424
862.05	4504
862.183	4596
862.315	4630
862.447	4653
862.58	4527
862.712	4367
862.844	4356
862.976	4470
863.108	4443
863.24	4847
863.372	4333
863.504	4432
863.636	4383
863.768	4478
863.9	4417
864.032	4390
864.164	4432
864.296	4432
864.428	4573
864.559	4588
864.691	4531
864.823	4535
864.954	4489
865.086	4466
865.217	4478
865.349	4447
865.48	4421
865.612	4497
865.743	4645
865.875	4443
866.006	4405
866.137	4504
866.269	4481
866.4	4421
866.531	4417
866.662	4379
866.793	4375
866.924	4417
867.055	4527
867.186	4451
867.317	4405
867.448	4379
867.579	4386
867.71	4405
867.841	4390
867.972	4470
868.103	4462
868.233	4455
868.364	4440
868.495	4497
868.625	4679
868.756	4774
868.886	4561
869.017	4596
869.147	4790
869.278	4736
869.408	4630
869.539	4664
869.669	4656
869.799	4656
869.929	4763
870.06	4687
870.19	4908
870.32	4892
870.45	4934
870.58	5014
870.71	5124
870.84	5128
870.97	4927
871.1	4904
871.23	5113
871.36	5121
871.489	4961
871.619	5109
871.749	5128
871.879	5124
872.008	5178
872.138	5018
872.267	4999
872.397	4850
872.526	4771
872.656	4675
872.785	4763
872.915	4957
873.044	5041
873.173	4915
873.303	4946
873.432	4919
873.561	5022
873.69	4904
873.819	4858
873.948	4908
874.077	4850
874.206	4790
874.335	4778
874.464	4911
874.593	5060
874.722	4984
874.851	5086
874.979	5018
875.108	5052
875.237	4911
875.365	4889
875.494	4908
875.623	4957
875.751	4862
875.88	4854
876.008	4976
876.136	5083
876.265	5147
876.393	5341
876.521	5231
876.65	5235
876.778	5124
876.906	5022
877.034	5003
877.162	5071
877.29	4976
877.418	5056
877.546	5003
877.674	5048
877.802	5048
877.93	4999
878.058	4938
878.185	4850
878.313	4934
878.441	4923
878.568	4778
878.696	4904
878.824	4927
878.951	4968
879.079	5143
879.206	5284
879.333	5075
879.461	4987
879.588	5014
879.715	5121
879.842	5227
879.97	4984
880.097	4748
880.224	4740
880.351	4828
880.478	4839
880.605	4786
880.732	4809
880.859	5098
880.986	4877
881.112	4911
881.239	4790
881.366	4645
881.493	4607
881.619	4592
881.746	4626
881.872	4664
881.999	4660
882.125	4702
882.252	4797
882.378	4839
882.505	4927
882.631	4862
882.757	4691
882.883	4759
883.01	4733
883.136	4637
883.262	4569
883.388	4622
883.514	4793
883.64	4870
883.766	4782
883.892	4653
884.018	4733
884.143	4862
884.269	5025
884.395	4691
884.52	4634
884.646	4634
884.772	4596
884.897	4596
885.023	4618
885.148	4759
885.274	4843
885.399	4877
885.524	4729
885.65	4714
885.775	4755
885.9	4710
886.025	4854
886.15	4748
886.275	4748
886.4	4660
886.525	4717
886.65	4694
886.775	4649
886.9	4915
887.025	5071
887.149	4809
887.274	4641
887.399	4592
887.523	4618
887.648	4580
887.773	4599
887.897	4710
888.021	4809
888.146	4641
888.27	4786
888.395	4885
888.519	4786
888.643	4812
888.767	4793
888.891	4656
889.015	4630
889.139	4672
889.263	4645
889.387	4748
889.511	4877
889.635	4759
889.759	4622
889.883	4641
890.006	4706
890.13	4885
890.254	4630
890.377	4679
890.501	4561
890.624	4485
890.748	4615
890.871	4554
890.995	4421
891.118	4383
891.241	4512
891.364	4573
891.488	4675
891.611	4466
891.734	4523
891.857	4607
891.98	4554
892.103	4664
892.226	4588
892.349	4538
892.471	4428
892.594	4554
892.717	4599
892.839	4550
892.962	4618
893.085	4596
893.207	4596
893.33	4455
893.452	4489
893.575	4656
893.697	4603
893.819	4782
893.941	4809
894.064	4793
894.186	4554
894.308	4550
894.43	4744
894.552	4835
894.674	4759
894.796	4569
894.918	4596
895.04	4550
895.161	4694
895.283	4668
895.405	4580
895.526	4622
895.648	4694
895.769	4637
895.891	4729
896.012	4725
896.134	4694
896.255	4683
896.376	4637
896.498	4599
896.619	4634
896.74	4603
896.861	4637
896.982	4938
897.103	5079
897.224	4835
897.345	4736
897.466	4687
897.587	4797
897.708	4854
897.828	4824
897.949	4653
898.07	4558
898.19	4645
898.311	4850
898.431	4649
898.552	4736
898.672	4790
898.792	4786
898.913	4763
899.033	4634
899.153	4516
899.273	4421
899.393	4485
899.513	4531
899.633	4504
899.753	4561
899.873	4535
899.993	4569
900.113	4516
900.232	4577
900.352	4580
900.472	4538
900.591	4413
900.711	4459
900.83	4440
900.95	4645
901.069	4668
901.189	4561
901.308	4383
901.427	4314
901.546	4383
901.665	4512
901.784	4550
901.904	4367
902.023	4325
902.141	4177
902.26	4181
902.379	4291
902.498	4204
902.617	4204
902.735	4405
902.854	4367
902.973	4367
903.091	4257
903.21	4242
903.328	4325
903.446	4268
903.565	4215
903.683	4379
903.801	4284
903.919	4432
904.038	4405
904.156	4333
904.274	4466
904.392	4421
904.51	4402
904.627	4447
904.745	4569
904.863	4615
904.981	4402
905.098	4291
905.216	4333
905.334	4398
905.451	4417
905.569	4417
905.686	4550
905.803	4538
905.921	4398
906.038	4569
906.155	4489
906.272	4390
906.389	4436
906.506	4341
906.623	4371
906.74	4462
906.857	4303
906.974	4348
907.091	4577
907.208	4679
907.324	4588
907.441	4497
907.557	4383
907.674	4318
907.79	4322
907.907	4405
908.023	4504
908.139	4508
908.256	4402
908.372	4455
908.488	4466
908.604	4405
908.72	4344
908.836	4367
908.952	4390
909.068	4443
909.184	4554
909.3	4481
909.415	4546
909.531	4523
909.647	4386
909.762	4386
909.878	4303
909.993	4424
910.108	4436
910.224	4405
910.339	4489
910.454	4390
910.57	4352
910.685	4310
910.8	4649
910.915	4596
911.03	4447
911.145	4310
911.259	4306
911.374	4394
911.489	4257
911.604	4299
911.718	4185
911.833	4162
911.947	4082
912.062	4059
912.176	4211
912.291	4234
912.405	4230
912.519	4424
912.633	4516
912.748	4333
912.862	4333
912.976	4249
913.09	4078
913.204	4166
913.318	4261
913.431	4333
913.545	4360
913.659	4424
913.772	4325
913.886	4246
914	4242
914.113	4383
914.226	4443
914.34	4363
914.453	4185
914.566	4413
914.68	4272
914.793	4322
914.906	4181
915.019	4116
915.132	4082
915.245	4143
915.358	4207
915.47	4234
915.583	4284
915.696	4291
915.809	4405
915.921	4383
916.034	4280
916.146	4272
916.259	4162
916.371	4352
916.483	4360
916.595	4253
916.708	4344
916.82	4344
916.932	4314
917.044	4341
917.156	4291
917.268	4204
917.38	4299
917.491	4314
917.603	4318
917.715	4386
917.826	4455
917.938	4352
918.049	4230
918.161	4447
918.272	4519
918.384	4504
918.495	4432
918.606	4284
918.717	4200
918.828	4344
918.939	4363
919.05	4299
919.161	4348
919.272	4135
919.383	4238
919.494	4405
919.604	4626
919.715	4462
919.826	4356
919.936	4428
920.047	4497
920.157	4546
920.267	4744
920.378	4546
920.488	4493
920.598	4698
920.708	4889
920.818	4740
920.928	4744
921.038	5010
921.148	4877
921.258	4588
921.368	4481
921.477	4459
921.587	4474
921.697	4348
921.806	4535
921.916	4459
922.025	4261
922.134	4242
922.244	4246
922.353	4356
922.462	4166
922.571	4135
922.68	4025
922.789	3991
922.898	4055
923.007	3998
923.116	4101
923.224	4097
923.333	4048
923.442	3949
923.55	4017
923.659	4017
923.767	4086
923.876	4029
923.984	4120
924.092	3953
924.201	4032
924.309	4116
924.417	4169
924.525	4093
924.633	4093
924.741	5102
924.849	3934
924.956	4124
925.064	3945
925.172	3892
925.279	3994
925.387	4036
925.494	4002
925.602	4227
925.709	4147
925.816	4051
925.924	4173
926.031	4154
926.138	4150
926.245	4177
926.352	4078
926.459	4272
926.566	4299
926.673	4139
926.779	4116
926.886	4131
926.993	4017
927.099	3972
927.206	3915
927.312	3953
927.419	4071
927.525	3979
927.631	4101
927.737	3937
927.843	3937
927.95	3865
928.056	3979
928.162	4002
928.267	4067
928.373	4664
928.479	4139
928.585	3869
928.69	4006
928.796	4071
928.901	3991
929.007	3865
929.112	4006
929.218	3960
929.323	3949
929.428	3956
929.533	4067
929.638	3915
929.743	3964
929.848	4017
929.953	4017
930.058	3911
930.163	3778
930.267	3835
930.372	3964
930.477	3800
930.581	4055
930.685	3960
930.79	3808
930.894	3888
930.998	3907
931.103	4021
931.207	3698
931.311	3671
931.415	3652
931.519	3538
931.623	3530
