Data from test_V78500241_671.txt Node
Date: Fri Mar 25 16:53:40 CST 2022
User: usil
Spectrometer: V785-0024
Trigger mode: 0
Integration Time (sec): 4.000000E-1
Scans to average: 1
Nonlinearity correction enabled: false
Boxcar width: 0
Storing dark spectrum: false
XAxis mode: Wavelengths
Number of Pixels in Spectrum: 1024
>>>>>Begin Spectral Data<<<<<
801.071	8077
801.214	8020
801.356	7852
801.499	7864
801.641	7792
801.783	7875
801.926	7993
802.068	7936
802.211	7898
802.353	7974
802.496	7902
802.638	7970
802.78	8005
802.923	7822
803.065	7811
803.208	7795
803.35	7932
803.492	8096
803.635	8176
803.777	8043
803.919	8111
804.061	8427
804.204	8123
804.346	8062
804.488	7967
804.63	8153
804.773	7993
804.915	8073
805.057	8263
805.199	8187
805.341	8187
805.483	8351
805.626	8145
805.768	8138
805.91	8199
806.052	8191
806.194	8092
806.336	8286
806.478	8069
806.62	8065
806.762	8069
806.904	8229
807.046	8434
807.188	8381
807.33	8263
807.472	8305
807.614	8142
807.756	8172
807.898	7993
808.04	7852
808.182	7906
808.324	7852
808.465	7871
808.607	7963
808.749	8107
808.891	8248
809.033	8267
809.174	8202
809.316	8039
809.458	8084
809.6	7997
809.741	8008
809.883	8103
810.025	8069
810.166	8046
810.308	8043
810.45	8031
810.591	7818
810.733	7780
810.875	7731
811.016	7540
811.158	7499
811.299	7628
811.441	7723
811.582	7662
811.724	7537
811.865	7441
812.007	7616
812.148	7552
812.29	7521
812.431	7712
812.573	7811
812.714	7944
812.855	8107
812.997	8187
813.138	8244
813.279	8206
813.421	8081
813.562	7974
813.703	7909
813.845	7772
813.986	7419
814.127	7301
814.268	7232
814.41	7217
814.551	7149
814.692	7110
814.833	7088
814.974	7031
815.115	7095
815.256	6962
815.397	6962
815.539	6947
815.68	6802
815.821	6753
815.962	6806
816.103	6730
816.244	6692
816.385	6604
816.526	6585
816.666	6460
816.807	6292
816.948	6452
817.089	6445
817.23	6391
817.371	6410
817.512	6380
817.653	6391
817.793	6296
817.934	6445
818.075	6479
818.216	6410
818.356	6376
818.497	6224
818.638	6102
818.778	6171
818.919	6110
819.06	6197
819.2	6251
819.341	6285
819.481	6342
819.622	6563
819.762	6768
819.903	6696
820.043	6582
820.184	6559
820.324	6574
820.465	6715
820.605	6612
820.746	6563
820.886	6471
821.026	6673
821.167	6692
821.307	6757
821.447	6764
821.588	6635
821.728	6540
821.868	6452
822.008	6323
822.149	6342
822.289	6289
822.429	6125
822.569	6087
822.709	6083
822.849	5912
822.99	5866
823.13	5904
823.27	5916
823.41	5802
823.55	5779
823.69	5714
823.83	5802
823.97	5684
824.11	5532
824.25	5455
824.389	5532
824.529	5566
824.669	5452
824.809	5566
824.949	5634
825.089	5653
825.228	5516
825.368	5345
825.508	5330
825.648	5341
825.787	5330
825.927	5379
826.067	5296
826.206	5288
826.346	5349
826.485	5406
826.625	5417
826.765	5501
826.904	5425
827.044	5250
827.183	5201
827.323	5090
827.462	5193
827.601	5227
827.741	5189
827.88	5197
828.02	5151
828.159	5201
828.298	5307
828.437	5341
828.577	5284
828.716	5486
828.855	5357
828.994	5143
829.134	5162
829.273	5155
829.412	5132
829.551	5105
829.69	5113
829.829	5231
829.968	5383
830.107	5254
830.246	5311
830.385	5147
830.524	5098
830.663	5086
830.802	5003
830.941	4843
831.08	4889
831.219	4999
831.357	4953
831.496	5124
831.635	4946
831.774	4885
831.913	4873
832.051	4714
832.19	4729
832.329	4835
832.467	4668
832.606	4641
832.744	4714
832.883	4706
833.022	4733
833.16	4793
833.299	4805
833.437	4778
833.576	4831
833.714	4885
833.852	4881
833.991	4927
834.129	4938
834.267	4953
834.406	4889
834.544	4953
834.682	4961
834.821	4946
834.959	5140
835.097	4972
835.235	5094
835.373	5079
835.511	5113
835.65	5075
835.788	5033
835.926	4850
836.064	4885
836.202	4896
836.34	5121
836.478	5227
836.615	5048
836.753	5212
836.891	5315
837.029	5212
837.167	5162
837.305	5162
837.443	5113
837.58	5045
837.718	5254
837.856	5212
837.993	5102
838.131	5235
838.269	5212
838.406	5197
838.544	5136
838.681	5033
838.819	5010
838.956	4915
839.094	4938
839.231	5010
839.369	5098
839.506	5436
839.643	5242
839.781	5037
839.918	5022
840.055	5071
840.193	5079
840.33	5136
840.467	5162
840.604	5216
840.742	5425
840.879	5136
841.016	5056
841.153	5128
841.29	5349
841.427	5307
841.564	5292
841.701	5330
841.838	5280
841.975	5227
842.112	5265
842.249	5124
842.385	5128
842.522	5318
842.659	5170
842.796	5170
842.933	5132
843.069	5121
843.206	5128
843.343	5292
843.479	5231
843.616	5246
843.752	5045
843.889	4999
844.025	5212
844.162	4991
844.298	5235
844.435	5128
844.571	5025
844.708	5178
844.844	5296
844.98	5303
845.117	5273
845.253	5102
845.389	5037
845.525	5117
845.661	5140
845.798	5067
845.934	5140
846.07	5014
846.206	5151
846.342	5246
846.478	5189
846.614	5067
846.75	4995
846.886	4908
847.022	5124
847.158	4991
847.294	5083
847.429	5117
847.565	5060
847.701	5299
847.837	4892
847.972	4797
848.108	4968
848.244	4957
848.379	4782
848.515	4744
848.65	4767
848.786	4733
848.921	4767
849.057	4866
849.192	4915
849.328	4809
849.463	4843
849.598	4755
849.734	4748
849.869	4717
850.004	4645
850.14	4683
850.275	4607
850.41	4577
850.545	4527
850.68	4584
850.815	4645
850.95	4611
851.085	4835
851.22	4714
851.355	4672
851.49	4611
851.625	4626
851.76	4653
851.895	4527
852.03	4481
852.165	4668
852.299	4691
852.434	4793
852.569	4729
852.703	4694
852.838	4816
852.973	4911
853.107	4889
853.242	4740
853.376	4714
853.511	4588
853.645	4603
853.78	4805
853.914	4725
854.048	4641
854.183	4626
854.317	4637
854.451	4809
854.585	4656
854.72	4599
854.854	4752
854.988	4611
855.122	4611
855.256	4561
855.39	4660
855.524	4790
855.658	4717
855.792	4706
855.926	4683
856.06	4729
856.194	4801
856.327	4706
856.461	4577
856.595	4622
856.729	4637
856.862	4725
856.996	4729
857.13	4656
857.263	4774
857.397	4752
857.53	4675
857.664	4740
857.797	4736
857.931	4793
858.064	4679
858.197	4748
858.331	4653
858.464	4615
858.597	4493
858.731	4618
858.864	4645
858.997	4584
859.13	4626
859.263	4694
859.396	4694
859.529	4630
859.662	4535
859.795	4504
859.928	4596
860.061	4778
860.194	4771
860.327	4637
860.46	4561
860.592	4683
860.725	4740
860.858	4778
860.99	4538
861.123	4512
861.256	4538
861.388	4618
861.521	5353
861.653	4493
861.786	4424
861.918	4481
862.05	4542
862.183	4538
862.315	4599
862.447	4630
862.58	4542
862.712	4398
862.844	4325
862.976	4474
863.108	4383
863.24	4873
863.372	4303
863.504	4352
863.636	4428
863.768	4523
863.9	4436
864.032	4379
864.164	4413
864.296	4432
864.428	4516
864.559	4554
864.691	4531
864.823	4497
864.954	4500
865.086	4512
865.217	4421
865.349	4417
865.48	4459
865.612	4470
865.743	4577
865.875	4493
866.006	4432
866.137	4443
866.269	4440
866.4	4428
866.531	4409
866.662	4363
866.793	4428
866.924	4405
867.055	4466
867.186	4424
867.317	4398
867.448	4409
867.579	4383
867.71	4371
867.841	4337
867.972	4497
868.103	4421
868.233	4443
868.364	4428
868.495	4443
868.625	4649
868.756	4767
868.886	4554
869.017	4637
869.147	4786
869.278	4755
869.408	4637
869.539	4626
869.669	4675
869.799	4630
869.929	4778
870.06	4729
870.19	4946
870.32	4911
870.45	4927
870.58	5003
870.71	5090
870.84	5086
870.97	4938
871.1	4850
871.23	5113
871.36	5166
871.489	5025
871.619	5071
871.749	5060
871.879	5090
872.008	5227
872.138	5033
872.267	4991
872.397	4843
872.526	4801
872.656	4736
872.785	4805
872.915	4908
873.044	4949
873.173	4908
873.303	4919
873.432	4949
873.561	4885
873.69	4862
873.819	4850
873.948	4892
874.077	4793
874.206	4778
874.335	4767
874.464	4938
874.593	5102
874.722	4991
874.851	5113
874.979	5056
875.108	5064
875.237	4957
875.365	4885
875.494	4942
875.623	4930
875.751	4828
875.88	4908
876.008	4968
876.136	4991
876.265	5246
876.393	5261
876.521	5261
876.65	5246
876.778	5178
876.906	5060
877.034	5025
877.162	5060
877.29	4984
877.418	5079
877.546	5075
877.674	5041
877.802	5075
877.93	5022
878.058	4946
878.185	4915
878.313	4957
878.441	4976
878.568	4790
878.696	4858
878.824	4900
878.951	4984
879.079	5128
879.206	5254
879.333	5113
879.461	5006
879.588	4968
879.715	5098
879.842	5235
879.97	4987
880.097	4805
880.224	4763
880.351	4771
880.478	4816
880.605	4824
880.732	4748
880.859	5109
880.986	4885
881.112	4908
881.239	4767
881.366	4698
881.493	4603
881.619	4611
881.746	4626
881.872	4649
881.999	4687
882.125	4672
882.252	4755
882.378	4835
882.505	4987
882.631	4748
882.757	4675
882.883	4790
883.01	4706
883.136	4641
883.262	4622
883.388	4634
883.514	4812
883.64	4831
883.766	4786
883.892	4656
884.018	4702
884.143	4881
884.269	4999
884.395	4675
884.52	4611
884.646	4634
884.772	4611
884.897	4558
885.023	4656
885.148	4809
885.274	4854
885.399	4805
885.524	4736
885.65	4694
885.775	4698
885.9	4736
886.025	4850
886.15	4729
886.275	4725
886.4	4649
886.525	4733
886.65	4702
886.775	4725
886.9	4904
887.025	5037
887.149	4790
887.274	4637
887.399	4577
887.523	4596
887.648	4596
887.773	4550
887.897	4691
888.021	4809
888.146	4672
888.27	4801
888.395	4927
888.519	4790
888.643	4820
888.767	4835
888.891	4691
889.015	4622
889.139	4641
889.263	4546
889.387	4763
889.511	4831
889.635	4801
889.759	4626
889.883	4626
890.006	4759
890.13	4847
890.254	4660
890.377	4645
890.501	4523
890.624	4523
890.748	4641
890.871	4508
890.995	4417
891.118	4379
891.241	4550
891.364	4542
891.488	4634
891.611	4519
891.734	4527
891.857	4596
891.98	4565
892.103	4675
892.226	4634
892.349	4527
892.471	4394
892.594	4527
892.717	4573
892.839	4527
892.962	4573
893.085	4698
893.207	4618
893.33	4459
893.452	4535
893.575	4653
893.697	4626
893.819	4782
893.941	4831
894.064	4767
894.186	4577
894.308	4565
894.43	4736
894.552	4847
894.674	4767
894.796	4599
894.918	4580
895.04	4531
895.161	4725
895.283	4653
895.405	4535
895.526	4641
895.648	4649
895.769	4672
895.891	4721
896.012	4725
896.134	4729
896.255	4660
896.376	4641
896.498	4611
896.619	4721
896.74	4618
896.861	4649
896.982	4934
897.103	5067
897.224	4809
897.345	4744
897.466	4687
897.587	4687
897.708	4870
897.828	4831
897.949	4675
898.07	4573
898.19	4580
898.311	4793
898.431	4618
898.552	4702
898.672	4793
898.792	4759
898.913	4710
899.033	4599
899.153	4512
899.273	4409
899.393	4504
899.513	4489
899.633	4538
899.753	4497
899.873	4550
899.993	4588
900.113	4516
900.232	4561
900.352	4573
900.472	4462
900.591	4344
900.711	4516
900.83	4447
900.95	4603
901.069	4691
901.189	4554
901.308	4344
901.427	4325
901.546	4379
901.665	4470
901.784	4538
901.904	4402
902.023	4268
902.141	4196
902.26	4158
902.379	4295
902.498	4238
902.617	4207
902.735	4375
902.854	4386
902.973	4333
903.091	4207
903.21	4265
903.328	4303
903.446	4276
903.565	4280
903.683	4325
903.801	4242
903.919	4409
904.038	4432
904.156	4291
904.274	4413
904.392	4386
904.51	4421
904.627	4447
904.745	4603
904.863	4668
904.981	4390
905.098	4287
905.216	4367
905.334	4413
905.451	4432
905.569	4459
905.686	4565
905.803	4596
905.921	4413
906.038	4519
906.155	4500
906.272	4405
906.389	4500
906.506	4352
906.623	4363
906.74	4375
906.857	4325
906.974	4367
907.091	4542
907.208	4653
907.324	4519
907.441	4455
907.557	4291
907.674	4356
907.79	4310
907.907	4394
908.023	4531
908.139	4451
908.256	4424
908.372	4474
908.488	4470
908.604	4390
908.72	4287
908.836	4383
908.952	4344
909.068	4390
909.184	4546
909.3	4489
909.415	4516
909.531	4527
909.647	4371
909.762	4402
909.878	4318
909.993	4436
910.108	4386
910.224	4409
910.339	4470
910.454	4379
910.57	4390
910.685	4295
910.8	4698
910.915	4546
911.03	4493
911.145	4303
911.259	4329
911.374	4379
911.489	4341
911.604	4287
911.718	4227
911.833	4166
911.947	4063
912.062	4017
912.176	4280
912.291	4219
912.405	4246
912.519	4432
912.633	4538
912.748	4371
912.862	4299
912.976	4185
913.09	4078
913.204	4185
913.318	4303
913.431	4390
913.545	4352
913.659	4462
913.772	4325
913.886	4280
914	4200
914.113	4432
914.226	4394
914.34	4383
914.453	4196
914.566	4398
914.68	4318
914.793	4306
914.906	4154
915.019	4177
915.132	4082
915.245	4192
915.358	4215
915.47	4265
915.583	4299
915.696	4295
915.809	4371
915.921	4424
916.034	4268
916.146	4253
916.259	4257
916.371	4367
916.483	4383
916.595	4253
916.708	4280
916.82	4356
916.932	4337
917.044	4341
917.156	4318
917.268	4227
917.38	4314
917.491	4246
917.603	4367
917.715	4436
917.826	4470
917.938	4371
918.049	4246
918.161	4428
918.272	4542
918.384	4569
918.495	4436
918.606	4310
918.717	4276
918.828	4329
918.939	4360
919.05	4227
919.161	4257
919.272	4158
919.383	4246
919.494	4440
919.604	4630
919.715	4428
919.826	4367
919.936	4390
920.047	4523
920.157	4493
920.267	4736
920.378	4573
920.488	4474
920.598	4733
920.708	4862
920.818	4755
920.928	4778
921.038	4946
921.148	4896
921.258	4599
921.368	4554
921.477	4451
921.587	4466
921.697	4360
921.806	4565
921.916	4447
922.025	4238
922.134	4261
922.244	4261
922.353	4325
922.462	4181
922.571	4177
922.68	4021
922.789	3968
922.898	4013
923.007	4013
923.116	4093
923.224	4051
923.333	4086
923.442	3975
923.55	3975
923.659	4063
923.767	4097
923.876	4025
923.984	4097
924.092	3991
924.201	4032
924.309	4078
924.417	4124
924.525	4067
924.633	4135
924.741	5071
924.849	3869
924.956	4124
925.064	3941
925.172	3899
925.279	3983
925.387	4090
925.494	4051
925.602	4204
925.709	4207
925.816	4040
925.924	4150
926.031	4215
926.138	4128
926.245	4230
926.352	4090
926.459	4234
926.566	4280
926.673	4154
926.779	4101
926.886	4112
926.993	3964
927.099	3941
927.206	3918
927.312	3922
927.419	4059
927.525	4032
927.631	4082
927.737	3979
927.843	3911
927.95	3831
928.056	3960
928.162	3994
928.267	4048
928.373	4698
928.479	4078
928.585	3937
928.69	4032
928.796	4082
928.901	3956
929.007	3838
929.112	4021
929.218	3953
929.323	3953
929.428	3918
929.533	4067
929.638	3949
929.743	3945
929.848	4040
929.953	4006
930.058	3903
930.163	3740
930.267	3831
930.372	3964
930.477	3797
930.581	4059
930.685	3964
930.79	3850
930.894	3865
930.998	3903
931.103	4071
931.207	3705
931.311	3713
931.415	3656
931.519	3515
931.623	3530
