Data from test_V78500241_2448.txt Node
Date: Fri Mar 25 17:06:01 CST 2022
User: usil
Spectrometer: V785-0024
Trigger mode: 0
Integration Time (sec): 4.000000E-1
Scans to average: 1
Nonlinearity correction enabled: false
Boxcar width: 0
Storing dark spectrum: false
XAxis mode: Wavelengths
Number of Pixels in Spectrum: 1024
>>>>>Begin Spectral Data<<<<<
801.071	8024
801.214	8058
801.356	7921
801.499	7818
801.641	7784
801.783	7818
801.926	7959
802.068	8031
802.211	8016
802.353	8081
802.496	7883
802.638	7849
802.78	7997
802.923	7932
803.065	7879
803.208	7814
803.35	8024
803.492	8157
803.635	8244
803.777	8081
803.919	8164
804.061	8530
804.204	8229
804.346	8073
804.488	8027
804.63	8088
804.773	7982
804.915	8180
805.057	8328
805.199	8206
805.341	8214
805.483	8358
805.626	8282
805.768	8210
805.91	8202
806.052	8191
806.194	8096
806.336	8275
806.478	8096
806.62	8058
806.762	8138
806.904	8259
807.046	8480
807.188	8355
807.33	8355
807.472	8381
807.614	8206
807.756	8164
807.898	7993
808.04	7856
808.182	7902
808.324	7898
808.465	7890
808.607	8153
808.749	8096
808.891	8225
809.033	8324
809.174	8191
809.316	8130
809.458	7944
809.6	7997
809.741	8027
809.883	8058
810.025	8153
810.166	8092
810.308	8005
810.45	8039
810.591	7898
810.733	7799
810.875	7666
811.016	7563
811.158	7480
811.299	7563
811.441	7753
811.582	7693
811.724	7609
811.865	7582
812.007	7643
812.148	7582
812.29	7620
812.431	7738
812.573	7826
812.714	8005
812.855	8092
812.997	8195
813.138	8313
813.279	8164
813.421	8069
813.562	7928
813.703	7909
813.845	7765
813.986	7472
814.127	7255
814.268	7209
814.41	7168
814.551	7175
814.692	7244
814.833	7084
814.974	7080
815.115	7126
815.256	6939
815.397	6954
815.539	6939
815.68	6897
815.821	6772
815.962	6829
816.103	6890
816.244	6757
816.385	6597
816.526	6696
816.666	6517
816.807	6369
816.948	6403
817.089	6467
817.23	6498
817.371	6426
817.512	6448
817.653	6395
817.793	6418
817.934	6429
818.075	6509
818.216	6437
818.356	6361
818.497	6262
818.638	6152
818.778	6182
818.919	6155
819.06	6224
819.2	6361
819.341	6338
819.481	6388
819.622	6555
819.762	6715
819.903	6738
820.043	6620
820.184	6604
820.324	6509
820.465	6730
820.605	6684
820.746	6738
820.886	6559
821.026	6734
821.167	6700
821.307	6814
821.447	6791
821.588	6738
821.728	6612
821.868	6517
822.008	6391
822.149	6407
822.289	6391
822.429	6182
822.569	6125
822.709	6125
822.849	5988
822.99	5931
823.13	5961
823.27	5977
823.41	5798
823.55	5729
823.69	5748
823.83	5802
823.97	5703
824.11	5516
824.25	5543
824.389	5581
824.529	5604
824.669	5554
824.809	5608
824.949	5680
825.089	5623
825.228	5528
825.368	5455
825.508	5311
825.648	5398
825.787	5376
825.927	5402
826.067	5307
826.206	5296
826.346	5337
826.485	5349
826.625	5414
826.765	5535
826.904	5532
827.044	5254
827.183	5216
827.323	5185
827.462	5280
827.601	5143
827.741	5231
827.88	5216
828.02	5147
828.159	5254
828.298	5330
828.437	5383
828.577	5299
828.716	5512
828.855	5296
828.994	5178
829.134	5136
829.273	5174
829.412	5117
829.551	5136
829.69	5181
829.829	5250
829.968	5360
830.107	5326
830.246	5292
830.385	5174
830.524	5178
830.663	5056
830.802	4942
830.941	4915
831.08	4892
831.219	4987
831.357	4968
831.496	5155
831.635	4938
831.774	4850
831.913	4892
832.051	4691
832.19	4847
832.329	4816
832.467	4660
832.606	4664
832.744	4729
832.883	4748
833.022	4748
833.16	4809
833.299	4809
833.437	4843
833.576	4919
833.714	4858
833.852	4850
833.991	4908
834.129	4976
834.267	4919
834.406	4896
834.544	5022
834.682	4968
834.821	4953
834.959	5166
835.097	4976
835.235	5136
835.373	5086
835.511	5143
835.65	5060
835.788	5098
835.926	4938
836.064	4839
836.202	4946
836.34	5181
836.478	5239
836.615	5124
836.753	5216
836.891	5250
837.029	5261
837.167	5174
837.305	5178
837.443	5147
837.58	5025
837.718	5250
837.856	5216
837.993	5178
838.131	5223
838.269	5212
838.406	5223
838.544	5223
838.681	5037
838.819	5048
838.956	4957
839.094	4934
839.231	4949
839.369	5086
839.506	5505
839.643	5254
839.781	5014
839.918	5022
840.055	5098
840.193	5083
840.33	5075
840.467	5174
840.604	5193
840.742	5429
840.879	5098
841.016	5037
841.153	5124
841.29	5410
841.427	5353
841.564	5337
841.701	5357
841.838	5288
841.975	5239
842.112	5250
842.249	5124
842.385	5109
842.522	5273
842.659	5181
842.796	5109
842.933	5197
843.069	5147
843.206	5185
843.343	5311
843.479	5216
843.616	5273
843.752	5079
843.889	4953
844.025	5242
844.162	4987
844.298	5254
844.435	5136
844.571	5010
844.708	5246
844.844	5288
844.98	5273
845.117	5242
845.253	5102
845.389	5098
845.525	5159
845.661	5124
845.798	5075
845.934	5124
846.07	5029
846.206	5147
846.342	5246
846.478	5170
846.614	5041
846.75	4953
846.886	4968
847.022	5166
847.158	4972
847.294	5037
847.429	5067
847.565	5048
847.701	5296
847.837	4862
847.972	4831
848.108	4953
848.244	4949
848.379	4771
848.515	4733
848.65	4717
848.786	4767
848.921	4725
849.057	4870
849.192	4862
849.328	4816
849.463	4858
849.598	4771
849.734	4759
849.869	4668
850.004	4626
850.14	4710
850.275	4634
850.41	4538
850.545	4546
850.68	4622
850.815	4637
850.95	4592
851.085	4850
851.22	4755
851.355	4653
851.49	4626
851.625	4596
851.76	4675
851.895	4580
852.03	4565
852.165	4649
852.299	4729
852.434	4816
852.569	4790
852.703	4763
852.838	4896
852.973	4961
853.107	4942
853.242	4767
853.376	4714
853.511	4588
853.645	4649
853.78	4809
853.914	4736
854.048	4691
854.183	4672
854.317	4706
854.451	4911
854.585	4702
854.72	4687
854.854	4790
854.988	4649
855.122	4721
855.256	4550
855.39	4698
855.524	4824
855.658	4797
855.792	4725
855.926	4782
856.06	4816
856.194	4850
856.327	4717
856.461	4656
856.595	4618
856.729	4675
856.862	4820
856.996	4736
857.13	4778
857.263	4805
857.397	4843
857.53	4782
857.664	4744
857.797	4824
857.931	4809
858.064	4725
858.197	4763
858.331	4668
858.464	4672
858.597	4580
858.731	4664
858.864	4687
858.997	4592
859.13	4733
859.263	4725
859.396	4771
859.529	4653
859.662	4569
859.795	4596
859.928	4679
860.061	4771
860.194	4805
860.327	4618
860.46	4630
860.592	4714
860.725	4782
860.858	4786
860.99	4649
861.123	4542
861.256	4580
861.388	4615
861.521	5334
861.653	4489
861.786	4489
861.918	4493
862.05	4558
862.183	4607
862.315	4615
862.447	4637
862.58	4660
862.712	4512
862.844	4360
862.976	4527
863.108	4459
863.24	4793
863.372	4344
863.504	4455
863.636	4459
863.768	4497
863.9	4474
864.032	4421
864.164	4402
864.296	4485
864.428	4622
864.559	4641
864.691	4569
864.823	4573
864.954	4523
865.086	4542
865.217	4500
865.349	4481
865.48	4462
865.612	4577
865.743	4717
865.875	4531
866.006	4470
866.137	4493
866.269	4508
866.4	4489
866.531	4440
866.662	4447
866.793	4440
866.924	4455
867.055	4512
867.186	4466
867.317	4459
867.448	4394
867.579	4432
867.71	4428
867.841	4421
867.972	4485
868.103	4546
868.233	4462
868.364	4500
868.495	4489
868.625	4729
868.756	4816
868.886	4573
869.017	4668
869.147	4812
869.278	4801
869.408	4706
869.539	4672
869.669	4786
869.799	4656
869.929	4820
870.06	4755
870.19	4995
870.32	4995
870.45	4957
870.58	5033
870.71	5124
870.84	5151
870.97	4995
871.1	4980
871.23	5155
871.36	5170
871.489	5022
871.619	5113
871.749	5136
871.879	5147
872.008	5220
872.138	5083
872.267	5025
872.397	4896
872.526	4843
872.656	4782
872.785	4873
872.915	5045
873.044	5098
873.173	4957
873.303	5048
873.432	4980
873.561	4980
873.69	4942
873.819	4881
873.948	4961
874.077	4930
874.206	4805
874.335	4850
874.464	4965
874.593	5109
874.722	4991
874.851	5151
874.979	5014
875.108	5109
875.237	4987
875.365	4915
875.494	4911
875.623	5064
875.751	4858
875.88	4892
876.008	4984
876.136	5102
876.265	5242
876.393	5421
876.521	5239
876.65	5223
876.778	5204
876.906	5083
877.034	5033
877.162	5083
877.29	5006
877.418	5117
877.546	5056
877.674	5056
877.802	5083
877.93	5071
878.058	4930
878.185	4919
878.313	4999
878.441	4949
878.568	4858
878.696	4908
878.824	4995
878.951	5045
879.079	5155
879.206	5315
879.333	5155
879.461	5014
879.588	5033
879.715	5170
879.842	5265
879.97	5006
880.097	4774
880.224	4782
880.351	4858
880.478	4892
880.605	4824
880.732	4824
880.859	5071
880.986	4934
881.112	4953
881.239	4843
881.366	4755
881.493	4679
881.619	4615
881.746	4721
881.872	4710
881.999	4725
882.125	4721
882.252	4782
882.378	4858
882.505	4987
882.631	4858
882.757	4702
882.883	4752
883.01	4778
883.136	4698
883.262	4630
883.388	4653
883.514	4828
883.64	4904
883.766	4820
883.892	4748
884.018	4752
884.143	4919
884.269	5003
884.395	4710
884.52	4668
884.646	4679
884.772	4637
884.897	4630
885.023	4630
885.148	4786
885.274	4835
885.399	4870
885.524	4755
885.65	4752
885.775	4812
885.9	4733
886.025	4896
886.15	4831
886.275	4752
886.4	4740
886.525	4748
886.65	4687
886.775	4740
886.9	4889
887.025	5086
887.149	4847
887.274	4759
887.399	4615
887.523	4660
887.648	4554
887.773	4588
887.897	4835
888.021	4774
888.146	4702
888.27	4831
888.395	4968
888.519	4778
888.643	4839
888.767	4850
888.891	4725
889.015	4634
889.139	4656
889.263	4596
889.387	4793
889.511	4911
889.635	4812
889.759	4668
889.883	4637
890.006	4767
890.13	4858
890.254	4660
890.377	4706
890.501	4558
890.624	4523
890.748	4637
890.871	4558
890.995	4447
891.118	4375
891.241	4538
891.364	4599
891.488	4626
891.611	4531
891.734	4565
891.857	4653
891.98	4550
892.103	4706
892.226	4641
892.349	4558
892.471	4432
892.594	4622
892.717	4626
892.839	4622
892.962	4588
893.085	4694
893.207	4649
893.33	4470
893.452	4588
893.575	4649
893.697	4645
893.819	4847
893.941	4816
894.064	4782
894.186	4599
894.308	4546
894.43	4782
894.552	4847
894.674	4767
894.796	4558
894.918	4607
895.04	4588
895.161	4714
895.283	4672
895.405	4569
895.526	4702
895.648	4698
895.769	4714
895.891	4740
896.012	4824
896.134	4778
896.255	4683
896.376	4630
896.498	4596
896.619	4702
896.74	4630
896.861	4679
896.982	4965
897.103	5109
897.224	4793
897.345	4774
897.466	4702
897.587	4729
897.708	4854
897.828	4816
897.949	4698
898.07	4538
898.19	4645
898.311	4839
898.431	4702
898.552	4710
898.672	4805
898.792	4835
898.913	4733
899.033	4599
899.153	4542
899.273	4474
899.393	4470
899.513	4565
899.633	4580
899.753	4603
899.873	4546
899.993	4592
900.113	4573
900.232	4569
900.352	4512
900.472	4451
900.591	4352
900.711	4538
900.83	4512
900.95	4603
901.069	4683
901.189	4596
901.308	4386
901.427	4348
901.546	4352
901.665	4493
901.784	4550
901.904	4375
902.023	4329
902.141	4200
902.26	4200
902.379	4379
902.498	4318
902.617	4242
902.735	4409
902.854	4466
902.973	4348
903.091	4242
903.21	4242
903.328	4272
903.446	4318
903.565	4261
903.683	4432
903.801	4306
903.919	4443
904.038	4455
904.156	4356
904.274	4504
904.392	4390
904.51	4432
904.627	4531
904.745	4603
904.863	4607
904.981	4394
905.098	4333
905.216	4402
905.334	4443
905.451	4485
905.569	4478
905.686	4550
905.803	4577
905.921	4417
906.038	4569
906.155	4493
906.272	4421
906.389	4443
906.506	4314
906.623	4443
906.74	4394
906.857	4329
906.974	4371
907.091	4577
907.208	4714
907.324	4626
907.441	4550
907.557	4363
907.674	4375
907.79	4360
907.907	4424
908.023	4500
908.139	4523
908.256	4462
908.372	4470
908.488	4508
908.604	4383
908.72	4314
908.836	4424
908.952	4413
909.068	4478
909.184	4573
909.3	4527
909.415	4599
909.531	4531
909.647	4360
909.762	4409
909.878	4363
909.993	4485
910.108	4443
910.224	4436
910.339	4481
910.454	4409
910.57	4375
910.685	4322
910.8	4656
910.915	4592
911.03	4504
911.145	4333
911.259	4341
911.374	4394
911.489	4280
911.604	4280
911.718	4215
911.833	4185
911.947	4074
912.062	4032
912.176	4192
912.291	4249
912.405	4219
912.519	4512
912.633	4489
912.748	4375
912.862	4333
912.976	4223
913.09	4116
913.204	4200
913.318	4272
913.431	4428
913.545	4451
913.659	4398
913.772	4394
913.886	4268
914	4242
914.113	4436
914.226	4470
914.34	4383
914.453	4242
914.566	4462
914.68	4272
914.793	4287
914.906	4166
915.019	4147
915.132	4112
915.245	4234
915.358	4234
915.47	4287
915.583	4291
915.696	4322
915.809	4428
915.921	4436
916.034	4306
916.146	4268
916.259	4246
916.371	4363
916.483	4337
916.595	4276
916.708	4318
916.82	4352
916.932	4310
917.044	4367
917.156	4375
917.268	4272
917.38	4306
917.491	4318
917.603	4341
917.715	4436
917.826	4421
917.938	4379
918.049	4215
918.161	4394
918.272	4565
918.384	4546
918.495	4481
918.606	4284
918.717	4253
918.828	4333
918.939	4341
919.05	4268
919.161	4314
919.272	4158
919.383	4246
919.494	4409
919.604	4645
919.715	4413
919.826	4375
919.936	4394
920.047	4550
920.157	4538
920.267	4694
920.378	4577
920.488	4569
920.598	4729
920.708	4862
920.818	4767
920.928	4774
921.038	4961
921.148	4984
921.258	4645
921.368	4611
921.477	4500
921.587	4432
921.697	4375
921.806	4523
921.916	4436
922.025	4272
922.134	4261
922.244	4242
922.353	4375
922.462	4207
922.571	4135
922.68	4032
922.789	3987
922.898	4032
923.007	3979
923.116	4147
923.224	4109
923.333	4063
923.442	3994
923.55	4013
923.659	4017
923.767	4093
923.876	3987
923.984	4105
924.092	3979
924.201	4093
924.309	4112
924.417	4139
924.525	4074
924.633	4116
924.741	5056
924.849	3934
924.956	4078
925.064	3968
925.172	3915
925.279	3918
925.387	4082
925.494	4071
925.602	4215
925.709	4173
925.816	4051
925.924	4124
926.031	4181
926.138	4150
926.245	4215
926.352	4086
926.459	4284
926.566	4303
926.673	4131
926.779	4101
926.886	4082
926.993	3975
927.099	3979
927.206	3937
927.312	3926
927.419	4090
927.525	4040
927.631	4109
927.737	3941
927.843	3937
927.95	3835
928.056	3968
928.162	4010
928.267	4002
928.373	4702
928.479	4166
928.585	3888
928.69	4059
928.796	4078
928.901	4017
929.007	3888
929.112	4036
929.218	3975
929.323	3968
929.428	3953
929.533	4097
929.638	3915
929.743	3983
929.848	4032
929.953	4006
930.058	3884
930.163	3778
930.267	3846
930.372	4002
930.477	3827
930.581	4112
930.685	3934
930.79	3827
930.894	3937
930.998	3884
931.103	4036
931.207	3755
931.311	3690
931.415	3743
931.519	3511
931.623	3564
