Data from test_V78500241_1501.txt Node
Date: Fri Mar 25 16:59:26 CST 2022
User: usil
Spectrometer: V785-0024
Trigger mode: 0
Integration Time (sec): 4.000000E-1
Scans to average: 1
Nonlinearity correction enabled: false
Boxcar width: 0
Storing dark spectrum: false
XAxis mode: Wavelengths
Number of Pixels in Spectrum: 1024
>>>>>Begin Spectral Data<<<<<
801.071	8001
801.214	7963
801.356	7818
801.499	7845
801.641	7750
801.783	7803
801.926	8001
802.068	7947
802.211	7940
802.353	7913
802.496	7822
802.638	7822
802.78	7898
802.923	7936
803.065	7902
803.208	7826
803.35	7959
803.492	8031
803.635	8088
803.777	7997
803.919	8119
804.061	8423
804.204	8081
804.346	8069
804.488	7974
804.63	8084
804.773	7967
804.915	8100
805.057	8263
805.199	8161
805.341	8240
805.483	8187
805.626	8126
805.768	8062
805.91	8187
806.052	8180
806.194	8081
806.336	8233
806.478	8062
806.62	8073
806.762	8119
806.904	8218
807.046	8393
807.188	8381
807.33	8298
807.472	8332
807.614	8214
807.756	8123
807.898	7997
808.04	7860
808.182	7837
808.324	7845
808.465	7917
808.607	8050
808.749	8084
808.891	8123
809.033	8286
809.174	8153
809.316	8027
809.458	8073
809.6	8016
809.741	8050
809.883	8100
810.025	8054
810.166	8069
810.308	7993
810.45	7921
810.591	7822
810.733	7624
810.875	7643
811.016	7464
811.158	7514
811.299	7548
811.441	7708
811.582	7628
811.724	7601
811.865	7559
812.007	7544
812.148	7544
812.29	7647
812.431	7712
812.573	7890
812.714	7955
812.855	8115
812.997	8161
813.138	8252
813.279	8202
813.421	8092
813.562	7986
813.703	7852
813.845	7772
813.986	7472
814.127	7217
814.268	7278
814.41	7266
814.551	7183
814.692	7228
814.833	7069
814.974	7072
815.115	7122
815.256	6951
815.397	6924
815.539	6943
815.68	6821
815.821	6837
815.962	6856
816.103	6798
816.244	6631
816.385	6574
816.526	6540
816.666	6525
816.807	6319
816.948	6407
817.089	6403
817.23	6361
817.371	6346
817.512	6365
817.653	6277
817.793	6315
817.934	6395
818.075	6437
818.216	6460
818.356	6395
818.497	6209
818.638	6121
818.778	6106
818.919	6110
819.06	6175
819.2	6327
819.341	6342
819.481	6361
819.622	6502
819.762	6711
819.903	6673
820.043	6593
820.184	6551
820.324	6532
820.465	6684
820.605	6684
820.746	6608
820.886	6483
821.026	6616
821.167	6711
821.307	6738
821.447	6722
821.588	6684
821.728	6486
821.868	6429
822.008	6331
822.149	6391
822.289	6361
822.429	6140
822.569	6019
822.709	6102
822.849	5893
822.99	5893
823.13	5931
823.27	5904
823.41	5813
823.55	5805
823.69	5775
823.83	5756
823.97	5665
824.11	5505
824.25	5429
824.389	5566
824.529	5551
824.669	5509
824.809	5623
824.949	5611
825.089	5551
825.228	5486
825.368	5334
825.508	5307
825.648	5353
825.787	5383
825.927	5299
826.067	5269
826.206	5299
826.346	5353
826.485	5398
826.625	5383
826.765	5539
826.904	5433
827.044	5235
827.183	5174
827.323	5102
827.462	5181
827.601	5193
827.741	5132
827.88	5162
828.02	5098
828.159	5166
828.298	5250
828.437	5311
828.577	5261
828.716	5433
828.855	5299
828.994	5166
829.134	5067
829.273	5212
829.412	5102
829.551	5079
829.69	5151
829.829	5193
829.968	5311
830.107	5227
830.246	5273
830.385	5094
830.524	5094
830.663	5041
830.802	4976
830.941	4835
831.08	4828
831.219	4942
831.357	4957
831.496	5128
831.635	4919
831.774	4812
831.913	4820
832.051	4679
832.19	4740
832.329	4850
832.467	4702
832.606	4649
832.744	4725
832.883	4691
833.022	4759
833.16	4797
833.299	4790
833.437	4850
833.576	4793
833.714	4835
833.852	4896
833.991	4858
834.129	4972
834.267	4930
834.406	4900
834.544	4961
834.682	4938
834.821	4927
834.959	5151
835.097	4961
835.235	5166
835.373	5086
835.511	5109
835.65	4999
835.788	5033
835.926	4930
836.064	4866
836.202	4870
836.34	5193
836.478	5208
836.615	5128
836.753	5246
836.891	5288
837.029	5220
837.167	5216
837.305	5147
837.443	5170
837.58	5083
837.718	5261
837.856	5231
837.993	5170
838.131	5223
838.269	5277
838.406	5208
838.544	5277
838.681	5056
838.819	5060
838.956	4877
839.094	4930
839.231	4980
839.369	5079
839.506	5452
839.643	5307
839.781	5109
839.918	5064
840.055	5140
840.193	5105
840.33	5147
840.467	5178
840.604	5216
840.742	5493
840.879	5086
841.016	5132
841.153	5181
841.29	5372
841.427	5395
841.564	5368
841.701	5402
841.838	5303
841.975	5307
842.112	5296
842.249	5197
842.385	5136
842.522	5379
842.659	5166
842.796	5235
842.933	5212
843.069	5181
843.206	5155
843.343	5303
843.479	5284
843.616	5254
843.752	5098
843.889	5045
844.025	5307
844.162	5090
844.298	5208
844.435	5197
844.571	5090
844.708	5223
844.844	5235
844.98	5436
845.117	5326
845.253	5178
845.389	5121
845.525	5166
845.661	5181
845.798	5098
845.934	5170
846.07	5136
846.206	5216
846.342	5261
846.478	5239
846.614	5052
846.75	4991
846.886	4984
847.022	5181
847.158	5090
847.294	5105
847.429	5151
847.565	5105
847.701	5349
847.837	4866
847.972	4839
848.108	5003
848.244	4968
848.379	4782
848.515	4721
848.65	4736
848.786	4774
848.921	4786
849.057	4896
849.192	4930
849.328	4870
849.463	4866
849.598	4748
849.734	4831
849.869	4729
850.004	4664
850.14	4656
850.275	4618
850.41	4516
850.545	4592
850.68	4641
850.815	4668
850.95	4660
851.085	4805
851.22	4771
851.355	4725
851.49	4618
851.625	4656
851.76	4656
851.895	4565
852.03	4550
852.165	4664
852.299	4759
852.434	4809
852.569	4740
852.703	4790
852.838	4881
852.973	4927
853.107	4965
853.242	4771
853.376	4694
853.511	4565
853.645	4622
853.78	4831
853.914	4683
854.048	4664
854.183	4622
854.317	4710
854.451	4809
854.585	4721
854.72	4687
854.854	4748
854.988	4637
855.122	4664
855.256	4558
855.39	4694
855.524	4790
855.658	4755
855.792	4714
855.926	4786
856.06	4752
856.194	4767
856.327	4683
856.461	4630
856.595	4641
856.729	4637
856.862	4771
856.996	4736
857.13	4771
857.263	4774
857.397	4839
857.53	4702
857.664	4733
857.797	4831
857.931	4824
858.064	4710
858.197	4786
858.331	4691
858.464	4656
858.597	4542
858.731	4702
858.864	4691
858.997	4618
859.13	4672
859.263	4721
859.396	4717
859.529	4637
859.662	4580
859.795	4561
859.928	4653
860.061	4782
860.194	4809
860.327	4634
860.46	4599
860.592	4752
860.725	4725
860.858	4714
860.99	4615
861.123	4573
861.256	4554
861.388	4637
861.521	5376
861.653	4512
861.786	4466
861.918	4550
862.05	4554
862.183	4592
862.315	4641
862.447	4645
862.58	4577
862.712	4413
862.844	4371
862.976	4527
863.108	4523
863.24	4782
863.372	4409
863.504	4451
863.636	4417
863.768	4546
863.9	4455
864.032	4352
864.164	4383
864.296	4512
864.428	4577
864.559	4569
864.691	4531
864.823	4565
864.954	4558
865.086	4519
865.217	4489
865.349	4424
865.48	4455
865.612	4516
865.743	4656
865.875	4508
866.006	4474
866.137	4550
866.269	4504
866.4	4478
866.531	4459
866.662	4405
866.793	4459
866.924	4424
867.055	4546
867.186	4538
867.317	4440
867.448	4371
867.579	4424
867.71	4421
867.841	4363
867.972	4462
868.103	4489
868.233	4478
868.364	4447
868.495	4512
868.625	4675
868.756	4721
868.886	4603
869.017	4656
869.147	4778
869.278	4801
869.408	4698
869.539	4698
869.669	4736
869.799	4637
869.929	4759
870.06	4725
870.19	4968
870.32	5003
870.45	4957
870.58	5033
870.71	5121
870.84	5105
870.97	4972
871.1	4870
871.23	5159
871.36	5113
871.489	5052
871.619	5109
871.749	5136
871.879	5147
872.008	5201
872.138	5083
872.267	5048
872.397	4850
872.526	4824
872.656	4771
872.785	4854
872.915	4999
873.044	5075
873.173	4965
873.303	4980
873.432	4976
873.561	4946
873.69	4858
873.819	4847
873.948	4984
874.077	4816
874.206	4797
874.335	4824
874.464	4965
874.593	5067
874.722	4984
874.851	5109
874.979	5075
875.108	5060
875.237	4927
875.365	4896
875.494	4911
875.623	5010
875.751	4812
875.88	4900
876.008	4968
876.136	4991
876.265	5208
876.393	5349
876.521	5242
876.65	5258
876.778	5128
876.906	5132
877.034	5094
877.162	5105
877.29	4995
877.418	5060
877.546	5048
877.674	5025
877.802	5025
877.93	5033
878.058	4915
878.185	4881
878.313	4965
878.441	4968
878.568	4847
878.696	4866
878.824	4953
878.951	5018
879.079	5128
879.206	5235
879.333	5147
879.461	4991
879.588	4968
879.715	5124
879.842	5235
879.97	5010
880.097	4774
880.224	4721
880.351	4793
880.478	4862
880.605	4850
880.732	4797
880.859	5083
880.986	4911
881.112	4911
881.239	4786
881.366	4687
881.493	4637
881.619	4565
881.746	4634
881.872	4687
881.999	4672
882.125	4748
882.252	4809
882.378	4862
882.505	4942
882.631	4801
882.757	4694
882.883	4778
883.01	4763
883.136	4714
883.262	4634
883.388	4622
883.514	4820
883.64	4877
883.766	4812
883.892	4698
884.018	4736
884.143	4904
884.269	5048
884.395	4729
884.52	4626
884.646	4641
884.772	4664
884.897	4599
885.023	4679
885.148	4797
885.274	4885
885.399	4816
885.524	4744
885.65	4717
885.775	4805
885.9	4691
886.025	4889
886.15	4805
886.275	4740
886.4	4675
886.525	4752
886.65	4679
886.775	4714
886.9	4911
887.025	5029
887.149	4820
887.274	4706
887.399	4584
887.523	4592
887.648	4615
887.773	4580
887.897	4782
888.021	4831
888.146	4664
888.27	4835
888.395	4919
888.519	4801
888.643	4831
888.767	4839
888.891	4733
889.015	4656
889.139	4668
889.263	4637
889.387	4736
889.511	4900
889.635	4797
889.759	4653
889.883	4668
890.006	4744
890.13	4873
890.254	4618
890.377	4683
890.501	4603
890.624	4527
890.748	4668
890.871	4516
890.995	4470
891.118	4371
891.241	4558
891.364	4546
891.488	4675
891.611	4504
891.734	4580
891.857	4634
891.98	4573
892.103	4645
892.226	4561
892.349	4523
892.471	4428
892.594	4577
892.717	4603
892.839	4565
892.962	4626
893.085	4675
893.207	4622
893.33	4523
893.452	4554
893.575	4634
893.697	4592
893.819	4774
893.941	4801
894.064	4744
894.186	4588
894.308	4565
894.43	4706
894.552	4824
894.674	4725
894.796	4584
894.918	4584
895.04	4592
895.161	4714
895.283	4691
895.405	4664
895.526	4675
895.648	4710
895.769	4698
895.891	4702
896.012	4733
896.134	4733
896.255	4672
896.376	4645
896.498	4637
896.619	4664
896.74	4645
896.861	4615
896.982	4927
897.103	5113
897.224	4866
897.345	4698
897.466	4679
897.587	4759
897.708	4866
897.828	4748
897.949	4641
898.07	4599
898.19	4641
898.311	4828
898.431	4694
898.552	4748
898.672	4835
898.792	4793
898.913	4797
899.033	4683
899.153	4538
899.273	4451
899.393	4504
899.513	4565
899.633	4554
899.753	4565
899.873	4523
899.993	4550
900.113	4565
900.232	4599
900.352	4516
900.472	4470
900.591	4394
900.711	4516
900.83	4466
900.95	4607
901.069	4618
901.189	4607
901.308	4363
901.427	4325
901.546	4341
901.665	4493
901.784	4519
901.904	4413
902.023	4333
902.141	4158
902.26	4154
902.379	4306
902.498	4249
902.617	4223
902.735	4344
902.854	4424
902.973	4379
903.091	4261
903.21	4219
903.328	4291
903.446	4272
903.565	4253
903.683	4344
903.801	4306
903.919	4363
904.038	4402
904.156	4352
904.274	4432
904.392	4447
904.51	4428
904.627	4443
904.745	4558
904.863	4626
904.981	4417
905.098	4325
905.216	4367
905.334	4436
905.451	4443
905.569	4440
905.686	4554
905.803	4577
905.921	4436
906.038	4535
906.155	4500
906.272	4390
906.389	4481
906.506	4398
906.623	4413
906.74	4386
906.857	4303
906.974	4379
907.091	4558
907.208	4683
907.324	4660
907.441	4497
907.557	4341
907.674	4348
907.79	4318
907.907	4455
908.023	4478
908.139	4451
908.256	4413
908.372	4470
908.488	4485
908.604	4306
908.72	4329
908.836	4386
908.952	4333
909.068	4428
909.184	4542
909.3	4504
909.415	4622
909.531	4577
909.647	4356
909.762	4379
909.878	4322
909.993	4417
910.108	4428
910.224	4383
910.339	4459
910.454	4432
910.57	4375
910.685	4360
910.8	4687
910.915	4596
911.03	4519
911.145	4356
911.259	4322
911.374	4405
911.489	4325
911.604	4310
911.718	4211
911.833	4211
911.947	4097
912.062	4055
912.176	4211
912.291	4268
912.405	4253
912.519	4497
912.633	4531
912.748	4352
912.862	4341
912.976	4204
913.09	4109
913.204	4173
913.318	4261
913.431	4352
913.545	4360
913.659	4466
913.772	4352
913.886	4238
914	4188
914.113	4394
914.226	4489
914.34	4390
914.453	4276
914.566	4402
914.68	4318
914.793	4344
914.906	4181
915.019	4116
915.132	4101
915.245	4181
915.358	4223
915.47	4192
915.583	4287
915.696	4333
915.809	4402
915.921	4409
916.034	4265
916.146	4284
916.259	4207
916.371	4367
916.483	4348
916.595	4246
916.708	4303
916.82	4325
916.932	4341
917.044	4379
917.156	4310
917.268	4253
917.38	4257
917.491	4253
917.603	4348
917.715	4409
917.826	4443
917.938	4325
918.049	4249
918.161	4375
918.272	4561
918.384	4527
918.495	4371
918.606	4246
918.717	4238
918.828	4314
918.939	4413
919.05	4268
919.161	4318
919.272	4158
919.383	4230
919.494	4432
919.604	4645
919.715	4447
919.826	4379
919.936	4386
920.047	4569
920.157	4485
920.267	4672
920.378	4508
920.488	4561
920.598	4714
920.708	4927
920.818	4790
920.928	4759
921.038	4942
921.148	4942
921.258	4634
921.368	4531
921.477	4493
921.587	4474
921.697	4371
921.806	4558
921.916	4455
922.025	4265
922.134	4295
922.244	4234
922.353	4344
922.462	4154
922.571	4150
922.68	4021
922.789	4010
922.898	4036
923.007	4025
923.116	4101
923.224	4055
923.333	4032
923.442	3975
923.55	3994
923.659	3994
923.767	4059
923.876	3987
923.984	4147
924.092	3991
924.201	4105
924.309	4090
924.417	4097
924.525	4029
924.633	4158
924.741	4870
924.849	3934
924.956	4093
925.064	4021
925.172	3964
925.279	3956
925.387	4048
925.494	4086
925.602	4204
925.709	4166
925.816	4048
925.924	4181
926.031	4211
926.138	4181
926.245	4185
926.352	4112
926.459	4280
926.566	4299
926.673	4143
926.779	4093
926.886	4074
926.993	3987
927.099	3960
927.206	3930
927.312	3926
927.419	4059
927.525	4002
927.631	4124
927.737	3915
927.843	3934
927.95	3869
928.056	3960
928.162	3991
928.267	4055
928.373	4611
928.479	4090
928.585	3835
928.69	4013
928.796	4063
928.901	3949
929.007	3842
929.112	3994
929.218	3949
929.323	3956
929.428	3945
929.533	4131
929.638	3888
929.743	3956
929.848	4051
929.953	3968
930.058	3956
930.163	3743
930.267	3838
930.372	3987
930.477	3808
930.581	4082
930.685	3926
930.79	3823
930.894	3876
930.998	3865
931.103	4036
931.207	3717
931.311	3705
931.415	3644
931.519	3530
931.623	3576
