Data from test_V78500241_1698.txt Node
Date: Fri Mar 25 17:00:48 CST 2022
User: usil
Spectrometer: V785-0024
Trigger mode: 0
Integration Time (sec): 4.000000E-1
Scans to average: 1
Nonlinearity correction enabled: false
Boxcar width: 0
Storing dark spectrum: false
XAxis mode: Wavelengths
Number of Pixels in Spectrum: 1024
>>>>>Begin Spectral Data<<<<<
801.071	8031
801.214	8058
801.356	7822
801.499	7868
801.641	7826
801.783	7814
801.926	7959
802.068	7890
802.211	8001
802.353	7997
802.496	7864
802.638	7864
802.78	7856
802.923	7963
803.065	7841
803.208	7871
803.35	7993
803.492	8058
803.635	8153
803.777	7997
803.919	8145
804.061	8381
804.204	8183
804.346	8134
804.488	7947
804.63	8073
804.773	8043
804.915	8069
805.057	8324
805.199	8168
805.341	8248
805.483	8309
805.626	8153
805.768	8073
805.91	8225
806.052	8263
806.194	8134
806.336	8259
806.478	8138
806.62	8024
806.762	8103
806.904	8279
807.046	8438
807.188	8370
807.33	8286
807.472	8347
807.614	8199
807.756	8115
807.898	8065
808.04	7871
808.182	7890
808.324	7925
808.465	7894
808.607	8062
808.749	8069
808.891	8153
809.033	8279
809.174	8233
809.316	8043
809.458	8081
809.6	8058
809.741	8084
809.883	7993
810.025	8115
810.166	8050
810.308	8016
810.45	8027
810.591	7818
810.733	7696
810.875	7693
811.016	7521
811.158	7411
811.299	7597
811.441	7689
811.582	7647
811.724	7628
811.865	7533
812.007	7540
812.148	7525
812.29	7616
812.431	7803
812.573	7860
812.714	7959
812.855	8119
812.997	8256
813.138	8339
813.279	8180
813.421	8035
813.562	8020
813.703	7890
813.845	7681
813.986	7438
814.127	7236
814.268	7206
814.41	7152
814.551	7183
814.692	7213
814.833	7088
814.974	7175
815.115	7168
815.256	6996
815.397	6935
815.539	6962
815.68	6825
815.821	6810
815.962	6837
816.103	6829
816.244	6696
816.385	6646
816.526	6631
816.666	6467
816.807	6323
816.948	6452
817.089	6429
817.23	6433
817.371	6357
817.512	6357
817.653	6395
817.793	6437
817.934	6384
818.075	6445
818.216	6414
818.356	6365
818.497	6235
818.638	6121
818.778	6152
818.919	6178
819.06	6114
819.2	6247
819.341	6292
819.481	6391
819.622	6536
819.762	6745
819.903	6646
820.043	6635
820.184	6589
820.324	6506
820.465	6654
820.605	6692
820.746	6627
820.886	6532
821.026	6650
821.167	6730
821.307	6753
821.447	6772
821.588	6639
821.728	6563
821.868	6506
822.008	6315
822.149	6350
822.289	6334
822.429	6224
822.569	6102
822.709	6110
822.849	5878
822.99	5939
823.13	5866
823.27	5946
823.41	5790
823.55	5756
823.69	5805
823.83	5737
823.97	5672
824.11	5543
824.25	5467
824.389	5532
824.529	5570
824.669	5547
824.809	5608
824.949	5627
825.089	5611
825.228	5558
825.368	5414
825.508	5315
825.648	5296
825.787	5345
825.927	5406
826.067	5265
826.206	5254
826.346	5360
826.485	5395
826.625	5440
826.765	5615
826.904	5433
827.044	5220
827.183	5216
827.323	5147
827.462	5239
827.601	5174
827.741	5181
827.88	5201
828.02	5090
828.159	5212
828.298	5326
828.437	5337
828.577	5239
828.716	5501
828.855	5326
828.994	5193
829.134	5136
829.273	5170
829.412	5094
829.551	5143
829.69	5170
829.829	5227
829.968	5387
830.107	5216
830.246	5261
830.385	5136
830.524	5189
830.663	5071
830.802	4949
830.941	4885
831.08	4847
831.219	4980
831.357	4938
831.496	5143
831.635	4877
831.774	4850
831.913	4850
832.051	4694
832.19	4748
832.329	4839
832.467	4698
832.606	4599
832.744	4748
832.883	4721
833.022	4710
833.16	4748
833.299	4862
833.437	4801
833.576	4854
833.714	4904
833.852	4927
833.991	4885
834.129	4984
834.267	4927
834.406	4889
834.544	4949
834.682	4972
834.821	4991
834.959	5105
835.097	4999
835.235	5117
835.373	5064
835.511	5056
835.65	5037
835.788	4942
835.926	4900
836.064	4877
836.202	4889
836.34	5178
836.478	5189
836.615	5140
836.753	5220
836.891	5246
837.029	5239
837.167	5197
837.305	5117
837.443	5189
837.58	5090
837.718	5239
837.856	5204
837.993	5159
838.131	5162
838.269	5204
838.406	5151
838.544	5170
838.681	4999
838.819	5025
838.956	4866
839.094	4938
839.231	4934
839.369	5128
839.506	5391
839.643	5246
839.781	5075
839.918	4987
840.055	5083
840.193	5086
840.33	5124
840.467	5094
840.604	5220
840.742	5448
840.879	5067
841.016	5079
841.153	5143
841.29	5372
841.427	5357
841.564	5307
841.701	5334
841.838	5246
841.975	5212
842.112	5277
842.249	5140
842.385	5048
842.522	5334
842.659	5117
842.796	5181
842.933	5162
843.069	5178
843.206	5151
843.343	5322
843.479	5231
843.616	5223
843.752	4991
843.889	4957
844.025	5170
844.162	5022
844.298	5204
844.435	5117
844.571	5029
844.708	5174
844.844	5254
844.98	5345
845.117	5269
845.253	5124
845.389	5083
845.525	5162
845.661	5132
845.798	5029
845.934	5109
846.07	5083
846.206	5159
846.342	5341
846.478	5159
846.614	5018
846.75	4961
846.886	4976
847.022	5170
847.158	5037
847.294	5098
847.429	5083
847.565	5018
847.701	5337
847.837	4870
847.972	4771
848.108	4984
848.244	4911
848.379	4717
848.515	4763
848.65	4702
848.786	4725
848.921	4771
849.057	4843
849.192	4877
849.328	4786
849.463	4858
849.598	4824
849.734	4691
849.869	4721
850.004	4603
850.14	4641
850.275	4603
850.41	4538
850.545	4516
850.68	4603
850.815	4611
850.95	4603
851.085	4858
851.22	4752
851.355	4653
851.49	4584
851.625	4618
851.76	4687
851.895	4554
852.03	4554
852.165	4687
852.299	4710
852.434	4782
852.569	4698
852.703	4782
852.838	4793
852.973	4911
853.107	4908
853.242	4733
853.376	4683
853.511	4512
853.645	4645
853.78	4782
853.914	4645
854.048	4645
854.183	4668
854.317	4755
854.451	4900
854.585	4615
854.72	4660
854.854	4733
854.988	4611
855.122	4618
855.256	4516
855.39	4683
855.524	4786
855.658	4698
855.792	4634
855.926	4706
856.06	4721
856.194	4767
856.327	4679
856.461	4588
856.595	4599
856.729	4577
856.862	4706
856.996	4706
857.13	4736
857.263	4805
857.397	4809
857.53	4615
857.664	4706
857.797	4771
857.931	4702
858.064	4668
858.197	4774
858.331	4607
858.464	4573
858.597	4508
858.731	4645
858.864	4645
858.997	4550
859.13	4615
859.263	4603
859.396	4675
859.529	4569
859.662	4573
859.795	4542
859.928	4641
860.061	4748
860.194	4736
860.327	4618
860.46	4527
860.592	4694
860.725	4706
860.858	4717
860.99	4538
861.123	4527
861.256	4535
861.388	4637
861.521	5235
861.653	4508
861.786	4443
861.918	4500
862.05	4527
862.183	4489
862.315	4603
862.447	4668
862.58	4546
862.712	4402
862.844	4284
862.976	4470
863.108	4462
863.24	4892
863.372	4329
863.504	4413
863.636	4421
863.768	4489
863.9	4417
864.032	4371
864.164	4398
864.296	4478
864.428	4542
864.559	4577
864.691	4535
864.823	4466
864.954	4481
865.086	4504
865.217	4421
865.349	4409
865.48	4451
865.612	4481
865.743	4637
865.875	4440
866.006	4432
866.137	4440
866.269	4417
866.4	4424
866.531	4398
866.662	4375
866.793	4443
866.924	4375
867.055	4504
867.186	4436
867.317	4413
867.448	4356
867.579	4394
867.71	4424
867.841	4386
867.972	4443
868.103	4497
868.233	4500
868.364	4466
868.495	4466
868.625	4672
868.756	4752
868.886	4603
869.017	4580
869.147	4774
869.278	4805
869.408	4626
869.539	4645
869.669	4744
869.799	4653
869.929	4759
870.06	4698
870.19	4919
870.32	4896
870.45	4984
870.58	5033
870.71	5079
870.84	5075
870.97	4938
871.1	4900
871.23	5079
871.36	5128
871.489	5052
871.619	5056
871.749	5075
871.879	5067
872.008	5174
872.138	5064
872.267	4942
872.397	4843
872.526	4847
872.656	4702
872.785	4782
872.915	4923
873.044	5022
873.173	4927
873.303	4976
873.432	4953
873.561	4938
873.69	4858
873.819	4805
873.948	4862
874.077	4809
874.206	4778
874.335	4790
874.464	4877
874.593	5064
874.722	4957
874.851	5124
874.979	5060
875.108	4972
875.237	4911
875.365	4847
875.494	4889
875.623	4972
875.751	4828
875.88	4900
876.008	4923
876.136	5006
876.265	5212
876.393	5307
876.521	5223
876.65	5204
876.778	5178
876.906	4991
877.034	5060
877.162	4999
877.29	4999
877.418	5056
877.546	5033
877.674	5052
877.802	4965
877.93	4968
878.058	4915
878.185	4866
878.313	4915
878.441	4885
878.568	4812
878.696	4858
878.824	4995
878.951	4984
879.079	5083
879.206	5242
879.333	5075
879.461	4980
879.588	4991
879.715	5064
879.842	5231
879.97	4999
880.097	4797
880.224	4805
880.351	4805
880.478	4850
880.605	4801
880.732	4778
880.859	5140
880.986	4835
881.112	4896
881.239	4793
881.366	4672
881.493	4634
881.619	4588
881.746	4641
881.872	4596
881.999	4660
882.125	4687
882.252	4797
882.378	4786
882.505	4938
882.631	4820
882.757	4653
882.883	4729
883.01	4721
883.136	4679
883.262	4580
883.388	4569
883.514	4828
883.64	4820
883.766	4801
883.892	4637
884.018	4664
884.143	4896
884.269	4995
884.395	4656
884.52	4630
884.646	4637
884.772	4565
884.897	4577
885.023	4645
885.148	4812
885.274	4824
885.399	4763
885.524	4672
885.65	4664
885.775	4771
885.9	4694
886.025	4858
886.15	4824
886.275	4729
886.4	4706
886.525	4710
886.65	4630
886.775	4687
886.9	4900
887.025	5083
887.149	4790
887.274	4664
887.399	4580
887.523	4580
887.648	4603
887.773	4580
887.897	4748
888.021	4748
888.146	4702
888.27	4820
888.395	4904
888.519	4790
888.643	4816
888.767	4793
888.891	4687
889.015	4622
889.139	4630
889.263	4599
889.387	4767
889.511	4854
889.635	4850
889.759	4672
889.883	4675
890.006	4714
890.13	4828
890.254	4656
890.377	4687
890.501	4527
890.624	4508
890.748	4664
890.871	4485
890.995	4409
891.118	4386
891.241	4493
891.364	4493
891.488	4626
891.611	4474
891.734	4596
891.857	4637
891.98	4561
892.103	4611
892.226	4565
892.349	4538
892.471	4398
892.594	4516
892.717	4577
892.839	4565
892.962	4558
893.085	4679
893.207	4573
893.33	4455
893.452	4516
893.575	4660
893.697	4577
893.819	4790
893.941	4805
894.064	4793
894.186	4569
894.308	4580
894.43	4698
894.552	4812
894.674	4725
894.796	4561
894.918	4550
895.04	4565
895.161	4721
895.283	4660
895.405	4596
895.526	4630
895.648	4698
895.769	4733
895.891	4748
896.012	4733
896.134	4729
896.255	4664
896.376	4653
896.498	4569
896.619	4675
896.74	4554
896.861	4668
896.982	4911
897.103	5033
897.224	4850
897.345	4801
897.466	4683
897.587	4733
897.708	4850
897.828	4752
897.949	4630
898.07	4561
898.19	4675
898.311	4782
898.431	4634
898.552	4725
898.672	4835
898.792	4721
898.913	4679
899.033	4565
899.153	4474
899.273	4443
899.393	4512
899.513	4516
899.633	4508
899.753	4577
899.873	4523
899.993	4599
900.113	4538
900.232	4592
900.352	4550
900.472	4451
900.591	4375
900.711	4478
900.83	4398
900.95	4618
901.069	4656
901.189	4538
901.308	4318
901.427	4344
901.546	4390
901.665	4523
901.784	4535
901.904	4413
902.023	4344
902.141	4158
902.26	4154
902.379	4325
902.498	4238
902.617	4223
902.735	4371
902.854	4360
902.973	4306
903.091	4219
903.21	4185
903.328	4287
903.446	4242
903.565	4257
903.683	4352
903.801	4261
903.919	4375
904.038	4459
904.156	4306
904.274	4405
904.392	4421
904.51	4375
904.627	4493
904.745	4603
904.863	4630
904.981	4394
905.098	4318
905.216	4363
905.334	4348
905.451	4398
905.569	4447
905.686	4577
905.803	4584
905.921	4394
906.038	4550
906.155	4481
906.272	4398
906.389	4478
906.506	4329
906.623	4363
906.74	4371
906.857	4299
906.974	4383
907.091	4554
907.208	4679
907.324	4584
907.441	4516
907.557	4363
907.674	4333
907.79	4322
907.907	4383
908.023	4470
908.139	4443
908.256	4455
908.372	4436
908.488	4459
908.604	4348
908.72	4303
908.836	4329
908.952	4337
909.068	4462
909.184	4618
909.3	4459
909.415	4554
909.531	4558
909.647	4402
909.762	4398
909.878	4337
909.993	4432
910.108	4356
910.224	4383
910.339	4500
910.454	4398
910.57	4344
910.685	4318
910.8	4656
910.915	4580
911.03	4512
911.145	4356
911.259	4306
911.374	4314
911.489	4306
911.604	4314
911.718	4147
911.833	4249
911.947	4109
912.062	4006
912.176	4223
912.291	4230
912.405	4253
912.519	4489
912.633	4516
912.748	4344
912.862	4265
912.976	4207
913.09	4078
913.204	4147
913.318	4291
913.431	4363
913.545	4383
913.659	4417
913.772	4352
913.886	4272
914	4238
914.113	4367
914.226	4440
914.34	4383
914.453	4253
914.566	4428
914.68	4253
914.793	4310
914.906	4131
915.019	4150
915.132	4097
915.245	4154
915.358	4219
915.47	4246
915.583	4265
915.696	4265
915.809	4386
915.921	4352
916.034	4219
916.146	4242
916.259	4230
916.371	4383
916.483	4363
916.595	4238
916.708	4299
916.82	4337
916.932	4268
917.044	4303
917.156	4333
917.268	4238
917.38	4268
917.491	4306
917.603	4291
917.715	4451
917.826	4421
917.938	4333
918.049	4249
918.161	4360
918.272	4470
918.384	4508
918.495	4451
918.606	4276
918.717	4215
918.828	4329
918.939	4379
919.05	4249
919.161	4325
919.272	4090
919.383	4223
919.494	4432
919.604	4618
919.715	4375
919.826	4371
919.936	4383
920.047	4474
920.157	4485
920.267	4679
920.378	4542
920.488	4504
920.598	4668
920.708	4889
920.818	4793
920.928	4755
921.038	4957
921.148	4946
921.258	4664
921.368	4592
921.477	4508
921.587	4474
921.697	4363
921.806	4535
921.916	4424
922.025	4200
922.134	4249
922.244	4204
922.353	4329
922.462	4166
922.571	4150
922.68	4044
922.789	4006
922.898	4044
923.007	3998
923.116	4071
923.224	4032
923.333	4074
923.442	3991
923.55	3926
923.659	4002
923.767	4093
923.876	3987
923.984	4105
924.092	3945
924.201	4063
924.309	4063
924.417	4135
924.525	4044
924.633	4101
924.741	4904
924.849	3911
924.956	4112
925.064	3930
925.172	3861
925.279	3968
925.387	4025
925.494	4036
925.602	4200
925.709	4219
925.816	4010
925.924	4120
926.031	4284
926.138	4158
926.245	4227
926.352	4067
926.459	4249
926.566	4329
926.673	4173
926.779	4109
926.886	4074
926.993	4013
927.099	3926
927.206	3979
927.312	3926
927.419	3983
927.525	4078
927.631	4097
927.737	3975
927.843	3911
927.95	3812
928.056	3945
928.162	4017
928.267	4059
928.373	4710
928.479	4135
928.585	3854
928.69	4032
928.796	4040
928.901	3972
929.007	3838
929.112	3949
929.218	3983
929.323	3953
929.428	3918
929.533	4048
929.638	3922
929.743	3934
929.848	4044
929.953	3975
930.058	3915
930.163	3751
930.267	3827
930.372	3956
930.477	3797
930.581	4082
930.685	3926
930.79	3854
930.894	3880
930.998	3842
931.103	4048
931.207	3720
931.311	3698
931.415	3652
931.519	3481
931.623	3519
