Data from test_V78500241_1513.txt Node
Date: Fri Mar 25 16:59:31 CST 2022
User: usil
Spectrometer: V785-0024
Trigger mode: 0
Integration Time (sec): 4.000000E-1
Scans to average: 1
Nonlinearity correction enabled: false
Boxcar width: 0
Storing dark spectrum: false
XAxis mode: Wavelengths
Number of Pixels in Spectrum: 1024
>>>>>Begin Spectral Data<<<<<
801.071	8035
801.214	8024
801.356	7925
801.499	7917
801.641	7845
801.783	7807
801.926	7993
802.068	7928
802.211	7970
802.353	7967
802.496	7833
802.638	7864
802.78	7967
802.923	8092
803.065	7936
803.208	7951
803.35	7959
803.492	8103
803.635	8157
803.777	7986
803.919	8119
804.061	8412
804.204	8161
804.346	8123
804.488	7963
804.63	8123
804.773	8024
804.915	8130
805.057	8294
805.199	8237
805.341	8244
805.483	8210
805.626	8172
805.768	8107
805.91	8221
806.052	8244
806.194	8180
806.336	8256
806.478	8054
806.62	8062
806.762	8149
806.904	8313
807.046	8457
807.188	8328
807.33	8374
807.472	8355
807.614	8191
807.756	8176
807.898	8012
808.04	7921
808.182	7932
808.324	7989
808.465	7909
808.607	8103
808.749	8115
808.891	8210
809.033	8389
809.174	8244
809.316	8088
809.458	8065
809.6	8016
809.741	8046
809.883	8043
810.025	8103
810.166	8069
810.308	8046
810.45	8039
810.591	7875
810.733	7753
810.875	7666
811.016	7571
811.158	7518
811.299	7647
811.441	7753
811.582	7746
811.724	7575
811.865	7483
812.007	7597
812.148	7624
812.29	7594
812.431	7693
812.573	7830
812.714	7909
812.855	8172
812.997	8248
813.138	8324
813.279	8309
813.421	8157
813.562	7997
813.703	7830
813.845	7746
813.986	7403
814.127	7266
814.268	7217
814.41	7160
814.551	7175
814.692	7213
814.833	7145
814.974	7110
815.115	7080
815.256	7004
815.397	6886
815.539	6894
815.68	6833
815.821	6776
815.962	6848
816.103	6852
816.244	6768
816.385	6585
816.526	6642
816.666	6486
816.807	6346
816.948	6445
817.089	6437
817.23	6494
817.371	6323
817.512	6308
817.653	6380
817.793	6338
817.934	6418
818.075	6452
818.216	6445
818.356	6433
818.497	6254
818.638	6144
818.778	6129
818.919	6251
819.06	6194
819.2	6289
819.341	6372
819.481	6350
819.622	6490
819.762	6715
819.903	6753
820.043	6650
820.184	6582
820.324	6574
820.465	6760
820.605	6776
820.746	6658
820.886	6551
821.026	6665
821.167	6726
821.307	6795
821.447	6791
821.588	6700
821.728	6540
821.868	6536
822.008	6331
822.149	6380
822.289	6319
822.429	6194
822.569	6072
822.709	6129
822.849	5961
822.99	5897
823.13	5866
823.27	5878
823.41	5794
823.55	5836
823.69	5722
823.83	5809
823.97	5710
824.11	5509
824.25	5505
824.389	5558
824.529	5570
824.669	5600
824.809	5608
824.949	5653
825.089	5634
825.228	5551
825.368	5429
825.508	5315
825.648	5345
825.787	5391
825.927	5429
826.067	5299
826.206	5235
826.346	5421
826.485	5417
826.625	5425
826.765	5577
826.904	5467
827.044	5239
827.183	5208
827.323	5124
827.462	5258
827.601	5197
827.741	5201
827.88	5220
828.02	5140
828.159	5208
828.298	5269
828.437	5406
828.577	5296
828.716	5406
828.855	5357
828.994	5140
829.134	5178
829.273	5185
829.412	5143
829.551	5147
829.69	5166
829.829	5208
829.968	5345
830.107	5265
830.246	5258
830.385	5204
830.524	5140
830.663	5037
830.802	4980
830.941	4892
831.08	4919
831.219	4927
831.357	4972
831.496	5136
831.635	4953
831.774	4847
831.913	4824
832.051	4725
832.19	4752
832.329	4831
832.467	4664
832.606	4626
832.744	4748
832.883	4664
833.022	4725
833.16	4759
833.299	4816
833.437	4805
833.576	4839
833.714	4900
833.852	4885
833.991	4911
834.129	4957
834.267	4961
834.406	4881
834.544	4980
834.682	4965
834.821	4953
834.959	5143
835.097	5010
835.235	5132
835.373	5064
835.511	5132
835.65	5045
835.788	5037
835.926	4881
836.064	4831
836.202	4885
836.34	5151
836.478	5181
836.615	5174
836.753	5193
836.891	5273
837.029	5258
837.167	5223
837.305	5159
837.443	5155
837.58	5102
837.718	5231
837.856	5197
837.993	5162
838.131	5273
838.269	5273
838.406	5181
838.544	5208
838.681	5083
838.819	5041
838.956	4900
839.094	4904
839.231	5014
839.369	5090
839.506	5425
839.643	5322
839.781	5052
839.918	5010
840.055	5067
840.193	5159
840.33	5075
840.467	5147
840.604	5197
840.742	5414
840.879	5067
841.016	5071
841.153	5079
841.29	5402
841.427	5315
841.564	5353
841.701	5315
841.838	5254
841.975	5223
842.112	5197
842.249	5140
842.385	5094
842.522	5330
842.659	5109
842.796	5140
842.933	5181
843.069	5155
843.206	5140
843.343	5318
843.479	5273
843.616	5261
843.752	5045
843.889	4946
844.025	5254
844.162	5033
844.298	5201
844.435	5048
844.571	5029
844.708	5185
844.844	5280
844.98	5311
845.117	5307
845.253	5124
845.389	5117
845.525	5143
845.661	5117
845.798	5041
845.934	5098
846.07	5064
846.206	5235
846.342	5277
846.478	5185
846.614	4984
846.75	4961
846.886	4957
847.022	5170
847.158	4991
847.294	5071
847.429	5086
847.565	5022
847.701	5341
847.837	4809
847.972	4778
848.108	4930
848.244	4934
848.379	4820
848.515	4710
848.65	4694
848.786	4733
848.921	4786
849.057	4900
849.192	4873
849.328	4763
849.463	4816
849.598	4793
849.734	4778
849.869	4778
850.004	4634
850.14	4645
850.275	4599
850.41	4538
850.545	4569
850.68	4611
850.815	4618
850.95	4679
851.085	4866
851.22	4736
851.355	4694
851.49	4592
851.625	4641
851.76	4672
851.895	4558
852.03	4561
852.165	4660
852.299	4755
852.434	4763
852.569	4767
852.703	4839
852.838	4850
852.973	4968
853.107	4968
853.242	4771
853.376	4672
853.511	4599
853.645	4641
853.78	4812
853.914	4694
854.048	4706
854.183	4672
854.317	4740
854.451	4828
854.585	4698
854.72	4683
854.854	4854
854.988	4607
855.122	4675
855.256	4558
855.39	4706
855.524	4782
855.658	4767
855.792	4714
855.926	4778
856.06	4771
856.194	4824
856.327	4740
856.461	4637
856.595	4622
856.729	4694
856.862	4835
856.996	4702
857.13	4771
857.263	4790
857.397	4870
857.53	4691
857.664	4752
857.797	4786
857.931	4797
858.064	4675
858.197	4748
858.331	4664
858.464	4630
858.597	4554
858.731	4618
858.864	4691
858.997	4641
859.13	4736
859.263	4706
859.396	4733
859.529	4611
859.662	4588
859.795	4573
859.928	4687
860.061	4778
860.194	4755
860.327	4664
860.46	4622
860.592	4714
860.725	4786
860.858	4759
860.99	4592
861.123	4538
861.256	4527
861.388	4649
861.521	5334
861.653	4500
861.786	4405
861.918	4466
862.05	4504
862.183	4577
862.315	4645
862.447	4702
862.58	4573
862.712	4421
862.844	4352
862.976	4531
863.108	4443
863.24	4778
863.372	4375
863.504	4459
863.636	4443
863.768	4531
863.9	4478
864.032	4398
864.164	4413
864.296	4516
864.428	4592
864.559	4481
864.691	4580
864.823	4516
864.954	4538
865.086	4523
865.217	4493
865.349	4451
865.48	4485
865.612	4554
865.743	4702
865.875	4500
866.006	4481
866.137	4512
866.269	4466
866.4	4516
866.531	4451
866.662	4409
866.793	4417
866.924	4459
867.055	4508
867.186	4478
867.317	4459
867.448	4390
867.579	4402
867.71	4436
867.841	4386
867.972	4512
868.103	4481
868.233	4500
868.364	4500
868.495	4489
868.625	4653
868.756	4778
868.886	4592
869.017	4672
869.147	4786
869.278	4797
869.408	4717
869.539	4660
869.669	4740
869.799	4668
869.929	4831
870.06	4797
870.19	4965
870.32	4938
870.45	4961
870.58	5022
870.71	5121
870.84	5102
870.97	4949
871.1	4980
871.23	5204
871.36	5128
871.489	5075
871.619	5083
871.749	5094
871.879	5193
872.008	5151
872.138	5128
872.267	4976
872.397	4873
872.526	4782
872.656	4767
872.785	4850
872.915	4961
873.044	5033
873.173	4938
873.303	4991
873.432	4965
873.561	5041
873.69	4889
873.819	4854
873.948	4938
874.077	4873
874.206	4790
874.335	4828
874.464	4991
874.593	5098
874.722	4938
874.851	5109
874.979	5113
875.108	5079
875.237	4911
875.365	4904
875.494	4908
875.623	5041
875.751	4862
875.88	4923
876.008	4965
876.136	5075
876.265	5174
876.393	5360
876.521	5303
876.65	5299
876.778	5159
876.906	5109
877.034	5048
877.162	5060
877.29	4987
877.418	5079
877.546	5075
877.674	5037
877.802	5079
877.93	5041
878.058	4972
878.185	4904
878.313	4991
878.441	5014
878.568	4774
878.696	4854
878.824	4980
878.951	5048
879.079	5147
879.206	5235
879.333	5121
879.461	4984
879.588	4976
879.715	5170
879.842	5273
879.97	5060
880.097	4809
880.224	4736
880.351	4847
880.478	4790
880.605	4767
880.732	4831
880.859	5124
880.986	4889
881.112	4972
881.239	4873
881.366	4668
881.493	4626
881.619	4645
881.746	4668
881.872	4656
881.999	4660
882.125	4714
882.252	4843
882.378	4843
882.505	4976
882.631	4835
882.757	4706
882.883	4736
883.01	4748
883.136	4721
883.262	4653
883.388	4641
883.514	4816
883.64	4885
883.766	4790
883.892	4660
884.018	4710
884.143	4873
884.269	4965
884.395	4744
884.52	4668
884.646	4683
884.772	4641
884.897	4588
885.023	4660
885.148	4797
885.274	4885
885.399	4816
885.524	4744
885.65	4691
885.775	4763
885.9	4668
886.025	4866
886.15	4752
886.275	4717
886.4	4698
886.525	4733
886.65	4733
886.775	4710
886.9	4938
887.025	5048
887.149	4797
887.274	4675
887.399	4603
887.523	4592
887.648	4626
887.773	4569
887.897	4793
888.021	4748
888.146	4679
888.27	4862
888.395	4961
888.519	4812
888.643	4854
888.767	4812
888.891	4679
889.015	4641
889.139	4611
889.263	4645
889.387	4790
889.511	4881
889.635	4820
889.759	4645
889.883	4645
890.006	4729
890.13	4831
890.254	4641
890.377	4763
890.501	4607
890.624	4531
890.748	4660
890.871	4531
890.995	4447
891.118	4386
891.241	4519
891.364	4611
891.488	4641
891.611	4516
891.734	4519
891.857	4607
891.98	4542
892.103	4649
892.226	4596
892.349	4569
892.471	4447
892.594	4565
892.717	4622
892.839	4596
892.962	4607
893.085	4717
893.207	4618
893.33	4523
893.452	4527
893.575	4687
893.697	4618
893.819	4805
893.941	4870
894.064	4767
894.186	4580
894.308	4546
894.43	4740
894.552	4797
894.674	4744
894.796	4588
894.918	4592
895.04	4645
895.161	4733
895.283	4660
895.405	4626
895.526	4668
895.648	4702
895.769	4687
895.891	4717
896.012	4767
896.134	4782
896.255	4683
896.376	4634
896.498	4603
896.619	4725
896.74	4641
896.861	4634
896.982	4953
897.103	5033
897.224	4828
897.345	4744
897.466	4653
897.587	4736
897.708	4927
897.828	4774
897.949	4687
898.07	4550
898.19	4679
898.311	4850
898.431	4641
898.552	4771
898.672	4885
898.792	4778
898.913	4782
899.033	4630
899.153	4504
899.273	4432
899.393	4504
899.513	4565
899.633	4558
899.753	4599
899.873	4531
899.993	4630
900.113	4542
900.232	4546
900.352	4558
900.472	4493
900.591	4432
900.711	4508
900.83	4428
900.95	4694
901.069	4717
901.189	4531
901.308	4352
901.427	4310
901.546	4375
901.665	4470
901.784	4542
901.904	4390
902.023	4371
902.141	4215
902.26	4196
902.379	4325
902.498	4238
902.617	4223
902.735	4424
902.854	4398
902.973	4333
903.091	4215
903.21	4234
903.328	4303
903.446	4276
903.565	4272
903.683	4386
903.801	4333
903.919	4440
904.038	4466
904.156	4344
904.274	4421
904.392	4493
904.51	4424
904.627	4497
904.745	4588
904.863	4656
904.981	4413
905.098	4287
905.216	4375
905.334	4409
905.451	4398
905.569	4466
905.686	4535
905.803	4580
905.921	4379
906.038	4538
906.155	4508
906.272	4424
906.389	4462
906.506	4318
906.623	4367
906.74	4383
906.857	4314
906.974	4348
907.091	4607
907.208	4714
907.324	4584
907.441	4535
907.557	4363
907.674	4371
907.79	4356
907.907	4409
908.023	4485
908.139	4527
908.256	4455
908.372	4474
908.488	4489
908.604	4367
908.72	4329
908.836	4466
908.952	4383
909.068	4424
909.184	4622
909.3	4538
909.415	4603
909.531	4554
909.647	4344
909.762	4390
909.878	4322
909.993	4424
910.108	4428
910.224	4447
910.339	4485
910.454	4440
910.57	4363
910.685	4363
910.8	4634
910.915	4599
911.03	4516
911.145	4356
911.259	4325
911.374	4337
911.489	4303
911.604	4234
911.718	4181
911.833	4238
911.947	4063
912.062	4051
912.176	4227
912.291	4310
912.405	4253
912.519	4447
912.633	4527
912.748	4394
912.862	4318
912.976	4188
913.09	4139
913.204	4185
913.318	4284
913.431	4386
913.545	4398
913.659	4455
913.772	4356
913.886	4246
914	4246
914.113	4402
914.226	4470
914.34	4417
914.453	4280
914.566	4462
914.68	4310
914.793	4367
914.906	4215
915.019	4131
915.132	4116
915.245	4196
915.358	4223
915.47	4268
915.583	4223
915.696	4310
915.809	4432
915.921	4436
916.034	4265
916.146	4265
916.259	4253
916.371	4398
916.483	4383
916.595	4249
916.708	4344
916.82	4322
916.932	4352
917.044	4318
917.156	4363
917.268	4276
917.38	4291
917.491	4261
917.603	4333
917.715	4428
917.826	4440
917.938	4314
918.049	4234
918.161	4386
918.272	4535
918.384	4561
918.495	4447
918.606	4299
918.717	4230
918.828	4352
918.939	4360
919.05	4211
919.161	4341
919.272	4143
919.383	4234
919.494	4493
919.604	4698
919.715	4436
919.826	4386
919.936	4462
920.047	4554
920.157	4474
920.267	4725
920.378	4554
920.488	4538
920.598	4714
920.708	4885
920.818	4774
920.928	4748
921.038	4972
921.148	4892
921.258	4637
921.368	4546
921.477	4508
921.587	4451
921.697	4360
921.806	4538
921.916	4455
922.025	4276
922.134	4299
922.244	4211
922.353	4303
922.462	4162
922.571	4135
922.68	4021
922.789	4006
922.898	4040
923.007	4017
923.116	4128
923.224	4071
923.333	4101
923.442	3983
923.55	3975
923.659	4006
923.767	4101
923.876	4040
923.984	4105
924.092	4010
924.201	4090
924.309	4090
924.417	4109
924.525	4074
924.633	4082
924.741	4850
924.849	3873
924.956	4139
925.064	3979
925.172	3899
925.279	3975
925.387	4067
925.494	4063
925.602	4223
925.709	4192
925.816	4063
925.924	4097
926.031	4257
926.138	4196
926.245	4246
926.352	4128
926.459	4280
926.566	4299
926.673	4173
926.779	4059
926.886	4078
926.993	4002
927.099	3941
927.206	3911
927.312	3918
927.419	4051
927.525	4071
927.631	4059
927.737	3941
927.843	3918
927.95	3850
928.056	3956
928.162	4002
928.267	4071
928.373	4558
928.479	4135
928.585	3865
928.69	4063
928.796	4101
928.901	4017
929.007	3873
929.112	4032
929.218	3956
929.323	3968
929.428	3918
929.533	4090
929.638	3899
929.743	3956
929.848	4048
929.953	3979
930.058	3888
930.163	3778
930.267	3846
930.372	3994
930.477	3823
930.581	4086
930.685	3964
930.79	3846
930.894	3842
930.998	3854
931.103	4067
931.207	3720
931.311	3686
931.415	3671
931.519	3545
931.623	3545
