Data from test_V78500241_2223.txt Node
Date: Fri Mar 25 17:04:27 CST 2022
User: usil
Spectrometer: V785-0024
Trigger mode: 0
Integration Time (sec): 4.000000E-1
Scans to average: 1
Nonlinearity correction enabled: false
Boxcar width: 0
Storing dark spectrum: false
XAxis mode: Wavelengths
Number of Pixels in Spectrum: 1024
>>>>>Begin Spectral Data<<<<<
801.071	8069
801.214	7928
801.356	7883
801.499	7894
801.641	7864
801.783	7845
801.926	8054
802.068	8005
802.211	8016
802.353	8020
802.496	7917
802.638	7845
802.78	7837
802.923	7936
803.065	7864
803.208	7852
803.35	7989
803.492	8142
803.635	8142
803.777	8050
803.919	8161
804.061	8461
804.204	8153
804.346	8084
804.488	7944
804.63	8096
804.773	8043
804.915	8096
805.057	8309
805.199	8202
805.341	8214
805.483	8301
805.626	8290
805.768	8237
805.91	8180
806.052	8271
806.194	8145
806.336	8358
806.478	8191
806.62	8103
806.762	8149
806.904	8279
807.046	8469
807.188	8324
807.33	8362
807.472	8301
807.614	8221
807.756	8202
807.898	7982
808.04	7921
808.182	7894
808.324	7925
808.465	7879
808.607	8065
808.749	8115
808.891	8298
809.033	8351
809.174	8180
809.316	8073
809.458	8107
809.6	8039
809.741	8111
809.883	8027
810.025	8149
810.166	8035
810.308	8050
810.45	7947
810.591	7906
810.733	7784
810.875	7655
811.016	7533
811.158	7491
811.299	7594
811.441	7727
811.582	7700
811.724	7582
811.865	7582
812.007	7590
812.148	7647
812.29	7674
812.431	7731
812.573	7879
812.714	7951
812.855	8100
812.997	8252
813.138	8259
813.279	8191
813.421	8100
813.562	7940
813.703	7875
813.845	7712
813.986	7480
814.127	7198
814.268	7232
814.41	7251
814.551	7236
814.692	7221
814.833	7072
814.974	7118
815.115	7164
815.256	7023
815.397	6985
815.539	6970
815.68	6871
815.821	6795
815.962	6848
816.103	6798
816.244	6776
816.385	6658
816.526	6604
816.666	6498
816.807	6403
816.948	6502
817.089	6521
817.23	6407
817.371	6403
817.512	6422
817.653	6418
817.793	6410
817.934	6475
818.075	6422
818.216	6445
818.356	6437
818.497	6327
818.638	6194
818.778	6224
818.919	6163
819.06	6213
819.2	6353
819.341	6300
819.481	6407
819.622	6517
819.762	6749
819.903	6673
820.043	6582
820.184	6525
820.324	6623
820.465	6734
820.605	6707
820.746	6642
820.886	6509
821.026	6658
821.167	6753
821.307	6833
821.447	6768
821.588	6684
821.728	6544
821.868	6532
822.008	6391
822.149	6403
822.289	6369
822.429	6194
822.569	6136
822.709	6163
822.849	5992
822.99	5885
823.13	5901
823.27	5935
823.41	5786
823.55	5756
823.69	5752
823.83	5809
823.97	5684
824.11	5524
824.25	5509
824.389	5554
824.529	5600
824.669	5577
824.809	5665
824.949	5638
825.089	5642
825.228	5573
825.368	5444
825.508	5387
825.648	5341
825.787	5372
825.927	5398
826.067	5318
826.206	5280
826.346	5402
826.485	5444
826.625	5353
826.765	5566
826.904	5509
827.044	5284
827.183	5227
827.323	5136
827.462	5265
827.601	5204
827.741	5223
827.88	5277
828.02	5151
828.159	5220
828.298	5315
828.437	5391
828.577	5330
828.716	5482
828.855	5341
828.994	5197
829.134	5143
829.273	5174
829.412	5166
829.551	5094
829.69	5178
829.829	5231
829.968	5387
830.107	5280
830.246	5273
830.385	5178
830.524	5147
830.663	5067
830.802	4984
830.941	4900
831.08	4858
831.219	5003
831.357	4995
831.496	5174
831.635	4911
831.774	4858
831.913	4839
832.051	4793
832.19	4771
832.329	4854
832.467	4729
832.606	4664
832.744	4721
832.883	4816
833.022	4782
833.16	4835
833.299	4881
833.437	4801
833.576	4873
833.714	4904
833.852	4847
833.991	4900
834.129	4946
834.267	4976
834.406	4900
834.544	5014
834.682	5014
834.821	4976
834.959	5174
835.097	5022
835.235	5124
835.373	5086
835.511	5102
835.65	5045
835.788	5003
835.926	4892
836.064	4904
836.202	4870
836.34	5143
836.478	5216
836.615	5166
836.753	5193
836.891	5265
837.029	5277
837.167	5193
837.305	5140
837.443	5159
837.58	5121
837.718	5280
837.856	5159
837.993	5204
838.131	5303
838.269	5254
838.406	5208
838.544	5166
838.681	5056
838.819	5029
838.956	4927
839.094	4923
839.231	4987
839.369	5086
839.506	5436
839.643	5303
839.781	5071
839.918	5052
840.055	5109
840.193	5143
840.33	5090
840.467	5166
840.604	5178
840.742	5471
840.879	5098
841.016	5121
841.153	5204
841.29	5360
841.427	5376
841.564	5341
841.701	5421
841.838	5311
841.975	5303
842.112	5258
842.249	5151
842.385	5136
842.522	5383
842.659	5162
842.796	5140
842.933	5223
843.069	5113
843.206	5155
843.343	5307
843.479	5239
843.616	5284
843.752	4999
843.889	4984
844.025	5212
844.162	5052
844.298	5231
844.435	5090
844.571	5033
844.708	5212
844.844	5357
844.98	5303
845.117	5337
845.253	5121
845.389	5067
845.525	5140
845.661	5128
845.798	5098
845.934	5189
846.07	5094
846.206	5193
846.342	5239
846.478	5166
846.614	5033
846.75	4927
846.886	4930
847.022	5162
847.158	4999
847.294	5102
847.429	5094
847.565	5037
847.701	5341
847.837	4889
847.972	4786
848.108	4942
848.244	4915
848.379	4824
848.515	4733
848.65	4694
848.786	4793
848.921	4812
849.057	4873
849.192	4946
849.328	4835
849.463	4843
849.598	4839
849.734	4797
849.869	4744
850.004	4615
850.14	4679
850.275	4615
850.41	4508
850.545	4634
850.68	4622
850.815	4660
850.95	4618
851.085	4854
851.22	4752
851.355	4668
851.49	4630
851.625	4698
851.76	4649
851.895	4554
852.03	4527
852.165	4683
852.299	4755
852.434	4812
852.569	4790
852.703	4759
852.838	4831
852.973	4904
853.107	4930
853.242	4782
853.376	4660
853.511	4554
853.645	4634
853.78	4767
853.914	4736
854.048	4683
854.183	4649
854.317	4679
854.451	4877
854.585	4641
854.72	4656
854.854	4782
854.988	4626
855.122	4626
855.256	4554
855.39	4645
855.524	4786
855.658	4660
855.792	4706
855.926	4710
856.06	4786
856.194	4816
856.327	4660
856.461	4607
856.595	4596
856.729	4645
856.862	4786
856.996	4717
857.13	4706
857.263	4752
857.397	4755
857.53	4683
857.664	4694
857.797	4782
857.931	4771
858.064	4656
858.197	4752
858.331	4683
858.464	4618
858.597	4516
858.731	4649
858.864	4683
858.997	4592
859.13	4702
859.263	4645
859.396	4675
859.529	4618
859.662	4565
859.795	4519
859.928	4656
860.061	4801
860.194	4748
860.327	4592
860.46	4565
860.592	4717
860.725	4752
860.858	4721
860.99	4588
861.123	4542
861.256	4554
861.388	4599
861.521	5280
861.653	4485
861.786	4462
861.918	4512
862.05	4516
862.183	4523
862.315	4649
862.447	4630
862.58	4546
862.712	4409
862.844	4360
862.976	4474
863.108	4440
863.24	4854
863.372	4371
863.504	4470
863.636	4398
863.768	4493
863.9	4432
864.032	4352
864.164	4417
864.296	4500
864.428	4615
864.559	4542
864.691	4535
864.823	4542
864.954	4481
865.086	4535
865.217	4432
865.349	4451
865.48	4474
865.612	4485
865.743	4603
865.875	4443
866.006	4443
866.137	4485
866.269	4421
866.4	4405
866.531	4447
866.662	4421
866.793	4394
866.924	4383
867.055	4466
867.186	4451
867.317	4428
867.448	4383
867.579	4394
867.71	4363
867.841	4352
867.972	4447
868.103	4417
868.233	4421
868.364	4428
868.495	4497
868.625	4675
868.756	4748
868.886	4565
869.017	4675
869.147	4774
869.278	4812
869.408	4653
869.539	4603
869.669	4725
869.799	4649
869.929	4759
870.06	4733
870.19	4987
870.32	4953
870.45	4995
870.58	5022
870.71	5090
870.84	5094
870.97	4919
871.1	4911
871.23	5147
871.36	5181
871.489	5025
871.619	5105
871.749	5094
871.879	5132
872.008	5189
872.138	5083
872.267	4927
872.397	4850
872.526	4824
872.656	4748
872.785	4733
872.915	4934
873.044	5052
873.173	4976
873.303	4949
873.432	4923
873.561	4915
873.69	4866
873.819	4866
873.948	4873
874.077	4850
874.206	4782
874.335	4786
874.464	4965
874.593	5060
874.722	4984
874.851	5083
874.979	5022
875.108	5048
875.237	4930
875.365	4934
875.494	4949
875.623	5037
875.751	4816
875.88	4889
876.008	4987
876.136	5037
876.265	5170
876.393	5341
876.521	5223
876.65	5208
876.778	5151
876.906	5113
877.034	5025
877.162	5033
877.29	4968
877.418	5121
877.546	5022
877.674	5029
877.802	4984
877.93	5018
878.058	4965
878.185	4877
878.313	4946
878.441	4957
878.568	4831
878.696	4866
878.824	4946
878.951	5018
879.079	5102
879.206	5269
879.333	5117
879.461	4968
879.588	4995
879.715	5045
879.842	5242
879.97	5003
880.097	4839
880.224	4748
880.351	4835
880.478	4820
880.605	4809
880.732	4740
880.859	5140
880.986	4938
881.112	4938
881.239	4763
881.366	4668
881.493	4675
881.619	4607
881.746	4649
881.872	4618
881.999	4683
882.125	4717
882.252	4839
882.378	4797
882.505	4930
882.631	4793
882.757	4649
882.883	4694
883.01	4740
883.136	4664
883.262	4599
883.388	4603
883.514	4805
883.64	4850
883.766	4801
883.892	4668
884.018	4706
884.143	4892
884.269	4965
884.395	4702
884.52	4645
884.646	4660
884.772	4573
884.897	4599
885.023	4653
885.148	4828
885.274	4896
885.399	4809
885.524	4687
885.65	4687
885.775	4721
885.9	4683
886.025	4866
886.15	4763
886.275	4744
886.4	4641
886.525	4717
886.65	4683
886.775	4672
886.9	4881
887.025	5022
887.149	4809
887.274	4653
887.399	4588
887.523	4596
887.648	4615
887.773	4531
887.897	4774
888.021	4771
888.146	4683
888.27	4767
888.395	4877
888.519	4778
888.643	4748
888.767	4812
888.891	4706
889.015	4641
889.139	4618
889.263	4573
889.387	4774
889.511	4908
889.635	4771
889.759	4611
889.883	4645
890.006	4714
890.13	4801
890.254	4607
890.377	4672
890.501	4500
890.624	4481
890.748	4656
890.871	4531
890.995	4402
891.118	4348
891.241	4523
891.364	4512
891.488	4641
891.611	4481
891.734	4493
891.857	4538
891.98	4504
892.103	4615
892.226	4565
892.349	4523
892.471	4405
892.594	4542
892.717	4580
892.839	4577
892.962	4603
893.085	4656
893.207	4592
893.33	4459
893.452	4516
893.575	4630
893.697	4588
893.819	4748
893.941	4843
894.064	4790
894.186	4538
894.308	4527
894.43	4797
894.552	4759
894.674	4733
894.796	4584
894.918	4607
895.04	4584
895.161	4683
895.283	4637
895.405	4607
895.526	4641
895.648	4698
895.769	4733
895.891	4702
896.012	4710
896.134	4725
896.255	4675
896.376	4611
896.498	4611
896.619	4675
896.74	4584
896.861	4649
896.982	4915
897.103	5090
897.224	4771
897.345	4736
897.466	4615
897.587	4774
897.708	4847
897.828	4752
897.949	4694
898.07	4497
898.19	4630
898.311	4828
898.431	4645
898.552	4733
898.672	4771
898.792	4793
898.913	4725
899.033	4599
899.153	4538
899.273	4409
899.393	4466
899.513	4577
899.633	4493
899.753	4527
899.873	4512
899.993	4596
900.113	4531
900.232	4584
900.352	4573
900.472	4481
900.591	4402
900.711	4481
900.83	4375
900.95	4577
901.069	4668
901.189	4554
901.308	4363
901.427	4265
901.546	4402
901.665	4466
901.784	4478
901.904	4379
902.023	4329
902.141	4227
902.26	4128
902.379	4291
902.498	4215
902.617	4287
902.735	4386
902.854	4360
902.973	4303
903.091	4219
903.21	4227
903.328	4314
903.446	4257
903.565	4219
903.683	4341
903.801	4276
903.919	4394
904.038	4455
904.156	4306
904.274	4451
904.392	4390
904.51	4436
904.627	4413
904.745	4569
904.863	4645
904.981	4386
905.098	4295
905.216	4325
905.334	4436
905.451	4428
905.569	4421
905.686	4580
905.803	4603
905.921	4394
906.038	4516
906.155	4493
906.272	4398
906.389	4466
906.506	4367
906.623	4394
906.74	4428
906.857	4287
906.974	4398
907.091	4577
907.208	4634
907.324	4599
907.441	4493
907.557	4356
907.674	4344
907.79	4325
907.907	4394
908.023	4485
908.139	4455
908.256	4417
908.372	4451
908.488	4466
908.604	4348
908.72	4344
908.836	4383
908.952	4341
909.068	4443
909.184	4538
909.3	4436
909.415	4596
909.531	4538
909.647	4356
909.762	4390
909.878	4363
909.993	4417
910.108	4436
910.224	4405
910.339	4485
910.454	4390
910.57	4375
910.685	4310
910.8	4672
910.915	4630
911.03	4478
911.145	4318
911.259	4314
911.374	4394
911.489	4287
911.604	4276
911.718	4169
911.833	4242
911.947	4116
912.062	4006
912.176	4227
912.291	4287
912.405	4242
912.519	4466
912.633	4500
912.748	4356
912.862	4284
912.976	4181
913.09	4093
913.204	4196
913.318	4280
913.431	4348
913.545	4398
913.659	4432
913.772	4379
913.886	4276
914	4177
914.113	4398
914.226	4398
914.34	4459
914.453	4207
914.566	4459
914.68	4280
914.793	4306
914.906	4131
915.019	4143
915.132	4074
915.245	4200
915.358	4185
915.47	4211
915.583	4287
915.696	4284
915.809	4371
915.921	4344
916.034	4242
916.146	4246
916.259	4219
916.371	4356
916.483	4383
916.595	4280
916.708	4348
916.82	4306
916.932	4306
917.044	4310
917.156	4318
917.268	4219
917.38	4272
917.491	4257
917.603	4333
917.715	4424
917.826	4440
917.938	4314
918.049	4219
918.161	4432
918.272	4508
918.384	4500
918.495	4440
918.606	4265
918.717	4261
918.828	4276
918.939	4314
919.05	4230
919.161	4322
919.272	4116
919.383	4230
919.494	4462
919.604	4626
919.715	4447
919.826	4371
919.936	4451
920.047	4485
920.157	4485
920.267	4706
920.378	4542
920.488	4500
920.598	4717
920.708	4877
920.818	4717
920.928	4771
921.038	4968
921.148	4908
921.258	4645
921.368	4519
921.477	4489
921.587	4474
921.697	4402
921.806	4531
921.916	4432
922.025	4242
922.134	4230
922.244	4230
922.353	4352
922.462	4162
922.571	4078
922.68	4013
922.789	3964
922.898	4002
923.007	3983
923.116	4101
923.224	4002
923.333	4074
923.442	3979
923.55	3956
923.659	4006
923.767	4101
923.876	3998
923.984	4109
924.092	4010
924.201	4040
924.309	4090
924.417	4051
924.525	4017
924.633	4074
924.741	5064
924.849	3911
924.956	4143
925.064	3994
925.172	3911
925.279	3983
925.387	4044
925.494	4078
925.602	4188
925.709	4196
925.816	4029
925.924	4124
926.031	4253
926.138	4143
926.245	4192
926.352	4074
926.459	4257
926.566	4314
926.673	4158
926.779	4101
926.886	4048
926.993	3892
927.099	3907
927.206	3949
927.312	3949
927.419	4048
927.525	4006
927.631	4051
927.737	3953
927.843	3975
927.95	3846
928.056	3937
928.162	3987
928.267	4051
928.373	4675
928.479	4150
928.585	3838
928.69	4029
928.796	4067
928.901	3949
929.007	3804
929.112	3994
929.218	3983
929.323	3956
929.428	3896
929.533	4131
929.638	3876
929.743	3953
929.848	4029
929.953	4010
930.058	3926
930.163	3751
930.267	3827
930.372	3964
930.477	3842
930.581	4040
930.685	3972
930.79	3831
930.894	3876
930.998	3865
931.103	4040
931.207	3690
931.311	3663
931.415	3652
931.519	3496
931.623	3530
