Data from test_V78500241_908.txt Node
Date: Fri Mar 25 16:55:18 CST 2022
User: usil
Spectrometer: V785-0024
Trigger mode: 0
Integration Time (sec): 4.000000E-1
Scans to average: 1
Nonlinearity correction enabled: false
Boxcar width: 0
Storing dark spectrum: false
XAxis mode: Wavelengths
Number of Pixels in Spectrum: 1024
>>>>>Begin Spectral Data<<<<<
801.071	8043
801.214	7989
801.356	7871
801.499	7868
801.641	7753
801.783	7833
801.926	8035
802.068	7887
802.211	7982
802.353	7917
802.496	7818
802.638	7925
802.78	7868
802.923	7940
803.065	7894
803.208	7894
803.35	7982
803.492	8111
803.635	8191
803.777	8027
803.919	8062
804.061	8389
804.204	8176
804.346	7986
804.488	7921
804.63	8161
804.773	8027
804.915	8145
805.057	8225
805.199	8164
805.341	8195
805.483	8240
805.626	8157
805.768	8107
805.91	8164
806.052	8237
806.194	8115
806.336	8240
806.478	8088
806.62	8065
806.762	8115
806.904	8275
807.046	8450
807.188	8313
807.33	8317
807.472	8309
807.614	8153
807.756	8164
807.898	7970
808.04	7906
808.182	7780
808.324	7864
808.465	7864
808.607	7986
808.749	8043
808.891	8164
809.033	8301
809.174	8180
809.316	8031
809.458	8020
809.6	7951
809.741	7997
809.883	8046
810.025	8092
810.166	8062
810.308	7944
810.45	7993
810.591	7894
810.733	7681
810.875	7624
811.016	7499
811.158	7472
811.299	7552
811.441	7734
811.582	7719
811.724	7582
811.865	7491
812.007	7586
812.148	7575
812.29	7643
812.431	7731
812.573	7849
812.714	8001
812.855	8062
812.997	8210
813.138	8381
813.279	8180
813.421	8088
813.562	8001
813.703	7833
813.845	7864
813.986	7419
814.127	7308
814.268	7187
814.41	7171
814.551	7137
814.692	7149
814.833	7023
814.974	6996
815.115	7084
815.256	6913
815.397	6878
815.539	6951
815.68	6783
815.821	6791
815.962	6795
816.103	6840
816.244	6745
816.385	6635
816.526	6620
816.666	6532
816.807	6235
816.948	6350
817.089	6445
817.23	6448
817.371	6410
817.512	6384
817.653	6403
817.793	6372
817.934	6433
818.075	6433
818.216	6418
818.356	6426
818.497	6175
818.638	6117
818.778	6178
818.919	6194
819.06	6110
819.2	6243
819.341	6292
819.481	6319
819.622	6494
819.762	6642
819.903	6673
820.043	6589
820.184	6585
820.324	6525
820.465	6715
820.605	6658
820.746	6620
820.886	6517
821.026	6616
821.167	6707
821.307	6833
821.447	6783
821.588	6707
821.728	6544
821.868	6490
822.008	6296
822.149	6350
822.289	6346
822.429	6133
822.569	6034
822.709	6125
822.849	5878
822.99	5893
823.13	5961
823.27	5904
823.41	5786
823.55	5748
823.69	5764
823.83	5802
823.97	5661
824.11	5524
824.25	5547
824.389	5611
824.529	5630
824.669	5497
824.809	5592
824.949	5680
825.089	5600
825.228	5535
825.368	5349
825.508	5322
825.648	5364
825.787	5334
825.927	5429
826.067	5284
826.206	5322
826.346	5360
826.485	5410
826.625	5391
826.765	5539
826.904	5486
827.044	5193
827.183	5147
827.323	5109
827.462	5201
827.601	5159
827.741	5109
827.88	5166
828.02	5094
828.159	5239
828.298	5315
828.437	5326
828.577	5288
828.716	5455
828.855	5318
828.994	5143
829.134	5132
829.273	5147
829.412	5140
829.551	5166
829.69	5174
829.829	5223
829.968	5360
830.107	5223
830.246	5246
830.385	5166
830.524	5128
830.663	5048
830.802	4972
830.941	4923
831.08	4885
831.219	4927
831.357	4976
831.496	5155
831.635	4911
831.774	4881
831.913	4820
832.051	4706
832.19	4733
832.329	4828
832.467	4664
832.606	4637
832.744	4694
832.883	4725
833.022	4733
833.16	4771
833.299	4809
833.437	4843
833.576	4828
833.714	4831
833.852	4850
833.991	4904
834.129	4980
834.267	4972
834.406	4877
834.544	4961
834.682	4968
834.821	4930
834.959	5121
835.097	4949
835.235	5166
835.373	5060
835.511	5071
835.65	4991
835.788	5006
835.926	4892
836.064	4866
836.202	4934
836.34	5140
836.478	5239
836.615	5086
836.753	5212
836.891	5372
837.029	5235
837.167	5189
837.305	5178
837.443	5117
837.58	5067
837.718	5242
837.856	5147
837.993	5143
838.131	5261
838.269	5254
838.406	5201
838.544	5151
838.681	4991
838.819	4968
838.956	4915
839.094	4908
839.231	4942
839.369	5079
839.506	5402
839.643	5284
839.781	5083
839.918	5022
840.055	5079
840.193	5136
840.33	5090
840.467	5151
840.604	5132
840.742	5417
840.879	5071
841.016	5102
841.153	5109
841.29	5353
841.427	5368
841.564	5292
841.701	5303
841.838	5235
841.975	5178
842.112	5261
842.249	5090
842.385	5067
842.522	5307
842.659	5132
842.796	5136
842.933	5181
843.069	5109
843.206	5162
843.343	5296
843.479	5231
843.616	5162
843.752	5006
843.889	5041
844.025	5162
844.162	5014
844.298	5197
844.435	5090
844.571	5041
844.708	5105
844.844	5292
844.98	5341
845.117	5284
845.253	5113
845.389	5067
845.525	5181
845.661	5083
845.798	5048
845.934	5132
846.07	5045
846.206	5193
846.342	5162
846.478	5162
846.614	4991
846.75	5014
846.886	4904
847.022	5090
847.158	5003
847.294	5033
847.429	5037
847.565	5010
847.701	5322
847.837	4847
847.972	4809
848.108	4946
848.244	4938
848.379	4790
848.515	4668
848.65	4744
848.786	4717
848.921	4790
849.057	4850
849.192	4877
849.328	4771
849.463	4797
849.598	4771
849.734	4740
849.869	4721
850.004	4618
850.14	4668
850.275	4630
850.41	4516
850.545	4508
850.68	4554
850.815	4618
850.95	4649
851.085	4805
851.22	4721
851.355	4691
851.49	4649
851.625	4611
851.76	4656
851.895	4565
852.03	4500
852.165	4615
852.299	4683
852.434	4797
852.569	4729
852.703	4767
852.838	4824
852.973	4946
853.107	4915
853.242	4672
853.376	4603
853.511	4497
853.645	4622
853.78	4782
853.914	4672
854.048	4675
854.183	4622
854.317	4683
854.451	4873
854.585	4668
854.72	4660
854.854	4706
854.988	4584
855.122	4622
855.256	4485
855.39	4637
855.524	4767
855.658	4683
855.792	4626
855.926	4733
856.06	4668
856.194	4805
856.327	4664
856.461	4592
856.595	4641
856.729	4580
856.862	4774
856.996	4637
857.13	4649
857.263	4771
857.397	4771
857.53	4675
857.664	4687
857.797	4729
857.931	4816
858.064	4687
858.197	4717
858.331	4618
858.464	4607
858.597	4500
858.731	4588
858.864	4615
858.997	4569
859.13	4603
859.263	4710
859.396	4668
859.529	4592
859.662	4580
859.795	4481
859.928	4637
860.061	4729
860.194	4786
860.327	4592
860.46	4596
860.592	4649
860.725	4694
860.858	4733
860.99	4546
861.123	4527
861.256	4561
861.388	4584
861.521	5162
861.653	4478
861.786	4451
861.918	4447
862.05	4466
862.183	4519
862.315	4584
862.447	4672
862.58	4523
862.712	4379
862.844	4314
862.976	4493
863.108	4428
863.24	4820
863.372	4318
863.504	4379
863.636	4383
863.768	4485
863.9	4394
864.032	4348
864.164	4386
864.296	4436
864.428	4554
864.559	4538
864.691	4508
864.823	4462
864.954	4421
865.086	4535
865.217	4424
865.349	4402
865.48	4478
865.612	4474
865.743	4580
865.875	4466
866.006	4421
866.137	4447
866.269	4424
866.4	4424
866.531	4459
866.662	4363
866.793	4409
866.924	4375
867.055	4417
867.186	4459
867.317	4447
867.448	4360
867.579	4409
867.71	4379
867.841	4352
867.972	4443
868.103	4443
868.233	4409
868.364	4432
868.495	4474
868.625	4656
868.756	4763
868.886	4599
869.017	4630
869.147	4736
869.278	4755
869.408	4626
869.539	4607
869.669	4664
869.799	4611
869.929	4752
870.06	4729
870.19	5029
870.32	4900
870.45	4908
870.58	5045
870.71	5064
870.84	5067
870.97	4927
871.1	4911
871.23	5105
871.36	5166
871.489	5010
871.619	5086
871.749	5056
871.879	5086
872.008	5189
872.138	4972
872.267	4957
872.397	4835
872.526	4774
872.656	4641
872.785	4805
872.915	4953
873.044	5006
873.173	4911
873.303	4953
873.432	4934
873.561	4968
873.69	4835
873.819	4824
873.948	4862
874.077	4786
874.206	4725
874.335	4774
874.464	4881
874.593	5052
874.722	4915
874.851	5075
874.979	5041
875.108	4991
875.237	4908
875.365	4892
875.494	4847
875.623	4949
875.751	4850
875.88	4953
876.008	4976
876.136	5006
876.265	5185
876.393	5258
876.521	5197
876.65	5174
876.778	5170
876.906	5052
877.034	4965
877.162	5022
877.29	4980
877.418	5056
877.546	4980
877.674	4987
877.802	5006
877.93	4972
878.058	4908
878.185	4850
878.313	4942
878.441	4946
878.568	4782
878.696	4885
878.824	4942
878.951	4923
879.079	5079
879.206	5280
879.333	5052
879.461	4995
879.588	4976
879.715	5128
879.842	5185
879.97	4991
880.097	4729
880.224	4717
880.351	4774
880.478	4805
880.605	4805
880.732	4763
880.859	5075
880.986	4847
881.112	4904
881.239	4801
881.366	4679
881.493	4569
881.619	4599
881.746	4683
881.872	4656
881.999	4599
882.125	4706
882.252	4812
882.378	4850
882.505	4968
882.631	4786
882.757	4660
882.883	4733
883.01	4717
883.136	4672
883.262	4573
883.388	4573
883.514	4843
883.64	4877
883.766	4752
883.892	4649
884.018	4763
884.143	4885
884.269	4930
884.395	4672
884.52	4622
884.646	4611
884.772	4554
884.897	4588
885.023	4653
885.148	4801
885.274	4858
885.399	4778
885.524	4740
885.65	4641
885.775	4729
885.9	4767
886.025	4839
886.15	4744
886.275	4694
886.4	4668
886.525	4698
886.65	4656
886.775	4714
886.9	4889
887.025	5010
887.149	4759
887.274	4611
887.399	4580
887.523	4584
887.648	4573
887.773	4504
887.897	4767
888.021	4767
888.146	4630
888.27	4824
888.395	4896
888.519	4748
888.643	4805
888.767	4801
888.891	4637
889.015	4618
889.139	4630
889.263	4584
889.387	4725
889.511	4824
889.635	4767
889.759	4615
889.883	4569
890.006	4733
890.13	4801
890.254	4603
890.377	4656
890.501	4504
890.624	4508
890.748	4607
890.871	4512
890.995	4421
891.118	4371
891.241	4504
891.364	4516
891.488	4656
891.611	4497
891.734	4485
891.857	4615
891.98	4565
892.103	4641
892.226	4577
892.349	4527
892.471	4417
892.594	4508
892.717	4599
892.839	4550
892.962	4577
893.085	4630
893.207	4584
893.33	4466
893.452	4565
893.575	4668
893.697	4565
893.819	4771
893.941	4793
894.064	4790
894.186	4558
894.308	4538
894.43	4706
894.552	4812
894.674	4729
894.796	4573
894.918	4622
895.04	4546
895.161	4691
895.283	4649
895.405	4569
895.526	4607
895.648	4683
895.769	4668
895.891	4675
896.012	4729
896.134	4733
896.255	4615
896.376	4615
896.498	4626
896.619	4664
896.74	4565
896.861	4656
896.982	4877
897.103	5067
897.224	4828
897.345	4694
897.466	4675
897.587	4733
897.708	4793
897.828	4790
897.949	4679
898.07	4558
898.19	4588
898.311	4824
898.431	4630
898.552	4691
898.672	4771
898.792	4767
898.913	4733
899.033	4664
899.153	4485
899.273	4424
899.393	4470
899.513	4493
899.633	4527
899.753	4550
899.873	4535
899.993	4577
900.113	4561
900.232	4607
900.352	4538
900.472	4470
900.591	4402
900.711	4561
900.83	4436
900.95	4596
901.069	4694
901.189	4478
901.308	4413
901.427	4276
901.546	4352
901.665	4413
901.784	4497
901.904	4390
902.023	4253
902.141	4219
902.26	4169
902.379	4261
902.498	4242
902.617	4227
902.735	4325
902.854	4421
902.973	4386
903.091	4177
903.21	4204
903.328	4284
903.446	4261
903.565	4253
903.683	4295
903.801	4318
903.919	4341
904.038	4451
904.156	4280
904.274	4409
904.392	4394
904.51	4428
904.627	4459
904.745	4542
904.863	4611
904.981	4367
905.098	4299
905.216	4371
905.334	4405
905.451	4436
905.569	4432
905.686	4550
905.803	4565
905.921	4421
906.038	4550
906.155	4443
906.272	4341
906.389	4451
906.506	4348
906.623	4325
906.74	4344
906.857	4325
906.974	4367
907.091	4546
907.208	4637
907.324	4565
907.441	4512
907.557	4329
907.674	4352
907.79	4322
907.907	4363
908.023	4474
908.139	4440
908.256	4432
908.372	4451
908.488	4432
908.604	4398
908.72	4303
908.836	4367
908.952	4360
909.068	4405
909.184	4565
909.3	4489
909.415	4577
909.531	4500
909.647	4371
909.762	4363
909.878	4318
909.993	4451
910.108	4375
910.224	4352
910.339	4500
910.454	4386
910.57	4367
910.685	4318
910.8	4626
910.915	4584
911.03	4500
911.145	4299
911.259	4306
911.374	4352
911.489	4284
911.604	4272
911.718	4219
911.833	4158
911.947	4067
912.062	3983
912.176	4200
912.291	4234
912.405	4215
912.519	4451
912.633	4424
912.748	4314
912.862	4356
912.976	4173
913.09	4097
913.204	4169
913.318	4257
913.431	4363
913.545	4398
913.659	4421
913.772	4371
913.886	4284
914	4227
914.113	4356
914.226	4436
914.34	4409
914.453	4223
914.566	4390
914.68	4295
914.793	4310
914.906	4135
915.019	4116
915.132	4036
915.245	4177
915.358	4204
915.47	4234
915.583	4253
915.696	4280
915.809	4398
915.921	4417
916.034	4234
916.146	4234
916.259	4200
916.371	4337
916.483	4348
916.595	4261
916.708	4284
916.82	4310
916.932	4272
917.044	4306
917.156	4310
917.268	4227
917.38	4299
917.491	4322
917.603	4318
917.715	4440
917.826	4405
917.938	4333
918.049	4223
918.161	4386
918.272	4531
918.384	4466
918.495	4459
918.606	4261
918.717	4280
918.828	4348
918.939	4337
919.05	4257
919.161	4299
919.272	4105
919.383	4188
919.494	4428
919.604	4641
919.715	4432
919.826	4356
919.936	4337
920.047	4497
920.157	4474
920.267	4649
920.378	4485
920.488	4481
920.598	4710
920.708	4877
920.818	4744
920.928	4767
921.038	4991
921.148	4896
921.258	4668
921.368	4485
921.477	4474
921.587	4512
921.697	4405
921.806	4542
921.916	4455
922.025	4284
922.134	4207
922.244	4185
922.353	4299
922.462	4162
922.571	4120
922.68	4013
922.789	4029
922.898	4048
923.007	4002
923.116	4101
923.224	4036
923.333	4101
923.442	3987
923.55	3956
923.659	4013
923.767	4097
923.876	3991
923.984	4128
924.092	3960
924.201	4071
924.309	4093
924.417	4090
924.525	4090
924.633	4101
924.741	4858
924.849	3930
924.956	4147
925.064	3922
925.172	3899
925.279	3937
925.387	4048
925.494	4071
925.602	4215
925.709	4169
925.816	4002
925.924	4139
926.031	4223
926.138	4120
926.245	4166
926.352	4112
926.459	4238
926.566	4325
926.673	4131
926.779	4025
926.886	4059
926.993	3979
927.099	3949
927.206	3945
927.312	3949
927.419	4059
927.525	4021
927.631	4116
927.737	3998
927.843	3953
927.95	3838
928.056	3968
928.162	3972
928.267	4078
928.373	4596
928.479	4101
928.585	3865
928.69	3968
928.796	4120
928.901	4021
929.007	3842
929.112	3994
929.218	3918
929.323	3930
929.428	3975
929.533	4051
929.638	3861
929.743	3899
929.848	4029
929.953	3987
930.058	3907
930.163	3747
930.267	3808
930.372	4017
930.477	3774
930.581	4055
930.685	3918
930.79	3797
930.894	3880
930.998	3857
931.103	3979
931.207	3705
931.311	3675
931.415	3625
931.519	3511
931.623	3519
