Data from test_V78500241_2706.txt Node
Date: Fri Mar 25 17:07:49 CST 2022
User: usil
Spectrometer: V785-0024
Trigger mode: 0
Integration Time (sec): 4.000000E-1
Scans to average: 1
Nonlinearity correction enabled: false
Boxcar width: 0
Storing dark spectrum: false
XAxis mode: Wavelengths
Number of Pixels in Spectrum: 1024
>>>>>Begin Spectral Data<<<<<
801.071	7982
801.214	7989
801.356	7879
801.499	7928
801.641	7826
801.783	7936
801.926	7997
802.068	7936
802.211	7982
802.353	8050
802.496	7902
802.638	7925
802.78	7925
802.923	7917
803.065	7852
803.208	7860
803.35	7978
803.492	8130
803.635	8145
803.777	8100
803.919	8176
804.061	8442
804.204	8206
804.346	8008
804.488	7989
804.63	8103
804.773	7989
804.915	8107
805.057	8339
805.199	8145
805.341	8187
805.483	8358
805.626	8142
805.768	8138
805.91	8138
806.052	8309
806.194	8088
806.336	8351
806.478	8100
806.62	8084
806.762	8138
806.904	8298
807.046	8393
807.188	8393
807.33	8317
807.472	8408
807.614	8134
807.756	8142
807.898	8016
808.04	7871
808.182	7947
808.324	7928
808.465	7947
808.607	8077
808.749	8191
808.891	8279
809.033	8324
809.174	8240
809.316	8084
809.458	8130
809.6	8031
809.741	8031
809.883	7993
810.025	8130
810.166	8062
810.308	8035
810.45	8005
810.591	7913
810.733	7776
810.875	7647
811.016	7578
811.158	7518
811.299	7742
811.441	7719
811.582	7715
811.724	7647
811.865	7510
812.007	7597
812.148	7556
812.29	7655
812.431	7765
812.573	7917
812.714	8039
812.855	8103
812.997	8225
813.138	8282
813.279	8305
813.421	8195
813.562	8058
813.703	7849
813.845	7799
813.986	7476
814.127	7335
814.268	7244
814.41	7232
814.551	7114
814.692	7168
814.833	7095
814.974	7114
815.115	7133
815.256	7050
815.397	6970
815.539	6970
815.68	6844
815.821	6829
815.962	6886
816.103	6829
816.244	6730
816.385	6646
816.526	6650
816.666	6517
816.807	6281
816.948	6452
817.089	6479
817.23	6498
817.371	6403
817.512	6448
817.653	6399
817.793	6338
817.934	6384
818.075	6452
818.216	6391
818.356	6395
818.497	6247
818.638	6133
818.778	6133
818.919	6152
819.06	6224
819.2	6311
819.341	6365
819.481	6353
819.622	6540
819.762	6700
819.903	6703
820.043	6593
820.184	6612
820.324	6612
820.465	6734
820.605	6688
820.746	6692
820.886	6525
821.026	6650
821.167	6730
821.307	6802
821.447	6798
821.588	6669
821.728	6616
821.868	6525
822.008	6338
822.149	6407
822.289	6380
822.429	6167
822.569	6159
822.709	6167
822.849	5942
822.99	5931
823.13	5946
823.27	5927
823.41	5821
823.55	5786
823.69	5779
823.83	5794
823.97	5680
824.11	5512
824.25	5547
824.389	5619
824.529	5592
824.669	5512
824.809	5623
824.949	5695
825.089	5600
825.228	5570
825.368	5379
825.508	5341
825.648	5315
825.787	5383
825.927	5379
826.067	5322
826.206	5288
826.346	5353
826.485	5387
826.625	5383
826.765	5558
826.904	5532
827.044	5223
827.183	5239
827.323	5098
827.462	5254
827.601	5159
827.741	5117
827.88	5197
828.02	5102
828.159	5273
828.298	5269
828.437	5341
828.577	5334
828.716	5455
828.855	5410
828.994	5140
829.134	5174
829.273	5181
829.412	5117
829.551	5094
829.69	5227
829.829	5231
829.968	5395
830.107	5296
830.246	5277
830.385	5193
830.524	5140
830.663	5037
830.802	5010
830.941	4877
831.08	4908
831.219	5018
831.357	4934
831.496	5128
831.635	4995
831.774	4866
831.913	4854
832.051	4721
832.19	4755
832.329	4873
832.467	4725
832.606	4641
832.744	4752
832.883	4755
833.022	4736
833.16	4790
833.299	4847
833.437	4862
833.576	4843
833.714	4866
833.852	4881
833.991	4908
834.129	4972
834.267	5010
834.406	4889
834.544	4995
834.682	4934
834.821	4961
834.959	5143
835.097	4999
835.235	5117
835.373	5010
835.511	5105
835.65	5052
835.788	5018
835.926	4889
836.064	4934
836.202	4858
836.34	5178
836.478	5239
836.615	5174
836.753	5174
836.891	5258
837.029	5280
837.167	5151
837.305	5185
837.443	5178
837.58	5083
837.718	5220
837.856	5159
837.993	5128
838.131	5216
838.269	5223
838.406	5174
838.544	5162
838.681	5048
838.819	5014
838.956	4919
839.094	4889
839.231	4984
839.369	5060
839.506	5444
839.643	5189
839.781	5094
839.918	4995
840.055	5128
840.193	5041
840.33	5113
840.467	5132
840.604	5178
840.742	5463
840.879	5102
841.016	5102
841.153	5109
841.29	5372
841.427	5341
841.564	5360
841.701	5376
841.838	5299
841.975	5231
842.112	5273
842.249	5140
842.385	5102
842.522	5322
842.659	5185
842.796	5201
842.933	5189
843.069	5166
843.206	5124
843.343	5277
843.479	5261
843.616	5201
843.752	5067
843.889	5048
844.025	5220
844.162	5003
844.298	5261
844.435	5052
844.571	5071
844.708	5235
844.844	5315
844.98	5318
845.117	5277
845.253	5151
845.389	5086
845.525	5201
845.661	5181
845.798	5064
845.934	5128
846.07	5048
846.206	5201
846.342	5292
846.478	5155
846.614	5022
846.75	4995
846.886	4942
847.022	5121
847.158	5048
847.294	5022
847.429	5094
847.565	5029
847.701	5345
847.837	4870
847.972	4782
848.108	4961
848.244	4923
848.379	4733
848.515	4740
848.65	4736
848.786	4706
848.921	4809
849.057	4850
849.192	4930
849.328	4831
849.463	4797
849.598	4797
849.734	4828
849.869	4679
850.004	4611
850.14	4672
850.275	4599
850.41	4565
850.545	4554
850.68	4618
850.815	4626
850.95	4596
851.085	4847
851.22	4672
851.355	4675
851.49	4580
851.625	4615
851.76	4630
851.895	4558
852.03	4538
852.165	4626
852.299	4717
852.434	4752
852.569	4744
852.703	4828
852.838	4835
852.973	4984
853.107	4919
853.242	4736
853.376	4634
853.511	4580
853.645	4599
853.78	4801
853.914	4660
854.048	4641
854.183	4626
854.317	4679
854.451	4816
854.585	4694
854.72	4615
854.854	4778
854.988	4596
855.122	4630
855.256	4538
855.39	4656
855.524	4736
855.658	4759
855.792	4721
855.926	4736
856.06	4729
856.194	4812
856.327	4736
856.461	4611
856.595	4611
856.729	4626
856.862	4752
856.996	4687
857.13	4717
857.263	4771
857.397	4778
857.53	4660
857.664	4733
857.797	4812
857.931	4771
858.064	4679
858.197	4767
858.331	4641
858.464	4565
858.597	4535
858.731	4607
858.864	4664
858.997	4599
859.13	4664
859.263	4653
859.396	4725
859.529	4592
859.662	4588
859.795	4531
859.928	4660
860.061	4725
860.194	4805
860.327	4558
860.46	4546
860.592	4710
860.725	4714
860.858	4729
860.99	4653
861.123	4565
861.256	4523
861.388	4611
861.521	5330
861.653	4512
861.786	4443
861.918	4371
862.05	4523
862.183	4561
862.315	4584
862.447	4649
862.58	4538
862.712	4386
862.844	4344
862.976	4459
863.108	4459
863.24	4786
863.372	4363
863.504	4394
863.636	4405
863.768	4474
863.9	4417
864.032	4367
864.164	4402
864.296	4466
864.428	4550
864.559	4554
864.691	4516
864.823	4569
864.954	4470
865.086	4512
865.217	4489
865.349	4462
865.48	4478
865.612	4462
865.743	4626
865.875	4519
866.006	4447
866.137	4489
866.269	4485
866.4	4451
866.531	4405
866.662	4386
866.793	4440
866.924	4383
867.055	4508
867.186	4447
867.317	4436
867.448	4367
867.579	4360
867.71	4402
867.841	4360
867.972	4466
868.103	4470
868.233	4443
868.364	4424
868.495	4546
868.625	4733
868.756	4797
868.886	4577
869.017	4641
869.147	4790
869.278	4767
869.408	4656
869.539	4622
869.669	4683
869.799	4672
869.929	4729
870.06	4744
870.19	4946
870.32	4911
870.45	4991
870.58	5025
870.71	5064
870.84	5105
870.97	4930
871.1	4934
871.23	5143
871.36	5105
871.489	5048
871.619	5037
871.749	5113
871.879	5105
872.008	5159
872.138	5037
872.267	4976
872.397	4824
872.526	4797
872.656	4748
872.785	4774
872.915	4972
873.044	5052
873.173	4927
873.303	4908
873.432	4904
873.561	4972
873.69	4927
873.819	4839
873.948	4915
874.077	4854
874.206	4759
874.335	4858
874.464	4889
874.593	5083
874.722	4938
874.851	5045
874.979	5006
875.108	5090
875.237	4889
875.365	4858
875.494	4885
875.623	4953
875.751	4881
875.88	4900
876.008	4957
876.136	5041
876.265	5193
876.393	5364
876.521	5246
876.65	5216
876.778	5174
876.906	5143
877.034	4984
877.162	5022
877.29	4991
877.418	5060
877.546	5029
877.674	5041
877.802	5048
877.93	4984
878.058	4946
878.185	4896
878.313	4930
878.441	4995
878.568	4805
878.696	4866
878.824	4972
878.951	4995
879.079	5143
879.206	5341
879.333	5064
879.461	4991
879.588	5048
879.715	5132
879.842	5204
879.97	5003
880.097	4782
880.224	4759
880.351	4809
880.478	4801
880.605	4816
880.732	4759
880.859	5117
880.986	4904
881.112	4896
881.239	4763
881.366	4679
881.493	4615
881.619	4599
881.746	4637
881.872	4645
881.999	4634
882.125	4733
882.252	4733
882.378	4839
882.505	4984
882.631	4778
882.757	4645
882.883	4740
883.01	4710
883.136	4656
883.262	4649
883.388	4653
883.514	4809
883.64	4873
883.766	4797
883.892	4637
884.018	4694
884.143	4900
884.269	5014
884.395	4675
884.52	4637
884.646	4618
884.772	4580
884.897	4538
885.023	4645
885.148	4774
885.274	4831
885.399	4801
885.524	4763
885.65	4687
885.775	4763
885.9	4694
886.025	4850
886.15	4801
886.275	4698
886.4	4618
886.525	4710
886.65	4710
886.775	4748
886.9	4919
887.025	5048
887.149	4809
887.274	4649
887.399	4558
887.523	4603
887.648	4584
887.773	4584
887.897	4782
888.021	4809
888.146	4653
888.27	4850
888.395	4889
888.519	4824
888.643	4797
888.767	4835
888.891	4691
889.015	4630
889.139	4637
889.263	4569
889.387	4748
889.511	4858
889.635	4801
889.759	4653
889.883	4641
890.006	4755
890.13	4801
890.254	4656
890.377	4664
890.501	4569
890.624	4535
890.748	4653
890.871	4489
890.995	4413
891.118	4348
891.241	4523
891.364	4531
891.488	4573
891.611	4527
891.734	4542
891.857	4630
891.98	4512
892.103	4668
892.226	4561
892.349	4512
892.471	4421
892.594	4573
892.717	4603
892.839	4577
892.962	4637
893.085	4668
893.207	4599
893.33	4481
893.452	4519
893.575	4649
893.697	4611
893.819	4828
893.941	4839
894.064	4733
894.186	4592
894.308	4580
894.43	4694
894.552	4809
894.674	4755
894.796	4561
894.918	4584
895.04	4550
895.161	4668
895.283	4672
895.405	4580
895.526	4618
895.648	4694
895.769	4679
895.891	4752
896.012	4694
896.134	4755
896.255	4645
896.376	4618
896.498	4546
896.619	4668
896.74	4603
896.861	4683
896.982	4927
897.103	5090
897.224	4828
897.345	4740
897.466	4622
897.587	4736
897.708	4892
897.828	4797
897.949	4634
898.07	4580
898.19	4645
898.311	4831
898.431	4660
898.552	4767
898.672	4812
898.792	4850
898.913	4793
899.033	4641
899.153	4497
899.273	4462
899.393	4497
899.513	4508
899.633	4470
899.753	4569
899.873	4500
899.993	4550
900.113	4519
900.232	4565
900.352	4523
900.472	4519
900.591	4386
900.711	4451
900.83	4478
900.95	4618
901.069	4706
901.189	4527
901.308	4424
901.427	4344
901.546	4371
901.665	4421
901.784	4516
901.904	4375
902.023	4356
902.141	4185
902.26	4147
902.379	4344
902.498	4265
902.617	4207
902.735	4390
902.854	4398
902.973	4348
903.091	4207
903.21	4215
903.328	4265
903.446	4284
903.565	4295
903.683	4348
903.801	4287
903.919	4379
904.038	4443
904.156	4287
904.274	4459
904.392	4383
904.51	4462
904.627	4474
904.745	4580
904.863	4596
904.981	4405
905.098	4314
905.216	4363
905.334	4428
905.451	4432
905.569	4440
905.686	4607
905.803	4535
905.921	4390
906.038	4546
906.155	4508
906.272	4424
906.389	4432
906.506	4379
906.623	4383
906.74	4402
906.857	4360
906.974	4383
907.091	4554
907.208	4691
907.324	4561
907.441	4504
907.557	4383
907.674	4356
907.79	4303
907.907	4398
908.023	4508
908.139	4542
908.256	4481
908.372	4462
908.488	4440
908.604	4348
908.72	4291
908.836	4352
908.952	4367
909.068	4432
909.184	4580
909.3	4493
909.415	4603
909.531	4599
909.647	4322
909.762	4459
909.878	4329
909.993	4409
910.108	4402
910.224	4424
910.339	4500
910.454	4428
910.57	4421
910.685	4371
910.8	4626
910.915	4554
911.03	4512
911.145	4341
911.259	4352
911.374	4344
911.489	4295
911.604	4234
911.718	4166
911.833	4185
911.947	4105
912.062	4040
912.176	4196
912.291	4253
912.405	4272
912.519	4474
912.633	4478
912.748	4383
912.862	4284
912.976	4204
913.09	4109
913.204	4169
913.318	4249
913.431	4390
913.545	4325
913.659	4409
913.772	4352
913.886	4265
914	4219
914.113	4386
914.226	4421
914.34	4383
914.453	4227
914.566	4443
914.68	4322
914.793	4341
914.906	4177
915.019	4158
915.132	4105
915.245	4143
915.358	4223
915.47	4234
915.583	4276
915.696	4322
915.809	4440
915.921	4402
916.034	4238
916.146	4249
916.259	4265
916.371	4344
916.483	4379
916.595	4295
916.708	4310
916.82	4322
916.932	4325
917.044	4367
917.156	4341
917.268	4234
917.38	4276
917.491	4291
917.603	4329
917.715	4455
917.826	4424
917.938	4356
918.049	4230
918.161	4409
918.272	4558
918.384	4527
918.495	4455
918.606	4310
918.717	4253
918.828	4379
918.939	4356
919.05	4280
919.161	4314
919.272	4173
919.383	4257
919.494	4402
919.604	4603
919.715	4443
919.826	4325
919.936	4421
920.047	4523
920.157	4508
920.267	4675
920.378	4516
920.488	4508
920.598	4691
920.708	4839
920.818	4706
920.928	4733
921.038	4892
921.148	4961
921.258	4615
921.368	4592
921.477	4546
921.587	4462
921.697	4363
921.806	4546
921.916	4432
922.025	4272
922.134	4306
922.244	4227
922.353	4341
922.462	4177
922.571	4093
922.68	4006
922.789	3937
922.898	3998
923.007	3972
923.116	4071
923.224	4082
923.333	4093
923.442	3960
923.55	4002
923.659	4021
923.767	4044
923.876	4021
923.984	4150
924.092	3915
924.201	4109
924.309	4082
924.417	4120
924.525	4082
924.633	4090
924.741	5067
924.849	3880
924.956	4166
925.064	3994
925.172	3915
925.279	3930
925.387	4116
925.494	4067
925.602	4207
925.709	4147
925.816	4055
925.924	4131
926.031	4219
926.138	4169
926.245	4227
926.352	4063
926.459	4238
926.566	4280
926.673	4128
926.779	4093
926.886	4093
926.993	3960
927.099	3956
927.206	3918
927.312	3934
927.419	4044
927.525	4036
927.631	4097
927.737	3987
927.843	3979
927.95	3873
928.056	3945
928.162	3987
928.267	4097
928.373	4615
928.479	4128
928.585	3819
928.69	4029
928.796	4086
928.901	3941
929.007	3857
929.112	3983
929.218	3998
929.323	3979
929.428	3968
929.533	4101
929.638	3922
929.743	3956
929.848	4044
929.953	4021
930.058	3918
930.163	3793
930.267	3823
930.372	3994
930.477	3812
930.581	4067
930.685	4006
930.79	3835
930.894	3835
930.998	3896
931.103	4048
931.207	3740
931.311	3690
931.415	3686
931.519	3526
931.623	3538
