Data from test_V78500241_2432.txt Node
Date: Fri Mar 25 17:05:54 CST 2022
User: usil
Spectrometer: V785-0024
Trigger mode: 0
Integration Time (sec): 4.000000E-1
Scans to average: 1
Nonlinearity correction enabled: false
Boxcar width: 0
Storing dark spectrum: false
XAxis mode: Wavelengths
Number of Pixels in Spectrum: 1024
>>>>>Begin Spectral Data<<<<<
801.071	8027
801.214	7967
801.356	7917
801.499	7860
801.641	7784
801.783	7807
801.926	7955
802.068	7974
802.211	7871
802.353	7978
802.496	7818
802.638	7871
802.78	7860
802.923	7917
803.065	7902
803.208	7841
803.35	7959
803.492	8157
803.635	8180
803.777	8043
803.919	8134
804.061	8465
804.204	8161
804.346	8039
804.488	7982
804.63	8145
804.773	8005
804.915	8130
805.057	8343
805.199	8103
805.341	8206
805.483	8279
805.626	8248
805.768	8111
805.91	8218
806.052	8210
806.194	8103
806.336	8279
806.478	8119
806.62	8024
806.762	8119
806.904	8202
807.046	8446
807.188	8343
807.33	8320
807.472	8317
807.614	8168
807.756	8161
807.898	8024
808.04	7868
808.182	7906
808.324	7940
808.465	7906
808.607	7974
808.749	8199
808.891	8313
809.033	8324
809.174	8195
809.316	8088
809.458	8084
809.6	8024
809.741	8073
809.883	8008
810.025	8062
810.166	8077
810.308	7982
810.45	7978
810.591	7852
810.733	7693
810.875	7727
811.016	7552
811.158	7411
811.299	7578
811.441	7761
811.582	7708
811.724	7605
811.865	7559
812.007	7628
812.148	7620
812.29	7662
812.431	7723
812.573	7898
812.714	7993
812.855	8096
812.997	8233
813.138	8305
813.279	8168
813.421	8092
813.562	7947
813.703	7856
813.845	7757
813.986	7525
814.127	7301
814.268	7259
814.41	7228
814.551	7168
814.692	7225
814.833	7072
814.974	7122
815.115	7156
815.256	6993
815.397	6897
815.539	6954
815.68	6764
815.821	6821
815.962	6878
816.103	6844
816.244	6688
816.385	6646
816.526	6669
816.666	6517
816.807	6296
816.948	6437
817.089	6502
817.23	6422
817.371	6414
817.512	6407
817.653	6460
817.793	6346
817.934	6445
818.075	6460
818.216	6429
818.356	6422
818.497	6296
818.638	6155
818.778	6190
818.919	6125
819.06	6190
819.2	6357
819.341	6365
819.481	6357
819.622	6593
819.762	6734
819.903	6707
820.043	6593
820.184	6589
820.324	6623
820.465	6711
820.605	6715
820.746	6673
820.886	6563
821.026	6738
821.167	6745
821.307	6818
821.447	6795
821.588	6669
821.728	6574
821.868	6498
822.008	6327
822.149	6414
822.289	6361
822.429	6117
822.569	6083
822.709	6175
822.849	5999
822.99	5912
823.13	5965
823.27	5870
823.41	5786
823.55	5779
823.69	5813
823.83	5752
823.97	5710
824.11	5551
824.25	5535
824.389	5558
824.529	5619
824.669	5539
824.809	5661
824.949	5699
825.089	5615
825.228	5573
825.368	5376
825.508	5353
825.648	5326
825.787	5364
825.927	5368
826.067	5357
826.206	5307
826.346	5368
826.485	5353
826.625	5436
826.765	5516
826.904	5482
827.044	5303
827.183	5197
827.323	5181
827.462	5254
827.601	5189
827.741	5201
827.88	5170
828.02	5174
828.159	5216
828.298	5277
828.437	5387
828.577	5261
828.716	5520
828.855	5322
828.994	5143
829.134	5140
829.273	5155
829.412	5109
829.551	5178
829.69	5136
829.829	5254
829.968	5326
830.107	5296
830.246	5284
830.385	5197
830.524	5155
830.663	5132
830.802	5045
830.941	4850
831.08	4854
831.219	5010
831.357	4984
831.496	5159
831.635	4908
831.774	4873
831.913	4828
832.051	4740
832.19	4755
832.329	4862
832.467	4706
832.606	4656
832.744	4702
832.883	4714
833.022	4679
833.16	4820
833.299	4805
833.437	4809
833.576	4790
833.714	4919
833.852	4896
833.991	4896
834.129	4927
834.267	4946
834.406	4923
834.544	4999
834.682	4980
834.821	4942
834.959	5166
835.097	4953
835.235	5162
835.373	5071
835.511	5060
835.65	5022
835.788	5010
835.926	4870
836.064	4824
836.202	4858
836.34	5170
836.478	5212
836.615	5121
836.753	5185
836.891	5273
837.029	5220
837.167	5227
837.305	5151
837.443	5151
837.58	5067
837.718	5216
837.856	5136
837.993	5143
838.131	5212
838.269	5204
838.406	5170
838.544	5227
838.681	5045
838.819	5006
838.956	4900
839.094	4896
839.231	4946
839.369	5067
839.506	5452
839.643	5307
839.781	5037
839.918	5037
840.055	5086
840.193	5109
840.33	5117
840.467	5124
840.604	5197
840.742	5406
840.879	5090
841.016	5083
841.153	5155
841.29	5349
841.427	5341
841.564	5357
841.701	5322
841.838	5299
841.975	5235
842.112	5288
842.249	5090
842.385	5090
842.522	5307
842.659	5197
842.796	5086
842.933	5185
843.069	5124
843.206	5189
843.343	5280
843.479	5246
843.616	5292
843.752	5003
843.889	4999
844.025	5223
844.162	5029
844.298	5204
844.435	5094
844.571	5041
844.708	5212
844.844	5261
844.98	5341
845.117	5326
845.253	5151
845.389	5113
845.525	5128
845.661	5117
845.798	5041
845.934	5128
846.07	5056
846.206	5197
846.342	5242
846.478	5181
846.614	5025
846.75	4908
846.886	4965
847.022	5121
847.158	5010
847.294	5067
847.429	5102
847.565	5071
847.701	5326
847.837	4816
847.972	4793
848.108	4999
848.244	4911
848.379	4755
848.515	4717
848.65	4691
848.786	4736
848.921	4755
849.057	4824
849.192	4889
849.328	4809
849.463	4850
849.598	4774
849.734	4744
849.869	4672
850.004	4668
850.14	4702
850.275	4569
850.41	4504
850.545	4584
850.68	4622
850.815	4626
850.95	4618
851.085	4843
851.22	4744
851.355	4645
851.49	4618
851.625	4565
851.76	4675
851.895	4561
852.03	4531
852.165	4569
852.299	4683
852.434	4805
852.569	4752
852.703	4774
852.838	4824
852.973	4953
853.107	4957
853.242	4725
853.376	4698
853.511	4546
853.645	4607
853.78	4835
853.914	4675
854.048	4660
854.183	4645
854.317	4683
854.451	4790
854.585	4683
854.72	4641
854.854	4714
854.988	4592
855.122	4649
855.256	4527
855.39	4622
855.524	4752
855.658	4714
855.792	4717
855.926	4717
856.06	4755
856.194	4835
856.327	4702
856.461	4653
856.595	4622
856.729	4656
856.862	4755
856.996	4714
857.13	4736
857.263	4752
857.397	4816
857.53	4641
857.664	4729
857.797	4687
857.931	4790
858.064	4702
858.197	4767
858.331	4630
858.464	4588
858.597	4535
858.731	4675
858.864	4675
858.997	4584
859.13	4622
859.263	4675
859.396	4691
859.529	4592
859.662	4542
859.795	4546
859.928	4622
860.061	4740
860.194	4782
860.327	4637
860.46	4618
860.592	4687
860.725	4656
860.858	4721
860.99	4535
861.123	4538
861.256	4500
861.388	4592
861.521	5277
861.653	4455
861.786	4417
861.918	4413
862.05	4523
862.183	4527
862.315	4611
862.447	4653
862.58	4561
862.712	4413
862.844	4341
862.976	4493
863.108	4428
863.24	4793
863.372	4363
863.504	4421
863.636	4455
863.768	4421
863.9	4424
864.032	4386
864.164	4451
864.296	4466
864.428	4565
864.559	4542
864.691	4546
864.823	4519
864.954	4459
865.086	4535
865.217	4474
865.349	4417
865.48	4481
865.612	4447
865.743	4626
865.875	4451
866.006	4417
866.137	4474
866.269	4409
866.4	4443
866.531	4440
866.662	4405
866.793	4367
866.924	4341
867.055	4481
867.186	4447
867.317	4413
867.448	4356
867.579	4398
867.71	4413
867.841	4375
867.972	4470
868.103	4443
868.233	4432
868.364	4413
868.495	4485
868.625	4653
868.756	4744
868.886	4558
869.017	4615
869.147	4774
869.278	4755
869.408	4679
869.539	4664
869.669	4660
869.799	4729
869.929	4782
870.06	4759
870.19	4972
870.32	4942
870.45	4908
870.58	5006
870.71	5117
870.84	5121
870.97	4938
871.1	4877
871.23	5124
871.36	5159
871.489	5064
871.619	5041
871.749	5075
871.879	5155
872.008	5136
872.138	4995
872.267	4991
872.397	4873
872.526	4850
872.656	4721
872.785	4824
872.915	4942
873.044	5014
873.173	4930
873.303	4934
873.432	4999
873.561	4984
873.69	4870
873.819	4919
873.948	4904
874.077	4839
874.206	4759
874.335	4793
874.464	5006
874.593	5029
874.722	5003
874.851	5071
874.979	5037
875.108	5029
875.237	4892
875.365	4877
875.494	4900
875.623	5010
875.751	4812
875.88	4850
876.008	4987
876.136	5029
876.265	5227
876.393	5330
876.521	5239
876.65	5277
876.778	5178
876.906	5098
877.034	5033
877.162	5090
877.29	5014
877.418	5102
877.546	5022
877.674	5056
877.802	4991
877.93	5029
878.058	4968
878.185	4877
878.313	4946
878.441	4953
878.568	4786
878.696	4892
878.824	4968
878.951	4995
879.079	5064
879.206	5311
879.333	5124
879.461	4995
879.588	5006
879.715	5102
879.842	5273
879.97	4999
880.097	4748
880.224	4714
880.351	4809
880.478	4778
880.605	4816
880.732	4812
880.859	5029
880.986	4915
881.112	4873
881.239	4763
881.366	4687
881.493	4618
881.619	4630
881.746	4660
881.872	4588
881.999	4664
882.125	4660
882.252	4778
882.378	4816
882.505	4949
882.631	4812
882.757	4672
882.883	4755
883.01	4763
883.136	4675
883.262	4603
883.388	4634
883.514	4809
883.64	4862
883.766	4812
883.892	4672
884.018	4725
884.143	4900
884.269	4972
884.395	4706
884.52	4626
884.646	4679
884.772	4596
884.897	4523
885.023	4683
885.148	4786
885.274	4835
885.399	4824
885.524	4721
885.65	4687
885.775	4763
885.9	4725
886.025	4919
886.15	4812
886.275	4725
886.4	4664
886.525	4759
886.65	4698
886.775	4721
886.9	4873
887.025	5045
887.149	4790
887.274	4634
887.399	4577
887.523	4618
887.648	4577
887.773	4622
887.897	4809
888.021	4721
888.146	4679
888.27	4782
888.395	4881
888.519	4801
888.643	4816
888.767	4828
888.891	4653
889.015	4611
889.139	4672
889.263	4603
889.387	4736
889.511	4862
889.635	4809
889.759	4691
889.883	4702
890.006	4706
890.13	4812
890.254	4592
890.377	4702
890.501	4538
890.624	4542
890.748	4653
890.871	4485
890.995	4436
891.118	4394
891.241	4550
891.364	4512
891.488	4618
891.611	4508
891.734	4535
891.857	4561
891.98	4527
892.103	4618
892.226	4618
892.349	4531
892.471	4455
892.594	4561
892.717	4607
892.839	4535
892.962	4580
893.085	4626
893.207	4573
893.33	4478
893.452	4500
893.575	4660
893.697	4630
893.819	4771
893.941	4824
894.064	4782
894.186	4550
894.308	4550
894.43	4717
894.552	4843
894.674	4733
894.796	4535
894.918	4611
895.04	4527
895.161	4687
895.283	4668
895.405	4584
895.526	4660
895.648	4698
895.769	4698
895.891	4729
896.012	4721
896.134	4687
896.255	4668
896.376	4668
896.498	4622
896.619	4710
896.74	4596
896.861	4672
896.982	4896
897.103	5090
897.224	4820
897.345	4744
897.466	4634
897.587	4752
897.708	4801
897.828	4755
897.949	4611
898.07	4538
898.19	4592
898.311	4843
898.431	4748
898.552	4736
898.672	4828
898.792	4812
898.913	4778
899.033	4603
899.153	4554
899.273	4455
899.393	4504
899.513	4558
899.633	4489
899.753	4531
899.873	4550
899.993	4615
900.113	4489
900.232	4584
900.352	4542
900.472	4489
900.591	4386
900.711	4497
900.83	4421
900.95	4622
901.069	4668
901.189	4478
901.308	4375
901.427	4329
901.546	4348
901.665	4470
901.784	4497
901.904	4390
902.023	4333
902.141	4177
902.26	4204
902.379	4318
902.498	4253
902.617	4265
902.735	4363
902.854	4409
902.973	4375
903.091	4261
903.21	4238
903.328	4280
903.446	4276
903.565	4261
903.683	4325
903.801	4295
903.919	4443
904.038	4443
904.156	4333
904.274	4417
904.392	4398
904.51	4398
904.627	4466
904.745	4565
904.863	4618
904.981	4383
905.098	4306
905.216	4344
905.334	4436
905.451	4432
905.569	4432
905.686	4588
905.803	4538
905.921	4417
906.038	4580
906.155	4443
906.272	4386
906.389	4470
906.506	4333
906.623	4375
906.74	4390
906.857	4310
906.974	4363
907.091	4550
907.208	4660
907.324	4558
907.441	4531
907.557	4367
907.674	4394
907.79	4303
907.907	4409
908.023	4478
908.139	4462
908.256	4398
908.372	4424
908.488	4428
908.604	4360
908.72	4379
908.836	4367
908.952	4436
909.068	4417
909.184	4542
909.3	4462
909.415	4607
909.531	4550
909.647	4383
909.762	4375
909.878	4329
909.993	4417
910.108	4409
910.224	4417
910.339	4493
910.454	4432
910.57	4348
910.685	4310
910.8	4626
910.915	4577
911.03	4462
911.145	4314
911.259	4360
911.374	4386
911.489	4291
911.604	4322
911.718	4158
911.833	4238
911.947	4082
912.062	4029
912.176	4230
912.291	4261
912.405	4249
912.519	4478
912.633	4527
912.748	4352
912.862	4341
912.976	4177
913.09	4120
913.204	4154
913.318	4272
913.431	4432
913.545	4367
913.659	4383
913.772	4363
913.886	4234
914	4249
914.113	4390
914.226	4481
914.34	4413
914.453	4234
914.566	4447
914.68	4295
914.793	4337
914.906	4093
915.019	4150
915.132	4109
915.245	4181
915.358	4188
915.47	4238
915.583	4276
915.696	4280
915.809	4405
915.921	4447
916.034	4265
916.146	4303
916.259	4246
916.371	4402
916.483	4337
916.595	4223
916.708	4310
916.82	4310
916.932	4299
917.044	4280
917.156	4341
917.268	4215
917.38	4227
917.491	4272
917.603	4329
917.715	4424
917.826	4398
917.938	4325
918.049	4280
918.161	4432
918.272	4516
918.384	4516
918.495	4443
918.606	4329
918.717	4253
918.828	4322
918.939	4367
919.05	4238
919.161	4295
919.272	4120
919.383	4227
919.494	4485
919.604	4622
919.715	4409
919.826	4329
919.936	4421
920.047	4527
920.157	4462
920.267	4744
920.378	4481
920.488	4497
920.598	4660
920.708	4835
920.818	4748
920.928	4759
921.038	4930
921.148	4881
921.258	4622
921.368	4569
921.477	4527
921.587	4428
921.697	4409
921.806	4538
921.916	4447
922.025	4249
922.134	4272
922.244	4223
922.353	4291
922.462	4177
922.571	4169
922.68	4006
922.789	3975
922.898	4017
923.007	4021
923.116	4120
923.224	4101
923.333	4059
923.442	3998
923.55	3960
923.659	4051
923.767	4135
923.876	4013
923.984	4101
924.092	3972
924.201	4071
924.309	4074
924.417	4112
924.525	4044
924.633	4116
924.741	5060
924.849	3945
924.956	4120
925.064	3941
925.172	3911
925.279	3979
925.387	4090
925.494	4040
925.602	4234
925.709	4196
925.816	4040
925.924	4192
926.031	4215
926.138	4169
926.245	4185
926.352	4143
926.459	4246
926.566	4272
926.673	4131
926.779	4078
926.886	4112
926.993	4006
927.099	3960
927.206	3922
927.312	3964
927.419	4071
927.525	4006
927.631	4143
927.737	4006
927.843	3930
927.95	3865
928.056	3960
928.162	3987
928.267	3987
928.373	4706
928.479	4143
928.585	3838
928.69	4017
928.796	4059
928.901	3941
929.007	3869
929.112	4002
929.218	3960
929.323	3922
929.428	3888
929.533	4093
929.638	3911
929.743	3968
929.848	4059
929.953	3998
930.058	3941
930.163	3778
930.267	3823
930.372	3991
930.477	3808
930.581	4109
930.685	3953
930.79	3800
930.894	3888
930.998	3876
931.103	4067
931.207	3720
931.311	3694
931.415	3652
931.519	3530
931.623	3591
