Data from test_V78500241_1040.txt Node
Date: Fri Mar 25 16:56:14 CST 2022
User: usil
Spectrometer: V785-0024
Trigger mode: 0
Integration Time (sec): 4.000000E-1
Scans to average: 1
Nonlinearity correction enabled: false
Boxcar width: 0
Storing dark spectrum: false
XAxis mode: Wavelengths
Number of Pixels in Spectrum: 1024
>>>>>Begin Spectral Data<<<<<
801.071	8031
801.214	8020
801.356	7909
801.499	7856
801.641	7765
801.783	7784
801.926	7864
802.068	7906
802.211	7887
802.353	7837
802.496	7712
802.638	7776
802.78	7868
802.923	7852
803.065	7909
803.208	7894
803.35	7978
803.492	8073
803.635	8172
803.777	7928
803.919	8107
804.061	8355
804.204	8130
804.346	8012
804.488	7921
804.63	8084
804.773	8012
804.915	8084
805.057	8229
805.199	8183
805.341	8187
805.483	8282
805.626	8145
805.768	8088
805.91	8138
806.052	8172
806.194	8054
806.336	8240
806.478	8088
806.62	8054
806.762	8081
806.904	8199
807.046	8480
807.188	8355
807.33	8221
807.472	8259
807.614	8168
807.756	8062
807.898	7982
808.04	7906
808.182	7883
808.324	7868
808.465	7936
808.607	8016
808.749	8134
808.891	8180
809.033	8229
809.174	8168
809.316	8103
809.458	8031
809.6	7986
809.741	7997
809.883	8054
810.025	8024
810.166	8039
810.308	8073
810.45	8046
810.591	7913
810.733	7746
810.875	7658
811.016	7506
811.158	7487
811.299	7556
811.441	7731
811.582	7689
811.724	7575
811.865	7514
812.007	7563
812.148	7578
812.29	7651
812.431	7780
812.573	7928
812.714	8024
812.855	8145
812.997	8210
813.138	8343
813.279	8195
813.421	8119
813.562	8001
813.703	7936
813.845	7792
813.986	7438
814.127	7339
814.268	7266
814.41	7255
814.551	7244
814.692	7152
814.833	7076
814.974	7084
815.115	7107
815.256	6943
815.397	6894
815.539	6958
815.68	6935
815.821	6798
815.962	6920
816.103	6837
816.244	6764
816.385	6642
816.526	6639
816.666	6479
816.807	6331
816.948	6388
817.089	6467
817.23	6498
817.371	6357
817.512	6384
817.653	6437
817.793	6388
817.934	6433
818.075	6467
818.216	6426
818.356	6403
818.497	6251
818.638	6114
818.778	6186
818.919	6155
819.06	6182
819.2	6327
819.341	6365
819.481	6372
819.622	6540
819.762	6726
819.903	6734
820.043	6646
820.184	6608
820.324	6608
820.465	6696
820.605	6646
820.746	6662
820.886	6490
821.026	6703
821.167	6741
821.307	6802
821.447	6734
821.588	6703
821.728	6616
821.868	6471
822.008	6353
822.149	6372
822.289	6384
822.429	6125
822.569	6072
822.709	6079
822.849	5912
822.99	5878
823.13	5950
823.27	5931
823.41	5802
823.55	5764
823.69	5840
823.83	5805
823.97	5653
824.11	5543
824.25	5570
824.389	5562
824.529	5642
824.669	5505
824.809	5672
824.949	5676
825.089	5592
825.228	5581
825.368	5376
825.508	5288
825.648	5383
825.787	5421
825.927	5421
826.067	5360
826.206	5292
826.346	5387
826.485	5414
826.625	5471
826.765	5566
826.904	5520
827.044	5242
827.183	5227
827.323	5117
827.462	5212
827.601	5162
827.741	5208
827.88	5231
828.02	5140
828.159	5303
828.298	5311
828.437	5311
828.577	5246
828.716	5471
828.855	5357
828.994	5159
829.134	5235
829.273	5227
829.412	5181
829.551	5121
829.69	5109
829.829	5254
829.968	5406
830.107	5318
830.246	5265
830.385	5223
830.524	5140
830.663	5083
830.802	4987
830.941	4877
831.08	4927
831.219	5018
831.357	5003
831.496	5147
831.635	4919
831.774	4870
831.913	4911
832.051	4740
832.19	4748
832.329	4854
832.467	4679
832.606	4668
832.744	4740
832.883	4748
833.022	4717
833.16	4748
833.299	4812
833.437	4812
833.576	4847
833.714	4862
833.852	4828
833.991	4908
834.129	4972
834.267	4984
834.406	4900
834.544	4995
834.682	4972
834.821	4949
834.959	5174
835.097	4972
835.235	5147
835.373	5094
835.511	5105
835.65	5010
835.788	5010
835.926	4934
836.064	4866
836.202	4908
836.34	5185
836.478	5246
836.615	5094
836.753	5250
836.891	5296
837.029	5277
837.167	5242
837.305	5174
837.443	5075
837.58	5071
837.718	5235
837.856	5258
837.993	5151
838.131	5318
838.269	5178
838.406	5216
838.544	5166
838.681	5071
838.819	4919
838.956	4904
839.094	4915
839.231	5003
839.369	5018
839.506	5455
839.643	5242
839.781	5064
839.918	5029
840.055	5124
840.193	5075
840.33	5147
840.467	5181
840.604	5170
840.742	5440
840.879	5079
841.016	5102
841.153	5170
841.29	5383
841.427	5303
841.564	5345
841.701	5311
841.838	5280
841.975	5269
842.112	5269
842.249	5166
842.385	5170
842.522	5360
842.659	5193
842.796	5174
842.933	5250
843.069	5128
843.206	5170
843.343	5284
843.479	5239
843.616	5235
843.752	5025
843.889	5029
844.025	5193
844.162	5045
844.298	5231
844.435	5094
844.571	5041
844.708	5235
844.844	5311
844.98	5326
845.117	5337
845.253	5140
845.389	5086
845.525	5132
845.661	5105
845.798	5037
845.934	5155
846.07	5048
846.206	5208
846.342	5242
846.478	5193
846.614	5033
846.75	4968
846.886	4953
847.022	5151
847.158	5022
847.294	5037
847.429	5121
847.565	5045
847.701	5364
847.837	4877
847.972	4847
848.108	4984
848.244	4934
848.379	4736
848.515	4733
848.65	4721
848.786	4721
848.921	4748
849.057	4881
849.192	4873
849.328	4828
849.463	4820
849.598	4752
849.734	4786
849.869	4725
850.004	4668
850.14	4615
850.275	4626
850.41	4603
850.545	4611
850.68	4630
850.815	4596
850.95	4649
851.085	4866
851.22	4740
851.355	4672
851.49	4626
851.625	4645
851.76	4641
851.895	4565
852.03	4535
852.165	4641
852.299	4752
852.434	4778
852.569	4748
852.703	4778
852.838	4858
852.973	4934
853.107	4919
853.242	4748
853.376	4710
853.511	4542
853.645	4622
853.78	4797
853.914	4698
854.048	4675
854.183	4672
854.317	4702
854.451	4862
854.585	4672
854.72	4611
854.854	4736
854.988	4603
855.122	4626
855.256	4542
855.39	4706
855.524	4824
855.658	4702
855.792	4683
855.926	4733
856.06	4778
856.194	4820
856.327	4634
856.461	4649
856.595	4630
856.729	4672
856.862	4793
856.996	4672
857.13	4702
857.263	4786
857.397	4793
857.53	4664
857.664	4729
857.797	4801
857.931	4782
858.064	4694
858.197	4767
858.331	4675
858.464	4637
858.597	4531
858.731	4626
858.864	4596
858.997	4607
859.13	4687
859.263	4679
859.396	4717
859.529	4603
859.662	4554
859.795	4546
859.928	4622
860.061	4759
860.194	4801
860.327	4607
860.46	4577
860.592	4698
860.725	4702
860.858	4702
860.99	4607
861.123	4504
861.256	4569
861.388	4603
861.521	5357
861.653	4504
861.786	4462
861.918	4478
862.05	4497
862.183	4561
862.315	4618
862.447	4660
862.58	4519
862.712	4375
862.844	4299
862.976	4466
863.108	4485
863.24	4850
863.372	4333
863.504	4432
863.636	4405
863.768	4470
863.9	4428
864.032	4375
864.164	4409
864.296	4470
864.428	4493
864.559	4561
864.691	4565
864.823	4497
864.954	4508
865.086	4504
865.217	4462
865.349	4478
865.48	4459
865.612	4485
865.743	4630
865.875	4481
866.006	4447
866.137	4436
866.269	4459
866.4	4466
866.531	4356
866.662	4383
866.793	4386
866.924	4371
867.055	4470
867.186	4405
867.317	4436
867.448	4379
867.579	4424
867.71	4398
867.841	4375
867.972	4443
868.103	4485
868.233	4409
868.364	4451
868.495	4462
868.625	4656
868.756	4710
868.886	4584
869.017	4599
869.147	4774
869.278	4763
869.408	4664
869.539	4634
869.669	4733
869.799	4660
869.929	4752
870.06	4717
870.19	4972
870.32	4923
870.45	4881
870.58	5014
870.71	5105
870.84	5067
870.97	4968
871.1	4892
871.23	5143
871.36	5140
871.489	4980
871.619	5014
871.749	5086
871.879	5128
872.008	5128
872.138	5086
872.267	4965
872.397	4847
872.526	4786
872.656	4759
872.785	4816
872.915	4915
873.044	5048
873.173	4949
873.303	4984
873.432	4942
873.561	4946
873.69	4904
873.819	4881
873.948	4873
874.077	4839
874.206	4763
874.335	4828
874.464	4927
874.593	5071
874.722	4938
874.851	5071
874.979	5056
875.108	5083
875.237	4927
875.365	4866
875.494	4908
875.623	4938
875.751	4843
875.88	4866
876.008	4976
876.136	5041
876.265	5140
876.393	5299
876.521	5265
876.65	5193
876.778	5128
876.906	5060
877.034	5010
877.162	4995
877.29	4961
877.418	5014
877.546	5029
877.674	5014
877.802	4976
877.93	5018
878.058	4927
878.185	4839
878.313	4908
878.441	4949
878.568	4805
878.696	4919
878.824	4949
878.951	4984
879.079	5128
879.206	5258
879.333	5090
879.461	4980
879.588	4995
879.715	5147
879.842	5216
879.97	5010
880.097	4786
880.224	4706
880.351	4812
880.478	4782
880.605	4782
880.732	4809
880.859	5052
880.986	4881
881.112	4896
881.239	4816
881.366	4698
881.493	4618
881.619	4592
881.746	4630
881.872	4660
881.999	4653
882.125	4729
882.252	4740
882.378	4812
882.505	4987
882.631	4809
882.757	4675
882.883	4748
883.01	4763
883.136	4687
883.262	4618
883.388	4599
883.514	4782
883.64	4847
883.766	4752
883.892	4675
884.018	4714
884.143	4873
884.269	5006
884.395	4672
884.52	4649
884.646	4653
884.772	4603
884.897	4584
885.023	4622
885.148	4782
885.274	4873
885.399	4809
885.524	4744
885.65	4698
885.775	4755
885.9	4653
886.025	4858
886.15	4786
886.275	4725
886.4	4683
886.525	4710
886.65	4687
886.775	4683
886.9	4908
887.025	5041
887.149	4812
887.274	4645
887.399	4588
887.523	4588
887.648	4565
887.773	4596
887.897	4759
888.021	4786
888.146	4694
888.27	4828
888.395	4892
888.519	4778
888.643	4748
888.767	4831
888.891	4653
889.015	4615
889.139	4645
889.263	4588
889.387	4774
889.511	4835
889.635	4797
889.759	4645
889.883	4607
890.006	4660
890.13	4839
890.254	4660
890.377	4702
890.501	4554
890.624	4516
890.748	4630
890.871	4478
890.995	4440
891.118	4417
891.241	4538
891.364	4527
891.488	4637
891.611	4489
891.734	4531
891.857	4611
891.98	4527
892.103	4672
892.226	4641
892.349	4561
892.471	4428
892.594	4584
892.717	4569
892.839	4592
892.962	4599
893.085	4649
893.207	4592
893.33	4447
893.452	4474
893.575	4694
893.697	4599
893.819	4820
893.941	4786
894.064	4797
894.186	4626
894.308	4554
894.43	4687
894.552	4843
894.674	4694
894.796	4538
894.918	4569
895.04	4558
895.161	4683
895.283	4660
895.405	4565
895.526	4626
895.648	4725
895.769	4668
895.891	4733
896.012	4759
896.134	4694
896.255	4672
896.376	4653
896.498	4580
896.619	4733
896.74	4630
896.861	4656
896.982	4911
897.103	5033
897.224	4858
897.345	4710
897.466	4649
897.587	4691
897.708	4866
897.828	4824
897.949	4698
898.07	4512
898.19	4656
898.311	4828
898.431	4668
898.552	4733
898.672	4835
898.792	4793
898.913	4752
899.033	4599
899.153	4489
899.273	4428
899.393	4493
899.513	4512
899.633	4527
899.753	4504
899.873	4504
899.993	4561
900.113	4558
900.232	4527
900.352	4577
900.472	4474
900.591	4459
900.711	4489
900.83	4417
900.95	4577
901.069	4675
901.189	4527
901.308	4405
901.427	4318
901.546	4394
901.665	4481
901.784	4504
901.904	4405
902.023	4356
902.141	4227
902.26	4131
902.379	4280
902.498	4223
902.617	4192
902.735	4383
902.854	4405
902.973	4348
903.091	4169
903.21	4215
903.328	4352
903.446	4272
903.565	4219
903.683	4318
903.801	4215
903.919	4360
904.038	4405
904.156	4306
904.274	4443
904.392	4413
904.51	4428
904.627	4519
904.745	4558
904.863	4675
904.981	4356
905.098	4299
905.216	4409
905.334	4417
905.451	4451
905.569	4432
905.686	4554
905.803	4550
905.921	4421
906.038	4538
906.155	4470
906.272	4398
906.389	4436
906.506	4344
906.623	4363
906.74	4363
906.857	4291
906.974	4322
907.091	4531
907.208	4664
907.324	4584
907.441	4527
907.557	4333
907.674	4337
907.79	4322
907.907	4344
908.023	4443
908.139	4432
908.256	4413
908.372	4451
908.488	4440
908.604	4333
908.72	4310
908.836	4383
908.952	4341
909.068	4451
909.184	4550
909.3	4519
909.415	4584
909.531	4550
909.647	4356
909.762	4413
909.878	4325
909.993	4443
910.108	4390
910.224	4417
910.339	4478
910.454	4424
910.57	4417
910.685	4329
910.8	4626
910.915	4516
911.03	4481
911.145	4341
911.259	4303
911.374	4348
911.489	4284
911.604	4246
911.718	4131
911.833	4204
911.947	4082
912.062	4048
912.176	4238
912.291	4238
912.405	4234
912.519	4455
912.633	4474
912.748	4383
912.862	4287
912.976	4215
913.09	4082
913.204	4169
913.318	4249
913.431	4379
913.545	4390
913.659	4409
913.772	4360
913.886	4200
914	4215
914.113	4356
914.226	4451
914.34	4436
914.453	4238
914.566	4432
914.68	4291
914.793	4329
914.906	4139
915.019	4128
915.132	4078
915.245	4196
915.358	4215
915.47	4265
915.583	4299
915.696	4280
915.809	4402
915.921	4386
916.034	4280
916.146	4238
916.259	4215
916.371	4356
916.483	4318
916.595	4272
916.708	4280
916.82	4249
916.932	4329
917.044	4379
917.156	4314
917.268	4246
917.38	4265
917.491	4257
917.603	4303
917.715	4455
917.826	4428
917.938	4333
918.049	4276
918.161	4394
918.272	4523
918.384	4478
918.495	4443
918.606	4299
918.717	4249
918.828	4287
918.939	4379
919.05	4246
919.161	4303
919.272	4124
919.383	4261
919.494	4417
919.604	4596
919.715	4428
919.826	4344
919.936	4405
920.047	4538
920.157	4474
920.267	4702
920.378	4516
920.488	4516
920.598	4774
920.708	4881
920.818	4744
920.928	4729
921.038	4942
921.148	4885
921.258	4641
921.368	4565
921.477	4481
921.587	4470
921.697	4367
921.806	4516
921.916	4405
922.025	4299
922.134	4284
922.244	4166
922.353	4322
922.462	4150
922.571	4131
922.68	4036
922.789	3987
922.898	4071
923.007	4006
923.116	4112
923.224	4044
923.333	4048
923.442	3960
923.55	3968
923.659	4013
923.767	4093
923.876	3994
923.984	4143
924.092	3979
924.201	4051
924.309	4086
924.417	4090
924.525	4078
924.633	4086
924.741	4984
924.849	3907
924.956	4109
925.064	3960
925.172	3892
925.279	3983
925.387	4059
925.494	4006
925.602	4200
925.709	4211
925.816	4029
925.924	4143
926.031	4192
926.138	4147
926.245	4158
926.352	4082
926.459	4253
926.566	4287
926.673	4158
926.779	4048
926.886	4112
926.993	3953
927.099	3979
927.206	3941
927.312	3934
927.419	4013
927.525	3991
927.631	4036
927.737	3949
927.843	3922
927.95	3892
928.056	3972
928.162	4006
928.267	4025
928.373	4656
928.479	4109
928.585	3884
928.69	4021
928.796	4044
928.901	3964
929.007	3831
929.112	4006
929.218	3949
929.323	3915
929.428	3960
929.533	4086
929.638	3907
929.743	3975
929.848	4051
929.953	4029
930.058	3941
930.163	3785
930.267	3823
930.372	3968
930.477	3747
930.581	4074
930.685	3922
930.79	3819
930.894	3873
930.998	3835
931.103	4025
931.207	3709
931.311	3694
931.415	3694
931.519	3561
931.623	3488
