Data from test_V78500241_2180.txt Node
Date: Fri Mar 25 17:04:09 CST 2022
User: usil
Spectrometer: V785-0024
Trigger mode: 0
Integration Time (sec): 4.000000E-1
Scans to average: 1
Nonlinearity correction enabled: false
Boxcar width: 0
Storing dark spectrum: false
XAxis mode: Wavelengths
Number of Pixels in Spectrum: 1024
>>>>>Begin Spectral Data<<<<<
801.071	8016
801.214	7997
801.356	7871
801.499	7883
801.641	7822
801.783	7826
801.926	8005
802.068	7997
802.211	7947
802.353	8043
802.496	7868
802.638	7868
802.78	7906
802.923	7970
803.065	7860
803.208	7868
803.35	7940
803.492	8103
803.635	8115
803.777	8111
803.919	8161
804.061	8408
804.204	8221
804.346	8092
804.488	8012
804.63	8073
804.773	8012
804.915	8153
805.057	8317
805.199	8180
805.341	8206
805.483	8263
805.626	8244
805.768	8130
805.91	8199
806.052	8233
806.194	8161
806.336	8358
806.478	8107
806.62	8092
806.762	8145
806.904	8290
807.046	8465
807.188	8377
807.33	8393
807.472	8336
807.614	8138
807.756	8206
807.898	8016
808.04	7849
808.182	7871
808.324	7894
808.465	7913
808.607	8031
808.749	8134
808.891	8229
809.033	8343
809.174	8275
809.316	8073
809.458	8058
809.6	8050
809.741	8012
809.883	8103
810.025	8161
810.166	8088
810.308	8058
810.45	7993
810.591	7841
810.733	7776
810.875	7681
811.016	7464
811.158	7445
811.299	7571
811.441	7738
811.582	7666
811.724	7578
811.865	7491
812.007	7575
812.148	7537
812.29	7605
812.431	7746
812.573	7837
812.714	7955
812.855	8084
812.997	8123
813.138	8298
813.279	8123
813.421	8054
813.562	7947
813.703	7803
813.845	7734
813.986	7396
814.127	7236
814.268	7202
814.41	7225
814.551	7156
814.692	7213
814.833	7095
814.974	7107
815.115	7099
815.256	7000
815.397	6943
815.539	6928
815.68	6867
815.821	6814
815.962	6878
816.103	6882
816.244	6722
816.385	6658
816.526	6631
816.666	6490
816.807	6296
816.948	6471
817.089	6475
817.23	6452
817.371	6410
817.512	6395
817.653	6433
817.793	6407
817.934	6426
818.075	6433
818.216	6426
818.356	6456
818.497	6270
818.638	6129
818.778	6220
818.919	6159
819.06	6155
819.2	6365
819.341	6399
819.481	6399
819.622	6578
819.762	6768
819.903	6715
820.043	6597
820.184	6620
820.324	6642
820.465	6665
820.605	6681
820.746	6688
820.886	6544
821.026	6612
821.167	6738
821.307	6795
821.447	6734
821.588	6696
821.728	6646
821.868	6540
822.008	6350
822.149	6429
822.289	6391
822.429	6224
822.569	6098
822.709	6171
822.849	5920
822.99	5889
823.13	5878
823.27	5908
823.41	5764
823.55	5786
823.69	5764
823.83	5775
823.97	5684
824.11	5516
824.25	5459
824.389	5573
824.529	5573
824.669	5471
824.809	5608
824.949	5691
825.089	5615
825.228	5596
825.368	5433
825.508	5372
825.648	5326
825.787	5387
825.927	5402
826.067	5334
826.206	5315
826.346	5360
826.485	5429
826.625	5376
826.765	5573
826.904	5459
827.044	5246
827.183	5223
827.323	5151
827.462	5250
827.601	5193
827.741	5185
827.88	5223
828.02	5071
828.159	5208
828.298	5322
828.437	5364
828.577	5330
828.716	5486
828.855	5341
828.994	5170
829.134	5117
829.273	5235
829.412	5193
829.551	5181
829.69	5189
829.829	5235
829.968	5337
830.107	5258
830.246	5292
830.385	5174
830.524	5113
830.663	5098
830.802	4938
830.941	4919
831.08	4866
831.219	4984
831.357	4957
831.496	5193
831.635	4965
831.774	4870
831.913	4885
832.051	4748
832.19	4755
832.329	4828
832.467	4710
832.606	4691
832.744	4740
832.883	4679
833.022	4717
833.16	4782
833.299	4793
833.437	4812
833.576	4816
833.714	4850
833.852	4892
833.991	4881
834.129	4999
834.267	4968
834.406	4889
834.544	4938
834.682	4919
834.821	4987
834.959	5143
835.097	4946
835.235	5162
835.373	5079
835.511	5117
835.65	5071
835.788	5018
835.926	4911
836.064	4885
836.202	4938
836.34	5136
836.478	5254
836.615	5162
836.753	5174
836.891	5288
837.029	5231
837.167	5185
837.305	5159
837.443	5124
837.58	5075
837.718	5235
837.856	5155
837.993	5212
838.131	5246
838.269	5136
838.406	5208
838.544	5208
838.681	5075
838.819	5025
838.956	4889
839.094	4889
839.231	4991
839.369	5022
839.506	5433
839.643	5284
839.781	5094
839.918	5006
840.055	5079
840.193	5113
840.33	5132
840.467	5181
840.604	5170
840.742	5421
840.879	5071
841.016	5094
841.153	5147
841.29	5349
841.427	5349
841.564	5307
841.701	5372
841.838	5284
841.975	5250
842.112	5288
842.249	5143
842.385	5098
842.522	5345
842.659	5204
842.796	5197
842.933	5193
843.069	5147
843.206	5185
843.343	5239
843.479	5193
843.616	5296
843.752	5022
843.889	4987
844.025	5216
844.162	5018
844.298	5204
844.435	5090
844.571	5098
844.708	5193
844.844	5318
844.98	5345
845.117	5360
845.253	5166
845.389	5086
845.525	5189
845.661	5136
845.798	5018
845.934	5117
846.07	5094
846.206	5220
846.342	5250
846.478	5178
846.614	5029
846.75	5003
846.886	4938
847.022	5143
847.158	4961
847.294	5056
847.429	5174
847.565	5052
847.701	5296
847.837	4835
847.972	4847
848.108	4991
848.244	4965
848.379	4767
848.515	4679
848.65	4694
848.786	4767
848.921	4763
849.057	4881
849.192	4942
849.328	4877
849.463	4858
849.598	4786
849.734	4797
849.869	4725
850.004	4615
850.14	4668
850.275	4596
850.41	4535
850.545	4580
850.68	4584
850.815	4603
850.95	4634
851.085	4843
851.22	4717
851.355	4656
851.49	4622
851.625	4607
851.76	4626
851.895	4565
852.03	4573
852.165	4569
852.299	4691
852.434	4782
852.569	4805
852.703	4744
852.838	4862
852.973	4911
853.107	4889
853.242	4755
853.376	4679
853.511	4554
853.645	4641
853.78	4755
853.914	4679
854.048	4702
854.183	4675
854.317	4706
854.451	4877
854.585	4675
854.72	4653
854.854	4706
854.988	4634
855.122	4626
855.256	4561
855.39	4702
855.524	4744
855.658	4710
855.792	4717
855.926	4694
856.06	4752
856.194	4782
856.327	4672
856.461	4672
856.595	4611
856.729	4653
856.862	4752
856.996	4660
857.13	4736
857.263	4778
857.397	4786
857.53	4675
857.664	4717
857.797	4831
857.931	4805
858.064	4706
858.197	4763
858.331	4618
858.464	4615
858.597	4504
858.731	4637
858.864	4634
858.997	4626
859.13	4660
859.263	4656
859.396	4668
859.529	4588
859.662	4584
859.795	4561
859.928	4668
860.061	4755
860.194	4771
860.327	4626
860.46	4588
860.592	4706
860.725	4725
860.858	4721
860.99	4599
861.123	4550
861.256	4478
861.388	4645
861.521	5425
861.653	4531
861.786	4485
861.918	4470
862.05	4542
862.183	4516
862.315	4599
862.447	4637
862.58	4531
862.712	4337
862.844	4337
862.976	4470
863.108	4413
863.24	4790
863.372	4287
863.504	4409
863.636	4379
863.768	4550
863.9	4462
864.032	4432
864.164	4390
864.296	4493
864.428	4523
864.559	4569
864.691	4516
864.823	4546
864.954	4497
865.086	4512
865.217	4462
865.349	4394
865.48	4447
865.612	4485
865.743	4637
865.875	4500
866.006	4417
866.137	4508
866.269	4443
866.4	4417
866.531	4455
866.662	4402
866.793	4379
866.924	4424
867.055	4481
867.186	4485
867.317	4367
867.448	4344
867.579	4394
867.71	4390
867.841	4379
867.972	4424
868.103	4432
868.233	4489
868.364	4413
868.495	4512
868.625	4649
868.756	4763
868.886	4573
869.017	4615
869.147	4763
869.278	4755
869.408	4649
869.539	4622
869.669	4679
869.799	4675
869.929	4748
870.06	4767
870.19	4923
870.32	4938
870.45	4908
870.58	4999
870.71	5075
870.84	5003
870.97	4968
871.1	4915
871.23	5155
871.36	5128
871.489	5025
871.619	5090
871.749	5075
871.879	5143
872.008	5181
872.138	5109
872.267	4984
872.397	4835
872.526	4812
872.656	4736
872.785	4805
872.915	4957
873.044	4991
873.173	4957
873.303	4927
873.432	4953
873.561	4961
873.69	4866
873.819	4923
873.948	4904
874.077	4805
874.206	4725
874.335	4778
874.464	4946
874.593	5064
874.722	4915
874.851	5079
874.979	5056
875.108	5037
875.237	4908
875.365	4873
875.494	4873
875.623	4934
875.751	4824
875.88	4877
876.008	5003
876.136	5029
876.265	5197
876.393	5315
876.521	5227
876.65	5208
876.778	5151
876.906	5079
877.034	5048
877.162	5090
877.29	4976
877.418	5083
877.546	5006
877.674	5079
877.802	5086
877.93	4953
878.058	4965
878.185	4885
878.313	4923
878.441	4942
878.568	4809
878.696	4904
878.824	4968
878.951	5033
879.079	5124
879.206	5254
879.333	5128
879.461	4930
879.588	4999
879.715	5132
879.842	5208
879.97	4995
880.097	4771
880.224	4740
880.351	4824
880.478	4847
880.605	4835
880.732	4763
880.859	5090
880.986	4850
881.112	4915
881.239	4782
881.366	4634
881.493	4573
881.619	4527
881.746	4622
881.872	4668
881.999	4637
882.125	4679
882.252	4786
882.378	4805
882.505	4972
882.631	4816
882.757	4694
882.883	4675
883.01	4755
883.136	4672
883.262	4611
883.388	4599
883.514	4835
883.64	4885
883.766	4820
883.892	4683
884.018	4664
884.143	4873
884.269	4991
884.395	4691
884.52	4599
884.646	4653
884.772	4611
884.897	4634
885.023	4599
885.148	4767
885.274	4839
885.399	4831
885.524	4714
885.65	4679
885.775	4736
885.9	4679
886.025	4839
886.15	4778
886.275	4691
886.4	4637
886.525	4706
886.65	4645
886.775	4675
886.9	4946
887.025	4972
887.149	4812
887.274	4603
887.399	4599
887.523	4588
887.648	4531
887.773	4535
887.897	4694
888.021	4767
888.146	4721
888.27	4839
888.395	4904
888.519	4778
888.643	4854
888.767	4816
888.891	4645
889.015	4588
889.139	4672
889.263	4580
889.387	4736
889.511	4881
889.635	4812
889.759	4615
889.883	4626
890.006	4736
890.13	4786
890.254	4596
890.377	4672
890.501	4500
890.624	4527
890.748	4645
890.871	4512
890.995	4470
891.118	4375
891.241	4573
891.364	4538
891.488	4641
891.611	4485
891.734	4527
891.857	4596
891.98	4573
892.103	4630
892.226	4611
892.349	4550
892.471	4459
892.594	4561
892.717	4615
892.839	4558
892.962	4588
893.085	4634
893.207	4626
893.33	4443
893.452	4512
893.575	4679
893.697	4599
893.819	4752
893.941	4786
894.064	4694
894.186	4618
894.308	4584
894.43	4691
894.552	4812
894.674	4733
894.796	4558
894.918	4607
895.04	4542
895.161	4752
895.283	4675
895.405	4584
895.526	4702
895.648	4622
895.769	4683
895.891	4702
896.012	4714
896.134	4755
896.255	4698
896.376	4607
896.498	4607
896.619	4721
896.74	4599
896.861	4626
896.982	4923
897.103	5064
897.224	4831
897.345	4733
897.466	4656
897.587	4721
897.708	4873
897.828	4729
897.949	4637
898.07	4546
898.19	4607
898.311	4778
898.431	4664
898.552	4717
898.672	4801
898.792	4782
898.913	4740
899.033	4618
899.153	4481
899.273	4424
899.393	4500
899.513	4527
899.633	4519
899.753	4550
899.873	4512
899.993	4634
900.113	4519
900.232	4607
900.352	4512
900.472	4512
900.591	4459
900.711	4519
900.83	4386
900.95	4531
901.069	4672
901.189	4538
901.308	4333
901.427	4344
901.546	4390
901.665	4466
901.784	4512
901.904	4428
902.023	4344
902.141	4177
902.26	4192
902.379	4280
902.498	4265
902.617	4249
902.735	4402
902.854	4394
902.973	4360
903.091	4242
903.21	4249
903.328	4314
903.446	4306
903.565	4249
903.683	4356
903.801	4253
903.919	4394
904.038	4417
904.156	4303
904.274	4447
904.392	4413
904.51	4455
904.627	4493
904.745	4618
904.863	4634
904.981	4390
905.098	4268
905.216	4333
905.334	4440
905.451	4428
905.569	4383
905.686	4569
905.803	4588
905.921	4428
906.038	4527
906.155	4459
906.272	4371
906.389	4432
906.506	4352
906.623	4333
906.74	4375
906.857	4333
906.974	4356
907.091	4558
907.208	4649
907.324	4565
907.441	4455
907.557	4360
907.674	4360
907.79	4265
907.907	4360
908.023	4504
908.139	4474
908.256	4413
908.372	4500
908.488	4474
908.604	4363
908.72	4318
908.836	4360
908.952	4352
909.068	4462
909.184	4573
909.3	4512
909.415	4546
909.531	4588
909.647	4310
909.762	4383
909.878	4314
909.993	4375
910.108	4421
910.224	4394
910.339	4504
910.454	4383
910.57	4352
910.685	4352
910.8	4679
910.915	4588
911.03	4497
911.145	4276
911.259	4325
911.374	4398
911.489	4280
911.604	4249
911.718	4150
911.833	4173
911.947	4131
912.062	4025
912.176	4200
912.291	4261
912.405	4207
912.519	4413
912.633	4504
912.748	4379
912.862	4291
912.976	4196
913.09	4078
913.204	4147
913.318	4295
913.431	4398
913.545	4409
913.659	4405
913.772	4325
913.886	4227
914	4325
914.113	4402
914.226	4428
914.34	4398
914.453	4227
914.566	4421
914.68	4268
914.793	4291
914.906	4135
915.019	4128
915.132	4101
915.245	4192
915.358	4223
915.47	4230
915.583	4261
915.696	4306
915.809	4394
915.921	4367
916.034	4272
916.146	4280
916.259	4234
916.371	4329
916.483	4390
916.595	4249
916.708	4337
916.82	4306
916.932	4306
917.044	4390
917.156	4310
917.268	4215
917.38	4261
917.491	4272
917.603	4348
917.715	4424
917.826	4417
917.938	4329
918.049	4257
918.161	4363
918.272	4592
918.384	4512
918.495	4447
918.606	4318
918.717	4272
918.828	4306
918.939	4375
919.05	4215
919.161	4363
919.272	4124
919.383	4219
919.494	4394
919.604	4660
919.715	4390
919.826	4344
919.936	4390
920.047	4512
920.157	4485
920.267	4679
920.378	4504
920.488	4538
920.598	4698
920.708	4915
920.818	4733
920.928	4729
921.038	4984
921.148	4915
921.258	4607
921.368	4580
921.477	4493
921.587	4470
921.697	4375
921.806	4550
921.916	4417
922.025	4287
922.134	4253
922.244	4188
922.353	4322
922.462	4200
922.571	4120
922.68	3991
922.789	3949
922.898	4021
923.007	4006
923.116	4139
923.224	4059
923.333	4044
923.442	3964
923.55	3987
923.659	4048
923.767	4105
923.876	4017
923.984	4112
924.092	3960
924.201	4101
924.309	4112
924.417	4101
924.525	4086
924.633	4063
924.741	5025
924.849	3888
924.956	4093
925.064	3941
925.172	3884
925.279	3964
925.387	4029
925.494	4055
925.602	4234
925.709	4162
925.816	4036
925.924	4105
926.031	4261
926.138	4150
926.245	4181
926.352	4093
926.459	4234
926.566	4291
926.673	4124
926.779	4071
926.886	4109
926.993	3975
927.099	3968
927.206	3949
927.312	3918
927.419	4010
927.525	4063
927.631	4082
927.737	3972
927.843	3926
927.95	3816
928.056	3937
928.162	3991
928.267	4097
928.373	4706
928.479	4166
928.585	3869
928.69	4013
928.796	4082
928.901	3953
929.007	3873
929.112	3979
929.218	3968
929.323	3945
929.428	3937
929.533	4109
929.638	3892
929.743	3975
929.848	3968
929.953	3983
930.058	3930
930.163	3793
930.267	3804
930.372	3987
930.477	3835
930.581	4082
930.685	3953
930.79	3846
930.894	3888
930.998	3831
931.103	4013
931.207	3717
931.311	3694
931.415	3675
931.519	3500
931.623	3553
