Data from test_V78500241_1767.txt Node
Date: Fri Mar 25 17:01:17 CST 2022
User: usil
Spectrometer: V785-0024
Trigger mode: 0
Integration Time (sec): 4.000000E-1
Scans to average: 1
Nonlinearity correction enabled: false
Boxcar width: 0
Storing dark spectrum: false
XAxis mode: Wavelengths
Number of Pixels in Spectrum: 1024
>>>>>Begin Spectral Data<<<<<
801.071	7993
801.214	7974
801.356	7875
801.499	7852
801.641	7769
801.783	7860
801.926	7967
802.068	7951
802.211	7993
802.353	8016
802.496	7841
802.638	7833
802.78	7898
802.923	7936
803.065	7883
803.208	7814
803.35	8016
803.492	8065
803.635	8180
803.777	8016
803.919	8100
804.061	8476
804.204	8130
804.346	8050
804.488	8008
804.63	8069
804.773	7940
804.915	8161
805.057	8282
805.199	8161
805.341	8263
805.483	8309
805.626	8134
805.768	8191
805.91	8210
806.052	8206
806.194	8103
806.336	8279
806.478	8130
806.62	8096
806.762	8183
806.904	8282
807.046	8484
807.188	8339
807.33	8301
807.472	8362
807.614	8149
807.756	8164
807.898	8092
808.04	7871
808.182	7890
808.324	7868
808.465	7955
808.607	8096
808.749	8168
808.891	8149
809.033	8336
809.174	8248
809.316	8077
809.458	8130
809.6	8016
809.741	7997
809.883	8081
810.025	8123
810.166	8077
810.308	8054
810.45	8050
810.591	7788
810.733	7700
810.875	7636
811.016	7540
811.158	7514
811.299	7620
811.441	7727
811.582	7712
811.724	7563
811.865	7563
812.007	7590
812.148	7548
812.29	7620
812.431	7837
812.573	7967
812.714	7993
812.855	8134
812.997	8199
813.138	8313
813.279	8134
813.421	8103
813.562	7982
813.703	7837
813.845	7693
813.986	7472
814.127	7244
814.268	7244
814.41	7225
814.551	7152
814.692	7228
814.833	7076
814.974	7122
815.115	7103
815.256	7038
815.397	6935
815.539	6962
815.68	6825
815.821	6802
815.962	6875
816.103	6848
816.244	6684
816.385	6616
816.526	6620
816.666	6513
816.807	6361
816.948	6391
817.089	6441
817.23	6486
817.371	6372
817.512	6384
817.653	6380
817.793	6418
817.934	6353
818.075	6448
818.216	6460
818.356	6388
818.497	6277
818.638	6148
818.778	6175
818.919	6148
819.06	6140
819.2	6331
819.341	6357
819.481	6365
819.622	6559
819.762	6700
819.903	6650
820.043	6631
820.184	6593
820.324	6566
820.465	6692
820.605	6623
820.746	6669
820.886	6509
821.026	6665
821.167	6688
821.307	6734
821.447	6783
821.588	6715
821.728	6532
821.868	6536
822.008	6376
822.149	6395
822.289	6407
822.429	6159
822.569	6087
822.709	6125
822.849	5927
822.99	5904
823.13	5901
823.27	5927
823.41	5836
823.55	5794
823.69	5752
823.83	5817
823.97	5657
824.11	5505
824.25	5520
824.389	5516
824.529	5649
824.669	5471
824.809	5680
824.949	5703
825.089	5672
825.228	5566
825.368	5410
825.508	5322
825.648	5357
825.787	5311
825.927	5391
826.067	5280
826.206	5376
826.346	5417
826.485	5444
826.625	5440
826.765	5539
826.904	5448
827.044	5292
827.183	5212
827.323	5128
827.462	5216
827.601	5185
827.741	5239
827.88	5201
828.02	5086
828.159	5212
828.298	5292
828.437	5398
828.577	5284
828.716	5474
828.855	5296
828.994	5162
829.134	5159
829.273	5185
829.412	5151
829.551	5235
829.69	5201
829.829	5265
829.968	5383
830.107	5284
830.246	5246
830.385	5189
830.524	5094
830.663	5029
830.802	4984
830.941	4892
831.08	4870
831.219	5014
831.357	4980
831.496	5155
831.635	4946
831.774	4889
831.913	4881
832.051	4721
832.19	4759
832.329	4835
832.467	4672
832.606	4641
832.744	4755
832.883	4748
833.022	4763
833.16	4714
833.299	4805
833.437	4831
833.576	4854
833.714	4843
833.852	4866
833.991	4927
834.129	4942
834.267	4930
834.406	4911
834.544	4980
834.682	4938
834.821	4995
834.959	5128
835.097	4991
835.235	5155
835.373	5048
835.511	5140
835.65	5010
835.788	5010
835.926	4938
836.064	4927
836.202	4938
836.34	5166
836.478	5231
836.615	5155
836.753	5208
836.891	5292
837.029	5265
837.167	5193
837.305	5162
837.443	5162
837.58	5071
837.718	5299
837.856	5220
837.993	5098
838.131	5193
838.269	5212
838.406	5166
838.544	5216
838.681	5018
838.819	5006
838.956	4885
839.094	4885
839.231	5022
839.369	5132
839.506	5376
839.643	5231
839.781	5037
839.918	5083
840.055	5121
840.193	5102
840.33	5071
840.467	5193
840.604	5193
840.742	5482
840.879	5079
841.016	5052
841.153	5159
841.29	5383
841.427	5372
841.564	5292
841.701	5334
841.838	5254
841.975	5254
842.112	5273
842.249	5159
842.385	5094
842.522	5311
842.659	5174
842.796	5166
842.933	5197
843.069	5132
843.206	5132
843.343	5303
843.479	5239
843.616	5227
843.752	5041
843.889	4987
844.025	5204
844.162	5003
844.298	5220
844.435	5064
844.571	5090
844.708	5212
844.844	5307
844.98	5318
845.117	5322
845.253	5174
845.389	5071
845.525	5140
845.661	5140
845.798	5037
845.934	5124
846.07	5041
846.206	5143
846.342	5277
846.478	5159
846.614	4999
846.75	4968
846.886	4927
847.022	5143
847.158	4961
847.294	5098
847.429	5079
847.565	5079
847.701	5349
847.837	4797
847.972	4870
848.108	4991
848.244	4965
848.379	4790
848.515	4717
848.65	4744
848.786	4736
848.921	4752
849.057	4866
849.192	4915
849.328	4790
849.463	4885
849.598	4797
849.734	4778
849.869	4702
850.004	4634
850.14	4649
850.275	4592
850.41	4516
850.545	4588
850.68	4596
850.815	4634
850.95	4588
851.085	4850
851.22	4725
851.355	4607
851.49	4596
851.625	4599
851.76	4622
851.895	4596
852.03	4580
852.165	4622
852.299	4725
852.434	4774
852.569	4725
852.703	4805
852.838	4877
852.973	4968
853.107	4911
853.242	4702
853.376	4641
853.511	4580
853.645	4599
853.78	4805
853.914	4634
854.048	4645
854.183	4626
854.317	4687
854.451	4850
854.585	4694
854.72	4607
854.854	4793
854.988	4546
855.122	4645
855.256	4466
855.39	4668
855.524	4767
855.658	4664
855.792	4698
855.926	4721
856.06	4767
856.194	4809
856.327	4691
856.461	4569
856.595	4607
856.729	4626
856.862	4744
856.996	4706
857.13	4698
857.263	4755
857.397	4778
857.53	4687
857.664	4721
857.797	4774
857.931	4786
858.064	4702
858.197	4733
858.331	4660
858.464	4634
858.597	4565
858.731	4634
858.864	4603
858.997	4565
859.13	4664
859.263	4672
859.396	4694
859.529	4561
859.662	4573
859.795	4554
859.928	4653
860.061	4778
860.194	4778
860.327	4527
860.46	4561
860.592	4725
860.725	4706
860.858	4721
860.99	4561
861.123	4497
861.256	4535
861.388	4637
861.521	5299
861.653	4508
861.786	4409
861.918	4459
862.05	4508
862.183	4565
862.315	4637
862.447	4622
862.58	4535
862.712	4383
862.844	4352
862.976	4478
863.108	4443
863.24	4843
863.372	4318
863.504	4390
863.636	4417
863.768	4481
863.9	4432
864.032	4333
864.164	4383
864.296	4481
864.428	4580
864.559	4554
864.691	4535
864.823	4497
864.954	4474
865.086	4516
865.217	4481
865.349	4424
865.48	4493
865.612	4504
865.743	4611
865.875	4481
866.006	4417
866.137	4459
866.269	4432
866.4	4459
866.531	4394
866.662	4352
866.793	4390
866.924	4413
867.055	4497
867.186	4481
867.317	4413
867.448	4360
867.579	4363
867.71	4436
867.841	4363
867.972	4474
868.103	4470
868.233	4466
868.364	4440
868.495	4508
868.625	4675
868.756	4744
868.886	4550
869.017	4615
869.147	4778
869.278	4759
869.408	4668
869.539	4611
869.669	4694
869.799	4679
869.929	4748
870.06	4729
870.19	4942
870.32	4953
870.45	4908
870.58	5029
870.71	5121
870.84	5102
870.97	4934
871.1	4850
871.23	5155
871.36	5132
871.489	4984
871.619	5105
871.749	5079
871.879	5113
872.008	5162
872.138	5056
872.267	4953
872.397	4843
872.526	4774
872.656	4706
872.785	4740
872.915	4927
873.044	5048
873.173	4946
873.303	4934
873.432	4946
873.561	4942
873.69	4850
873.819	4873
873.948	4885
874.077	4771
874.206	4748
874.335	4847
874.464	4923
874.593	5102
874.722	4957
874.851	5117
874.979	5037
875.108	5033
875.237	4934
875.365	4847
875.494	4900
875.623	4980
875.751	4778
875.88	4866
876.008	4968
876.136	5060
876.265	5181
876.393	5330
876.521	5235
876.65	5220
876.778	5174
876.906	5086
877.034	5033
877.162	5041
877.29	5003
877.418	5056
877.546	5041
877.674	5022
877.802	4999
877.93	5033
878.058	4923
878.185	4904
878.313	4889
878.441	4961
878.568	4774
878.696	4877
878.824	4953
878.951	4976
879.079	5136
879.206	5296
879.333	5086
879.461	4980
879.588	4976
879.715	5181
879.842	5181
879.97	4968
880.097	4763
880.224	4744
880.351	4812
880.478	4824
880.605	4805
880.732	4748
880.859	5094
880.986	4885
881.112	4900
881.239	4816
881.366	4702
881.493	4641
881.619	4558
881.746	4622
881.872	4660
881.999	4649
882.125	4714
882.252	4790
882.378	4793
882.505	4968
882.631	4847
882.757	4660
882.883	4740
883.01	4656
883.136	4687
883.262	4508
883.388	4626
883.514	4824
883.64	4820
883.766	4790
883.892	4706
884.018	4717
884.143	4881
884.269	4999
884.395	4668
884.52	4641
884.646	4660
884.772	4580
884.897	4558
885.023	4664
885.148	4797
885.274	4870
885.399	4771
885.524	4702
885.65	4714
885.775	4774
885.9	4744
886.025	4812
886.15	4839
886.275	4759
886.4	4599
886.525	4736
886.65	4694
886.775	4679
886.9	4904
887.025	5018
887.149	4812
887.274	4653
887.399	4607
887.523	4622
887.648	4535
887.773	4558
887.897	4736
888.021	4786
888.146	4653
888.27	4778
888.395	4870
888.519	4778
888.643	4805
888.767	4839
888.891	4679
889.015	4607
889.139	4687
889.263	4580
889.387	4740
889.511	4843
889.635	4812
889.759	4634
889.883	4634
890.006	4706
890.13	4835
890.254	4618
890.377	4645
890.501	4554
890.624	4535
890.748	4653
890.871	4493
890.995	4394
891.118	4417
891.241	4512
891.364	4580
891.488	4626
891.611	4580
891.734	4542
891.857	4611
891.98	4588
892.103	4645
892.226	4573
892.349	4531
892.471	4402
892.594	4554
892.717	4630
892.839	4561
892.962	4607
893.085	4660
893.207	4538
893.33	4481
893.452	4508
893.575	4649
893.697	4565
893.819	4835
893.941	4831
894.064	4759
894.186	4535
894.308	4569
894.43	4725
894.552	4755
894.674	4740
894.796	4535
894.918	4668
895.04	4599
895.161	4752
895.283	4634
895.405	4531
895.526	4649
895.648	4691
895.769	4706
895.891	4683
896.012	4714
896.134	4698
896.255	4672
896.376	4611
896.498	4603
896.619	4668
896.74	4592
896.861	4656
896.982	4900
897.103	5098
897.224	4816
897.345	4763
897.466	4710
897.587	4702
897.708	4843
897.828	4778
897.949	4679
898.07	4573
898.19	4554
898.311	4858
898.431	4618
898.552	4755
898.672	4831
898.792	4767
898.913	4763
899.033	4637
899.153	4466
899.273	4409
899.393	4451
899.513	4504
899.633	4535
899.753	4523
899.873	4493
899.993	4611
900.113	4565
900.232	4573
900.352	4554
900.472	4455
900.591	4432
900.711	4462
900.83	4421
900.95	4618
901.069	4645
901.189	4538
901.308	4363
901.427	4344
901.546	4402
901.665	4516
901.784	4516
901.904	4348
902.023	4318
902.141	4147
902.26	4109
902.379	4310
902.498	4265
902.617	4204
902.735	4356
902.854	4394
902.973	4325
903.091	4211
903.21	4207
903.328	4303
903.446	4246
903.565	4246
903.683	4333
903.801	4246
903.919	4348
904.038	4443
904.156	4329
904.274	4447
904.392	4402
904.51	4462
904.627	4432
904.745	4565
904.863	4618
904.981	4394
905.098	4314
905.216	4409
905.334	4474
905.451	4417
905.569	4424
905.686	4558
905.803	4569
905.921	4417
906.038	4504
906.155	4447
906.272	4398
906.389	4398
906.506	4363
906.623	4363
906.74	4356
906.857	4295
906.974	4352
907.091	4535
907.208	4634
907.324	4577
907.441	4447
907.557	4329
907.674	4337
907.79	4268
907.907	4413
908.023	4474
908.139	4421
908.256	4436
908.372	4447
908.488	4413
908.604	4306
908.72	4318
908.836	4390
908.952	4329
909.068	4413
909.184	4546
909.3	4481
909.415	4569
909.531	4550
909.647	4337
909.762	4383
909.878	4310
909.993	4383
910.108	4432
910.224	4432
910.339	4504
910.454	4379
910.57	4352
910.685	4314
910.8	4626
910.915	4565
911.03	4493
911.145	4333
911.259	4246
911.374	4398
911.489	4325
911.604	4303
911.718	4173
911.833	4211
911.947	4109
912.062	4021
912.176	4196
912.291	4242
912.405	4188
912.519	4470
912.633	4462
912.748	4405
912.862	4310
912.976	4204
913.09	4112
913.204	4173
913.318	4246
913.431	4363
913.545	4379
913.659	4405
913.772	4325
913.886	4215
914	4219
914.113	4375
914.226	4428
914.34	4424
914.453	4227
914.566	4443
914.68	4276
914.793	4325
914.906	4204
915.019	4120
915.132	4116
915.245	4181
915.358	4207
915.47	4230
915.583	4249
915.696	4287
915.809	4432
915.921	4402
916.034	4234
916.146	4230
916.259	4188
916.371	4375
916.483	4398
916.595	4227
916.708	4371
916.82	4325
916.932	4306
917.044	4295
917.156	4337
917.268	4246
917.38	4219
917.491	4295
917.603	4363
917.715	4417
917.826	4443
917.938	4329
918.049	4265
918.161	4379
918.272	4615
918.384	4569
918.495	4424
918.606	4322
918.717	4207
918.828	4318
918.939	4386
919.05	4276
919.161	4299
919.272	4112
919.383	4230
919.494	4466
919.604	4637
919.715	4421
919.826	4314
919.936	4413
920.047	4516
920.157	4527
920.267	4710
920.378	4592
920.488	4516
920.598	4679
920.708	4839
920.818	4793
920.928	4740
921.038	4957
921.148	4927
921.258	4622
921.368	4599
921.477	4523
921.587	4459
921.697	4337
921.806	4531
921.916	4470
922.025	4261
922.134	4230
922.244	4207
922.353	4344
922.462	4185
922.571	4093
922.68	4002
922.789	3975
922.898	4025
923.007	3987
923.116	4105
923.224	4071
923.333	4124
923.442	3983
923.55	4036
923.659	4032
923.767	4093
923.876	3937
923.984	4097
924.092	3968
924.201	4109
924.309	4059
924.417	4139
924.525	4048
924.633	4071
924.741	5022
924.849	3964
924.956	4181
925.064	3918
925.172	3975
925.279	4002
925.387	4105
925.494	4097
925.602	4215
925.709	4200
925.816	4044
925.924	4105
926.031	4246
926.138	4169
926.245	4249
926.352	4101
926.459	4230
926.566	4352
926.673	4158
926.779	4059
926.886	4120
926.993	3972
927.099	3926
927.206	3915
927.312	3972
927.419	4097
927.525	3991
927.631	4097
927.737	3960
927.843	3945
927.95	3854
928.056	3956
928.162	3994
928.267	4040
928.373	4584
928.479	4135
928.585	3846
928.69	4021
928.796	4097
928.901	4002
929.007	3816
929.112	4059
929.218	3987
929.323	3937
929.428	3953
929.533	4086
929.638	3899
929.743	3968
929.848	4017
929.953	3949
930.058	3922
930.163	3770
930.267	3838
930.372	3949
930.477	3812
930.581	4154
930.685	3953
930.79	3842
930.894	3835
930.998	3884
931.103	4048
931.207	3736
931.311	3720
931.415	3667
931.519	3492
931.623	3549
