Data from test_V78500241_2690.txt Node
Date: Fri Mar 25 17:07:42 CST 2022
User: usil
Spectrometer: V785-0024
Trigger mode: 0
Integration Time (sec): 4.000000E-1
Scans to average: 1
Nonlinearity correction enabled: false
Boxcar width: 0
Storing dark spectrum: false
XAxis mode: Wavelengths
Number of Pixels in Spectrum: 1024
>>>>>Begin Spectral Data<<<<<
801.071	8005
801.214	8016
801.356	7860
801.499	7955
801.641	7852
801.783	7871
801.926	8027
802.068	8035
802.211	7955
802.353	8058
802.496	7826
802.638	7932
802.78	7925
802.923	7970
803.065	7890
803.208	7883
803.35	8031
803.492	8115
803.635	8191
803.777	8062
803.919	8126
804.061	8469
804.204	8168
804.346	8058
804.488	8035
804.63	8077
804.773	8111
804.915	8168
805.057	8282
805.199	8161
805.341	8248
805.483	8259
805.626	8256
805.768	8092
805.91	8183
806.052	8202
806.194	8103
806.336	8301
806.478	8103
806.62	8008
806.762	8111
806.904	8191
807.046	8431
807.188	8419
807.33	8332
807.472	8290
807.614	8218
807.756	8111
807.898	8092
808.04	7875
808.182	7871
808.324	7913
808.465	7909
808.607	8084
808.749	8172
808.891	8275
809.033	8336
809.174	8259
809.316	8123
809.458	8100
809.6	7940
809.741	7978
809.883	8031
810.025	8115
810.166	8111
810.308	8024
810.45	8020
810.591	7856
810.733	7803
810.875	7723
811.016	7521
811.158	7548
811.299	7620
811.441	7734
811.582	7746
811.724	7616
811.865	7540
812.007	7567
812.148	7597
812.29	7666
812.431	7811
812.573	7932
812.714	8020
812.855	8149
812.997	8176
813.138	8294
813.279	8206
813.421	8153
813.562	8016
813.703	7879
813.845	7765
813.986	7491
814.127	7278
814.268	7278
814.41	7263
814.551	7118
814.692	7194
814.833	7042
814.974	7133
815.115	7103
815.256	6977
815.397	6897
815.539	6947
815.68	6825
815.821	6795
815.962	6840
816.103	6863
816.244	6787
816.385	6574
816.526	6608
816.666	6490
816.807	6350
816.948	6388
817.089	6486
817.23	6407
817.371	6361
817.512	6323
817.653	6429
817.793	6384
817.934	6422
818.075	6452
818.216	6464
818.356	6407
818.497	6213
818.638	6102
818.778	6133
818.919	6117
819.06	6178
819.2	6338
819.341	6304
819.481	6369
819.622	6502
819.762	6783
819.903	6703
820.043	6574
820.184	6563
820.324	6620
820.465	6654
820.605	6734
820.746	6604
820.886	6574
821.026	6700
821.167	6776
821.307	6753
821.447	6722
821.588	6684
821.728	6597
821.868	6448
822.008	6353
822.149	6395
822.289	6365
822.429	6110
822.569	6091
822.709	6110
822.849	5950
822.99	5927
823.13	5954
823.27	5977
823.41	5771
823.55	5802
823.69	5752
823.83	5775
823.97	5649
824.11	5524
824.25	5478
824.389	5551
824.529	5604
824.669	5562
824.809	5619
824.949	5676
825.089	5589
825.228	5570
825.368	5425
825.508	5368
825.648	5337
825.787	5341
825.927	5296
826.067	5349
826.206	5284
826.346	5330
826.485	5322
826.625	5417
826.765	5539
826.904	5486
827.044	5322
827.183	5220
827.323	5121
827.462	5277
827.601	5174
827.741	5201
827.88	5239
828.02	5155
828.159	5239
828.298	5277
828.437	5391
828.577	5330
828.716	5471
828.855	5322
828.994	5201
829.134	5193
829.273	5208
829.412	5189
829.551	5121
829.69	5220
829.829	5292
829.968	5379
830.107	5318
830.246	5299
830.385	5166
830.524	5201
830.663	5162
830.802	5029
830.941	4911
831.08	4892
831.219	5010
831.357	4999
831.496	5178
831.635	4961
831.774	4889
831.913	4896
832.051	4755
832.19	4778
832.329	4942
832.467	4717
832.606	4656
832.744	4774
832.883	4778
833.022	4755
833.16	4835
833.299	4862
833.437	4896
833.576	4835
833.714	4908
833.852	4911
833.991	4915
834.129	5010
834.267	4942
834.406	4938
834.544	4991
834.682	4987
834.821	5037
834.959	5212
835.097	5064
835.235	5201
835.373	5189
835.511	5147
835.65	5094
835.788	5067
835.926	4938
836.064	4908
836.202	4949
836.34	5216
836.478	5284
836.615	5155
836.753	5284
836.891	5379
837.029	5299
837.167	5204
837.305	5178
837.443	5159
837.58	5136
837.718	5280
837.856	5231
837.993	5155
838.131	5269
838.269	5258
838.406	5239
838.544	5227
838.681	5090
838.819	4980
838.956	4934
839.094	4900
839.231	4987
839.369	5128
839.506	5455
839.643	5235
839.781	5079
839.918	5060
840.055	5090
840.193	5128
840.33	5121
840.467	5128
840.604	5231
840.742	5452
840.879	5109
841.016	5102
841.153	5178
841.29	5429
841.427	5372
841.564	5387
841.701	5395
841.838	5349
841.975	5242
842.112	5280
842.249	5124
842.385	5147
842.522	5364
842.659	5185
842.796	5136
842.933	5223
843.069	5201
843.206	5197
843.343	5341
843.479	5318
843.616	5273
843.752	5048
843.889	5086
844.025	5220
844.162	5121
844.298	5216
844.435	5121
844.571	5064
844.708	5147
844.844	5334
844.98	5368
845.117	5345
845.253	5227
845.389	5151
845.525	5189
845.661	5140
845.798	5071
845.934	5140
846.07	5121
846.206	5235
846.342	5299
846.478	5174
846.614	5060
846.75	4995
846.886	4984
847.022	5197
847.158	5018
847.294	5102
847.429	5140
847.565	5079
847.701	5326
847.837	4873
847.972	4824
848.108	4965
848.244	4949
848.379	4786
848.515	4805
848.65	4797
848.786	4797
848.921	4774
849.057	4908
849.192	4896
849.328	4862
849.463	4870
849.598	4858
849.734	4805
849.869	4729
850.004	4694
850.14	4755
850.275	4649
850.41	4592
850.545	4599
850.68	4660
850.815	4641
850.95	4630
851.085	4873
851.22	4740
851.355	4710
851.49	4618
851.625	4611
851.76	4706
851.895	4626
852.03	4603
852.165	4672
852.299	4763
852.434	4790
852.569	4763
852.703	4805
852.838	4873
852.973	4930
853.107	4911
853.242	4759
853.376	4714
853.511	4554
853.645	4698
853.78	4820
853.914	4672
854.048	4694
854.183	4691
854.317	4740
854.451	4862
854.585	4740
854.72	4592
854.854	4725
854.988	4611
855.122	4641
855.256	4592
855.39	4672
855.524	4801
855.658	4744
855.792	4729
855.926	4729
856.06	4793
856.194	4854
856.327	4725
856.461	4653
856.595	4649
856.729	4656
856.862	4824
856.996	4733
857.13	4782
857.263	4752
857.397	4828
857.53	4668
857.664	4774
857.797	4809
857.931	4847
858.064	4691
858.197	4771
858.331	4698
858.464	4694
858.597	4542
858.731	4634
858.864	4687
858.997	4580
859.13	4759
859.263	4721
859.396	4721
859.529	4634
859.662	4618
859.795	4592
859.928	4641
860.061	4752
860.194	4797
860.327	4683
860.46	4565
860.592	4771
860.725	4744
860.858	4691
860.99	4611
861.123	4535
861.256	4550
861.388	4637
861.521	5349
861.653	4546
861.786	4485
861.918	4554
862.05	4546
862.183	4599
862.315	4641
862.447	4653
862.58	4569
862.712	4481
862.844	4375
862.976	4500
863.108	4504
863.24	4759
863.372	4356
863.504	4459
863.636	4428
863.768	4504
863.9	4459
864.032	4390
864.164	4424
864.296	4474
864.428	4599
864.559	4611
864.691	4523
864.823	4554
864.954	4546
865.086	4531
865.217	4466
865.349	4455
865.48	4478
865.612	4489
865.743	4664
865.875	4500
866.006	4489
866.137	4497
866.269	4474
866.4	4466
866.531	4466
866.662	4451
866.793	4428
866.924	4478
867.055	4512
867.186	4493
867.317	4405
867.448	4371
867.579	4432
867.71	4451
867.841	4394
867.972	4485
868.103	4531
868.233	4493
868.364	4474
868.495	4478
868.625	4668
868.756	4805
868.886	4637
869.017	4626
869.147	4733
869.278	4744
869.408	4668
869.539	4679
869.669	4702
869.799	4706
869.929	4767
870.06	4767
870.19	4961
870.32	4957
870.45	5003
870.58	5048
870.71	5102
870.84	5098
870.97	4957
871.1	4927
871.23	5162
871.36	5147
871.489	5022
871.619	5098
871.749	5105
871.879	5197
872.008	5212
872.138	5071
872.267	4999
872.397	4915
872.526	4824
872.656	4759
872.785	4763
872.915	4968
873.044	5075
873.173	4972
873.303	5006
873.432	4995
873.561	4984
873.69	4919
873.819	4862
873.948	4938
874.077	4873
874.206	4790
874.335	4824
874.464	4965
874.593	5079
874.722	4972
874.851	5121
874.979	5102
875.108	5083
875.237	4934
875.365	4896
875.494	4915
875.623	4991
875.751	4847
875.88	4911
876.008	5033
876.136	5022
876.265	5159
876.393	5398
876.521	5258
876.65	5239
876.778	5201
876.906	5098
877.034	5056
877.162	5075
877.29	5045
877.418	5029
877.546	5124
877.674	5121
877.802	5056
877.93	5117
878.058	4934
878.185	4892
878.313	4957
878.441	4976
878.568	4831
878.696	4915
878.824	4999
878.951	5041
879.079	5094
879.206	5311
879.333	5102
879.461	5014
879.588	5045
879.715	5132
879.842	5269
879.97	5045
880.097	4786
880.224	4778
880.351	4816
880.478	4820
880.605	4812
880.732	4835
880.859	5075
880.986	4904
881.112	4938
881.239	4824
881.366	4710
881.493	4656
881.619	4592
881.746	4634
881.872	4664
881.999	4641
882.125	4679
882.252	4793
882.378	4850
882.505	5003
882.631	4862
882.757	4672
882.883	4767
883.01	4774
883.136	4672
883.262	4592
883.388	4637
883.514	4847
883.64	4885
883.766	4805
883.892	4675
884.018	4725
884.143	4889
884.269	5048
884.395	4725
884.52	4637
884.646	4691
884.772	4637
884.897	4596
885.023	4645
885.148	4831
885.274	4900
885.399	4850
885.524	4744
885.65	4698
885.775	4782
885.9	4717
886.025	4843
886.15	4782
886.275	4740
886.4	4687
886.525	4763
886.65	4706
886.775	4729
886.9	4915
887.025	5067
887.149	4835
887.274	4637
887.399	4596
887.523	4649
887.648	4618
887.773	4618
887.897	4828
888.021	4843
888.146	4714
888.27	4870
888.395	4900
888.519	4828
888.643	4885
888.767	4858
888.891	4683
889.015	4649
889.139	4733
889.263	4649
889.387	4797
889.511	4881
889.635	4828
889.759	4656
889.883	4672
890.006	4752
890.13	4885
890.254	4664
890.377	4706
890.501	4603
890.624	4565
890.748	4687
890.871	4512
890.995	4474
891.118	4390
891.241	4508
891.364	4542
891.488	4649
891.611	4508
891.734	4516
891.857	4634
891.98	4546
892.103	4675
892.226	4615
892.349	4558
892.471	4451
892.594	4523
892.717	4637
892.839	4603
892.962	4615
893.085	4710
893.207	4626
893.33	4481
893.452	4554
893.575	4710
893.697	4580
893.819	4831
893.941	4873
894.064	4774
894.186	4622
894.308	4603
894.43	4771
894.552	4858
894.674	4717
894.796	4577
894.918	4637
895.04	4599
895.161	4740
895.283	4668
895.405	4618
895.526	4664
895.648	4774
895.769	4725
895.891	4790
896.012	4744
896.134	4752
896.255	4733
896.376	4622
896.498	4607
896.619	4717
896.74	4554
896.861	4668
896.982	4934
897.103	5121
897.224	4858
897.345	4786
897.466	4637
897.587	4717
897.708	4862
897.828	4767
897.949	4687
898.07	4577
898.19	4611
898.311	4805
898.431	4725
898.552	4714
898.672	4801
898.792	4828
898.913	4744
899.033	4622
899.153	4546
899.273	4432
899.393	4516
899.513	4565
899.633	4504
899.753	4542
899.873	4550
899.993	4603
900.113	4573
900.232	4615
900.352	4577
900.472	4478
900.591	4409
900.711	4535
900.83	4424
900.95	4580
901.069	4679
901.189	4538
901.308	4398
901.427	4318
901.546	4436
901.665	4462
901.784	4558
901.904	4371
902.023	4303
902.141	4223
902.26	4181
902.379	4306
902.498	4306
902.617	4242
902.735	4360
902.854	4375
902.973	4371
903.091	4158
903.21	4261
903.328	4257
903.446	4284
903.565	4242
903.683	4394
903.801	4276
903.919	4424
904.038	4432
904.156	4310
904.274	4398
904.392	4440
904.51	4455
904.627	4508
904.745	4577
904.863	4694
904.981	4424
905.098	4303
905.216	4383
905.334	4451
905.451	4421
905.569	4432
905.686	4519
905.803	4561
905.921	4417
906.038	4550
906.155	4470
906.272	4356
906.389	4497
906.506	4390
906.623	4375
906.74	4405
906.857	4314
906.974	4367
907.091	4561
907.208	4721
907.324	4596
907.441	4512
907.557	4383
907.674	4379
907.79	4356
907.907	4409
908.023	4470
908.139	4512
908.256	4428
908.372	4462
908.488	4428
908.604	4390
908.72	4352
908.836	4409
908.952	4386
909.068	4440
909.184	4558
909.3	4504
909.415	4584
909.531	4565
909.647	4360
909.762	4360
909.878	4348
909.993	4417
910.108	4409
910.224	4402
910.339	4489
910.454	4436
910.57	4383
910.685	4295
910.8	4637
910.915	4596
911.03	4474
911.145	4318
911.259	4348
911.374	4356
911.489	4284
911.604	4314
911.718	4219
911.833	4215
911.947	4105
912.062	4051
912.176	4227
912.291	4249
912.405	4276
912.519	4470
912.633	4497
912.748	4322
912.862	4333
912.976	4223
913.09	4074
913.204	4188
913.318	4280
913.431	4371
913.545	4375
913.659	4413
913.772	4322
913.886	4253
914	4219
914.113	4428
914.226	4417
914.34	4356
914.453	4227
914.566	4440
914.68	4329
914.793	4314
914.906	4162
915.019	4135
915.132	4074
915.245	4177
915.358	4299
915.47	4268
915.583	4230
915.696	4242
915.809	4451
915.921	4402
916.034	4280
916.146	4272
916.259	4242
916.371	4455
916.483	4417
916.595	4318
916.708	4303
916.82	4291
916.932	4356
917.044	4337
917.156	4306
917.268	4185
917.38	4314
917.491	4265
917.603	4363
917.715	4451
917.826	4451
917.938	4421
918.049	4249
918.161	4440
918.272	4569
918.384	4531
918.495	4474
918.606	4356
918.717	4246
918.828	4352
918.939	4379
919.05	4230
919.161	4306
919.272	4162
919.383	4242
919.494	4466
919.604	4592
919.715	4451
919.826	4409
919.936	4417
920.047	4512
920.157	4493
920.267	4729
920.378	4550
920.488	4561
920.598	4656
920.708	4850
920.818	4771
920.928	4748
921.038	4949
921.148	4934
921.258	4691
921.368	4577
921.477	4497
921.587	4485
921.697	4367
921.806	4573
921.916	4466
922.025	4280
922.134	4284
922.244	4272
922.353	4333
922.462	4185
922.571	4112
922.68	4029
922.789	3949
922.898	4040
923.007	3975
923.116	4150
923.224	4048
923.333	4044
923.442	3983
923.55	4006
923.659	4036
923.767	4078
923.876	4017
923.984	4116
924.092	3998
924.201	4093
924.309	4135
924.417	4147
924.525	4067
924.633	4109
924.741	5022
924.849	3892
924.956	4131
925.064	3941
925.172	3896
925.279	3964
925.387	4090
925.494	4109
925.602	4188
925.709	4200
925.816	4071
925.924	4109
926.031	4268
926.138	4162
926.245	4215
926.352	4154
926.459	4261
926.566	4318
926.673	4181
926.779	4105
926.886	4086
926.993	3949
927.099	3964
927.206	3911
927.312	3960
927.419	4059
927.525	4032
927.631	4071
927.737	3972
927.843	3983
927.95	3857
928.056	3991
928.162	3998
928.267	4078
928.373	4569
928.479	4131
928.585	3865
928.69	4002
928.796	4036
928.901	3979
929.007	3873
929.112	4021
929.218	3983
929.323	3956
929.428	3930
929.533	4128
929.638	3930
929.743	3968
929.848	4044
929.953	3968
930.058	3945
930.163	3778
930.267	3808
930.372	3994
930.477	3812
930.581	4120
930.685	3968
930.79	3812
930.894	3918
930.998	3884
931.103	4036
931.207	3705
931.311	3705
931.415	3667
931.519	3500
931.623	3549
