Data from test_V78500241_790.txt Node
Date: Fri Mar 25 16:54:29 CST 2022
User: usil
Spectrometer: V785-0024
Trigger mode: 0
Integration Time (sec): 4.000000E-1
Scans to average: 1
Nonlinearity correction enabled: false
Boxcar width: 0
Storing dark spectrum: false
XAxis mode: Wavelengths
Number of Pixels in Spectrum: 1024
>>>>>Begin Spectral Data<<<<<
801.071	8054
801.214	8046
801.356	7936
801.499	7909
801.641	7833
801.783	7833
801.926	8046
802.068	7955
802.211	8005
802.353	8001
802.496	7887
802.638	7906
802.78	7936
802.923	7944
803.065	7936
803.208	7883
803.35	7982
803.492	8142
803.635	8202
803.777	8054
803.919	8145
804.061	8476
804.204	8088
804.346	7936
804.488	7978
804.63	8119
804.773	8031
804.915	8115
805.057	8275
805.199	8134
805.341	8317
805.483	8256
805.626	8202
805.768	8191
805.91	8161
806.052	8263
806.194	8111
806.336	8286
806.478	8145
806.62	8031
806.762	8134
806.904	8244
807.046	8457
807.188	8317
807.33	8279
807.472	8374
807.614	8115
807.756	8134
807.898	7963
808.04	7879
808.182	7845
808.324	7902
808.465	7909
808.607	8065
808.749	8062
808.891	8202
809.033	8282
809.174	8252
809.316	8103
809.458	8084
809.6	8005
809.741	8031
809.883	7940
810.025	8096
810.166	8027
810.308	8008
810.45	8031
810.591	7830
810.733	7727
810.875	7765
811.016	7506
811.158	7472
811.299	7613
811.441	7700
811.582	7658
811.724	7567
811.865	7483
812.007	7571
812.148	7601
812.29	7575
812.431	7674
812.573	7833
812.714	7951
812.855	8134
812.997	8191
813.138	8294
813.279	8183
813.421	8138
813.562	8043
813.703	7875
813.845	7788
813.986	7426
814.127	7244
814.268	7278
814.41	7232
814.551	7118
814.692	7129
814.833	7023
814.974	7129
815.115	7179
815.256	6935
815.397	6924
815.539	6966
815.68	6825
815.821	6791
815.962	6867
816.103	6825
816.244	6669
816.385	6608
816.526	6631
816.666	6566
816.807	6292
816.948	6448
817.089	6509
817.23	6418
817.371	6353
817.512	6372
817.653	6357
817.793	6369
817.934	6422
818.075	6403
818.216	6380
818.356	6388
818.497	6163
818.638	6133
818.778	6098
818.919	6144
819.06	6167
819.2	6342
819.341	6350
819.481	6388
819.622	6490
819.762	6738
819.903	6715
820.043	6646
820.184	6650
820.324	6544
820.465	6688
820.605	6646
820.746	6616
820.886	6479
821.026	6662
821.167	6783
821.307	6749
821.447	6833
821.588	6608
821.728	6601
821.868	6502
822.008	6289
822.149	6391
822.289	6361
822.429	6144
822.569	6171
822.709	6114
822.849	5931
822.99	5870
823.13	5954
823.27	5859
823.41	5794
823.55	5775
823.69	5748
823.83	5786
823.97	5695
824.11	5543
824.25	5554
824.389	5554
824.529	5532
824.669	5577
824.809	5596
824.949	5672
825.089	5619
825.228	5532
825.368	5379
825.508	5334
825.648	5326
825.787	5376
825.927	5376
826.067	5269
826.206	5299
826.346	5383
826.485	5421
826.625	5402
826.765	5566
826.904	5448
827.044	5265
827.183	5189
827.323	5124
827.462	5315
827.601	5170
827.741	5201
827.88	5201
828.02	5117
828.159	5231
828.298	5239
828.437	5337
828.577	5322
828.716	5501
828.855	5299
828.994	5212
829.134	5117
829.273	5166
829.412	5162
829.551	5113
829.69	5151
829.829	5193
829.968	5326
830.107	5250
830.246	5322
830.385	5193
830.524	5109
830.663	5083
830.802	4972
830.941	4889
831.08	4927
831.219	5006
831.357	4991
831.496	5132
831.635	4934
831.774	4866
831.913	4858
832.051	4790
832.19	4729
832.329	4809
832.467	4622
832.606	4577
832.744	4717
832.883	4717
833.022	4733
833.16	4744
833.299	4847
833.437	4797
833.576	4805
833.714	4873
833.852	4892
833.991	4881
834.129	4908
834.267	4953
834.406	4892
834.544	4968
834.682	4946
834.821	4965
834.959	5159
835.097	5025
835.235	5151
835.373	5083
835.511	5033
835.65	5022
835.788	5014
835.926	4908
836.064	4908
836.202	4896
836.34	5140
836.478	5223
836.615	5174
836.753	5242
836.891	5280
837.029	5216
837.167	5155
837.305	5151
837.443	5212
837.58	5056
837.718	5208
837.856	5128
837.993	5117
838.131	5254
838.269	5216
838.406	5212
838.544	5193
838.681	5060
838.819	4965
838.956	4870
839.094	4896
839.231	4957
839.369	5086
839.506	5421
839.643	5292
839.781	5105
839.918	5010
840.055	5086
840.193	5090
840.33	5117
840.467	5098
840.604	5258
840.742	5452
840.879	5048
841.016	5109
841.153	5124
841.29	5372
841.427	5357
841.564	5326
841.701	5391
841.838	5303
841.975	5242
842.112	5235
842.249	5105
842.385	5105
842.522	5353
842.659	5124
842.796	5155
842.933	5208
843.069	5132
843.206	5151
843.343	5330
843.479	5242
843.616	5250
843.752	5006
843.889	4976
844.025	5201
844.162	5037
844.298	5239
844.435	5075
844.571	5056
844.708	5220
844.844	5307
844.98	5376
845.117	5273
845.253	5151
845.389	5079
845.525	5155
845.661	5105
845.798	5048
845.934	5124
846.07	4995
846.206	5162
846.342	5220
846.478	5124
846.614	4980
846.75	4961
846.886	4896
847.022	5132
847.158	5029
847.294	5014
847.429	5094
847.565	5060
847.701	5292
847.837	4847
847.972	4816
848.108	4957
848.244	4965
848.379	4748
848.515	4679
848.65	4786
848.786	4706
848.921	4801
849.057	4820
849.192	4885
849.328	4809
849.463	4835
849.598	4717
849.734	4748
849.869	4717
850.004	4603
850.14	4679
850.275	4603
850.41	4527
850.545	4550
850.68	4596
850.815	4649
850.95	4615
851.085	4847
851.22	4717
851.355	4656
851.49	4607
851.625	4626
851.76	4615
851.895	4554
852.03	4542
852.165	4656
852.299	4679
852.434	4778
852.569	4714
852.703	4748
852.838	4843
852.973	4892
853.107	4900
853.242	4721
853.376	4664
853.511	4542
853.645	4599
853.78	4812
853.914	4698
854.048	4630
854.183	4634
854.317	4672
854.451	4828
854.585	4641
854.72	4577
854.854	4771
854.988	4588
855.122	4573
855.256	4497
855.39	4672
855.524	4778
855.658	4656
855.792	4717
855.926	4710
856.06	4729
856.194	4801
856.327	4683
856.461	4634
856.595	4637
856.729	4626
856.862	4771
856.996	4698
857.13	4733
857.263	4771
857.397	4812
857.53	4592
857.664	4660
857.797	4744
857.931	4767
858.064	4698
858.197	4672
858.331	4637
858.464	4634
858.597	4531
858.731	4622
858.864	4637
858.997	4588
859.13	4645
859.263	4626
859.396	4656
859.529	4542
859.662	4531
859.795	4535
859.928	4622
860.061	4774
860.194	4771
860.327	4618
860.46	4611
860.592	4706
860.725	4672
860.858	4710
860.99	4607
861.123	4497
861.256	4531
861.388	4531
861.521	5208
861.653	4493
861.786	4413
861.918	4424
862.05	4466
862.183	4550
862.315	4558
862.447	4630
862.58	4569
862.712	4417
862.844	4303
862.976	4478
863.108	4489
863.24	4873
863.372	4360
863.504	4432
863.636	4337
863.768	4462
863.9	4447
864.032	4367
864.164	4379
864.296	4512
864.428	4519
864.559	4573
864.691	4508
864.823	4504
864.954	4504
865.086	4508
865.217	4421
865.349	4405
865.48	4424
865.612	4497
865.743	4653
865.875	4436
866.006	4371
866.137	4451
866.269	4447
866.4	4417
866.531	4436
866.662	4379
866.793	4409
866.924	4440
867.055	4485
867.186	4474
867.317	4440
867.448	4375
867.579	4417
867.71	4402
867.841	4356
867.972	4421
868.103	4443
868.233	4405
868.364	4485
868.495	4508
868.625	4664
868.756	4725
868.886	4538
869.017	4649
869.147	4774
869.278	4763
869.408	4607
869.539	4660
869.669	4672
869.799	4645
869.929	4706
870.06	4691
870.19	4904
870.32	4892
870.45	4919
870.58	5010
870.71	5105
870.84	5086
870.97	4972
871.1	4870
871.23	5086
871.36	5113
871.489	4976
871.619	5064
871.749	5052
871.879	5117
872.008	5174
872.138	5045
872.267	4987
872.397	4824
872.526	4816
872.656	4733
872.785	4790
872.915	4946
873.044	5022
873.173	4919
873.303	4930
873.432	4927
873.561	4923
873.69	4862
873.819	4885
873.948	4885
874.077	4828
874.206	4767
874.335	4763
874.464	4980
874.593	5060
874.722	4930
874.851	5128
874.979	5014
875.108	4999
875.237	4904
875.365	4930
875.494	4892
875.623	4930
875.751	4847
875.88	4911
876.008	5010
876.136	4995
876.265	5189
876.393	5360
876.521	5261
876.65	5189
876.778	5162
876.906	5041
877.034	5029
877.162	5090
877.29	5029
877.418	5045
877.546	5033
877.674	5045
877.802	5018
877.93	5003
878.058	4942
878.185	4824
878.313	4957
878.441	4976
878.568	4786
878.696	4873
878.824	4919
878.951	4919
879.079	5109
879.206	5292
879.333	5071
879.461	4949
879.588	4995
879.715	5098
879.842	5235
879.97	5006
880.097	4816
880.224	4744
880.351	4805
880.478	4793
880.605	4782
880.732	4774
880.859	5071
880.986	4877
881.112	4919
881.239	4801
881.366	4702
881.493	4592
881.619	4607
881.746	4611
881.872	4637
881.999	4649
882.125	4679
882.252	4733
882.378	4790
882.505	4995
882.631	4797
882.757	4615
882.883	4717
883.01	4771
883.136	4649
883.262	4584
883.388	4607
883.514	4790
883.64	4816
883.766	4809
883.892	4645
884.018	4694
884.143	4908
884.269	5018
884.395	4637
884.52	4637
884.646	4641
884.772	4596
884.897	4516
885.023	4691
885.148	4782
885.274	4820
885.399	4831
885.524	4687
885.65	4710
885.775	4733
885.9	4675
886.025	4904
886.15	4790
886.275	4748
886.4	4653
886.525	4706
886.65	4702
886.775	4645
886.9	4881
887.025	5056
887.149	4843
887.274	4641
887.399	4558
887.523	4584
887.648	4561
887.773	4558
887.897	4759
888.021	4767
888.146	4698
888.27	4786
888.395	4923
888.519	4771
888.643	4824
888.767	4839
888.891	4698
889.015	4580
889.139	4691
889.263	4615
889.387	4710
889.511	4850
889.635	4786
889.759	4660
889.883	4683
890.006	4729
890.13	4862
890.254	4618
890.377	4668
890.501	4523
890.624	4554
890.748	4599
890.871	4508
890.995	4474
891.118	4363
891.241	4485
891.364	4596
891.488	4649
891.611	4462
891.734	4554
891.857	4584
891.98	4546
892.103	4645
892.226	4603
892.349	4504
892.471	4390
892.594	4580
892.717	4596
892.839	4542
892.962	4615
893.085	4691
893.207	4546
893.33	4443
893.452	4542
893.575	4668
893.697	4596
893.819	4790
893.941	4850
894.064	4793
894.186	4607
894.308	4554
894.43	4744
894.552	4778
894.674	4771
894.796	4523
894.918	4603
895.04	4569
895.161	4702
895.283	4656
895.405	4599
895.526	4588
895.648	4664
895.769	4710
895.891	4706
896.012	4767
896.134	4664
896.255	4630
896.376	4645
896.498	4615
896.619	4668
896.74	4580
896.861	4645
896.982	4930
897.103	5018
897.224	4877
897.345	4706
897.466	4641
897.587	4702
897.708	4858
897.828	4831
897.949	4668
898.07	4554
898.19	4607
898.311	4835
898.431	4683
898.552	4733
898.672	4843
898.792	4778
898.913	4675
899.033	4607
899.153	4504
899.273	4447
899.393	4554
899.513	4497
899.633	4523
899.753	4550
899.873	4489
899.993	4577
900.113	4561
900.232	4588
900.352	4554
900.472	4493
900.591	4386
900.711	4500
900.83	4455
900.95	4569
901.069	4706
901.189	4546
901.308	4352
901.427	4322
901.546	4356
901.665	4500
901.784	4451
901.904	4394
902.023	4322
902.141	4230
902.26	4162
902.379	4257
902.498	4238
902.617	4234
902.735	4375
902.854	4424
902.973	4379
903.091	4219
903.21	4207
903.328	4272
903.446	4261
903.565	4299
903.683	4299
903.801	4242
903.919	4402
904.038	4413
904.156	4325
904.274	4432
904.392	4383
904.51	4402
904.627	4432
904.745	4577
904.863	4653
904.981	4360
905.098	4329
905.216	4367
905.334	4436
905.451	4367
905.569	4440
905.686	4554
905.803	4584
905.921	4405
906.038	4535
906.155	4447
906.272	4390
906.389	4462
906.506	4375
906.623	4348
906.74	4421
906.857	4295
906.974	4363
907.091	4527
907.208	4656
907.324	4656
907.441	4447
907.557	4341
907.674	4341
907.79	4303
907.907	4367
908.023	4424
908.139	4470
908.256	4409
908.372	4470
908.488	4428
908.604	4356
908.72	4344
908.836	4386
908.952	4383
909.068	4417
909.184	4531
909.3	4459
909.415	4577
909.531	4577
909.647	4314
909.762	4360
909.878	4367
909.993	4440
910.108	4443
910.224	4390
910.339	4489
910.454	4360
910.57	4325
910.685	4276
910.8	4668
910.915	4596
911.03	4500
911.145	4276
911.259	4337
911.374	4367
911.489	4303
911.604	4291
911.718	4188
911.833	4223
911.947	4051
912.062	4044
912.176	4177
912.291	4192
912.405	4287
912.519	4481
912.633	4474
912.748	4413
912.862	4318
912.976	4147
913.09	4048
913.204	4124
913.318	4181
913.431	4409
913.545	4386
913.659	4413
913.772	4337
913.886	4257
914	4234
914.113	4360
914.226	4398
914.34	4363
914.453	4169
914.566	4413
914.68	4322
914.793	4348
914.906	4166
915.019	4135
915.132	4032
915.245	4177
915.358	4211
915.47	4227
915.583	4272
915.696	4253
915.809	4421
915.921	4455
916.034	4268
916.146	4200
916.259	4173
916.371	4371
916.483	4371
916.595	4234
916.708	4352
916.82	4291
916.932	4295
917.044	4329
917.156	4314
917.268	4196
917.38	4280
917.491	4230
917.603	4314
917.715	4424
917.826	4443
917.938	4379
918.049	4291
918.161	4383
918.272	4497
918.384	4538
918.495	4409
918.606	4246
918.717	4287
918.828	4348
918.939	4333
919.05	4276
919.161	4295
919.272	4147
919.383	4200
919.494	4489
919.604	4626
919.715	4500
919.826	4379
919.936	4383
920.047	4497
920.157	4497
920.267	4683
920.378	4554
920.488	4519
920.598	4714
920.708	4892
920.818	4740
920.928	4733
921.038	4919
921.148	4915
921.258	4592
921.368	4573
921.477	4535
921.587	4443
921.697	4383
921.806	4535
921.916	4432
922.025	4246
922.134	4276
922.244	4200
922.353	4306
922.462	4147
922.571	4124
922.68	4055
922.789	3972
922.898	4006
923.007	3949
923.116	4147
923.224	4067
923.333	4051
923.442	4021
923.55	3979
923.659	4032
923.767	4082
923.876	3983
923.984	4128
924.092	4021
924.201	4078
924.309	4086
924.417	4109
924.525	4071
924.633	4109
924.741	4870
924.849	3892
924.956	4128
925.064	3953
925.172	3918
925.279	3975
925.387	4055
925.494	4025
925.602	4215
925.709	4131
925.816	4067
925.924	4093
926.031	4242
926.138	4196
926.245	4192
926.352	4109
926.459	4261
926.566	4272
926.673	4169
926.779	4078
926.886	4105
926.993	4025
927.099	3960
927.206	3930
927.312	3953
927.419	4021
927.525	3994
927.631	4078
927.737	3975
927.843	3956
927.95	3842
928.056	3956
928.162	4010
928.267	4040
928.373	4675
928.479	4112
928.585	3892
928.69	4059
928.796	4055
928.901	3956
929.007	3842
929.112	3991
929.218	3968
929.323	3945
929.428	3968
929.533	4101
929.638	3865
929.743	3926
929.848	3987
929.953	3998
930.058	3941
930.163	3800
930.267	3838
930.372	3975
930.477	3785
930.581	4105
930.685	3975
930.79	3816
930.894	3903
930.998	3869
931.103	4017
931.207	3686
931.311	3705
931.415	3709
931.519	3500
931.623	3557
