Data from test_V78500241_1085.txt Node
Date: Fri Mar 25 16:56:32 CST 2022
User: usil
Spectrometer: V785-0024
Trigger mode: 0
Integration Time (sec): 4.000000E-1
Scans to average: 1
Nonlinearity correction enabled: false
Boxcar width: 0
Storing dark spectrum: false
XAxis mode: Wavelengths
Number of Pixels in Spectrum: 1024
>>>>>Begin Spectral Data<<<<<
801.071	8084
801.214	8046
801.356	7875
801.499	7826
801.641	7826
801.783	7818
801.926	8024
802.068	7898
802.211	7921
802.353	7955
802.496	7772
802.638	7845
802.78	7906
802.923	7913
803.065	7868
803.208	7841
803.35	8005
803.492	8020
803.635	8195
803.777	8027
803.919	8081
804.061	8412
804.204	8172
804.346	7989
804.488	7974
804.63	8065
804.773	8031
804.915	8073
805.057	8282
805.199	8100
805.341	8263
805.483	8301
805.626	8218
805.768	8035
805.91	8145
806.052	8218
806.194	8058
806.336	8267
806.478	8111
806.62	7986
806.762	8180
806.904	8244
807.046	8415
807.188	8309
807.33	8317
807.472	8324
807.614	8172
807.756	8103
807.898	7989
808.04	7887
808.182	7864
808.324	7845
808.465	7894
808.607	8107
808.749	8103
808.891	8271
809.033	8279
809.174	8240
809.316	8073
809.458	7986
809.6	7928
809.741	8081
809.883	8035
810.025	8103
810.166	8069
810.308	7974
810.45	7974
810.591	7936
810.733	7704
810.875	7658
811.016	7502
811.158	7499
811.299	7624
811.441	7738
811.582	7651
811.724	7578
811.865	7464
812.007	7544
812.148	7548
812.29	7594
812.431	7734
812.573	7837
812.714	8039
812.855	8123
812.997	8157
813.138	8282
813.279	8164
813.421	8126
813.562	7986
813.703	7856
813.845	7792
813.986	7445
814.127	7274
814.268	7221
814.41	7221
814.551	7225
814.692	7179
814.833	7088
814.974	7004
815.115	7053
815.256	6932
815.397	6905
815.539	6943
815.68	6787
815.821	6783
815.962	6806
816.103	6840
816.244	6719
816.385	6665
816.526	6623
816.666	6426
816.807	6369
816.948	6376
817.089	6471
817.23	6448
817.371	6410
817.512	6403
817.653	6399
817.793	6327
817.934	6475
818.075	6448
818.216	6479
818.356	6350
818.497	6213
818.638	6095
818.778	6178
818.919	6152
819.06	6175
819.2	6315
819.341	6315
819.481	6346
819.622	6521
819.762	6700
819.903	6684
820.043	6612
820.184	6582
820.324	6608
820.465	6665
820.605	6711
820.746	6654
820.886	6479
821.026	6574
821.167	6688
821.307	6734
821.447	6692
821.588	6665
821.728	6521
821.868	6471
822.008	6319
822.149	6331
822.289	6353
822.429	6110
822.569	6068
822.709	6121
822.849	5920
822.99	5844
823.13	5897
823.27	5916
823.41	5764
823.55	5798
823.69	5737
823.83	5790
823.97	5615
824.11	5474
824.25	5455
824.389	5512
824.529	5554
824.669	5471
824.809	5596
824.949	5668
825.089	5570
825.228	5524
825.368	5311
825.508	5311
825.648	5311
825.787	5318
825.927	5379
826.067	5311
826.206	5322
826.346	5379
826.485	5360
826.625	5444
826.765	5520
826.904	5448
827.044	5296
827.183	5178
827.323	5140
827.462	5227
827.601	5151
827.741	5136
827.88	5109
828.02	5113
828.159	5208
828.298	5261
828.437	5311
828.577	5265
828.716	5436
828.855	5322
828.994	5147
829.134	5090
829.273	5201
829.412	5147
829.551	5132
829.69	5147
829.829	5231
829.968	5360
830.107	5235
830.246	5242
830.385	5151
830.524	5086
830.663	5045
830.802	4968
830.941	4828
831.08	4866
831.219	4949
831.357	4938
831.496	5113
831.635	4927
831.774	4812
831.913	4839
832.051	4736
832.19	4748
832.329	4801
832.467	4721
832.606	4611
832.744	4694
832.883	4691
833.022	4691
833.16	4767
833.299	4835
833.437	4812
833.576	4839
833.714	4858
833.852	4862
833.991	4854
834.129	4938
834.267	4965
834.406	4885
834.544	4953
834.682	4942
834.821	4953
834.959	5121
835.097	4957
835.235	5132
835.373	5060
835.511	5041
835.65	5025
835.788	5052
835.926	4885
836.064	4885
836.202	4904
836.34	5159
836.478	5189
836.615	5162
836.753	5189
836.891	5265
837.029	5273
837.167	5151
837.305	5140
837.443	5105
837.58	5052
837.718	5223
837.856	5216
837.993	5155
838.131	5170
838.269	5204
838.406	5174
838.544	5178
838.681	5033
838.819	5022
838.956	4858
839.094	4923
839.231	4991
839.369	5086
839.506	5402
839.643	5265
839.781	5037
839.918	5025
840.055	5102
840.193	5083
840.33	5064
840.467	5155
840.604	5189
840.742	5444
840.879	5102
841.016	5098
841.153	5113
841.29	5318
841.427	5299
841.564	5284
841.701	5337
841.838	5239
841.975	5246
842.112	5269
842.249	5079
842.385	5132
842.522	5280
842.659	5193
842.796	5124
842.933	5208
843.069	5121
843.206	5128
843.343	5288
843.479	5162
843.616	5261
843.752	5006
843.889	4991
844.025	5159
844.162	4999
844.298	5197
844.435	5083
844.571	5029
844.708	5185
844.844	5284
844.98	5326
845.117	5292
845.253	5159
845.389	5090
845.525	5117
845.661	5155
845.798	4999
845.934	5079
846.07	5064
846.206	5197
846.342	5269
846.478	5166
846.614	5048
846.75	4896
846.886	4972
847.022	5098
847.158	5071
847.294	5037
847.429	5155
847.565	5014
847.701	5265
847.837	4805
847.972	4778
848.108	4911
848.244	4911
848.379	4733
848.515	4702
848.65	4687
848.786	4740
848.921	4778
849.057	4835
849.192	4854
849.328	4820
849.463	4820
849.598	4801
849.734	4790
849.869	4733
850.004	4615
850.14	4641
850.275	4577
850.41	4504
850.545	4588
850.68	4599
850.815	4584
850.95	4611
851.085	4820
851.22	4748
851.355	4653
851.49	4599
851.625	4592
851.76	4592
851.895	4500
852.03	4474
852.165	4653
852.299	4710
852.434	4778
852.569	4694
852.703	4710
852.838	4828
852.973	4927
853.107	4870
853.242	4717
853.376	4660
853.511	4565
853.645	4637
853.78	4816
853.914	4679
854.048	4634
854.183	4611
854.317	4679
854.451	4801
854.585	4630
854.72	4607
854.854	4706
854.988	4645
855.122	4645
855.256	4523
855.39	4611
855.524	4755
855.658	4744
855.792	4710
855.926	4710
856.06	4752
856.194	4759
856.327	4645
856.461	4641
856.595	4607
856.729	4611
856.862	4736
856.996	4660
857.13	4706
857.263	4736
857.397	4771
857.53	4618
857.664	4714
857.797	4725
857.931	4736
858.064	4660
858.197	4721
858.331	4637
858.464	4584
858.597	4561
858.731	4637
858.864	4637
858.997	4554
859.13	4607
859.263	4694
859.396	4626
859.529	4603
859.662	4542
859.795	4519
859.928	4626
860.061	4786
860.194	4717
860.327	4577
860.46	4531
860.592	4702
860.725	4679
860.858	4748
860.99	4565
861.123	4519
861.256	4516
861.388	4596
861.521	5337
861.653	4436
861.786	4428
861.918	4424
862.05	4474
862.183	4531
862.315	4618
862.447	4656
862.58	4531
862.712	4398
862.844	4306
862.976	4481
863.108	4432
863.24	4862
863.372	4310
863.504	4371
863.636	4375
863.768	4478
863.9	4440
864.032	4325
864.164	4424
864.296	4451
864.428	4485
864.559	4497
864.691	4508
864.823	4516
864.954	4466
865.086	4459
865.217	4447
865.349	4348
865.48	4447
865.612	4470
865.743	4615
865.875	4459
866.006	4402
866.137	4470
866.269	4440
866.4	4432
866.531	4371
866.662	4375
866.793	4383
866.924	4398
867.055	4470
867.186	4413
867.317	4367
867.448	4367
867.579	4363
867.71	4417
867.841	4375
867.972	4451
868.103	4409
868.233	4432
868.364	4428
868.495	4459
868.625	4653
868.756	4710
868.886	4497
869.017	4653
869.147	4702
869.278	4778
869.408	4664
869.539	4653
869.669	4645
869.799	4630
869.929	4733
870.06	4752
870.19	4942
870.32	4915
870.45	4881
870.58	5006
870.71	5067
870.84	5121
870.97	4885
871.1	4866
871.23	5140
871.36	5117
871.489	5022
871.619	5052
871.749	5071
871.879	5060
872.008	5170
872.138	5037
872.267	4961
872.397	4854
872.526	4782
872.656	4736
872.785	4793
872.915	4927
873.044	4991
873.173	4961
873.303	4938
873.432	4919
873.561	4930
873.69	4873
873.819	4824
873.948	4858
874.077	4816
874.206	4759
874.335	4774
874.464	4877
874.593	5083
874.722	4889
874.851	5056
874.979	5014
875.108	5010
875.237	4850
875.365	4835
875.494	4877
875.623	4965
875.751	4839
875.88	4820
876.008	4957
876.136	5025
876.265	5128
876.393	5311
876.521	5201
876.65	5178
876.778	5178
876.906	5086
877.034	4949
877.162	5014
877.29	4961
877.418	4984
877.546	4984
877.674	4999
877.802	5037
877.93	4991
878.058	4957
878.185	4828
878.313	4949
878.441	4873
878.568	4698
878.696	4786
878.824	4889
878.951	4984
879.079	5098
879.206	5227
879.333	5094
879.461	4930
879.588	4949
879.715	5083
879.842	5212
879.97	5010
880.097	4771
880.224	4706
880.351	4790
880.478	4786
880.605	4744
880.732	4744
880.859	5037
880.986	4877
881.112	4911
881.239	4778
881.366	4691
881.493	4653
881.619	4561
881.746	4622
881.872	4641
881.999	4645
882.125	4679
882.252	4797
882.378	4843
882.505	4946
882.631	4805
882.757	4672
882.883	4744
883.01	4725
883.136	4656
883.262	4668
883.388	4615
883.514	4774
883.64	4866
883.766	4820
883.892	4672
884.018	4767
884.143	4889
884.269	5006
884.395	4691
884.52	4634
884.646	4691
884.772	4634
884.897	4634
885.023	4656
885.148	4850
885.274	4885
885.399	4839
885.524	4729
885.65	4755
885.775	4786
885.9	4694
886.025	4900
886.15	4816
886.275	4763
886.4	4679
886.525	4717
886.65	4702
886.775	4740
886.9	4942
887.025	5090
887.149	4805
887.274	4694
887.399	4626
887.523	4634
887.648	4565
887.773	4637
887.897	4801
888.021	4801
888.146	4721
888.27	4885
888.395	4968
888.519	4835
888.643	4858
888.767	4866
888.891	4717
889.015	4637
889.139	4694
889.263	4656
889.387	4816
889.511	4900
889.635	4820
889.759	4706
889.883	4668
890.006	4797
890.13	4843
890.254	4656
890.377	4687
890.501	4637
890.624	4596
890.748	4637
890.871	4531
890.995	4436
891.118	4417
891.241	4615
891.364	4550
891.488	4672
891.611	4485
891.734	4542
891.857	4611
891.98	4550
892.103	4687
892.226	4588
892.349	4577
892.471	4417
892.594	4584
892.717	4622
892.839	4580
892.962	4588
893.085	4668
893.207	4637
893.33	4485
893.452	4542
893.575	4675
893.697	4573
893.819	4793
893.941	4889
894.064	4778
894.186	4637
894.308	4580
894.43	4774
894.552	4752
894.674	4763
894.796	4561
894.918	4573
895.04	4607
895.161	4729
895.283	4675
895.405	4637
895.526	4672
895.648	4653
895.769	4664
895.891	4759
896.012	4740
896.134	4744
896.255	4675
896.376	4641
896.498	4649
896.619	4721
896.74	4630
896.861	4717
896.982	4949
897.103	5086
897.224	4835
897.345	4790
897.466	4683
897.587	4767
897.708	4835
897.828	4790
897.949	4675
898.07	4546
898.19	4660
898.311	4847
898.431	4748
898.552	4748
898.672	4839
898.792	4824
898.913	4801
899.033	4607
899.153	4516
899.273	4485
899.393	4516
899.513	4546
899.633	4580
899.753	4546
899.873	4516
899.993	4584
900.113	4550
900.232	4645
900.352	4565
900.472	4546
900.591	4413
900.711	4478
900.83	4451
900.95	4660
901.069	4748
901.189	4554
901.308	4443
901.427	4325
901.546	4424
901.665	4470
901.784	4542
901.904	4443
902.023	4379
902.141	4196
902.26	4173
902.379	4329
902.498	4219
902.617	4249
902.735	4383
902.854	4451
902.973	4356
903.091	4242
903.21	4242
903.328	4341
903.446	4314
903.565	4249
903.683	4356
903.801	4306
903.919	4459
904.038	4459
904.156	4325
904.274	4504
904.392	4493
904.51	4409
904.627	4504
904.745	4580
904.863	4656
904.981	4455
905.098	4314
905.216	4443
905.334	4470
905.451	4421
905.569	4424
905.686	4596
905.803	4603
905.921	4386
906.038	4550
906.155	4516
906.272	4390
906.389	4443
906.506	4421
906.623	4367
906.74	4459
906.857	4310
906.974	4394
907.091	4630
907.208	4721
907.324	4611
907.441	4508
907.557	4386
907.674	4333
907.79	4314
907.907	4405
908.023	4474
908.139	4512
908.256	4485
908.372	4470
908.488	4447
908.604	4333
908.72	4356
908.836	4413
908.952	4379
909.068	4409
909.184	4637
909.3	4531
909.415	4615
909.531	4531
909.647	4398
909.762	4440
909.878	4398
909.993	4455
910.108	4409
910.224	4424
910.339	4523
910.454	4447
910.57	4356
910.685	4356
910.8	4702
910.915	4596
911.03	4516
911.145	4329
911.259	4337
911.374	4390
911.489	4306
911.604	4303
911.718	4169
911.833	4227
911.947	4097
912.062	4078
912.176	4246
912.291	4276
912.405	4253
912.519	4474
912.633	4523
912.748	4428
912.862	4360
912.976	4234
913.09	4109
913.204	4177
913.318	4303
913.431	4386
913.545	4405
913.659	4462
913.772	4371
913.886	4272
914	4265
914.113	4394
914.226	4447
914.34	4413
914.453	4280
914.566	4432
914.68	4306
914.793	4314
914.906	4200
915.019	4177
915.132	4166
915.245	4207
915.358	4192
915.47	4219
915.583	4242
915.696	4287
915.809	4451
915.921	4447
916.034	4253
916.146	4284
916.259	4234
916.371	4394
916.483	4390
916.595	4314
916.708	4363
916.82	4352
916.932	4314
917.044	4322
917.156	4329
917.268	4299
917.38	4325
917.491	4280
917.603	4318
917.715	4447
917.826	4481
917.938	4405
918.049	4223
918.161	4417
918.272	4550
918.384	4569
918.495	4436
918.606	4348
918.717	4230
918.828	4333
918.939	4405
919.05	4291
919.161	4363
919.272	4162
919.383	4234
919.494	4451
919.604	4649
919.715	4451
919.826	4405
919.936	4402
920.047	4546
920.157	4500
920.267	4721
920.378	4603
920.488	4523
920.598	4702
920.708	4870
920.818	4793
920.928	4763
921.038	4930
921.148	4911
921.258	4641
921.368	4615
921.477	4531
921.587	4447
921.697	4417
921.806	4561
921.916	4432
922.025	4272
922.134	4249
922.244	4287
922.353	4367
922.462	4207
922.571	4200
922.68	4032
922.789	3979
922.898	4021
923.007	4029
923.116	4082
923.224	4109
923.333	4082
923.442	3991
923.55	3972
923.659	4078
923.767	4128
923.876	4013
923.984	4173
924.092	3953
924.201	4116
924.309	4074
924.417	4143
924.525	4051
924.633	4074
924.741	5064
924.849	3934
924.956	4154
925.064	4013
925.172	3949
925.279	3972
925.387	4063
925.494	4071
925.602	4215
925.709	4230
925.816	4093
925.924	4166
926.031	4268
926.138	4188
926.245	4204
926.352	4097
926.459	4276
926.566	4268
926.673	4177
926.779	4093
926.886	4093
926.993	4017
927.099	3934
927.206	3937
927.312	3941
927.419	4051
927.525	4032
927.631	4097
927.737	3941
927.843	3945
927.95	3857
928.056	3983
928.162	4002
928.267	4078
928.373	4656
928.479	4097
928.585	3869
928.69	4002
928.796	4071
928.901	3930
929.007	3880
929.112	4051
929.218	3945
929.323	3953
929.428	3930
929.533	4082
929.638	3892
929.743	3960
929.848	4055
929.953	3983
930.058	3922
930.163	3751
930.267	3838
930.372	3975
930.477	3823
930.581	4101
930.685	3926
930.79	3876
930.894	3880
930.998	3861
931.103	4105
931.207	3713
931.311	3755
931.415	3717
931.519	3523
931.623	3625
