Data from test_V78500241_1728.txt Node
Date: Fri Mar 25 17:01:01 CST 2022
User: usil
Spectrometer: V785-0024
Trigger mode: 0
Integration Time (sec): 4.000000E-1
Scans to average: 1
Nonlinearity correction enabled: false
Boxcar width: 0
Storing dark spectrum: false
XAxis mode: Wavelengths
Number of Pixels in Spectrum: 1024
>>>>>Begin Spectral Data<<<<<
801.071	7989
801.214	7989
801.356	7887
801.499	7784
801.641	7814
801.783	7898
801.926	7974
802.068	7890
802.211	7932
802.353	8050
802.496	7837
802.638	7875
802.78	7932
802.923	7913
803.065	7913
803.208	7894
803.35	7974
803.492	8016
803.635	8195
803.777	8005
803.919	8157
804.061	8434
804.204	8183
804.346	8012
804.488	7928
804.63	8149
804.773	8001
804.915	8138
805.057	8286
805.199	8161
805.341	8164
805.483	8214
805.626	8256
805.768	8107
805.91	8176
806.052	8206
806.194	8119
806.336	8301
806.478	8077
806.62	8024
806.762	8164
806.904	8229
807.046	8454
807.188	8279
807.33	8305
807.472	8324
807.614	8218
807.756	8142
807.898	8008
808.04	7898
808.182	7909
808.324	7818
808.465	7932
808.607	8065
808.749	8058
808.891	8210
809.033	8286
809.174	8149
809.316	8043
809.458	8050
809.6	8031
809.741	8031
809.883	8035
810.025	8111
810.166	8126
810.308	8001
810.45	8039
810.591	7837
810.733	7750
810.875	7693
811.016	7502
811.158	7525
811.299	7601
811.441	7738
811.582	7708
811.724	7582
811.865	7662
812.007	7609
812.148	7525
812.29	7613
812.431	7788
812.573	7894
812.714	8001
812.855	8081
812.997	8202
813.138	8324
813.279	8176
813.421	8111
813.562	7993
813.703	7837
813.845	7715
813.986	7403
814.127	7255
814.268	7282
814.41	7259
814.551	7187
814.692	7247
814.833	7133
814.974	7156
815.115	7107
815.256	6985
815.397	6935
815.539	6981
815.68	6833
815.821	6798
815.962	6886
816.103	6818
816.244	6692
816.385	6597
816.526	6612
816.666	6502
816.807	6327
816.948	6460
817.089	6479
817.23	6429
817.371	6357
817.512	6365
817.653	6376
817.793	6361
817.934	6376
818.075	6483
818.216	6471
818.356	6467
818.497	6254
818.638	6114
818.778	6167
818.919	6167
819.06	6091
819.2	6346
819.341	6296
819.481	6323
819.622	6547
819.762	6757
819.903	6719
820.043	6658
820.184	6566
820.324	6604
820.465	6738
820.605	6627
820.746	6700
820.886	6551
821.026	6677
821.167	6665
821.307	6787
821.447	6757
821.588	6612
821.728	6551
821.868	6479
822.008	6311
822.149	6384
822.289	6311
822.429	6148
822.569	6098
822.709	6117
822.849	5931
822.99	5927
823.13	5973
823.27	5961
823.41	5771
823.55	5737
823.69	5737
823.83	5786
823.97	5653
824.11	5642
824.25	5482
824.389	5638
824.529	5642
824.669	5535
824.809	5672
824.949	5695
825.089	5619
825.228	5566
825.368	5345
825.508	5376
825.648	5330
825.787	5395
825.927	5364
826.067	5357
826.206	5261
826.346	5448
826.485	5391
826.625	5486
826.765	5505
826.904	5532
827.044	5284
827.183	5231
827.323	5174
827.462	5273
827.601	5220
827.741	5216
827.88	5220
828.02	5105
828.159	5246
828.298	5311
828.437	5315
828.577	5254
828.716	5478
828.855	5330
828.994	5124
829.134	5166
829.273	5193
829.412	5147
829.551	5086
829.69	5136
829.829	5250
829.968	5345
830.107	5273
830.246	5311
830.385	5231
830.524	5174
830.663	5064
830.802	4991
830.941	4896
831.08	4896
831.219	4968
831.357	4961
831.496	5181
831.635	4938
831.774	4847
831.913	4847
832.051	4702
832.19	4702
832.329	4850
832.467	4717
832.606	4637
832.744	4717
832.883	4752
833.022	4698
833.16	4733
833.299	4896
833.437	4831
833.576	4862
833.714	4843
833.852	4877
833.991	4885
834.129	4987
834.267	4938
834.406	4949
834.544	4965
834.682	4946
834.821	4965
834.959	5136
835.097	5003
835.235	5159
835.373	5060
835.511	5132
835.65	5037
835.788	5029
835.926	4934
836.064	4805
836.202	4908
836.34	5162
836.478	5296
836.615	5113
836.753	5223
836.891	5273
837.029	5269
837.167	5136
837.305	5132
837.443	5128
837.58	5132
837.718	5227
837.856	5208
837.993	5128
838.131	5212
838.269	5201
838.406	5174
838.544	5185
838.681	5079
838.819	5022
838.956	4873
839.094	4908
839.231	4976
839.369	5094
839.506	5444
839.643	5284
839.781	5079
839.918	5014
840.055	5060
840.193	5094
840.33	5136
840.467	5166
840.604	5185
840.742	5387
840.879	5094
841.016	5159
841.153	5166
841.29	5395
841.427	5341
841.564	5303
841.701	5326
841.838	5280
841.975	5227
842.112	5208
842.249	5109
842.385	5128
842.522	5341
842.659	5242
842.796	5178
842.933	5132
843.069	5174
843.206	5170
843.343	5345
843.479	5292
843.616	5273
843.752	5025
843.889	5018
844.025	5220
844.162	4961
844.298	5246
844.435	5102
844.571	5064
844.708	5181
844.844	5277
844.98	5364
845.117	5288
845.253	5162
845.389	5086
845.525	5159
845.661	5128
845.798	5060
845.934	5094
846.07	5006
846.206	5193
846.342	5265
846.478	5128
846.614	5022
846.75	5003
846.886	4930
847.022	5124
847.158	4999
847.294	5052
847.429	5147
847.565	5075
847.701	5307
847.837	4862
847.972	4858
848.108	4961
848.244	4915
848.379	4778
848.515	4725
848.65	4729
848.786	4763
848.921	4797
849.057	4839
849.192	4866
849.328	4831
849.463	4866
849.598	4774
849.734	4771
849.869	4687
850.004	4698
850.14	4664
850.275	4577
850.41	4535
850.545	4618
850.68	4580
850.815	4630
850.95	4637
851.085	4790
851.22	4763
851.355	4660
851.49	4618
851.625	4607
851.76	4626
851.895	4538
852.03	4561
852.165	4641
852.299	4759
852.434	4820
852.569	4714
852.703	4755
852.838	4847
852.973	4968
853.107	4942
853.242	4725
853.376	4683
853.511	4535
853.645	4626
853.78	4801
853.914	4710
854.048	4691
854.183	4630
854.317	4664
854.451	4809
854.585	4653
854.72	4634
854.854	4729
854.988	4649
855.122	4649
855.256	4527
855.39	4649
855.524	4778
855.658	4733
855.792	4672
855.926	4744
856.06	4778
856.194	4771
856.327	4679
856.461	4565
856.595	4675
856.729	4618
856.862	4748
856.996	4664
857.13	4702
857.263	4755
857.397	4812
857.53	4660
857.664	4706
857.797	4740
857.931	4771
858.064	4702
858.197	4733
858.331	4706
858.464	4634
858.597	4516
858.731	4649
858.864	4672
858.997	4592
859.13	4675
859.263	4675
859.396	4687
859.529	4641
859.662	4565
859.795	4565
859.928	4599
860.061	4752
860.194	4706
860.327	4622
860.46	4535
860.592	4698
860.725	4687
860.858	4694
860.99	4565
861.123	4546
861.256	4523
861.388	4599
861.521	5208
861.653	4459
861.786	4440
861.918	4470
862.05	4523
862.183	4508
862.315	4615
862.447	4630
862.58	4519
862.712	4432
862.844	4333
862.976	4443
863.108	4451
863.24	4881
863.372	4341
863.504	4443
863.636	4417
863.768	4443
863.9	4432
864.032	4360
864.164	4402
864.296	4500
864.428	4485
864.559	4538
864.691	4508
864.823	4531
864.954	4440
865.086	4466
865.217	4470
865.349	4417
865.48	4493
865.612	4481
865.743	4584
865.875	4481
866.006	4421
866.137	4459
866.269	4432
866.4	4417
866.531	4447
866.662	4383
866.793	4379
866.924	4428
867.055	4500
867.186	4443
867.317	4398
867.448	4451
867.579	4413
867.71	4386
867.841	4352
867.972	4447
868.103	4489
868.233	4447
868.364	4436
868.495	4497
868.625	4634
868.756	4729
868.886	4580
869.017	4603
869.147	4740
869.278	4839
869.408	4634
869.539	4622
869.669	4710
869.799	4645
869.929	4736
870.06	4683
870.19	4946
870.32	4949
870.45	4949
870.58	5006
870.71	5128
870.84	5048
870.97	4930
871.1	4866
871.23	5151
871.36	5132
871.489	5003
871.619	5102
871.749	5075
871.879	5140
872.008	5208
872.138	5052
872.267	4972
872.397	4824
872.526	4835
872.656	4755
872.785	4767
872.915	4984
873.044	5041
873.173	4972
873.303	4953
873.432	4904
873.561	4968
873.69	4877
873.819	4850
873.948	4972
874.077	4805
874.206	4778
874.335	4778
874.464	4896
874.593	5045
874.722	4938
874.851	5117
874.979	5033
875.108	5045
875.237	4915
875.365	4873
875.494	4900
875.623	4968
875.751	4820
875.88	4862
876.008	4938
876.136	5064
876.265	5166
876.393	5334
876.521	5212
876.65	5212
876.778	5140
876.906	5048
877.034	5048
877.162	5113
877.29	5003
877.418	5079
877.546	5022
877.674	5048
877.802	5006
877.93	5029
878.058	4949
878.185	4805
878.313	4942
878.441	4957
878.568	4767
878.696	4892
878.824	4953
878.951	4961
879.079	5132
879.206	5296
879.333	5083
879.461	4999
879.588	5022
879.715	5132
879.842	5174
879.97	5003
880.097	4820
880.224	4744
880.351	4839
880.478	4828
880.605	4790
880.732	4782
880.859	5052
880.986	4835
881.112	4896
881.239	4805
881.366	4710
881.493	4649
881.619	4622
881.746	4622
881.872	4645
881.999	4637
882.125	4664
882.252	4793
882.378	4828
882.505	4984
882.631	4835
882.757	4668
882.883	4733
883.01	4706
883.136	4683
883.262	4577
883.388	4618
883.514	4824
883.64	4877
883.766	4774
883.892	4672
884.018	4755
884.143	4866
884.269	4972
884.395	4683
884.52	4668
884.646	4641
884.772	4592
884.897	4516
885.023	4668
885.148	4786
885.274	4835
885.399	4839
885.524	4771
885.65	4698
885.775	4744
885.9	4714
886.025	4847
886.15	4801
886.275	4714
886.4	4630
886.525	4710
886.65	4664
886.775	4736
886.9	4889
887.025	5064
887.149	4809
887.274	4717
887.399	4554
887.523	4622
887.648	4607
887.773	4584
887.897	4752
888.021	4771
888.146	4649
888.27	4831
888.395	4877
888.519	4736
888.643	4805
888.767	4843
888.891	4706
889.015	4622
889.139	4656
889.263	4577
889.387	4702
889.511	4877
889.635	4809
889.759	4630
889.883	4637
890.006	4702
890.13	4835
890.254	4615
890.377	4679
890.501	4508
890.624	4504
890.748	4656
890.871	4516
890.995	4447
891.118	4375
891.241	4546
891.364	4504
891.488	4645
891.611	4481
891.734	4546
891.857	4615
891.98	4580
892.103	4603
892.226	4565
892.349	4478
892.471	4421
892.594	4546
892.717	4580
892.839	4599
892.962	4580
893.085	4706
893.207	4580
893.33	4390
893.452	4497
893.575	4622
893.697	4535
893.819	4805
893.941	4843
894.064	4744
894.186	4531
894.308	4538
894.43	4702
894.552	4805
894.674	4733
894.796	4565
894.918	4626
895.04	4565
895.161	4717
895.283	4687
895.405	4580
895.526	4618
895.648	4672
895.769	4664
895.891	4729
896.012	4744
896.134	4736
896.255	4694
896.376	4691
896.498	4588
896.619	4679
896.74	4592
896.861	4660
896.982	4919
897.103	5037
897.224	4862
897.345	4748
897.466	4679
897.587	4767
897.708	4839
897.828	4748
897.949	4702
898.07	4542
898.19	4656
898.311	4812
898.431	4653
898.552	4717
898.672	4786
898.792	4835
898.913	4710
899.033	4588
899.153	4519
899.273	4440
899.393	4531
899.513	4542
899.633	4500
899.753	4519
899.873	4459
899.993	4603
900.113	4516
900.232	4584
900.352	4523
900.472	4459
900.591	4428
900.711	4451
900.83	4451
900.95	4599
901.069	4683
901.189	4558
901.308	4284
901.427	4337
901.546	4367
901.665	4478
901.784	4535
901.904	4386
902.023	4329
902.141	4181
902.26	4158
902.379	4367
902.498	4253
902.617	4242
902.735	4348
902.854	4341
902.973	4318
903.091	4223
903.21	4204
903.328	4246
903.446	4284
903.565	4230
903.683	4333
903.801	4291
903.919	4398
904.038	4474
904.156	4310
904.274	4436
904.392	4413
904.51	4474
904.627	4466
904.745	4561
904.863	4626
904.981	4417
905.098	4306
905.216	4314
905.334	4409
905.451	4440
905.569	4398
905.686	4573
905.803	4554
905.921	4421
906.038	4558
906.155	4451
906.272	4363
906.389	4417
906.506	4333
906.623	4386
906.74	4398
906.857	4280
906.974	4344
907.091	4497
907.208	4672
907.324	4538
907.441	4519
907.557	4310
907.674	4367
907.79	4318
907.907	4337
908.023	4455
908.139	4497
908.256	4421
908.372	4451
908.488	4424
908.604	4398
908.72	4318
908.836	4341
908.952	4348
909.068	4432
909.184	4561
909.3	4478
909.415	4569
909.531	4512
909.647	4344
909.762	4390
909.878	4337
909.993	4459
910.108	4383
910.224	4383
910.339	4447
910.454	4356
910.57	4314
910.685	4318
910.8	4641
910.915	4554
911.03	4485
911.145	4318
911.259	4341
911.374	4352
911.489	4265
911.604	4261
911.718	4177
911.833	4215
911.947	4086
912.062	4036
912.176	4177
912.291	4249
912.405	4265
912.519	4527
912.633	4485
912.748	4329
912.862	4371
912.976	4207
913.09	4158
913.204	4162
913.318	4272
913.431	4344
913.545	4386
913.659	4436
913.772	4329
913.886	4215
914	4246
914.113	4383
914.226	4413
914.34	4341
914.453	4211
914.566	4405
914.68	4287
914.793	4272
914.906	4181
915.019	4128
915.132	4082
915.245	4185
915.358	4211
915.47	4249
915.583	4280
915.696	4314
915.809	4352
915.921	4413
916.034	4242
916.146	4234
916.259	4253
916.371	4367
916.483	4356
916.595	4238
916.708	4325
916.82	4322
916.932	4314
917.044	4280
917.156	4352
917.268	4242
917.38	4276
917.491	4268
917.603	4341
917.715	4383
917.826	4436
917.938	4379
918.049	4272
918.161	4421
918.272	4519
918.384	4573
918.495	4352
918.606	4276
918.717	4253
918.828	4261
918.939	4383
919.05	4249
919.161	4284
919.272	4131
919.383	4230
919.494	4459
919.604	4599
919.715	4398
919.826	4318
919.936	4371
920.047	4470
920.157	4519
920.267	4698
920.378	4535
920.488	4508
920.598	4725
920.708	4854
920.818	4759
920.928	4793
921.038	4949
921.148	4923
921.258	4637
921.368	4558
921.477	4523
921.587	4413
921.697	4333
921.806	4546
921.916	4390
922.025	4268
922.134	4257
922.244	4291
922.353	4303
922.462	4185
922.571	4147
922.68	3991
922.789	3968
922.898	4002
923.007	4044
923.116	4128
923.224	4093
923.333	4063
923.442	3968
923.55	3983
923.659	4029
923.767	4109
923.876	3972
923.984	4090
924.092	4002
924.201	4105
924.309	4063
924.417	4112
924.525	4086
924.633	4120
924.741	4896
924.849	3930
924.956	4173
925.064	3953
925.172	3918
925.279	3956
925.387	4006
925.494	4124
925.602	4234
925.709	4169
925.816	4063
925.924	4097
926.031	4257
926.138	4215
926.245	4211
926.352	4059
926.459	4215
926.566	4329
926.673	4135
926.779	4093
926.886	4067
926.993	3979
927.099	3945
927.206	3937
927.312	3983
927.419	4040
927.525	3979
927.631	4093
927.737	3964
927.843	3941
927.95	3816
928.056	3899
928.162	3983
928.267	4051
928.373	4664
928.479	4078
928.585	3857
928.69	3968
928.796	4059
928.901	3915
929.007	3861
929.112	3994
929.218	3956
929.323	3968
929.428	3903
929.533	4048
929.638	3846
929.743	3945
929.848	4051
929.953	4013
930.058	3934
930.163	3789
930.267	3793
930.372	3983
930.477	3781
930.581	4055
930.685	3918
930.79	3827
930.894	3903
930.998	3873
931.103	4025
931.207	3705
931.311	3694
931.415	3694
931.519	3519
931.623	3545
