Data from test_V78500241_2743.txt Node
Date: Fri Mar 25 17:08:04 CST 2022
User: usil
Spectrometer: V785-0024
Trigger mode: 0
Integration Time (sec): 4.000000E-1
Scans to average: 1
Nonlinearity correction enabled: false
Boxcar width: 0
Storing dark spectrum: false
XAxis mode: Wavelengths
Number of Pixels in Spectrum: 1024
>>>>>Begin Spectral Data<<<<<
801.071	8020
801.214	8035
801.356	7898
801.499	7818
801.641	7795
801.783	7856
801.926	7951
802.068	7970
802.211	8035
802.353	8024
802.496	7898
802.638	7887
802.78	7978
802.923	7906
803.065	7898
803.208	7890
803.35	8062
803.492	8096
803.635	8202
803.777	8138
803.919	8161
804.061	8438
804.204	8229
804.346	8088
804.488	7917
804.63	8138
804.773	8008
804.915	8130
805.057	8305
805.199	8176
805.341	8206
805.483	8267
805.626	8252
805.768	8111
805.91	8180
806.052	8164
806.194	8115
806.336	8324
806.478	8115
806.62	8096
806.762	8172
806.904	8248
807.046	8434
807.188	8404
807.33	8282
807.472	8313
807.614	8206
807.756	8221
807.898	8054
808.04	7951
808.182	7856
808.324	7887
808.465	7974
808.607	8058
808.749	8206
808.891	8191
809.033	8320
809.174	8195
809.316	8084
809.458	8065
809.6	8008
809.741	8058
809.883	8031
810.025	8191
810.166	8027
810.308	8092
810.45	7993
810.591	7849
810.733	7811
810.875	7670
811.016	7540
811.158	7518
811.299	7632
811.441	7651
811.582	7727
811.724	7597
811.865	7582
812.007	7624
812.148	7559
812.29	7601
812.431	7750
812.573	7883
812.714	8001
812.855	8134
812.997	8214
813.138	8374
813.279	8172
813.421	8115
813.562	8046
813.703	7890
813.845	7788
813.986	7373
814.127	7312
814.268	7244
814.41	7240
814.551	7114
814.692	7217
814.833	7110
814.974	7057
815.115	7072
815.256	6932
815.397	6928
815.539	6977
815.68	6821
815.821	6760
815.962	6863
816.103	6825
816.244	6696
816.385	6673
816.526	6612
816.666	6536
816.807	6331
816.948	6467
817.089	6486
817.23	6426
817.371	6304
817.512	6395
817.653	6372
817.793	6353
817.934	6452
818.075	6479
818.216	6384
818.356	6357
818.497	6224
818.638	6163
818.778	6133
818.919	6125
819.06	6186
819.2	6353
819.341	6342
819.481	6323
819.622	6464
819.762	6764
819.903	6760
820.043	6585
820.184	6551
820.324	6585
820.465	6726
820.605	6669
820.746	6593
820.886	6555
821.026	6662
821.167	6684
821.307	6795
821.447	6787
821.588	6669
821.728	6601
821.868	6498
822.008	6327
822.149	6296
822.289	6319
822.429	6167
822.569	6121
822.709	6171
822.849	5954
822.99	5908
823.13	5920
823.27	5866
823.41	5786
823.55	5794
823.69	5783
823.83	5790
823.97	5684
824.11	5566
824.25	5535
824.389	5539
824.529	5573
824.669	5505
824.809	5623
824.949	5680
825.089	5642
825.228	5600
825.368	5425
825.508	5322
825.648	5345
825.787	5349
825.927	5410
826.067	5242
826.206	5299
826.346	5372
826.485	5379
826.625	5391
826.765	5543
826.904	5448
827.044	5299
827.183	5174
827.323	5147
827.462	5246
827.601	5159
827.741	5216
827.88	5261
828.02	5109
828.159	5216
828.298	5265
828.437	5360
828.577	5246
828.716	5459
828.855	5261
828.994	5143
829.134	5098
829.273	5159
829.412	5128
829.551	5136
829.69	5113
829.829	5227
829.968	5398
830.107	5250
830.246	5322
830.385	5140
830.524	5155
830.663	5048
830.802	4923
830.941	4889
831.08	4797
831.219	4980
831.357	4949
831.496	5159
831.635	4942
831.774	4850
831.913	4805
832.051	4740
832.19	4725
832.329	4854
832.467	4691
832.606	4660
832.744	4736
832.883	4778
833.022	4717
833.16	4805
833.299	4824
833.437	4831
833.576	4831
833.714	4881
833.852	4866
833.991	4862
834.129	4968
834.267	4953
834.406	4881
834.544	4976
834.682	4972
834.821	4946
834.959	5143
835.097	4957
835.235	5113
835.373	5060
835.511	5105
835.65	4995
835.788	5037
835.926	4862
836.064	4831
836.202	4900
836.34	5147
836.478	5254
836.615	5147
836.753	5178
836.891	5284
837.029	5273
837.167	5140
837.305	5140
837.443	5178
837.58	5071
837.718	5162
837.856	5227
837.993	5109
838.131	5208
838.269	5220
838.406	5223
838.544	5174
838.681	5018
838.819	4980
838.956	4854
839.094	4915
839.231	4957
839.369	5064
839.506	5406
839.643	5258
839.781	5006
839.918	4980
840.055	5075
840.193	5090
840.33	5113
840.467	5075
840.604	5136
840.742	5455
840.879	5075
841.016	5102
841.153	5083
841.29	5292
841.427	5318
841.564	5307
841.701	5341
841.838	5250
841.975	5185
842.112	5254
842.249	5128
842.385	5075
842.522	5337
842.659	5136
842.796	5128
842.933	5185
843.069	5162
843.206	5159
843.343	5330
843.479	5216
843.616	5246
843.752	4972
843.889	5010
844.025	5212
844.162	5018
844.298	5197
844.435	5079
844.571	5064
844.708	5155
844.844	5334
844.98	5288
845.117	5227
845.253	5189
845.389	5086
845.525	5128
845.661	5117
845.798	4984
845.934	5094
846.07	5037
846.206	5216
846.342	5235
846.478	5178
846.614	5056
846.75	4984
846.886	4911
847.022	5124
847.158	4991
847.294	5071
847.429	5090
847.565	5064
847.701	5292
847.837	4843
847.972	4793
848.108	4938
848.244	4915
848.379	4793
848.515	4729
848.65	4740
848.786	4755
848.921	4778
849.057	4873
849.192	4881
849.328	4793
849.463	4839
849.598	4771
849.734	4767
849.869	4683
850.004	4565
850.14	4622
850.275	4558
850.41	4508
850.545	4580
850.68	4577
850.815	4615
850.95	4668
851.085	4828
851.22	4725
851.355	4656
851.49	4626
851.625	4596
851.76	4660
851.895	4538
852.03	4531
852.165	4683
852.299	4714
852.434	4793
852.569	4733
852.703	4778
852.838	4839
852.973	4915
853.107	4927
853.242	4759
853.376	4645
853.511	4577
853.645	4596
853.78	4801
853.914	4702
854.048	4706
854.183	4630
854.317	4721
854.451	4930
854.585	4710
854.72	4653
854.854	4790
854.988	4618
855.122	4641
855.256	4527
855.39	4660
855.524	4824
855.658	4774
855.792	4744
855.926	4725
856.06	4824
856.194	4862
856.327	4767
856.461	4649
856.595	4634
856.729	4668
856.862	4778
856.996	4702
857.13	4782
857.263	4786
857.397	4870
857.53	4683
857.664	4801
857.797	4759
857.931	4847
858.064	4706
858.197	4828
858.331	4691
858.464	4615
858.597	4588
858.731	4706
858.864	4672
858.997	4649
859.13	4687
859.263	4729
859.396	4725
859.529	4611
859.662	4626
859.795	4622
859.928	4634
860.061	4786
860.194	4801
860.327	4668
860.46	4599
860.592	4736
860.725	4740
860.858	4782
860.99	4573
861.123	4554
861.256	4584
861.388	4626
861.521	5376
861.653	4542
861.786	4466
861.918	4485
862.05	4554
862.183	4584
862.315	4668
862.447	4740
862.58	4573
862.712	4504
862.844	4360
862.976	4527
863.108	4516
863.24	4820
863.372	4421
863.504	4428
863.636	4417
863.768	4481
863.9	4470
864.032	4413
864.164	4447
864.296	4523
864.428	4569
864.559	4611
864.691	4588
864.823	4580
864.954	4558
865.086	4554
865.217	4485
865.349	4440
865.48	4459
865.612	4527
865.743	4630
865.875	4516
866.006	4455
866.137	4512
866.269	4512
866.4	4497
866.531	4436
866.662	4440
866.793	4455
866.924	4466
867.055	4497
867.186	4474
867.317	4432
867.448	4440
867.579	4443
867.71	4421
867.841	4386
867.972	4474
868.103	4485
868.233	4504
868.364	4504
868.495	4504
868.625	4691
868.756	4782
868.886	4615
869.017	4599
869.147	4790
869.278	4797
869.408	4698
869.539	4694
869.669	4755
869.799	4733
869.929	4771
870.06	4778
870.19	4930
870.32	4984
870.45	4953
870.58	5071
870.71	5140
870.84	5128
870.97	4995
871.1	4965
871.23	5181
871.36	5166
871.489	5060
871.619	5121
871.749	5140
871.879	5143
872.008	5250
872.138	5105
872.267	5041
872.397	4889
872.526	4816
872.656	4763
872.785	4793
872.915	4980
873.044	5048
873.173	4923
873.303	4972
873.432	4972
873.561	4927
873.69	4930
873.819	4889
873.948	4930
874.077	4847
874.206	4782
874.335	4862
874.464	4923
874.593	5140
874.722	5022
874.851	5166
874.979	5128
875.108	5071
875.237	4980
875.365	4923
875.494	4892
875.623	4995
875.751	4805
875.88	4835
876.008	4991
876.136	5067
876.265	5261
876.393	5364
876.521	5364
876.65	5242
876.778	5201
876.906	5083
877.034	5014
877.162	5113
877.29	5048
877.418	5060
877.546	5109
877.674	5109
877.802	5052
877.93	5071
878.058	4995
878.185	4892
878.313	5018
878.441	4972
878.568	4801
878.696	4968
878.824	5014
878.951	5025
879.079	5117
879.206	5318
879.333	5128
879.461	4999
879.588	5025
879.715	5170
879.842	5258
879.97	5056
880.097	4862
880.224	4786
880.351	4843
880.478	4858
880.605	4809
880.732	4870
880.859	5143
880.986	4915
881.112	4946
881.239	4805
881.366	4706
881.493	4615
881.619	4630
881.746	4660
881.872	4694
881.999	4668
882.125	4710
882.252	4839
882.378	4870
882.505	5006
882.631	4839
882.757	4694
882.883	4763
883.01	4771
883.136	4668
883.262	4603
883.388	4656
883.514	4782
883.64	4904
883.766	4854
883.892	4675
884.018	4755
884.143	4942
884.269	5052
884.395	4721
884.52	4641
884.646	4691
884.772	4580
884.897	4611
885.023	4691
885.148	4816
885.274	4885
885.399	4854
885.524	4733
885.65	4672
885.775	4752
885.9	4759
886.025	4889
886.15	4793
886.275	4736
886.4	4714
886.525	4790
886.65	4759
886.775	4702
886.9	4900
887.025	5075
887.149	4850
887.274	4664
887.399	4634
887.523	4634
887.648	4596
887.773	4611
887.897	4801
888.021	4786
888.146	4721
888.27	4854
888.395	4927
888.519	4809
888.643	4881
888.767	4831
888.891	4717
889.015	4641
889.139	4714
889.263	4626
889.387	4774
889.511	4870
889.635	4790
889.759	4672
889.883	4660
890.006	4740
890.13	4828
890.254	4603
890.377	4748
890.501	4584
890.624	4546
890.748	4653
890.871	4561
890.995	4459
891.118	4451
891.241	4554
891.364	4565
891.488	4664
891.611	4478
891.734	4588
891.857	4607
891.98	4565
892.103	4656
892.226	4584
892.349	4573
892.471	4466
892.594	4596
892.717	4607
892.839	4599
892.962	4618
893.085	4672
893.207	4653
893.33	4443
893.452	4546
893.575	4725
893.697	4618
893.819	4767
893.941	4866
894.064	4850
894.186	4584
894.308	4596
894.43	4763
894.552	4809
894.674	4736
894.796	4550
894.918	4637
895.04	4641
895.161	4759
895.283	4706
895.405	4596
895.526	4645
895.648	4672
895.769	4714
895.891	4740
896.012	4740
896.134	4733
896.255	4683
896.376	4618
896.498	4637
896.619	4729
896.74	4618
896.861	4706
896.982	4961
897.103	5113
897.224	4885
897.345	4797
897.466	4717
897.587	4717
897.708	4858
897.828	4828
897.949	4698
898.07	4561
898.19	4672
898.311	4854
898.431	4645
898.552	4767
898.672	4824
898.792	4850
898.913	4774
899.033	4630
899.153	4561
899.273	4432
899.393	4527
899.513	4554
899.633	4607
899.753	4542
899.873	4512
899.993	4641
900.113	4550
900.232	4603
900.352	4588
900.472	4497
900.591	4413
900.711	4535
900.83	4428
900.95	4611
901.069	4717
901.189	4580
901.308	4436
901.427	4352
901.546	4379
901.665	4485
901.784	4497
901.904	4409
902.023	4322
902.141	4234
902.26	4200
902.379	4344
902.498	4246
902.617	4257
902.735	4394
902.854	4394
902.973	4348
903.091	4223
903.21	4261
903.328	4322
903.446	4261
903.565	4291
903.683	4367
903.801	4367
903.919	4428
904.038	4436
904.156	4337
904.274	4432
904.392	4409
904.51	4462
904.627	4504
904.745	4588
904.863	4668
904.981	4383
905.098	4322
905.216	4424
905.334	4424
905.451	4455
905.569	4443
905.686	4542
905.803	4577
905.921	4398
906.038	4584
906.155	4413
906.272	4451
906.389	4500
906.506	4390
906.623	4405
906.74	4413
906.857	4314
906.974	4424
907.091	4516
907.208	4710
907.324	4645
907.441	4489
907.557	4394
907.674	4379
907.79	4337
907.907	4402
908.023	4470
908.139	4531
908.256	4459
908.372	4508
908.488	4474
908.604	4367
908.72	4344
908.836	4405
908.952	4428
909.068	4481
909.184	4603
909.3	4516
909.415	4592
909.531	4592
909.647	4394
909.762	4363
909.878	4360
909.993	4485
910.108	4428
910.224	4459
910.339	4561
910.454	4440
910.57	4363
910.685	4295
910.8	4630
910.915	4611
911.03	4474
911.145	4375
911.259	4337
911.374	4428
911.489	4276
911.604	4276
911.718	4200
911.833	4242
911.947	4124
912.062	4078
912.176	4268
912.291	4284
912.405	4303
912.519	4489
912.633	4531
912.748	4398
912.862	4360
912.976	4211
913.09	4109
913.204	4207
913.318	4284
913.431	4428
913.545	4421
913.659	4462
913.772	4386
913.886	4261
914	4268
914.113	4371
914.226	4436
914.34	4383
914.453	4242
914.566	4402
914.68	4310
914.793	4333
914.906	4177
915.019	4162
915.132	4116
915.245	4143
915.358	4242
915.47	4284
915.583	4272
915.696	4356
915.809	4455
915.921	4424
916.034	4257
916.146	4230
916.259	4207
916.371	4394
916.483	4337
916.595	4306
916.708	4299
916.82	4379
916.932	4329
917.044	4325
917.156	4333
917.268	4246
917.38	4276
917.491	4242
917.603	4356
917.715	4386
917.826	4398
917.938	4333
918.049	4257
918.161	4428
918.272	4550
918.384	4554
918.495	4497
918.606	4363
918.717	4272
918.828	4360
918.939	4409
919.05	4284
919.161	4295
919.272	4124
919.383	4246
919.494	4466
919.604	4645
919.715	4413
919.826	4352
919.936	4432
920.047	4538
920.157	4493
920.267	4706
920.378	4569
920.488	4531
920.598	4755
920.708	4900
920.818	4786
920.928	4744
921.038	4938
921.148	4949
921.258	4637
921.368	4565
921.477	4538
921.587	4508
921.697	4379
921.806	4550
921.916	4493
922.025	4299
922.134	4306
922.244	4242
922.353	4383
922.462	4192
922.571	4109
922.68	4059
922.789	3975
922.898	4063
923.007	4029
923.116	4135
923.224	4055
923.333	4128
923.442	4055
923.55	4048
923.659	4093
923.767	4188
923.876	4051
923.984	4135
924.092	4029
924.201	4147
924.309	4124
924.417	4147
924.525	4048
924.633	4112
924.741	5105
924.849	3949
924.956	4143
925.064	4021
925.172	3960
925.279	4017
925.387	4093
925.494	4135
925.602	4249
925.709	4234
925.816	4097
925.924	4185
926.031	4276
926.138	4242
926.245	4265
926.352	4093
926.459	4268
926.566	4333
926.673	4242
926.779	4112
926.886	4120
926.993	4006
927.099	4006
927.206	3972
927.312	3968
927.419	4105
927.525	4048
927.631	4147
927.737	3968
927.843	3983
927.95	3884
928.056	4013
928.162	4010
928.267	4131
928.373	4771
928.479	4154
928.585	3873
928.69	4105
928.796	4105
928.901	4036
929.007	3937
929.112	4051
929.218	4017
929.323	3964
929.428	3975
929.533	4158
929.638	3979
929.743	4013
929.848	4067
929.953	4032
930.058	4010
930.163	3835
930.267	3888
930.372	4013
930.477	3842
930.581	4150
930.685	3998
930.79	3884
930.894	3945
930.998	3903
931.103	4063
931.207	3774
931.311	3686
931.415	3690
931.519	3568
931.623	3606
