Data from test_V78500241_1474.txt Node
Date: Fri Mar 25 16:59:15 CST 2022
User: usil
Spectrometer: V785-0024
Trigger mode: 0
Integration Time (sec): 4.000000E-1
Scans to average: 1
Nonlinearity correction enabled: false
Boxcar width: 0
Storing dark spectrum: false
XAxis mode: Wavelengths
Number of Pixels in Spectrum: 1024
>>>>>Begin Spectral Data<<<<<
801.071	7936
801.214	7982
801.356	7852
801.499	7852
801.641	7765
801.783	7788
801.926	7917
802.068	7887
802.211	8005
802.353	7947
802.496	7830
802.638	7868
802.78	7894
802.923	7925
803.065	7871
803.208	7860
803.35	7921
803.492	8016
803.635	8164
803.777	8035
803.919	8096
804.061	8377
804.204	8164
804.346	8035
804.488	7989
804.63	8031
804.773	8008
804.915	8130
805.057	8320
805.199	8138
805.341	8229
805.483	8263
805.626	8210
805.768	8084
805.91	8229
806.052	8214
806.194	8058
806.336	8282
806.478	8058
806.62	8035
806.762	8145
806.904	8202
807.046	8446
807.188	8389
807.33	8237
807.472	8332
807.614	8172
807.756	8096
807.898	8008
808.04	7868
808.182	7951
808.324	7875
808.465	7898
808.607	8069
808.749	8054
808.891	8180
809.033	8233
809.174	8164
809.316	8123
809.458	8039
809.6	8046
809.741	7989
809.883	7967
810.025	8084
810.166	8077
810.308	8020
810.45	7970
810.591	7864
810.733	7681
810.875	7605
811.016	7506
811.158	7499
811.299	7567
811.441	7670
811.582	7643
811.724	7563
811.865	7502
812.007	7586
812.148	7578
812.29	7643
812.431	7742
812.573	7879
812.714	7909
812.855	8039
812.997	8096
813.138	8244
813.279	8130
813.421	8043
813.562	7967
813.703	7841
813.845	7753
813.986	7403
814.127	7213
814.268	7198
814.41	7213
814.551	7152
814.692	7171
814.833	7099
814.974	7050
815.115	7107
815.256	6970
815.397	6882
815.539	6928
815.68	6852
815.821	6776
815.962	6909
816.103	6741
816.244	6658
816.385	6585
816.526	6578
816.666	6448
816.807	6315
816.948	6426
817.089	6456
817.23	6422
817.371	6372
817.512	6285
817.653	6410
817.793	6323
817.934	6323
818.075	6437
818.216	6361
818.356	6407
818.497	6220
818.638	6083
818.778	6190
818.919	6102
819.06	6117
819.2	6285
819.341	6296
819.481	6342
819.622	6544
819.762	6726
819.903	6677
820.043	6536
820.184	6555
820.324	6532
820.465	6684
820.605	6730
820.746	6582
820.886	6521
821.026	6662
821.167	6692
821.307	6768
821.447	6776
821.588	6631
821.728	6578
821.868	6532
822.008	6319
822.149	6342
822.289	6391
822.429	6125
822.569	6034
822.709	6133
822.849	5912
822.99	5874
823.13	5973
823.27	5874
823.41	5783
823.55	5805
823.69	5737
823.83	5733
823.97	5638
824.11	5543
824.25	5493
824.389	5497
824.529	5592
824.669	5547
824.809	5627
824.949	5623
825.089	5581
825.228	5592
825.368	5398
825.508	5246
825.648	5318
825.787	5414
825.927	5360
826.067	5288
826.206	5318
826.346	5360
826.485	5406
826.625	5402
826.765	5547
826.904	5474
827.044	5227
827.183	5212
827.323	5113
827.462	5296
827.601	5128
827.741	5124
827.88	5162
828.02	5102
828.159	5208
828.298	5220
828.437	5379
828.577	5265
828.716	5535
828.855	5265
828.994	5174
829.134	5102
829.273	5155
829.412	5098
829.551	5132
829.69	5143
829.829	5201
829.968	5353
830.107	5265
830.246	5231
830.385	5102
830.524	5075
830.663	5045
830.802	4965
830.941	4839
831.08	4866
831.219	4953
831.357	4923
831.496	5086
831.635	4938
831.774	4809
831.913	4793
832.051	4725
832.19	4721
832.329	4828
832.467	4645
832.606	4596
832.744	4656
832.883	4683
833.022	4717
833.16	4752
833.299	4824
833.437	4828
833.576	4809
833.714	4858
833.852	4843
833.991	4873
834.129	4938
834.267	4923
834.406	4877
834.544	4965
834.682	4972
834.821	4934
834.959	5132
835.097	4972
835.235	5124
835.373	5075
835.511	5094
835.65	5018
835.788	4927
835.926	4870
836.064	4850
836.202	4927
836.34	5170
836.478	5223
836.615	5113
836.753	5235
836.891	5242
837.029	5231
837.167	5189
837.305	5166
837.443	5162
837.58	5064
837.718	5174
837.856	5170
837.993	5140
838.131	5204
838.269	5178
838.406	5170
838.544	5151
838.681	5006
838.819	5056
838.956	4870
839.094	4881
839.231	4949
839.369	5075
839.506	5421
839.643	5258
839.781	5067
839.918	4999
840.055	5098
840.193	5075
840.33	5086
840.467	5102
840.604	5220
840.742	5429
840.879	5045
841.016	5071
841.153	5170
841.29	5379
841.427	5299
841.564	5307
841.701	5318
841.838	5269
841.975	5231
842.112	5216
842.249	5166
842.385	5079
842.522	5345
842.659	5132
842.796	5067
842.933	5174
843.069	5170
843.206	5147
843.343	5284
843.479	5193
843.616	5242
843.752	5025
843.889	4968
844.025	5166
844.162	4999
844.298	5212
844.435	5045
844.571	5010
844.708	5189
844.844	5250
844.98	5337
845.117	5311
845.253	5105
845.389	5048
845.525	5143
845.661	5079
845.798	4999
845.934	5147
846.07	5041
846.206	5162
846.342	5242
846.478	5136
846.614	4972
846.75	4953
846.886	4938
847.022	5090
847.158	4927
847.294	5033
847.429	5083
847.565	5022
847.701	5261
847.837	4889
847.972	4801
848.108	4881
848.244	4938
848.379	4717
848.515	4759
848.65	4649
848.786	4755
848.921	4786
849.057	4820
849.192	4904
849.328	4763
849.463	4771
849.598	4740
849.734	4725
849.869	4653
850.004	4592
850.14	4607
850.275	4618
850.41	4497
850.545	4550
850.68	4569
850.815	4634
850.95	4622
851.085	4778
851.22	4733
851.355	4649
851.49	4580
851.625	4596
851.76	4615
851.895	4523
852.03	4531
852.165	4611
852.299	4698
852.434	4790
852.569	4729
852.703	4748
852.838	4831
852.973	4900
853.107	4885
853.242	4721
853.376	4687
853.511	4535
853.645	4573
853.78	4801
853.914	4660
854.048	4645
854.183	4634
854.317	4679
854.451	4862
854.585	4683
854.72	4634
854.854	4710
854.988	4599
855.122	4645
855.256	4531
855.39	4679
855.524	4793
855.658	4740
855.792	4714
855.926	4767
856.06	4805
856.194	4831
856.327	4687
856.461	4645
856.595	4634
856.729	4626
856.862	4733
856.996	4702
857.13	4725
857.263	4790
857.397	4805
857.53	4645
857.664	4752
857.797	4797
857.931	4793
858.064	4717
858.197	4748
858.331	4679
858.464	4653
858.597	4592
858.731	4668
858.864	4630
858.997	4668
859.13	4710
859.263	4691
859.396	4755
859.529	4626
859.662	4603
859.795	4592
859.928	4626
860.061	4831
860.194	4797
860.327	4626
860.46	4599
860.592	4736
860.725	4771
860.858	4767
860.99	4592
861.123	4550
861.256	4611
861.388	4649
861.521	5463
861.653	4554
861.786	4523
861.918	4485
862.05	4546
862.183	4569
862.315	4660
862.447	4729
862.58	4596
862.712	4432
862.844	4356
862.976	4504
863.108	4550
863.24	4809
863.372	4363
863.504	4481
863.636	4428
863.768	4569
863.9	4481
864.032	4405
864.164	4440
864.296	4500
864.428	4596
864.559	4577
864.691	4615
864.823	4607
864.954	4569
865.086	4516
865.217	4512
865.349	4455
865.48	4443
865.612	4508
865.743	4668
865.875	4451
866.006	4432
866.137	4508
866.269	4470
866.4	4527
866.531	4462
866.662	4455
866.793	4447
866.924	4504
867.055	4565
867.186	4470
867.317	4447
867.448	4424
867.579	4417
867.71	4451
867.841	4367
867.972	4538
868.103	4436
868.233	4493
868.364	4519
868.495	4550
868.625	4736
868.756	4778
868.886	4592
869.017	4672
869.147	4782
869.278	4778
869.408	4694
869.539	4630
869.669	4729
869.799	4702
869.929	4782
870.06	4774
870.19	4976
870.32	4972
870.45	4957
870.58	5014
870.71	5079
870.84	5094
870.97	4987
871.1	4896
871.23	5121
871.36	5178
871.489	5025
871.619	5098
871.749	5071
871.879	5140
872.008	5166
872.138	5056
872.267	4995
872.397	4843
872.526	4862
872.656	4763
872.785	4835
872.915	4953
873.044	5029
873.173	4991
873.303	4968
873.432	4949
873.561	4991
873.69	4919
873.819	4896
873.948	4949
874.077	4881
874.206	4771
874.335	4797
874.464	4976
874.593	5071
874.722	5006
874.851	5140
874.979	5056
875.108	5067
875.237	4942
875.365	4908
875.494	4911
875.623	5014
875.751	4843
875.88	4873
876.008	5037
876.136	5071
876.265	5227
876.393	5345
876.521	5296
876.65	5231
876.778	5235
876.906	5079
877.034	5014
877.162	5102
877.29	5029
877.418	5075
877.546	5022
877.674	5060
877.802	5067
877.93	5060
878.058	4942
878.185	4900
878.313	4976
878.441	4984
878.568	4854
878.696	4892
878.824	4972
878.951	5014
879.079	5136
879.206	5334
879.333	5067
879.461	4980
879.588	5045
879.715	5151
879.842	5212
879.97	5037
880.097	4824
880.224	4790
880.351	4839
880.478	4839
880.605	4812
880.732	4824
880.859	5086
880.986	4904
881.112	4915
881.239	4824
881.366	4698
881.493	4599
881.619	4641
881.746	4694
881.872	4679
881.999	4675
882.125	4733
882.252	4824
882.378	4824
882.505	4987
882.631	4854
882.757	4710
882.883	4790
883.01	4717
883.136	4691
883.262	4603
883.388	4611
883.514	4858
883.64	4908
883.766	4866
883.892	4668
884.018	4729
884.143	4911
884.269	5041
884.395	4702
884.52	4637
884.646	4683
884.772	4569
884.897	4599
885.023	4710
885.148	4786
885.274	4866
885.399	4797
885.524	4744
885.65	4740
885.775	4763
885.9	4744
886.025	4873
886.15	4820
886.275	4733
886.4	4740
886.525	4733
886.65	4675
886.775	4721
886.9	4938
887.025	5045
887.149	4843
887.274	4683
887.399	4622
887.523	4622
887.648	4607
887.773	4599
887.897	4767
888.021	4816
888.146	4672
888.27	4885
888.395	4923
888.519	4839
888.643	4828
888.767	4862
888.891	4717
889.015	4637
889.139	4641
889.263	4622
889.387	4774
889.511	4889
889.635	4831
889.759	4687
889.883	4664
890.006	4793
890.13	4831
890.254	4656
890.377	4694
890.501	4573
890.624	4504
890.748	4660
890.871	4538
890.995	4455
891.118	4398
891.241	4542
891.364	4569
891.488	4687
891.611	4489
891.734	4554
891.857	4637
891.98	4603
892.103	4683
892.226	4615
892.349	4577
892.471	4432
892.594	4611
892.717	4588
892.839	4573
892.962	4618
893.085	4698
893.207	4626
893.33	4443
893.452	4516
893.575	4683
893.697	4569
893.819	4824
893.941	4870
894.064	4793
894.186	4577
894.308	4569
894.43	4740
894.552	4805
894.674	4782
894.796	4565
894.918	4592
895.04	4561
895.161	4714
895.283	4729
895.405	4611
895.526	4649
895.648	4736
895.769	4744
895.891	4721
896.012	4759
896.134	4748
896.255	4694
896.376	4641
896.498	4656
896.619	4630
896.74	4660
896.861	4637
896.982	4911
897.103	5121
897.224	4866
897.345	4748
897.466	4714
897.587	4733
897.708	4885
897.828	4835
897.949	4710
898.07	4596
898.19	4672
898.311	4843
898.431	4687
898.552	4767
898.672	4839
898.792	4824
898.913	4767
899.033	4645
899.153	4493
899.273	4478
899.393	4451
899.513	4508
899.633	4558
899.753	4577
899.873	4550
899.993	4546
900.113	4550
900.232	4546
900.352	4561
900.472	4523
900.591	4375
900.711	4512
900.83	4462
900.95	4577
901.069	4763
901.189	4542
901.308	4398
901.427	4337
901.546	4402
901.665	4519
901.784	4497
901.904	4424
902.023	4341
902.141	4207
902.26	4185
902.379	4337
902.498	4284
902.617	4211
902.735	4413
902.854	4421
902.973	4375
903.091	4234
903.21	4261
903.328	4314
903.446	4268
903.565	4253
903.683	4348
903.801	4299
903.919	4409
904.038	4440
904.156	4325
904.274	4417
904.392	4360
904.51	4481
904.627	4455
904.745	4637
904.863	4637
904.981	4440
905.098	4348
905.216	4352
905.334	4459
905.451	4481
905.569	4447
905.686	4558
905.803	4592
905.921	4402
906.038	4569
906.155	4493
906.272	4413
906.389	4497
906.506	4367
906.623	4322
906.74	4390
906.857	4314
906.974	4356
907.091	4542
907.208	4710
907.324	4554
907.441	4577
907.557	4371
907.674	4363
907.79	4299
907.907	4428
908.023	4504
908.139	4466
908.256	4413
908.372	4428
908.488	4489
908.604	4329
908.72	4318
908.836	4398
908.952	4360
909.068	4413
909.184	4577
909.3	4523
909.415	4565
909.531	4599
909.647	4379
909.762	4375
909.878	4371
909.993	4462
910.108	4428
910.224	4478
910.339	4508
910.454	4390
910.57	4383
910.685	4367
910.8	4656
910.915	4672
911.03	4493
911.145	4344
911.259	4363
911.374	4371
911.489	4306
911.604	4329
911.718	4211
911.833	4204
911.947	4063
912.062	4029
912.176	4246
912.291	4211
912.405	4253
912.519	4459
912.633	4512
912.748	4363
912.862	4329
912.976	4227
913.09	4135
913.204	4200
913.318	4246
913.431	4375
913.545	4367
913.659	4451
913.772	4352
913.886	4230
914	4223
914.113	4322
914.226	4440
914.34	4409
914.453	4280
914.566	4432
914.68	4329
914.793	4352
914.906	4147
915.019	4139
915.132	4116
915.245	4185
915.358	4261
915.47	4211
915.583	4230
915.696	4303
915.809	4428
915.921	4413
916.034	4215
916.146	4261
916.259	4227
916.371	4398
916.483	4383
916.595	4242
916.708	4329
916.82	4333
916.932	4363
917.044	4352
917.156	4318
917.268	4192
917.38	4314
917.491	4230
917.603	4341
917.715	4447
917.826	4417
917.938	4367
918.049	4246
918.161	4409
918.272	4516
918.384	4512
918.495	4459
918.606	4306
918.717	4204
918.828	4344
918.939	4356
919.05	4215
919.161	4363
919.272	4116
919.383	4230
919.494	4474
919.604	4637
919.715	4462
919.826	4333
919.936	4398
920.047	4538
920.157	4512
920.267	4748
920.378	4569
920.488	4516
920.598	4656
920.708	4919
920.818	4736
920.928	4744
921.038	4911
921.148	4957
921.258	4622
921.368	4523
921.477	4462
921.587	4493
921.697	4363
921.806	4538
921.916	4440
922.025	4280
922.134	4287
922.244	4192
922.353	4356
922.462	4207
922.571	4158
922.68	4006
922.789	4002
922.898	4063
923.007	3994
923.116	4124
923.224	4086
923.333	4109
923.442	4006
923.55	3964
923.659	4063
923.767	4166
923.876	4017
923.984	4177
924.092	4013
924.201	4071
924.309	4109
924.417	4147
924.525	4109
924.633	4147
924.741	5075
924.849	3994
924.956	4109
925.064	3994
925.172	3937
925.279	4002
925.387	4128
925.494	4093
925.602	4200
925.709	4211
925.816	4074
925.924	4185
926.031	4242
926.138	4230
926.245	4303
926.352	4101
926.459	4295
926.566	4344
926.673	4219
926.779	4112
926.886	4109
926.993	4059
927.099	3994
927.206	4013
927.312	3949
927.419	4101
927.525	4063
927.631	4101
927.737	4021
927.843	4036
927.95	3899
928.056	3991
928.162	4067
928.267	4082
928.373	4637
928.479	4169
928.585	3918
928.69	4017
928.796	4101
928.901	4002
929.007	3880
929.112	4006
929.218	4029
929.323	3964
929.428	3926
929.533	4162
929.638	3968
929.743	3964
929.848	4010
929.953	4006
930.058	3975
930.163	3823
930.267	3873
930.372	4002
930.477	3842
930.581	4150
930.685	3964
930.79	3854
930.894	3934
930.998	3903
931.103	4051
931.207	3701
931.311	3743
931.415	3694
931.519	3538
931.623	3584
