Data from test_V78500241_442.txt Node
Date: Fri Mar 25 16:52:04 CST 2022
User: usil
Spectrometer: V785-0024
Trigger mode: 0
Integration Time (sec): 4.000000E-1
Scans to average: 1
Nonlinearity correction enabled: false
Boxcar width: 0
Storing dark spectrum: false
XAxis mode: Wavelengths
Number of Pixels in Spectrum: 1024
>>>>>Begin Spectral Data<<<<<
801.071	8024
801.214	8054
801.356	7822
801.499	7879
801.641	7807
801.783	7868
801.926	8001
802.068	8039
802.211	8031
802.353	7978
802.496	7852
802.638	7883
802.78	7947
802.923	7906
803.065	7856
803.208	7792
803.35	7909
803.492	8016
803.635	8069
803.777	8016
803.919	8149
804.061	8446
804.204	8126
804.346	7986
804.488	7917
804.63	8123
804.773	8027
804.915	8081
805.057	8317
805.199	8233
805.341	8290
805.483	8286
805.626	8172
805.768	8024
805.91	8157
806.052	8183
806.194	8092
806.336	8305
806.478	8107
806.62	8065
806.762	8126
806.904	8237
807.046	8404
807.188	8385
807.33	8324
807.472	8336
807.614	8183
807.756	8153
807.898	8005
808.04	7913
808.182	7940
808.324	7944
808.465	7902
808.607	8016
808.749	8115
808.891	8180
809.033	8282
809.174	8206
809.316	8077
809.458	8084
809.6	7986
809.741	8024
809.883	8077
810.025	8096
810.166	8145
810.308	8046
810.45	7978
810.591	7913
810.733	7780
810.875	7632
811.016	7510
811.158	7514
811.299	7670
811.441	7723
811.582	7685
811.724	7616
811.865	7578
812.007	7693
812.148	7651
812.29	7639
812.431	7765
812.573	7871
812.714	8050
812.855	8138
812.997	8275
813.138	8434
813.279	8191
813.421	8199
813.562	8107
813.703	7925
813.845	7894
813.986	7552
814.127	7403
814.268	7354
814.41	7202
814.551	7179
814.692	7225
814.833	7129
814.974	7110
815.115	7160
815.256	6985
815.397	6932
815.539	7008
815.68	6821
815.821	6795
815.962	6897
816.103	6829
816.244	6726
816.385	6658
816.526	6715
816.666	6521
816.807	6327
816.948	6471
817.089	6414
817.23	6414
817.371	6426
817.512	6429
817.653	6418
817.793	6376
817.934	6437
818.075	6467
818.216	6471
818.356	6407
818.497	6247
818.638	6144
818.778	6171
818.919	6106
819.06	6213
819.2	6323
819.341	6319
819.481	6380
819.622	6544
819.762	6738
819.903	6700
820.043	6601
820.184	6612
820.324	6620
820.465	6707
820.605	6677
820.746	6601
820.886	6498
821.026	6684
821.167	6681
821.307	6768
821.447	6810
821.588	6688
821.728	6616
821.868	6498
822.008	6338
822.149	6281
822.289	6407
822.429	6125
822.569	6140
822.709	6072
822.849	5973
822.99	5923
823.13	5859
823.27	5935
823.41	5813
823.55	5805
823.69	5737
823.83	5840
823.97	5684
824.11	5543
824.25	5474
824.389	5554
824.529	5570
824.669	5539
824.809	5661
824.949	5627
825.089	5619
825.228	5501
825.368	5410
825.508	5322
825.648	5277
825.787	5398
825.927	5414
826.067	5318
826.206	5284
826.346	5417
826.485	5406
826.625	5444
826.765	5570
826.904	5425
827.044	5299
827.183	5235
827.323	5090
827.462	5307
827.601	5216
827.741	5159
827.88	5239
828.02	5147
828.159	5204
828.298	5292
828.437	5330
828.577	5330
828.716	5436
828.855	5360
828.994	5174
829.134	5136
829.273	5162
829.412	5140
829.551	5143
829.69	5151
829.829	5254
829.968	5364
830.107	5261
830.246	5284
830.385	5181
830.524	5155
830.663	5098
830.802	4984
830.941	4889
831.08	4919
831.219	4995
831.357	4911
831.496	5132
831.635	4946
831.774	4877
831.913	4839
832.051	4725
832.19	4721
832.329	4866
832.467	4706
832.606	4637
832.744	4744
832.883	4733
833.022	4744
833.16	4790
833.299	4793
833.437	4843
833.576	4828
833.714	4858
833.852	4873
833.991	4915
834.129	4938
834.267	4934
834.406	4896
834.544	4984
834.682	5010
834.821	4987
834.959	5235
835.097	4972
835.235	5166
835.373	5105
835.511	5079
835.65	5022
835.788	5052
835.926	4923
836.064	4889
836.202	4942
836.34	5132
836.478	5242
836.615	5159
836.753	5193
836.891	5223
837.029	5242
837.167	5185
837.305	5117
837.443	5121
837.58	5113
837.718	5254
837.856	5143
837.993	5140
838.131	5220
838.269	5147
838.406	5185
838.544	5193
838.681	5045
838.819	5018
838.956	4850
839.094	4961
839.231	5025
839.369	5048
839.506	5425
839.643	5296
839.781	5052
839.918	4995
840.055	5113
840.193	5109
840.33	5033
840.467	5121
840.604	5204
840.742	5463
840.879	5056
841.016	5132
841.153	5166
841.29	5379
841.427	5353
841.564	5337
841.701	5410
841.838	5246
841.975	5208
842.112	5311
842.249	5140
842.385	5113
842.522	5376
842.659	5166
842.796	5178
842.933	5155
843.069	5151
843.206	5151
843.343	5258
843.479	5265
843.616	5299
843.752	4995
843.889	5029
844.025	5239
844.162	5018
844.298	5273
844.435	5098
844.571	5052
844.708	5174
844.844	5307
844.98	5368
845.117	5261
845.253	5121
845.389	5086
845.525	5151
845.661	5121
845.798	5064
845.934	5109
846.07	5018
846.206	5239
846.342	5288
846.478	5155
846.614	5003
846.75	4980
846.886	4976
847.022	5124
847.158	5033
847.294	5113
847.429	5151
847.565	5041
847.701	5360
847.837	4881
847.972	4805
848.108	4980
848.244	4976
848.379	4801
848.515	4721
848.65	4714
848.786	4710
848.921	4767
849.057	4862
849.192	4911
849.328	4782
849.463	4847
849.598	4801
849.734	4778
849.869	4679
850.004	4653
850.14	4672
850.275	4630
850.41	4577
850.545	4596
850.68	4634
850.815	4607
850.95	4656
851.085	4831
851.22	4763
851.355	4683
851.49	4672
851.625	4584
851.76	4653
851.895	4500
852.03	4535
852.165	4637
852.299	4786
852.434	4790
852.569	4755
852.703	4805
852.838	4858
852.973	4930
853.107	4900
853.242	4771
853.376	4679
853.511	4626
853.645	4603
853.78	4793
853.914	4714
854.048	4656
854.183	4634
854.317	4687
854.451	4831
854.585	4691
854.72	4649
854.854	4733
854.988	4588
855.122	4668
855.256	4550
855.39	4683
855.524	4755
855.658	4763
855.792	4687
855.926	4733
856.06	4771
856.194	4748
856.327	4675
856.461	4611
856.595	4618
856.729	4615
856.862	4774
856.996	4706
857.13	4767
857.263	4717
857.397	4835
857.53	4649
857.664	4714
857.797	4729
857.931	4786
858.064	4702
858.197	4740
858.331	4683
858.464	4668
858.597	4531
858.731	4607
858.864	4626
858.997	4637
859.13	4634
859.263	4653
859.396	4740
859.529	4596
859.662	4527
859.795	4493
859.928	4622
860.061	4740
860.194	4767
860.327	4630
860.46	4565
860.592	4683
860.725	4679
860.858	4782
860.99	4569
861.123	4500
861.256	4569
861.388	4599
861.521	5414
861.653	4516
861.786	4497
861.918	4481
862.05	4474
862.183	4569
862.315	4615
862.447	4649
862.58	4504
862.712	4421
862.844	4348
862.976	4459
863.108	4485
863.24	4782
863.372	4333
863.504	4443
863.636	4428
863.768	4451
863.9	4409
864.032	4402
864.164	4417
864.296	4447
864.428	4554
864.559	4546
864.691	4546
864.823	4538
864.954	4535
865.086	4500
865.217	4500
865.349	4424
865.48	4432
865.612	4493
865.743	4641
865.875	4478
866.006	4478
866.137	4493
866.269	4455
866.4	4394
866.531	4432
866.662	4394
866.793	4421
866.924	4409
867.055	4481
867.186	4432
867.317	4390
867.448	4383
867.579	4436
867.71	4409
867.841	4344
867.972	4459
868.103	4455
868.233	4504
868.364	4436
868.495	4466
868.625	4733
868.756	4763
868.886	4592
869.017	4656
869.147	4805
869.278	4778
869.408	4679
869.539	4656
869.669	4672
869.799	4634
869.929	4771
870.06	4755
870.19	4889
870.32	4915
870.45	4938
870.58	5056
870.71	5083
870.84	5075
870.97	4927
871.1	4904
871.23	5162
871.36	5086
871.489	5064
871.619	5098
871.749	5140
871.879	5170
872.008	5212
872.138	5064
872.267	5056
872.397	4847
872.526	4828
872.656	4740
872.785	4801
872.915	4915
873.044	4976
873.173	4949
873.303	5003
873.432	4968
873.561	4946
873.69	4942
873.819	4858
873.948	4923
874.077	4801
874.206	4744
874.335	4793
874.464	4946
874.593	5045
874.722	4968
874.851	5121
874.979	5086
875.108	5041
875.237	4892
875.365	4942
875.494	4919
875.623	4976
875.751	4793
875.88	4934
876.008	4991
876.136	5022
876.265	5250
876.393	5345
876.521	5220
876.65	5258
876.778	5159
876.906	5025
877.034	4957
877.162	5018
877.29	5018
877.418	5109
877.546	5048
877.674	5079
877.802	5029
877.93	5018
878.058	4900
878.185	4873
878.313	4927
878.441	4927
878.568	4782
878.696	4831
878.824	4919
878.951	4984
879.079	5113
879.206	5280
879.333	5109
879.461	4980
879.588	5029
879.715	5132
879.842	5250
879.97	5006
880.097	4778
880.224	4752
880.351	4809
880.478	4835
880.605	4831
880.732	4778
880.859	5033
880.986	4911
881.112	4934
881.239	4820
881.366	4679
881.493	4634
881.619	4618
881.746	4656
881.872	4622
881.999	4679
882.125	4717
882.252	4790
882.378	4870
882.505	4942
882.631	4839
882.757	4660
882.883	4717
883.01	4755
883.136	4672
883.262	4641
883.388	4634
883.514	4824
883.64	4892
883.766	4771
883.892	4660
884.018	4706
884.143	4877
884.269	5018
884.395	4672
884.52	4584
884.646	4675
884.772	4588
884.897	4630
885.023	4675
885.148	4862
885.274	4866
885.399	4824
885.524	4740
885.65	4759
885.775	4752
885.9	4725
886.025	4858
886.15	4790
886.275	4744
886.4	4721
886.525	4744
886.65	4649
886.775	4687
886.9	4885
887.025	5083
887.149	4835
887.274	4687
887.399	4569
887.523	4611
887.648	4558
887.773	4580
887.897	4790
888.021	4820
888.146	4664
888.27	4771
888.395	4892
888.519	4748
888.643	4797
888.767	4831
888.891	4656
889.015	4630
889.139	4656
889.263	4622
889.387	4717
889.511	4858
889.635	4793
889.759	4630
889.883	4599
890.006	4771
890.13	4835
890.254	4596
890.377	4664
890.501	4599
890.624	4489
890.748	4653
890.871	4546
890.995	4459
891.118	4417
891.241	4493
891.364	4519
891.488	4660
891.611	4497
891.734	4565
891.857	4588
891.98	4538
892.103	4618
892.226	4634
892.349	4516
892.471	4440
892.594	4512
892.717	4599
892.839	4596
892.962	4588
893.085	4683
893.207	4535
893.33	4466
893.452	4535
893.575	4694
893.697	4584
893.819	4767
893.941	4816
894.064	4786
894.186	4580
894.308	4538
894.43	4725
894.552	4797
894.674	4809
894.796	4565
894.918	4611
895.04	4569
895.161	4740
895.283	4656
895.405	4603
895.526	4691
895.648	4710
895.769	4694
895.891	4759
896.012	4793
896.134	4706
896.255	4626
896.376	4660
896.498	4622
896.619	4660
896.74	4618
896.861	4668
896.982	4923
897.103	5102
897.224	4824
897.345	4748
897.466	4668
897.587	4759
897.708	4854
897.828	4763
897.949	4634
898.07	4550
898.19	4641
898.311	4797
898.431	4584
898.552	4691
898.672	4797
898.792	4801
898.913	4740
899.033	4637
899.153	4538
899.273	4462
899.393	4550
899.513	4485
899.633	4485
899.753	4516
899.873	4508
899.993	4622
900.113	4489
900.232	4580
900.352	4554
900.472	4497
900.591	4421
900.711	4485
900.83	4375
900.95	4641
901.069	4702
901.189	4546
901.308	4363
901.427	4325
901.546	4432
901.665	4478
901.784	4504
901.904	4386
902.023	4344
902.141	4181
902.26	4154
902.379	4284
902.498	4219
902.617	4238
902.735	4409
902.854	4348
902.973	4371
903.091	4200
903.21	4249
903.328	4303
903.446	4329
903.565	4230
903.683	4360
903.801	4306
903.919	4405
904.038	4402
904.156	4291
904.274	4436
904.392	4413
904.51	4451
904.627	4481
904.745	4561
904.863	4656
904.981	4348
905.098	4344
905.216	4413
905.334	4436
905.451	4451
905.569	4443
905.686	4554
905.803	4546
905.921	4402
906.038	4573
906.155	4481
906.272	4432
906.389	4489
906.506	4333
906.623	4337
906.74	4398
906.857	4303
906.974	4363
907.091	4558
907.208	4672
907.324	4618
907.441	4466
907.557	4322
907.674	4375
907.79	4287
907.907	4390
908.023	4489
908.139	4451
908.256	4447
908.372	4451
908.488	4428
908.604	4356
908.72	4265
908.836	4424
908.952	4344
909.068	4421
909.184	4592
909.3	4493
909.415	4550
909.531	4558
909.647	4341
909.762	4363
909.878	4344
909.993	4424
910.108	4405
910.224	4394
910.339	4443
910.454	4394
910.57	4375
910.685	4322
910.8	4615
910.915	4626
911.03	4546
911.145	4329
911.259	4329
911.374	4390
911.489	4333
911.604	4291
911.718	4215
911.833	4192
911.947	4059
912.062	4044
912.176	4223
912.291	4223
912.405	4291
912.519	4462
912.633	4489
912.748	4352
912.862	4329
912.976	4234
913.09	4112
913.204	4200
913.318	4261
913.431	4344
913.545	4386
913.659	4421
913.772	4360
913.886	4253
914	4219
914.113	4348
914.226	4424
914.34	4390
914.453	4303
914.566	4413
914.68	4356
914.793	4341
914.906	4169
915.019	4128
915.132	4090
915.245	4192
915.358	4204
915.47	4242
915.583	4265
915.696	4287
915.809	4383
915.921	4440
916.034	4253
916.146	4223
916.259	4242
916.371	4367
916.483	4394
916.595	4265
916.708	4322
916.82	4333
916.932	4287
917.044	4314
917.156	4333
917.268	4227
917.38	4268
917.491	4314
917.603	4356
917.715	4466
917.826	4405
917.938	4371
918.049	4257
918.161	4447
918.272	4508
918.384	4558
918.495	4436
918.606	4276
918.717	4238
918.828	4356
918.939	4360
919.05	4234
919.161	4322
919.272	4173
919.383	4310
919.494	4485
919.604	4645
919.715	4481
919.826	4383
919.936	4405
920.047	4596
920.157	4451
920.267	4675
920.378	4538
920.488	4500
920.598	4729
920.708	4904
920.818	4744
920.928	4805
921.038	4946
921.148	4930
921.258	4611
921.368	4580
921.477	4519
921.587	4462
921.697	4375
921.806	4554
921.916	4413
922.025	4234
922.134	4284
922.244	4249
922.353	4318
922.462	4185
922.571	4169
922.68	3991
922.789	3998
922.898	4093
923.007	4021
923.116	4139
923.224	4071
923.333	4090
923.442	3979
923.55	4017
923.659	4067
923.767	4143
923.876	3968
923.984	4154
924.092	4002
924.201	4078
924.309	4116
924.417	4139
924.525	4071
924.633	4135
924.741	5033
924.849	3934
924.956	4116
925.064	3930
925.172	3922
925.279	3975
925.387	4078
925.494	4021
925.602	4238
925.709	4162
925.816	4029
925.924	4169
926.031	4246
926.138	4169
926.245	4185
926.352	4093
926.459	4265
926.566	4318
926.673	4162
926.779	4029
926.886	4074
926.993	3998
927.099	3953
927.206	3960
927.312	3949
927.419	4040
927.525	4010
927.631	4101
927.737	3968
927.843	3960
927.95	3827
928.056	3953
928.162	3991
928.267	4063
928.373	4660
928.479	4135
928.585	3899
928.69	4048
928.796	4093
928.901	3991
929.007	3838
929.112	4036
929.218	3972
929.323	3892
929.428	3956
929.533	4078
929.638	3884
929.743	3907
929.848	4051
929.953	3956
930.058	3956
930.163	3766
930.267	3838
930.372	3972
930.477	3816
930.581	4086
930.685	3964
930.79	3819
930.894	3888
930.998	3846
931.103	4059
931.207	3709
931.311	3679
931.415	3660
931.519	3519
931.623	3557
