Data from test_V78500241_443.txt Node
Date: Fri Mar 25 16:52:04 CST 2022
User: usil
Spectrometer: V785-0024
Trigger mode: 0
Integration Time (sec): 4.000000E-1
Scans to average: 1
Nonlinearity correction enabled: false
Boxcar width: 0
Storing dark spectrum: false
XAxis mode: Wavelengths
Number of Pixels in Spectrum: 1024
>>>>>Begin Spectral Data<<<<<
801.071	8058
801.214	8027
801.356	7944
801.499	7868
801.641	7799
801.783	7852
801.926	8012
802.068	7970
802.211	8008
802.353	7963
802.496	7830
802.638	7826
802.78	7925
802.923	7887
803.065	7856
803.208	7875
803.35	7989
803.492	8012
803.635	8115
803.777	8043
803.919	8115
804.061	8385
804.204	8157
804.346	7993
804.488	7890
804.63	8062
804.773	8005
804.915	8103
805.057	8336
805.199	8176
805.341	8237
805.483	8263
805.626	8092
805.768	8031
805.91	8134
806.052	8157
806.194	8130
806.336	8282
806.478	8103
806.62	8142
806.762	8161
806.904	8263
807.046	8419
807.188	8339
807.33	8229
807.472	8279
807.614	8164
807.756	8176
807.898	8005
808.04	7864
808.182	7898
808.324	7947
808.465	7955
808.607	8005
808.749	8168
808.891	8202
809.033	8305
809.174	8218
809.316	8100
809.458	8073
809.6	7883
809.741	8073
809.883	8065
810.025	8134
810.166	8103
810.308	8077
810.45	8043
810.591	7761
810.733	7784
810.875	7677
811.016	7540
811.158	7502
811.299	7681
811.441	7761
811.582	7712
811.724	7590
811.865	7575
812.007	7662
812.148	7578
812.29	7590
812.431	7792
812.573	7951
812.714	8020
812.855	8237
812.997	8279
813.138	8366
813.279	8271
813.421	8115
813.562	8031
813.703	7959
813.845	7772
813.986	7480
814.127	7396
814.268	7324
814.41	7244
814.551	7202
814.692	7285
814.833	7107
814.974	7164
815.115	7088
815.256	6954
815.397	6916
815.539	6890
815.68	6757
815.821	6738
815.962	6871
816.103	6844
816.244	6772
816.385	6639
816.526	6642
816.666	6585
816.807	6388
816.948	6448
817.089	6452
817.23	6445
817.371	6380
817.512	6403
817.653	6399
817.793	6365
817.934	6456
818.075	6456
818.216	6490
818.356	6391
818.497	6243
818.638	6125
818.778	6102
818.919	6121
819.06	6106
819.2	6357
819.341	6308
819.481	6361
819.622	6525
819.762	6795
819.903	6734
820.043	6593
820.184	6555
820.324	6601
820.465	6662
820.605	6665
820.746	6669
820.886	6532
821.026	6650
821.167	6684
821.307	6776
821.447	6726
821.588	6665
821.728	6604
821.868	6486
822.008	6350
822.149	6350
822.289	6361
822.429	6136
822.569	6117
822.709	6155
822.849	5893
822.99	5935
823.13	5908
823.27	5961
823.41	5756
823.55	5798
823.69	5752
823.83	5794
823.97	5748
824.11	5539
824.25	5535
824.389	5558
824.529	5566
824.669	5539
824.809	5646
824.949	5642
825.089	5596
825.228	5505
825.368	5368
825.508	5326
825.648	5368
825.787	5376
825.927	5410
826.067	5318
826.206	5292
826.346	5379
826.485	5440
826.625	5425
826.765	5547
826.904	5478
827.044	5288
827.183	5197
827.323	5185
827.462	5284
827.601	5159
827.741	5159
827.88	5220
828.02	5083
828.159	5223
828.298	5299
828.437	5318
828.577	5296
828.716	5474
828.855	5315
828.994	5147
829.134	5193
829.273	5166
829.412	5109
829.551	5147
829.69	5140
829.829	5212
829.968	5357
830.107	5261
830.246	5303
830.385	5147
830.524	5170
830.663	5098
830.802	4987
830.941	4930
831.08	4892
831.219	5006
831.357	4961
831.496	5155
831.635	4957
831.774	4839
831.913	4850
832.051	4793
832.19	4736
832.329	4850
832.467	4683
832.606	4641
832.744	4702
832.883	4698
833.022	4683
833.16	4801
833.299	4847
833.437	4755
833.576	4843
833.714	4858
833.852	4866
833.991	4919
834.129	4900
834.267	5003
834.406	4915
834.544	4961
834.682	4987
834.821	4991
834.959	5159
835.097	4949
835.235	5143
835.373	5102
835.511	5117
835.65	5003
835.788	5003
835.926	4892
836.064	4870
836.202	4930
836.34	5181
836.478	5216
836.615	5124
836.753	5208
836.891	5273
837.029	5239
837.167	5185
837.305	5155
837.443	5113
837.58	5041
837.718	5254
837.856	5162
837.993	5140
838.131	5220
838.269	5311
838.406	5227
838.544	5204
838.681	5018
838.819	5029
838.956	4889
839.094	4904
839.231	4976
839.369	5060
839.506	5417
839.643	5250
839.781	5094
839.918	4961
840.055	5067
840.193	5064
840.33	5124
840.467	5151
840.604	5178
840.742	5455
840.879	5067
841.016	5086
841.153	5178
841.29	5379
841.427	5376
841.564	5307
841.701	5360
841.838	5357
841.975	5265
842.112	5254
842.249	5185
842.385	5124
842.522	5337
842.659	5159
842.796	5181
842.933	5208
843.069	5189
843.206	5132
843.343	5299
843.479	5197
843.616	5318
843.752	5037
843.889	4995
844.025	5178
844.162	5048
844.298	5239
844.435	5079
844.571	5045
844.708	5239
844.844	5292
844.98	5326
845.117	5273
845.253	5166
845.389	5086
845.525	5147
845.661	5155
845.798	5060
845.934	5132
846.07	5033
846.206	5204
846.342	5288
846.478	5143
846.614	5045
846.75	4987
846.886	4919
847.022	5136
847.158	5010
847.294	5098
847.429	5075
847.565	5048
847.701	5318
847.837	4900
847.972	4790
848.108	4927
848.244	4957
848.379	4831
848.515	4725
848.65	4740
848.786	4740
848.921	4763
849.057	4839
849.192	4858
849.328	4824
849.463	4820
849.598	4839
849.734	4774
849.869	4679
850.004	4672
850.14	4672
850.275	4653
850.41	4538
850.545	4523
850.68	4588
850.815	4675
850.95	4569
851.085	4828
851.22	4729
851.355	4668
851.49	4615
851.625	4672
851.76	4683
851.895	4546
852.03	4558
852.165	4641
852.299	4717
852.434	4778
852.569	4759
852.703	4797
852.838	4858
852.973	4953
853.107	4934
853.242	4752
853.376	4714
853.511	4546
853.645	4596
853.78	4820
853.914	4725
854.048	4717
854.183	4622
854.317	4721
854.451	4877
854.585	4736
854.72	4656
854.854	4793
854.988	4546
855.122	4630
855.256	4481
855.39	4649
855.524	4725
855.658	4698
855.792	4717
855.926	4679
856.06	4752
856.194	4771
856.327	4691
856.461	4573
856.595	4653
856.729	4626
856.862	4763
856.996	4679
857.13	4755
857.263	4744
857.397	4809
857.53	4683
857.664	4687
857.797	4782
857.931	4744
858.064	4687
858.197	4702
858.331	4672
858.464	4596
858.597	4527
858.731	4615
858.864	4611
858.997	4599
859.13	4691
859.263	4683
859.396	4729
859.529	4584
859.662	4554
859.795	4584
859.928	4611
860.061	4740
860.194	4809
860.327	4622
860.46	4615
860.592	4691
860.725	4721
860.858	4698
860.99	4569
861.123	4535
861.256	4542
861.388	4641
861.521	5417
861.653	4451
861.786	4470
861.918	4462
862.05	4489
862.183	4584
862.315	4561
862.447	4645
862.58	4554
862.712	4360
862.844	4306
862.976	4470
863.108	4478
863.24	4805
863.372	4333
863.504	4451
863.636	4428
863.768	4474
863.9	4470
864.032	4409
864.164	4402
864.296	4474
864.428	4516
864.559	4577
864.691	4512
864.823	4546
864.954	4512
865.086	4531
865.217	4470
865.349	4470
865.48	4466
865.612	4481
865.743	4653
865.875	4413
866.006	4459
866.137	4516
866.269	4413
866.4	4443
866.531	4424
866.662	4390
866.793	4440
866.924	4443
867.055	4440
867.186	4466
867.317	4451
867.448	4360
867.579	4386
867.71	4405
867.841	4379
867.972	4466
868.103	4474
868.233	4466
868.364	4474
868.495	4462
868.625	4626
868.756	4729
868.886	4523
869.017	4645
869.147	4774
869.278	4790
869.408	4660
869.539	4649
869.669	4710
869.799	4634
869.929	4786
870.06	4748
870.19	4961
870.32	4972
870.45	4889
870.58	5010
870.71	5060
870.84	5128
870.97	4942
871.1	4938
871.23	5124
871.36	5159
871.489	5018
871.619	5094
871.749	5037
871.879	5128
872.008	5220
872.138	5098
872.267	5022
872.397	4812
872.526	4824
872.656	4729
872.785	4797
872.915	4942
873.044	5003
873.173	4942
873.303	4984
873.432	4923
873.561	4953
873.69	4892
873.819	4870
873.948	4873
874.077	4793
874.206	4782
874.335	4797
874.464	4949
874.593	5083
874.722	4991
874.851	5155
874.979	5079
875.108	5045
875.237	4961
875.365	4850
875.494	4908
875.623	4961
875.751	4786
875.88	4915
876.008	4984
876.136	5041
876.265	5235
876.393	5360
876.521	5208
876.65	5223
876.778	5181
876.906	5113
877.034	5025
877.162	5018
877.29	5014
877.418	5037
877.546	5033
877.674	5083
877.802	5006
877.93	4991
878.058	4938
878.185	4866
878.313	4972
878.441	4991
878.568	4786
878.696	4850
878.824	4984
878.951	5025
879.079	5166
879.206	5269
879.333	5140
879.461	4995
879.588	5041
879.715	5143
879.842	5239
879.97	4987
880.097	4805
880.224	4717
880.351	4786
880.478	4828
880.605	4748
880.732	4793
880.859	5105
880.986	4877
881.112	4904
881.239	4786
881.366	4626
881.493	4630
881.619	4558
881.746	4618
881.872	4694
881.999	4656
882.125	4698
882.252	4828
882.378	4801
882.505	4995
882.631	4812
882.757	4672
882.883	4755
883.01	4736
883.136	4668
883.262	4607
883.388	4599
883.514	4797
883.64	4862
883.766	4809
883.892	4706
884.018	4733
884.143	4866
884.269	5010
884.395	4698
884.52	4622
884.646	4710
884.772	4580
884.897	4550
885.023	4634
885.148	4805
885.274	4850
885.399	4820
885.524	4771
885.65	4660
885.775	4774
885.9	4717
886.025	4847
886.15	4729
886.275	4790
886.4	4679
886.525	4710
886.65	4675
886.775	4702
886.9	4911
887.025	4999
887.149	4820
887.274	4645
887.399	4618
887.523	4588
887.648	4538
887.773	4618
887.897	4759
888.021	4771
888.146	4702
888.27	4782
888.395	4915
888.519	4771
888.643	4843
888.767	4797
888.891	4729
889.015	4607
889.139	4672
889.263	4577
889.387	4805
889.511	4923
889.635	4767
889.759	4649
889.883	4634
890.006	4790
890.13	4858
890.254	4630
890.377	4607
890.501	4561
890.624	4481
890.748	4645
890.871	4489
890.995	4443
891.118	4424
891.241	4455
891.364	4584
891.488	4565
891.611	4516
891.734	4558
891.857	4592
891.98	4546
892.103	4649
892.226	4584
892.349	4554
892.471	4436
892.594	4550
892.717	4622
892.839	4626
892.962	4531
893.085	4683
893.207	4596
893.33	4485
893.452	4527
893.575	4664
893.697	4607
893.819	4824
893.941	4843
894.064	4793
894.186	4542
894.308	4618
894.43	4698
894.552	4816
894.674	4736
894.796	4542
894.918	4626
895.04	4580
895.161	4725
895.283	4656
895.405	4603
895.526	4660
895.648	4664
895.769	4706
895.891	4748
896.012	4733
896.134	4755
896.255	4630
896.376	4626
896.498	4607
896.619	4637
896.74	4615
896.861	4653
896.982	4923
897.103	5052
897.224	4801
897.345	4698
897.466	4645
897.587	4744
897.708	4877
897.828	4748
897.949	4717
898.07	4573
898.19	4645
898.311	4809
898.431	4664
898.552	4710
898.672	4786
898.792	4793
898.913	4767
899.033	4592
899.153	4500
899.273	4443
899.393	4489
899.513	4504
899.633	4516
899.753	4550
899.873	4485
899.993	4584
900.113	4546
900.232	4538
900.352	4538
900.472	4478
900.591	4421
900.711	4485
900.83	4493
900.95	4584
901.069	4698
901.189	4527
901.308	4398
901.427	4276
901.546	4402
901.665	4504
901.784	4516
901.904	4390
902.023	4314
902.141	4147
902.26	4158
902.379	4295
902.498	4261
902.617	4219
902.735	4398
902.854	4409
902.973	4333
903.091	4246
903.21	4257
903.328	4325
903.446	4246
903.565	4242
903.683	4363
903.801	4303
903.919	4386
904.038	4474
904.156	4348
904.274	4470
904.392	4379
904.51	4432
904.627	4459
904.745	4588
904.863	4660
904.981	4367
905.098	4371
905.216	4470
905.334	4443
905.451	4455
905.569	4462
905.686	4519
905.803	4634
905.921	4432
906.038	4580
906.155	4519
906.272	4421
906.389	4561
906.506	4394
906.623	4363
906.74	4481
906.857	4356
906.974	4424
907.091	4607
907.208	4706
907.324	4687
907.441	4519
907.557	4360
907.674	4360
907.79	4318
907.907	4451
908.023	4546
908.139	4493
908.256	4455
908.372	4531
908.488	4516
908.604	4402
908.72	4375
908.836	4413
908.952	4402
909.068	4485
909.184	4637
909.3	4508
909.415	4615
909.531	4630
909.647	4413
909.762	4413
909.878	4405
909.993	4531
910.108	4440
910.224	4455
910.339	4500
910.454	4466
910.57	4390
910.685	4344
910.8	4683
910.915	4672
911.03	4618
911.145	4352
911.259	4352
911.374	4424
911.489	4325
911.604	4363
911.718	4211
911.833	4249
911.947	4169
912.062	4116
912.176	4249
912.291	4265
912.405	4310
912.519	4550
912.633	4569
912.748	4424
912.862	4375
912.976	4253
913.09	4162
913.204	4242
913.318	4276
913.431	4451
913.545	4455
913.659	4478
913.772	4394
913.886	4314
914	4272
914.113	4409
914.226	4474
914.34	4421
914.453	4234
914.566	4474
914.68	4398
914.793	4348
914.906	4207
915.019	4169
915.132	4116
915.245	4192
915.358	4268
915.47	4246
915.583	4299
915.696	4379
915.809	4459
915.921	4478
916.034	4287
916.146	4325
916.259	4265
916.371	4402
916.483	4379
916.595	4295
916.708	4375
916.82	4329
916.932	4352
917.044	4436
917.156	4344
917.268	4344
917.38	4295
917.491	4287
917.603	4379
917.715	4497
917.826	4421
917.938	4413
918.049	4306
918.161	4440
918.272	4558
918.384	4527
918.495	4508
918.606	4341
918.717	4303
918.828	4379
918.939	4428
919.05	4306
919.161	4360
919.272	4169
919.383	4363
919.494	4462
919.604	4706
919.715	4489
919.826	4421
919.936	4451
920.047	4519
920.157	4561
920.267	4752
920.378	4588
920.488	4577
920.598	4767
920.708	4938
920.818	4801
920.928	4812
921.038	5010
921.148	4968
921.258	4679
921.368	4592
921.477	4573
921.587	4558
921.697	4436
921.806	4603
921.916	4459
922.025	4341
922.134	4333
922.244	4242
922.353	4360
922.462	4200
922.571	4188
922.68	4032
922.789	4002
922.898	4101
923.007	4029
923.116	4143
923.224	4074
923.333	4147
923.442	3987
923.55	4006
923.659	4078
923.767	4196
923.876	4025
923.984	4166
924.092	4055
924.201	4082
924.309	4139
924.417	4173
924.525	4074
924.633	4166
924.741	5109
924.849	4029
924.956	4188
925.064	3998
925.172	3937
925.279	4017
925.387	4139
925.494	4078
925.602	4253
925.709	4249
925.816	4040
925.924	4181
926.031	4284
926.138	4230
926.245	4234
926.352	4135
926.459	4276
926.566	4337
926.673	4215
926.779	4147
926.886	4158
926.993	4040
927.099	3972
927.206	3972
927.312	4051
927.419	4124
927.525	4154
927.631	4139
927.737	4017
927.843	4010
927.95	3899
928.056	4017
928.162	4067
928.267	4093
928.373	4752
928.479	4158
928.585	3926
928.69	4017
928.796	4105
928.901	4086
929.007	3922
929.112	4010
929.218	4017
929.323	3972
929.428	4036
929.533	4139
929.638	3979
929.743	4002
929.848	4082
929.953	4078
930.058	4025
930.163	3800
930.267	3857
930.372	4029
930.477	3896
930.581	4109
930.685	4029
930.79	3869
930.894	3945
930.998	3892
931.103	4048
931.207	3747
931.311	3720
931.415	3740
931.519	3557
931.623	3610
