Data from test_V78500241_702.txt Node
Date: Fri Mar 25 16:53:52 CST 2022
User: usil
Spectrometer: V785-0024
Trigger mode: 0
Integration Time (sec): 4.000000E-1
Scans to average: 1
Nonlinearity correction enabled: false
Boxcar width: 0
Storing dark spectrum: false
XAxis mode: Wavelengths
Number of Pixels in Spectrum: 1024
>>>>>Begin Spectral Data<<<<<
801.071	8008
801.214	7967
801.356	7932
801.499	7795
801.641	7750
801.783	7845
801.926	7982
802.068	7902
802.211	8012
802.353	7989
802.496	7879
802.638	7887
802.78	7909
802.923	7894
803.065	7841
803.208	7841
803.35	8001
803.492	8111
803.635	8180
803.777	8024
803.919	8145
804.061	8351
804.204	8100
804.346	8024
804.488	7993
804.63	8096
804.773	8020
804.915	8058
805.057	8195
805.199	8134
805.341	8149
805.483	8237
805.626	8202
805.768	8081
805.91	8142
806.052	8180
806.194	8161
806.336	8218
806.478	8142
806.62	8069
806.762	8111
806.904	8240
807.046	8457
807.188	8339
807.33	8233
807.472	8419
807.614	8161
807.756	8130
807.898	7879
808.04	7860
808.182	7856
808.324	7898
808.465	7944
808.607	8024
808.749	8065
808.891	8138
809.033	8229
809.174	8115
809.316	8031
809.458	8058
809.6	7913
809.741	7970
809.883	8046
810.025	8142
810.166	8043
810.308	8027
810.45	8054
810.591	7913
810.733	7643
810.875	7662
811.016	7533
811.158	7491
811.299	7548
811.441	7677
811.582	7666
811.724	7571
811.865	7453
812.007	7578
812.148	7525
812.29	7590
812.431	7693
812.573	7776
812.714	7951
812.855	8096
812.997	8191
813.138	8248
813.279	8168
813.421	8176
813.562	7978
813.703	7868
813.845	7738
813.986	7426
814.127	7247
814.268	7206
814.41	7194
814.551	7099
814.692	7095
814.833	7008
814.974	7034
815.115	7072
815.256	7000
815.397	6916
815.539	6977
815.68	6863
815.821	6852
815.962	6848
816.103	6844
816.244	6734
816.385	6601
816.526	6612
816.666	6536
816.807	6334
816.948	6471
817.089	6418
817.23	6399
817.371	6323
817.512	6384
817.653	6376
817.793	6410
817.934	6388
818.075	6426
818.216	6448
818.356	6285
818.497	6216
818.638	6136
818.778	6129
818.919	6098
819.06	6133
819.2	6331
819.341	6292
819.481	6331
819.622	6513
819.762	6738
819.903	6700
820.043	6551
820.184	6517
820.324	6506
820.465	6635
820.605	6620
820.746	6578
820.886	6479
821.026	6601
821.167	6662
821.307	6760
821.447	6730
821.588	6722
821.728	6494
821.868	6414
822.008	6311
822.149	6323
822.289	6300
822.429	6121
822.569	6053
822.709	6095
822.849	5855
822.99	5885
823.13	5882
823.27	5946
823.41	5809
823.55	5798
823.69	5726
823.83	5832
823.97	5642
824.11	5539
824.25	5497
824.389	5562
824.529	5600
824.669	5512
824.809	5615
824.949	5627
825.089	5604
825.228	5585
825.368	5398
825.508	5318
825.648	5261
825.787	5402
825.927	5315
826.067	5303
826.206	5235
826.346	5353
826.485	5307
826.625	5349
826.765	5471
826.904	5463
827.044	5246
827.183	5220
827.323	5105
827.462	5223
827.601	5151
827.741	5147
827.88	5227
828.02	5071
828.159	5193
828.298	5288
828.437	5318
828.577	5246
828.716	5391
828.855	5311
828.994	5147
829.134	5151
829.273	5170
829.412	5147
829.551	5151
829.69	5117
829.829	5246
829.968	5349
830.107	5261
830.246	5273
830.385	5174
830.524	5132
830.663	5064
830.802	4972
830.941	4843
831.08	4885
831.219	4980
831.357	4976
831.496	5136
831.635	4930
831.774	4847
831.913	4801
832.051	4714
832.19	4710
832.329	4816
832.467	4752
832.606	4592
832.744	4717
832.883	4698
833.022	4683
833.16	4831
833.299	4816
833.437	4828
833.576	4858
833.714	4900
833.852	4839
833.991	4923
834.129	4919
834.267	4923
834.406	4930
834.544	4938
834.682	4972
834.821	4930
834.959	5143
835.097	5010
835.235	5124
835.373	5045
835.511	5045
835.65	4999
835.788	4991
835.926	4866
836.064	4862
836.202	4889
836.34	5197
836.478	5273
836.615	5083
836.753	5239
836.891	5269
837.029	5269
837.167	5174
837.305	5143
837.443	5143
837.58	5083
837.718	5239
837.856	5147
837.993	5143
838.131	5140
838.269	5124
838.406	5220
838.544	5189
838.681	5018
838.819	5041
838.956	4847
839.094	4877
839.231	4923
839.369	5090
839.506	5414
839.643	5216
839.781	5086
839.918	5010
840.055	5132
840.193	5075
840.33	5124
840.467	5090
840.604	5201
840.742	5444
840.879	5086
841.016	5045
841.153	5143
841.29	5376
841.427	5288
841.564	5330
841.701	5368
841.838	5307
841.975	5212
842.112	5246
842.249	5174
842.385	5033
842.522	5337
842.659	5140
842.796	5166
842.933	5185
843.069	5105
843.206	5117
843.343	5227
843.479	5269
843.616	5223
843.752	5003
843.889	5025
844.025	5201
844.162	5052
844.298	5212
844.435	5060
844.571	5064
844.708	5216
844.844	5246
844.98	5379
845.117	5254
845.253	5208
845.389	5060
845.525	5174
845.661	5117
845.798	5048
845.934	5166
846.07	5109
846.206	5109
846.342	5189
846.478	5208
846.614	5014
846.75	4942
846.886	4946
847.022	5147
847.158	5037
847.294	5041
847.429	5124
847.565	4980
847.701	5292
847.837	4835
847.972	4767
848.108	4972
848.244	4934
848.379	4797
848.515	4706
848.65	4744
848.786	4748
848.921	4763
849.057	4847
849.192	4850
849.328	4816
849.463	4873
849.598	4771
849.734	4755
849.869	4733
850.004	4618
850.14	4672
850.275	4561
850.41	4497
850.545	4588
850.68	4592
850.815	4584
850.95	4588
851.085	4816
851.22	4733
851.355	4675
851.49	4565
851.625	4664
851.76	4653
851.895	4504
852.03	4569
852.165	4596
852.299	4729
852.434	4740
852.569	4702
852.703	4793
852.838	4824
852.973	4911
853.107	4877
853.242	4759
853.376	4733
853.511	4519
853.645	4592
853.78	4793
853.914	4672
854.048	4630
854.183	4622
854.317	4656
854.451	4797
854.585	4668
854.72	4592
854.854	4782
854.988	4577
855.122	4634
855.256	4531
855.39	4672
855.524	4790
855.658	4691
855.792	4702
855.926	4721
856.06	4759
856.194	4797
856.327	4668
856.461	4649
856.595	4634
856.729	4596
856.862	4748
856.996	4721
857.13	4660
857.263	4744
857.397	4774
857.53	4679
857.664	4691
857.797	4774
857.931	4797
858.064	4660
858.197	4710
858.331	4603
858.464	4637
858.597	4516
858.731	4649
858.864	4637
858.997	4626
859.13	4630
859.263	4679
859.396	4748
859.529	4588
859.662	4569
859.795	4542
859.928	4622
860.061	4767
860.194	4752
860.327	4588
860.46	4577
860.592	4664
860.725	4660
860.858	4706
860.99	4577
861.123	4535
861.256	4497
861.388	4634
861.521	5284
861.653	4474
861.786	4417
861.918	4436
862.05	4527
862.183	4558
862.315	4558
862.447	4691
862.58	4554
862.712	4402
862.844	4329
862.976	4462
863.108	4474
863.24	4858
863.372	4390
863.504	4398
863.636	4360
863.768	4470
863.9	4436
864.032	4360
864.164	4432
864.296	4508
864.428	4554
864.559	4523
864.691	4523
864.823	4512
864.954	4459
865.086	4489
865.217	4451
865.349	4371
865.48	4440
865.612	4466
865.743	4641
865.875	4417
866.006	4421
866.137	4443
866.269	4383
866.4	4421
866.531	4417
866.662	4360
866.793	4383
866.924	4394
867.055	4459
867.186	4413
867.317	4371
867.448	4375
867.579	4394
867.71	4398
867.841	4356
867.972	4424
868.103	4436
868.233	4447
868.364	4470
868.495	4500
868.625	4668
868.756	4725
868.886	4588
869.017	4626
869.147	4725
869.278	4797
869.408	4641
869.539	4615
869.669	4694
869.799	4649
869.929	4729
870.06	4714
870.19	4946
870.32	4919
870.45	4980
870.58	5018
870.71	5105
870.84	5067
870.97	4942
871.1	4904
871.23	5159
871.36	5102
871.489	4984
871.619	5071
871.749	5121
871.879	5079
872.008	5140
872.138	5067
872.267	4968
872.397	4820
872.526	4809
872.656	4736
872.785	4793
872.915	4930
873.044	5029
873.173	4908
873.303	4900
873.432	4949
873.561	4949
873.69	4854
873.819	4847
873.948	4877
874.077	4812
874.206	4710
874.335	4771
874.464	4911
874.593	5056
874.722	4930
874.851	5025
874.979	4961
875.108	4987
875.237	4889
875.365	4854
875.494	4892
875.623	4991
875.751	4858
875.88	4862
876.008	4976
876.136	5037
876.265	5185
876.393	5280
876.521	5216
876.65	5223
876.778	5155
876.906	5052
877.034	5018
877.162	5029
877.29	4968
877.418	5006
877.546	5041
877.674	5025
877.802	4980
877.93	4991
878.058	4934
878.185	4881
878.313	4938
878.441	4934
878.568	4736
878.696	4824
878.824	4915
878.951	4987
879.079	5094
879.206	5277
879.333	5067
879.461	4938
879.588	4984
879.715	5132
879.842	5227
879.97	5010
880.097	4809
880.224	4714
880.351	4778
880.478	4801
880.605	4740
880.732	4839
880.859	5067
880.986	4923
881.112	4923
881.239	4717
881.366	4656
881.493	4588
881.619	4538
881.746	4596
881.872	4656
881.999	4622
882.125	4733
882.252	4759
882.378	4839
882.505	4957
882.631	4801
882.757	4687
882.883	4706
883.01	4687
883.136	4634
883.262	4588
883.388	4554
883.514	4831
883.64	4908
883.766	4816
883.892	4649
884.018	4774
884.143	4942
884.269	5045
884.395	4649
884.52	4668
884.646	4660
884.772	4592
884.897	4603
885.023	4706
885.148	4778
885.274	4839
885.399	4786
885.524	4755
885.65	4744
885.775	4748
885.9	4691
886.025	4812
886.15	4763
886.275	4733
886.4	4729
886.525	4767
886.65	4687
886.775	4740
886.9	4934
887.025	5060
887.149	4854
887.274	4687
887.399	4618
887.523	4664
887.648	4561
887.773	4653
887.897	4755
888.021	4816
888.146	4725
888.27	4835
888.395	4923
888.519	4873
888.643	4831
888.767	4862
888.891	4733
889.015	4607
889.139	4668
889.263	4653
889.387	4790
889.511	4946
889.635	4824
889.759	4622
889.883	4664
890.006	4778
890.13	4900
890.254	4660
890.377	4748
890.501	4573
890.624	4527
890.748	4622
890.871	4531
890.995	4424
891.118	4394
891.241	4550
891.364	4630
891.488	4630
891.611	4527
891.734	4599
891.857	4660
891.98	4596
892.103	4717
892.226	4653
892.349	4550
892.471	4436
892.594	4558
892.717	4630
892.839	4615
892.962	4588
893.085	4717
893.207	4615
893.33	4493
893.452	4550
893.575	4694
893.697	4607
893.819	4816
893.941	4812
894.064	4812
894.186	4603
894.308	4584
894.43	4736
894.552	4873
894.674	4786
894.796	4565
894.918	4637
895.04	4599
895.161	4748
895.283	4706
895.405	4626
895.526	4645
895.648	4687
895.769	4714
895.891	4755
896.012	4778
896.134	4748
896.255	4653
896.376	4691
896.498	4645
896.619	4687
896.74	4679
896.861	4694
896.982	4942
897.103	5132
897.224	4885
897.345	4683
897.466	4694
897.587	4774
897.708	4889
897.828	4812
897.949	4790
898.07	4622
898.19	4683
898.311	4797
898.431	4668
898.552	4736
898.672	4885
898.792	4839
898.913	4755
899.033	4634
899.153	4554
899.273	4466
899.393	4542
899.513	4599
899.633	4497
899.753	4596
899.873	4569
899.993	4607
900.113	4561
900.232	4630
900.352	4569
900.472	4535
900.591	4428
900.711	4550
900.83	4470
900.95	4607
901.069	4740
901.189	4546
901.308	4363
901.427	4360
901.546	4405
901.665	4459
901.784	4573
901.904	4417
902.023	4325
902.141	4238
902.26	4181
902.379	4344
902.498	4272
902.617	4303
902.735	4413
902.854	4424
902.973	4367
903.091	4207
903.21	4234
903.328	4322
903.446	4299
903.565	4257
903.683	4367
903.801	4276
903.919	4424
904.038	4451
904.156	4322
904.274	4417
904.392	4455
904.51	4424
904.627	4485
904.745	4596
904.863	4649
904.981	4424
905.098	4386
905.216	4390
905.334	4436
905.451	4478
905.569	4447
905.686	4615
905.803	4603
905.921	4462
906.038	4588
906.155	4500
906.272	4436
906.389	4459
906.506	4402
906.623	4398
906.74	4413
906.857	4356
906.974	4421
907.091	4611
907.208	4725
907.324	4660
907.441	4493
907.557	4344
907.674	4352
907.79	4360
907.907	4413
908.023	4516
908.139	4500
908.256	4443
908.372	4497
908.488	4459
908.604	4409
908.72	4303
908.836	4417
908.952	4394
909.068	4497
909.184	4588
909.3	4535
909.415	4630
909.531	4607
909.647	4394
909.762	4383
909.878	4367
909.993	4485
910.108	4428
910.224	4470
910.339	4485
910.454	4398
910.57	4390
910.685	4367
910.8	4675
910.915	4615
911.03	4493
911.145	4379
911.259	4322
911.374	4352
911.489	4303
911.604	4322
911.718	4219
911.833	4181
911.947	4067
912.062	4074
912.176	4238
912.291	4306
912.405	4306
912.519	4512
912.633	4554
912.748	4424
912.862	4383
912.976	4219
913.09	4169
913.204	4219
913.318	4246
913.431	4436
913.545	4383
913.659	4451
913.772	4375
913.886	4268
914	4272
914.113	4367
914.226	4443
914.34	4447
914.453	4299
914.566	4440
914.68	4333
914.793	4402
914.906	4166
915.019	4192
915.132	4078
915.245	4230
915.358	4238
915.47	4261
915.583	4265
915.696	4325
915.809	4424
915.921	4428
916.034	4348
916.146	4253
916.259	4295
916.371	4394
916.483	4360
916.595	4291
916.708	4352
916.82	4363
916.932	4360
917.044	4348
917.156	4356
917.268	4261
917.38	4310
917.491	4337
917.603	4348
917.715	4440
917.826	4459
917.938	4402
918.049	4325
918.161	4424
918.272	4561
918.384	4580
918.495	4466
918.606	4329
918.717	4276
918.828	4341
918.939	4383
919.05	4276
919.161	4333
919.272	4154
919.383	4215
919.494	4421
919.604	4653
919.715	4481
919.826	4413
919.936	4440
920.047	4535
920.157	4489
920.267	4721
920.378	4542
920.488	4550
920.598	4755
920.708	4938
920.818	4725
920.928	4793
921.038	5018
921.148	4938
921.258	4645
921.368	4546
921.477	4500
921.587	4508
921.697	4383
921.806	4626
921.916	4478
922.025	4310
922.134	4284
922.244	4234
922.353	4352
922.462	4177
922.571	4128
922.68	4025
922.789	4029
922.898	4090
923.007	3979
923.116	4185
923.224	4051
923.333	4105
923.442	4051
923.55	4063
923.659	4029
923.767	4143
923.876	4021
923.984	4128
924.092	4025
924.201	4097
924.309	4135
924.417	4109
924.525	4059
924.633	4158
924.741	5048
924.849	3922
924.956	4192
925.064	3975
925.172	3960
925.279	3991
925.387	4101
925.494	4090
925.602	4242
925.709	4215
925.816	4082
925.924	4169
926.031	4238
926.138	4188
926.245	4200
926.352	4112
926.459	4253
926.566	4318
926.673	4135
926.779	4109
926.886	4162
926.993	4048
927.099	3960
927.206	3968
927.312	3937
927.419	4063
927.525	4063
927.631	4101
927.737	3998
927.843	3975
927.95	3873
928.056	4006
928.162	3994
928.267	4109
928.373	4710
928.479	4169
928.585	3880
928.69	4025
928.796	4101
928.901	3968
929.007	3854
929.112	4082
929.218	4025
929.323	3922
929.428	3968
929.533	4131
929.638	3922
929.743	3964
929.848	4112
929.953	3972
930.058	3915
930.163	3793
930.267	3842
930.372	3975
930.477	3812
930.581	4109
930.685	3972
930.79	3884
930.894	3918
930.998	3850
931.103	4048
931.207	3736
931.311	3724
931.415	3679
931.519	3534
931.623	3557
