Data from test_V78500241_1920.txt Node
Date: Fri Mar 25 17:02:21 CST 2022
User: usil
Spectrometer: V785-0024
Trigger mode: 0
Integration Time (sec): 4.000000E-1
Scans to average: 1
Nonlinearity correction enabled: false
Boxcar width: 0
Storing dark spectrum: false
XAxis mode: Wavelengths
Number of Pixels in Spectrum: 1024
>>>>>Begin Spectral Data<<<<<
801.071	7970
801.214	7963
801.356	7864
801.499	7845
801.641	7772
801.783	7803
801.926	8020
802.068	7868
802.211	7944
802.353	7978
802.496	7818
802.638	7780
802.78	7913
802.923	7887
803.065	7875
803.208	7799
803.35	7955
803.492	7997
803.635	8123
803.777	7974
803.919	8138
804.061	8499
804.204	8153
804.346	8088
804.488	7967
804.63	8046
804.773	7951
804.915	8107
805.057	8252
805.199	8081
805.341	8221
805.483	8183
805.626	8202
805.768	8142
805.91	8206
806.052	8168
806.194	8134
806.336	8248
806.478	8081
806.62	8027
806.762	8157
806.904	8271
807.046	8461
807.188	8427
807.33	8355
807.472	8343
807.614	8206
807.756	8084
807.898	8005
808.04	7845
808.182	7921
808.324	7879
808.465	7982
808.607	8062
808.749	8046
808.891	8240
809.033	8298
809.174	8206
809.316	8115
809.458	8020
809.6	8043
809.741	8020
809.883	8058
810.025	8084
810.166	8046
810.308	8020
810.45	7940
810.591	7750
810.733	7719
810.875	7708
811.016	7544
811.158	7460
811.299	7624
811.441	7738
811.582	7681
811.724	7525
811.865	7575
812.007	7677
812.148	7578
812.29	7628
812.431	7769
812.573	7864
812.714	7989
812.855	8103
812.997	8229
813.138	8282
813.279	8218
813.421	8058
813.562	7955
813.703	7799
813.845	7708
813.986	7400
814.127	7236
814.268	7202
814.41	7213
814.551	7103
814.692	7183
814.833	7034
814.974	7084
815.115	7141
815.256	6966
815.397	6985
815.539	6840
815.68	6783
815.821	6741
815.962	6901
816.103	6760
816.244	6764
816.385	6589
816.526	6635
816.666	6528
816.807	6281
816.948	6399
817.089	6433
817.23	6422
817.371	6342
817.512	6353
817.653	6422
817.793	6331
817.934	6357
818.075	6448
818.216	6407
818.356	6365
818.497	6213
818.638	6114
818.778	6163
818.919	6110
819.06	6140
819.2	6266
819.341	6258
819.481	6399
819.622	6551
819.762	6779
819.903	6642
820.043	6570
820.184	6532
820.324	6623
820.465	6703
820.605	6635
820.746	6642
820.886	6536
821.026	6593
821.167	6631
821.307	6791
821.447	6764
821.588	6654
821.728	6563
821.868	6498
822.008	6289
822.149	6331
822.289	6319
822.429	6163
822.569	6079
822.709	6117
822.849	5897
822.99	5836
823.13	5897
823.27	5942
823.41	5767
823.55	5726
823.69	5752
823.83	5748
823.97	5642
824.11	5585
824.25	5532
824.389	5547
824.529	5558
824.669	5493
824.809	5653
824.949	5680
825.089	5653
825.228	5528
825.368	5387
825.508	5322
825.648	5326
825.787	5357
825.927	5353
826.067	5242
826.206	5250
826.346	5395
826.485	5448
826.625	5417
826.765	5501
826.904	5478
827.044	5235
827.183	5201
827.323	5159
827.462	5269
827.601	5162
827.741	5174
827.88	5162
828.02	5098
828.159	5242
828.298	5326
828.437	5284
828.577	5288
828.716	5482
828.855	5379
828.994	5140
829.134	5136
829.273	5143
829.412	5086
829.551	5128
829.69	5136
829.829	5208
829.968	5337
830.107	5307
830.246	5280
830.385	5151
830.524	5143
830.663	5003
830.802	4961
830.941	4881
831.08	4839
831.219	4961
831.357	4968
831.496	5136
831.635	4923
831.774	4793
831.913	4786
832.051	4721
832.19	4691
832.329	4843
832.467	4634
832.606	4603
832.744	4687
832.883	4771
833.022	4706
833.16	4797
833.299	4778
833.437	4805
833.576	4786
833.714	4889
833.852	4820
833.991	4873
834.129	4942
834.267	4946
834.406	4911
834.544	4938
834.682	4946
834.821	4949
834.959	5124
835.097	5018
835.235	5140
835.373	5064
835.511	5162
835.65	5041
835.788	4999
835.926	4858
836.064	4904
836.202	4892
836.34	5147
836.478	5220
836.615	5181
836.753	5201
836.891	5277
837.029	5227
837.167	5166
837.305	5166
837.443	5147
837.58	5006
837.718	5277
837.856	5166
837.993	5117
838.131	5201
838.269	5159
838.406	5170
838.544	5174
838.681	5025
838.819	4984
838.956	4854
839.094	4862
839.231	4961
839.369	5071
839.506	5372
839.643	5265
839.781	5075
839.918	5003
840.055	5113
840.193	5060
840.33	5060
840.467	5113
840.604	5143
840.742	5436
840.879	5098
841.016	5083
841.153	5155
841.29	5379
841.427	5299
841.564	5284
841.701	5357
841.838	5242
841.975	5212
842.112	5288
842.249	5090
842.385	5083
842.522	5311
842.659	5193
842.796	5151
842.933	5178
843.069	5159
843.206	5136
843.343	5303
843.479	5208
843.616	5303
843.752	5014
843.889	5045
844.025	5151
844.162	5010
844.298	5204
844.435	5041
844.571	5041
844.708	5189
844.844	5261
844.98	5284
845.117	5349
845.253	5124
845.389	5075
845.525	5117
845.661	5105
845.798	5014
845.934	5136
846.07	5041
846.206	5178
846.342	5269
846.478	5155
846.614	5010
846.75	4946
846.886	4953
847.022	5151
847.158	5025
847.294	5029
847.429	5079
847.565	5064
847.701	5311
847.837	4831
847.972	4862
848.108	4968
848.244	4946
848.379	4736
848.515	4733
848.65	4668
848.786	4729
848.921	4767
849.057	4870
849.192	4900
849.328	4816
849.463	4854
849.598	4782
849.734	4763
849.869	4615
850.004	4618
850.14	4641
850.275	4584
850.41	4527
850.545	4531
850.68	4596
850.815	4618
850.95	4637
851.085	4843
851.22	4721
851.355	4622
851.49	4611
851.625	4634
851.76	4645
851.895	4550
852.03	4519
852.165	4683
852.299	4691
852.434	4763
852.569	4733
852.703	4782
852.838	4767
852.973	4915
853.107	4870
853.242	4675
853.376	4710
853.511	4523
853.645	4603
853.78	4744
853.914	4649
854.048	4664
854.183	4683
854.317	4694
854.451	4831
854.585	4664
854.72	4634
854.854	4748
854.988	4603
855.122	4634
855.256	4459
855.39	4668
855.524	4744
855.658	4698
855.792	4706
855.926	4774
856.06	4725
856.194	4820
856.327	4622
856.461	4584
856.595	4637
856.729	4649
856.862	4755
856.996	4691
857.13	4717
857.263	4687
857.397	4809
857.53	4668
857.664	4717
857.797	4717
857.931	4736
858.064	4721
858.197	4717
858.331	4645
858.464	4535
858.597	4531
858.731	4653
858.864	4588
858.997	4538
859.13	4637
859.263	4630
859.396	4714
859.529	4546
859.662	4550
859.795	4542
859.928	4626
860.061	4744
860.194	4748
860.327	4603
860.46	4558
860.592	4645
860.725	4675
860.858	4675
860.99	4618
861.123	4489
861.256	4462
861.388	4637
861.521	5277
861.653	4447
861.786	4379
861.918	4424
862.05	4485
862.183	4531
862.315	4580
862.447	4649
862.58	4508
862.712	4440
862.844	4268
862.976	4432
863.108	4451
863.24	4763
863.372	4341
863.504	4402
863.636	4383
863.768	4459
863.9	4375
864.032	4383
864.164	4409
864.296	4504
864.428	4481
864.559	4500
864.691	4508
864.823	4538
864.954	4485
865.086	4500
865.217	4478
865.349	4432
865.48	4436
865.612	4504
865.743	4611
865.875	4493
866.006	4443
866.137	4409
866.269	4443
866.4	4447
866.531	4447
866.662	4402
866.793	4398
866.924	4421
867.055	4508
867.186	4455
867.317	4402
867.448	4367
867.579	4413
867.71	4383
867.841	4383
867.972	4470
868.103	4493
868.233	4443
868.364	4428
868.495	4531
868.625	4714
868.756	4805
868.886	4569
869.017	4672
869.147	4782
869.278	4767
869.408	4637
869.539	4641
869.669	4767
869.799	4702
869.929	4748
870.06	4774
870.19	5022
870.32	4930
870.45	5003
870.58	5041
870.71	5098
870.84	5178
870.97	5025
871.1	4953
871.23	5128
871.36	5124
871.489	5128
871.619	5117
871.749	5136
871.879	5162
872.008	5280
872.138	5113
872.267	4999
872.397	4881
872.526	4831
872.656	4793
872.785	4835
872.915	5041
873.044	5064
873.173	5041
873.303	4957
873.432	5029
873.561	4976
873.69	4873
873.819	4934
873.948	4946
874.077	4870
874.206	4771
874.335	4854
874.464	4995
874.593	5102
874.722	5014
874.851	5132
874.979	5102
875.108	5048
875.237	4915
875.365	4904
875.494	4957
875.623	5022
875.751	4858
875.88	4915
876.008	5025
876.136	5075
876.265	5250
876.393	5429
876.521	5246
876.65	5261
876.778	5223
876.906	5128
877.034	5041
877.162	5086
877.29	5056
877.418	5094
877.546	5105
877.674	5098
877.802	5060
877.93	5045
878.058	4919
878.185	4908
878.313	4991
878.441	4987
878.568	4850
878.696	4934
878.824	4995
878.951	5052
879.079	5128
879.206	5299
879.333	5117
879.461	5041
879.588	5014
879.715	5220
879.842	5223
879.97	5064
880.097	4790
880.224	4801
880.351	4797
880.478	4835
880.605	4824
880.732	4793
880.859	5067
880.986	4965
881.112	4896
881.239	4816
881.366	4733
881.493	4607
881.619	4634
881.746	4687
881.872	4637
881.999	4679
882.125	4714
882.252	4809
882.378	4850
882.505	4930
882.631	4801
882.757	4660
882.883	4736
883.01	4778
883.136	4694
883.262	4672
883.388	4637
883.514	4877
883.64	4915
883.766	4885
883.892	4664
884.018	4687
884.143	4892
884.269	5033
884.395	4755
884.52	4649
884.646	4698
884.772	4580
884.897	4573
885.023	4694
885.148	4824
885.274	4908
885.399	4835
885.524	4790
885.65	4717
885.775	4767
885.9	4759
886.025	4889
886.15	4839
886.275	4759
886.4	4660
886.525	4767
886.65	4755
886.775	4725
886.9	4877
887.025	5025
887.149	4828
887.274	4653
887.399	4611
887.523	4622
887.648	4634
887.773	4603
887.897	4809
888.021	4828
888.146	4691
888.27	4831
888.395	4923
888.519	4793
888.643	4858
888.767	4835
888.891	4672
889.015	4626
889.139	4725
889.263	4615
889.387	4790
889.511	4858
889.635	4831
889.759	4679
889.883	4649
890.006	4748
890.13	4850
890.254	4664
890.377	4729
890.501	4550
890.624	4550
890.748	4664
890.871	4531
890.995	4455
891.118	4379
891.241	4531
891.364	4561
891.488	4683
891.611	4542
891.734	4554
891.857	4649
891.98	4561
892.103	4645
892.226	4577
892.349	4531
892.471	4436
892.594	4615
892.717	4634
892.839	4592
892.962	4584
893.085	4710
893.207	4683
893.33	4459
893.452	4558
893.575	4675
893.697	4607
893.819	4831
893.941	4850
894.064	4778
894.186	4577
894.308	4592
894.43	4793
894.552	4862
894.674	4763
894.796	4596
894.918	4603
895.04	4611
895.161	4744
895.283	4668
895.405	4611
895.526	4660
895.648	4687
895.769	4790
895.891	4748
896.012	4786
896.134	4744
896.255	4725
896.376	4683
896.498	4683
896.619	4683
896.74	4637
896.861	4687
896.982	4938
897.103	5067
897.224	4839
897.345	4782
897.466	4729
897.587	4778
897.708	4896
897.828	4736
897.949	4641
898.07	4565
898.19	4672
898.311	4835
898.431	4702
898.552	4801
898.672	4828
898.792	4801
898.913	4759
899.033	4691
899.153	4535
899.273	4474
899.393	4512
899.513	4569
899.633	4577
899.753	4603
899.873	4538
899.993	4603
900.113	4573
900.232	4611
900.352	4497
900.472	4485
900.591	4447
900.711	4531
900.83	4421
900.95	4634
901.069	4733
901.189	4569
901.308	4352
901.427	4383
901.546	4428
901.665	4508
901.784	4535
901.904	4470
902.023	4337
902.141	4227
902.26	4169
902.379	4310
902.498	4230
902.617	4219
902.735	4402
902.854	4440
902.973	4360
903.091	4253
903.21	4268
903.328	4310
903.446	4295
903.565	4306
903.683	4383
903.801	4284
903.919	4405
904.038	4474
904.156	4379
904.274	4474
904.392	4451
904.51	4398
904.627	4455
904.745	4588
904.863	4702
904.981	4462
905.098	4341
905.216	4379
905.334	4451
905.451	4462
905.569	4481
905.686	4546
905.803	4615
905.921	4455
906.038	4573
906.155	4512
906.272	4379
906.389	4466
906.506	4432
906.623	4413
906.74	4413
906.857	4291
906.974	4386
907.091	4603
907.208	4675
907.324	4634
907.441	4504
907.557	4383
907.674	4390
907.79	4352
907.907	4398
908.023	4512
908.139	4497
908.256	4455
908.372	4508
908.488	4478
908.604	4386
908.72	4344
908.836	4383
908.952	4379
909.068	4436
909.184	4558
909.3	4485
909.415	4584
909.531	4588
909.647	4371
909.762	4436
909.878	4375
909.993	4424
910.108	4405
910.224	4485
910.339	4485
910.454	4386
910.57	4344
910.685	4341
910.8	4634
910.915	4554
911.03	4481
911.145	4386
911.259	4337
911.374	4375
911.489	4348
911.604	4314
911.718	4154
911.833	4242
911.947	4086
912.062	4040
912.176	4230
912.291	4257
912.405	4280
912.519	4466
912.633	4519
912.748	4390
912.862	4394
912.976	4207
913.09	4105
913.204	4173
913.318	4272
913.431	4379
913.545	4379
913.659	4489
913.772	4360
913.886	4303
914	4253
914.113	4379
914.226	4451
914.34	4386
914.453	4280
914.566	4432
914.68	4379
914.793	4329
914.906	4188
915.019	4116
915.132	4143
915.245	4173
915.358	4215
915.47	4284
915.583	4227
915.696	4337
915.809	4409
915.921	4493
916.034	4322
916.146	4280
916.259	4295
916.371	4314
916.483	4386
916.595	4344
916.708	4356
916.82	4333
916.932	4341
917.044	4344
917.156	4367
917.268	4272
917.38	4280
917.491	4303
917.603	4363
917.715	4481
917.826	4421
917.938	4352
918.049	4272
918.161	4363
918.272	4512
918.384	4508
918.495	4478
918.606	4348
918.717	4253
918.828	4325
918.939	4386
919.05	4303
919.161	4299
919.272	4131
919.383	4261
919.494	4500
919.604	4641
919.715	4474
919.826	4329
919.936	4409
920.047	4508
920.157	4489
920.267	4706
920.378	4508
920.488	4512
920.598	4771
920.708	4858
920.818	4733
920.928	4733
921.038	4946
921.148	4930
921.258	4622
921.368	4542
921.477	4516
921.587	4481
921.697	4428
921.806	4558
921.916	4512
922.025	4257
922.134	4299
922.244	4249
922.353	4344
922.462	4223
922.571	4090
922.68	4051
922.789	3972
922.898	4021
923.007	4032
923.116	4082
923.224	4078
923.333	4101
923.442	4029
923.55	3994
923.659	4078
923.767	4162
923.876	3998
923.984	4120
924.092	3991
924.201	4105
924.309	4086
924.417	4158
924.525	4051
924.633	4139
924.741	5102
924.849	3899
924.956	4173
925.064	3960
925.172	3960
925.279	3998
925.387	4051
925.494	4044
925.602	4185
925.709	4154
925.816	4067
925.924	4128
926.031	4227
926.138	4215
926.245	4188
926.352	4093
926.459	4234
926.566	4318
926.673	4192
926.779	4105
926.886	4090
926.993	3964
927.099	3945
927.206	3979
927.312	3918
927.419	4036
927.525	3991
927.631	4112
927.737	3975
927.843	3937
927.95	3869
928.056	3949
928.162	3953
928.267	4055
928.373	4577
928.479	4120
928.585	3915
928.69	4013
928.796	4097
928.901	3934
929.007	3861
929.112	3991
929.218	3945
929.323	3941
929.428	4025
929.533	4124
929.638	3899
929.743	3994
929.848	4029
929.953	4002
930.058	3934
930.163	3789
930.267	3850
930.372	3994
930.477	3831
930.581	4044
930.685	3979
930.79	3804
930.894	3876
930.998	3827
931.103	4013
931.207	3732
931.311	3698
931.415	3675
931.519	3511
931.623	3561
