Data from test_V78500241_901.txt Node
Date: Fri Mar 25 16:55:16 CST 2022
User: usil
Spectrometer: V785-0024
Trigger mode: 0
Integration Time (sec): 4.000000E-1
Scans to average: 1
Nonlinearity correction enabled: false
Boxcar width: 0
Storing dark spectrum: false
XAxis mode: Wavelengths
Number of Pixels in Spectrum: 1024
>>>>>Begin Spectral Data<<<<<
801.071	7997
801.214	8020
801.356	7871
801.499	7841
801.641	7833
801.783	7765
801.926	7970
802.068	7921
802.211	7932
802.353	8001
802.496	7845
802.638	7871
802.78	7856
802.923	7879
803.065	7841
803.208	7909
803.35	8043
803.492	8107
803.635	8138
803.777	8046
803.919	8134
804.061	8381
804.204	8130
804.346	8035
804.488	7982
804.63	8138
804.773	8024
804.915	8096
805.057	8229
805.199	8168
805.341	8248
805.483	8180
805.626	8149
805.768	8100
805.91	8145
806.052	8176
806.194	8058
806.336	8286
806.478	8077
806.62	7959
806.762	8103
806.904	8282
807.046	8503
807.188	8366
807.33	8309
807.472	8336
807.614	8191
807.756	8069
807.898	8008
808.04	7917
808.182	7913
808.324	7845
808.465	7868
808.607	8065
808.749	8077
808.891	8176
809.033	8294
809.174	8195
809.316	8111
809.458	8111
809.6	8012
809.741	8016
809.883	7986
810.025	8111
810.166	8065
810.308	8039
810.45	8020
810.591	7868
810.733	7753
810.875	7670
811.016	7559
811.158	7457
811.299	7616
811.441	7723
811.582	7628
811.724	7605
811.865	7480
812.007	7578
812.148	7590
812.29	7643
812.431	7708
812.573	7818
812.714	8001
812.855	8107
812.997	8164
813.138	8370
813.279	8157
813.421	8088
813.562	8020
813.703	7936
813.845	7712
813.986	7441
814.127	7244
814.268	7236
814.41	7206
814.551	7141
814.692	7129
814.833	7015
814.974	7031
815.115	7012
815.256	6966
815.397	6882
815.539	6939
815.68	6821
815.821	6757
815.962	6894
816.103	6840
816.244	6738
816.385	6677
816.526	6612
816.666	6490
816.807	6296
816.948	6429
817.089	6479
817.23	6467
817.371	6338
817.512	6403
817.653	6376
817.793	6433
817.934	6331
818.075	6490
818.216	6445
818.356	6433
818.497	6205
818.638	6110
818.778	6167
818.919	6152
819.06	6155
819.2	6327
819.341	6304
819.481	6365
819.622	6475
819.762	6703
819.903	6658
820.043	6623
820.184	6589
820.324	6559
820.465	6662
820.605	6662
820.746	6662
820.886	6479
821.026	6642
821.167	6681
821.307	6749
821.447	6776
821.588	6673
821.728	6532
821.868	6467
822.008	6311
822.149	6353
822.289	6262
822.429	6178
822.569	6129
822.709	6133
822.849	5958
822.99	5828
823.13	5897
823.27	5927
823.41	5756
823.55	5760
823.69	5802
823.83	5794
823.97	5623
824.11	5497
824.25	5474
824.389	5539
824.529	5577
824.669	5535
824.809	5604
824.949	5676
825.089	5558
825.228	5520
825.368	5398
825.508	5326
825.648	5303
825.787	5372
825.927	5410
826.067	5341
826.206	5273
826.346	5368
826.485	5379
826.625	5417
826.765	5554
826.904	5448
827.044	5235
827.183	5185
827.323	5113
827.462	5227
827.601	5151
827.741	5159
827.88	5250
828.02	5117
828.159	5231
828.298	5311
828.437	5372
828.577	5299
828.716	5452
828.855	5307
828.994	5151
829.134	5128
829.273	5170
829.412	5117
829.551	5079
829.69	5098
829.829	5258
829.968	5334
830.107	5265
830.246	5250
830.385	5132
830.524	5113
830.663	5109
830.802	4934
830.941	4896
831.08	4835
831.219	4965
831.357	4987
831.496	5109
831.635	4908
831.774	4900
831.913	4801
832.051	4729
832.19	4740
832.329	4850
832.467	4634
832.606	4599
832.744	4721
832.883	4729
833.022	4710
833.16	4771
833.299	4839
833.437	4828
833.576	4809
833.714	4854
833.852	4816
833.991	4873
834.129	4980
834.267	4991
834.406	4885
834.544	4972
834.682	4923
834.821	4938
834.959	5136
835.097	4968
835.235	5170
835.373	5090
835.511	5045
835.65	5006
835.788	5018
835.926	4915
836.064	4854
836.202	4911
836.34	5242
836.478	5246
836.615	5086
836.753	5166
836.891	5242
837.029	5246
837.167	5151
837.305	5185
837.443	5143
837.58	5029
837.718	5174
837.856	5162
837.993	5128
838.131	5197
838.269	5170
838.406	5193
838.544	5166
838.681	4999
838.819	4995
838.956	4930
839.094	4862
839.231	4949
839.369	5067
839.506	5414
839.643	5277
839.781	5056
839.918	5006
840.055	5094
840.193	5090
840.33	5056
840.467	5132
840.604	5159
840.742	5406
840.879	5102
841.016	5086
841.153	5181
841.29	5322
841.427	5315
841.564	5334
841.701	5334
841.838	5212
841.975	5220
842.112	5296
842.249	5113
842.385	5071
842.522	5330
842.659	5155
842.796	5155
842.933	5231
843.069	5181
843.206	5155
843.343	5189
843.479	5159
843.616	5246
843.752	5041
843.889	4961
844.025	5193
844.162	4995
844.298	5174
844.435	5113
844.571	5045
844.708	5189
844.844	5273
844.98	5311
845.117	5269
845.253	5113
845.389	5052
845.525	5136
845.661	5109
845.798	4999
845.934	5174
846.07	5064
846.206	5193
846.342	5170
846.478	5178
846.614	5045
846.75	4896
846.886	4946
847.022	5178
847.158	5014
847.294	5071
847.429	5037
847.565	5010
847.701	5326
847.837	4835
847.972	4786
848.108	4972
848.244	4911
848.379	4710
848.515	4694
848.65	4725
848.786	4683
848.921	4801
849.057	4889
849.192	4892
849.328	4782
849.463	4831
849.598	4805
849.734	4763
849.869	4729
850.004	4656
850.14	4634
850.275	4580
850.41	4516
850.545	4550
850.68	4596
850.815	4596
850.95	4584
851.085	4839
851.22	4683
851.355	4649
851.49	4577
851.625	4634
851.76	4580
851.895	4538
852.03	4493
852.165	4554
852.299	4687
852.434	4782
852.569	4664
852.703	4774
852.838	4790
852.973	4927
853.107	4892
853.242	4706
853.376	4641
853.511	4504
853.645	4596
853.78	4820
853.914	4622
854.048	4668
854.183	4641
854.317	4694
854.451	4816
854.585	4672
854.72	4645
854.854	4767
854.988	4607
855.122	4630
855.256	4538
855.39	4664
855.524	4801
855.658	4668
855.792	4672
855.926	4691
856.06	4706
856.194	4793
856.327	4687
856.461	4611
856.595	4596
856.729	4599
856.862	4740
856.996	4714
857.13	4744
857.263	4767
857.397	4763
857.53	4694
857.664	4679
857.797	4717
857.931	4752
858.064	4714
858.197	4797
858.331	4618
858.464	4580
858.597	4466
858.731	4592
858.864	4634
858.997	4573
859.13	4664
859.263	4675
859.396	4683
859.529	4561
859.662	4584
859.795	4550
859.928	4607
860.061	4744
860.194	4752
860.327	4603
860.46	4569
860.592	4733
860.725	4714
860.858	4706
860.99	4580
861.123	4497
861.256	4519
861.388	4653
861.521	5208
861.653	4481
861.786	4436
861.918	4424
862.05	4497
862.183	4523
862.315	4611
862.447	4649
862.58	4516
862.712	4421
862.844	4310
862.976	4455
863.108	4447
863.24	4744
863.372	4322
863.504	4363
863.636	4398
863.768	4443
863.9	4447
864.032	4333
864.164	4348
864.296	4489
864.428	4519
864.559	4531
864.691	4523
864.823	4455
864.954	4485
865.086	4489
865.217	4440
865.349	4383
865.48	4428
865.612	4478
865.743	4649
865.875	4432
866.006	4386
866.137	4413
866.269	4409
866.4	4447
866.531	4379
866.662	4398
866.793	4405
866.924	4440
867.055	4440
867.186	4474
867.317	4394
867.448	4379
867.579	4390
867.71	4348
867.841	4325
867.972	4447
868.103	4481
868.233	4485
868.364	4459
868.495	4466
868.625	4645
868.756	4706
868.886	4622
869.017	4592
869.147	4759
869.278	4740
869.408	4618
869.539	4599
869.669	4664
869.799	4634
869.929	4763
870.06	4729
870.19	4949
870.32	4908
870.45	4904
870.58	4946
870.71	5083
870.84	5079
870.97	4919
871.1	4927
871.23	5128
871.36	5109
871.489	4972
871.619	5067
871.749	5067
871.879	5094
872.008	5132
872.138	5067
872.267	4953
872.397	4782
872.526	4828
872.656	4740
872.785	4786
872.915	4927
873.044	5029
873.173	4919
873.303	4930
873.432	4972
873.561	4938
873.69	4862
873.819	4847
873.948	4885
874.077	4816
874.206	4729
874.335	4790
874.464	4965
874.593	5079
874.722	4984
874.851	5098
874.979	5064
875.108	5018
875.237	4900
875.365	4866
875.494	4854
875.623	4957
875.751	4839
875.88	4828
876.008	4949
876.136	5037
876.265	5189
876.393	5296
876.521	5227
876.65	5208
876.778	5147
876.906	5045
877.034	5022
877.162	5010
877.29	4972
877.418	5048
877.546	4987
877.674	5045
877.802	5006
877.93	4976
878.058	4946
878.185	4870
878.313	4968
878.441	4961
878.568	4824
878.696	4850
878.824	4889
878.951	4999
879.079	5109
879.206	5258
879.333	5029
879.461	4987
879.588	4999
879.715	5067
879.842	5216
879.97	4999
880.097	4793
880.224	4748
880.351	4744
880.478	4782
880.605	4748
880.732	4755
880.859	5098
880.986	4862
881.112	4896
881.239	4774
881.366	4660
881.493	4561
881.619	4596
881.746	4634
881.872	4653
881.999	4611
882.125	4660
882.252	4801
882.378	4862
882.505	4995
882.631	4782
882.757	4630
882.883	4687
883.01	4687
883.136	4653
883.262	4599
883.388	4588
883.514	4805
883.64	4889
883.766	4778
883.892	4649
884.018	4721
884.143	4873
884.269	4965
884.395	4641
884.52	4645
884.646	4588
884.772	4618
884.897	4558
885.023	4634
885.148	4752
885.274	4831
885.399	4809
885.524	4714
885.65	4694
885.775	4767
885.9	4660
886.025	4816
886.15	4847
886.275	4660
886.4	4630
886.525	4736
886.65	4653
886.775	4717
886.9	4889
887.025	5025
887.149	4805
887.274	4618
887.399	4554
887.523	4603
887.648	4561
887.773	4558
887.897	4752
888.021	4721
888.146	4660
888.27	4763
888.395	4911
888.519	4763
888.643	4782
888.767	4854
888.891	4645
889.015	4569
889.139	4698
889.263	4645
889.387	4702
889.511	4835
889.635	4774
889.759	4584
889.883	4603
890.006	4744
890.13	4797
890.254	4603
890.377	4626
890.501	4550
890.624	4493
890.748	4618
890.871	4519
890.995	4424
891.118	4398
891.241	4478
891.364	4535
891.488	4660
891.611	4478
891.734	4554
891.857	4580
891.98	4580
892.103	4634
892.226	4603
892.349	4493
892.471	4417
892.594	4531
892.717	4607
892.839	4592
892.962	4588
893.085	4675
893.207	4580
893.33	4386
893.452	4474
893.575	4649
893.697	4622
893.819	4816
893.941	4816
894.064	4809
894.186	4584
894.308	4561
894.43	4759
894.552	4816
894.674	4740
894.796	4531
894.918	4584
895.04	4538
895.161	4664
895.283	4710
895.405	4512
895.526	4588
895.648	4710
895.769	4691
895.891	4729
896.012	4717
896.134	4710
896.255	4664
896.376	4607
896.498	4596
896.619	4660
896.74	4584
896.861	4675
896.982	4889
897.103	5086
897.224	4786
897.345	4744
897.466	4653
897.587	4744
897.708	4866
897.828	4717
897.949	4710
898.07	4554
898.19	4645
898.311	4809
898.431	4683
898.552	4714
898.672	4801
898.792	4816
898.913	4725
899.033	4622
899.153	4512
899.273	4394
899.393	4443
899.513	4466
899.633	4462
899.753	4523
899.873	4451
899.993	4538
900.113	4516
900.232	4580
900.352	4531
900.472	4478
900.591	4333
900.711	4417
900.83	4440
900.95	4615
901.069	4683
901.189	4542
901.308	4318
901.427	4348
901.546	4325
901.665	4402
901.784	4466
901.904	4360
902.023	4272
902.141	4185
902.26	4131
902.379	4249
902.498	4215
902.617	4188
902.735	4386
902.854	4383
902.973	4386
903.091	4185
903.21	4215
903.328	4291
903.446	4242
903.565	4268
903.683	4379
903.801	4295
903.919	4383
904.038	4436
904.156	4295
904.274	4474
904.392	4394
904.51	4459
904.627	4481
904.745	4569
904.863	4615
904.981	4436
905.098	4303
905.216	4314
905.334	4390
905.451	4417
905.569	4447
905.686	4535
905.803	4542
905.921	4436
906.038	4538
906.155	4466
906.272	4341
906.389	4405
906.506	4303
906.623	4360
906.74	4360
906.857	4284
906.974	4363
907.091	4588
907.208	4637
907.324	4569
907.441	4512
907.557	4360
907.674	4341
907.79	4291
907.907	4367
908.023	4516
908.139	4474
908.256	4436
908.372	4409
908.488	4432
908.604	4265
908.72	4287
908.836	4371
908.952	4379
909.068	4394
909.184	4561
909.3	4478
909.415	4542
909.531	4565
909.647	4344
909.762	4367
909.878	4322
909.993	4432
910.108	4417
910.224	4363
910.339	4478
910.454	4424
910.57	4360
910.685	4261
910.8	4615
910.915	4577
911.03	4500
911.145	4325
911.259	4310
911.374	4383
911.489	4257
911.604	4268
911.718	4120
911.833	4188
911.947	4055
912.062	4029
912.176	4192
912.291	4207
912.405	4261
912.519	4447
912.633	4500
912.748	4337
912.862	4322
912.976	4211
913.09	4128
913.204	4169
913.318	4223
913.431	4379
913.545	4386
913.659	4417
913.772	4371
913.886	4227
914	4230
914.113	4352
914.226	4417
914.34	4360
914.453	4188
914.566	4417
914.68	4276
914.793	4356
914.906	4128
915.019	4120
915.132	4074
915.245	4154
915.358	4200
915.47	4238
915.583	4238
915.696	4303
915.809	4386
915.921	4344
916.034	4261
916.146	4230
916.259	4200
916.371	4379
916.483	4344
916.595	4234
916.708	4322
916.82	4303
916.932	4295
917.044	4356
917.156	4284
917.268	4227
917.38	4306
917.491	4265
917.603	4318
917.715	4394
917.826	4474
917.938	4329
918.049	4253
918.161	4363
918.272	4523
918.384	4535
918.495	4436
918.606	4325
918.717	4211
918.828	4310
918.939	4367
919.05	4280
919.161	4314
919.272	4093
919.383	4215
919.494	4413
919.604	4611
919.715	4398
919.826	4314
919.936	4375
920.047	4489
920.157	4478
920.267	4675
920.378	4569
920.488	4493
920.598	4687
920.708	4873
920.818	4740
920.928	4721
921.038	4946
921.148	4942
921.258	4561
921.368	4592
921.477	4478
921.587	4462
921.697	4318
921.806	4584
921.916	4394
922.025	4253
922.134	4280
922.244	4284
922.353	4329
922.462	4143
922.571	4124
922.68	3979
922.789	3991
922.898	3987
923.007	3964
923.116	4116
923.224	4063
923.333	4090
923.442	3956
923.55	3941
923.659	4006
923.767	4090
923.876	3972
923.984	4124
924.092	3956
924.201	4112
924.309	4013
924.417	4135
924.525	4025
924.633	4093
924.741	4839
924.849	3918
924.956	4116
925.064	3934
925.172	3880
925.279	3979
925.387	4013
925.494	4036
925.602	4192
925.709	4135
925.816	4025
925.924	4147
926.031	4204
926.138	4147
926.245	4200
926.352	4055
926.459	4276
926.566	4333
926.673	4139
926.779	4063
926.886	4105
926.993	3983
927.099	3907
927.206	3949
927.312	3922
927.419	4044
927.525	4002
927.631	4090
927.737	3991
927.843	3953
927.95	3804
928.056	3930
928.162	3987
928.267	4131
928.373	4565
928.479	4139
928.585	3857
928.69	4013
928.796	4032
928.901	3888
929.007	3800
929.112	4002
929.218	3926
929.323	3930
929.428	3930
929.533	4074
929.638	3884
929.743	3934
929.848	3994
929.953	3983
930.058	3941
930.163	3736
930.267	3812
930.372	3964
930.477	3762
930.581	4082
930.685	3972
930.79	3819
930.894	3876
930.998	3827
931.103	4002
931.207	3770
931.311	3652
931.415	3667
931.519	3469
931.623	3595
