Data from test_V78500241_1823.txt Node
Date: Fri Mar 25 17:01:40 CST 2022
User: usil
Spectrometer: V785-0024
Trigger mode: 0
Integration Time (sec): 4.000000E-1
Scans to average: 1
Nonlinearity correction enabled: false
Boxcar width: 0
Storing dark spectrum: false
XAxis mode: Wavelengths
Number of Pixels in Spectrum: 1024
>>>>>Begin Spectral Data<<<<<
801.071	8024
801.214	8027
801.356	7887
801.499	7860
801.641	7769
801.783	7856
801.926	8008
802.068	7993
802.211	8043
802.353	7944
802.496	7833
802.638	7883
802.78	7883
802.923	7894
803.065	7875
803.208	7875
803.35	8031
803.492	8081
803.635	8183
803.777	8035
803.919	8138
804.061	8511
804.204	8153
804.346	8103
804.488	7963
804.63	8024
804.773	8001
804.915	8168
805.057	8282
805.199	8157
805.341	8294
805.483	8244
805.626	8187
805.768	8092
805.91	8240
806.052	8279
806.194	8176
806.336	8385
806.478	8157
806.62	8119
806.762	8142
806.904	8294
807.046	8503
807.188	8381
807.33	8351
807.472	8301
807.614	8168
807.756	8149
807.898	8035
808.04	7860
808.182	7978
808.324	7928
808.465	7917
808.607	8031
808.749	8107
808.891	8252
809.033	8286
809.174	8275
809.316	8123
809.458	8100
809.6	8107
809.741	8088
809.883	8001
810.025	8161
810.166	8065
810.308	8035
810.45	8008
810.591	7849
810.733	7719
810.875	7719
811.016	7559
811.158	7426
811.299	7689
811.441	7757
811.582	7719
811.724	7647
811.865	7533
812.007	7651
812.148	7548
812.29	7712
812.431	7765
812.573	7868
812.714	7921
812.855	8145
812.997	8214
813.138	8275
813.279	8172
813.421	8119
813.562	7970
813.703	7795
813.845	7776
813.986	7483
814.127	7308
814.268	7225
814.41	7187
814.551	7221
814.692	7213
814.833	7141
814.974	7076
815.115	7126
815.256	6996
815.397	6909
815.539	6970
815.68	6821
815.821	6760
815.962	6897
816.103	6871
816.244	6806
816.385	6627
816.526	6635
816.666	6528
816.807	6353
816.948	6471
817.089	6540
817.23	6448
817.371	6407
817.512	6410
817.653	6407
817.793	6372
817.934	6422
818.075	6452
818.216	6391
818.356	6441
818.497	6285
818.638	6148
818.778	6235
818.919	6224
819.06	6186
819.2	6353
819.341	6350
819.481	6388
819.622	6566
819.762	6779
819.903	6749
820.043	6650
820.184	6589
820.324	6681
820.465	6772
820.605	6692
820.746	6677
820.886	6547
821.026	6677
821.167	6753
821.307	6810
821.447	6818
821.588	6665
821.728	6612
821.868	6532
822.008	6369
822.149	6391
822.289	6407
822.429	6224
822.569	6068
822.709	6125
822.849	6011
822.99	5931
823.13	5954
823.27	5927
823.41	5821
823.55	5840
823.69	5775
823.83	5783
823.97	5653
824.11	5611
824.25	5463
824.389	5554
824.529	5646
824.669	5528
824.809	5604
824.949	5714
825.089	5653
825.228	5592
825.368	5436
825.508	5326
825.648	5391
825.787	5395
825.927	5436
826.067	5337
826.206	5280
826.346	5474
826.485	5444
826.625	5398
826.765	5528
826.904	5520
827.044	5326
827.183	5258
827.323	5204
827.462	5212
827.601	5201
827.741	5212
827.88	5239
828.02	5143
828.159	5250
828.298	5341
828.437	5376
828.577	5254
828.716	5528
828.855	5368
828.994	5140
829.134	5147
829.273	5181
829.412	5178
829.551	5178
829.69	5178
829.829	5239
829.968	5421
830.107	5284
830.246	5246
830.385	5193
830.524	5162
830.663	5105
830.802	4987
830.941	4949
831.08	4877
831.219	5018
831.357	4987
831.496	5212
831.635	4904
831.774	4908
831.913	4862
832.051	4748
832.19	4793
832.329	4858
832.467	4717
832.606	4668
832.744	4767
832.883	4778
833.022	4698
833.16	4771
833.299	4824
833.437	4809
833.576	4881
833.714	4881
833.852	4866
833.991	4949
834.129	4908
834.267	4946
834.406	4911
834.544	4957
834.682	4923
834.821	4984
834.959	5212
835.097	5010
835.235	5216
835.373	5124
835.511	5140
835.65	5086
835.788	5060
835.926	4858
836.064	4850
836.202	4911
836.34	5151
836.478	5231
836.615	5128
836.753	5193
836.891	5311
837.029	5277
837.167	5223
837.305	5189
837.443	5098
837.58	5064
837.718	5239
837.856	5204
837.993	5124
838.131	5277
838.269	5204
838.406	5220
838.544	5193
838.681	5048
838.819	4976
838.956	4896
839.094	4892
839.231	4980
839.369	5094
839.506	5455
839.643	5280
839.781	5037
839.918	5018
840.055	5102
840.193	5094
840.33	5117
840.467	5166
840.604	5250
840.742	5474
840.879	5113
841.016	5102
841.153	5181
841.29	5368
841.427	5326
841.564	5292
841.701	5387
841.838	5334
841.975	5246
842.112	5288
842.249	5151
842.385	5094
842.522	5341
842.659	5181
842.796	5204
842.933	5212
843.069	5151
843.206	5128
843.343	5280
843.479	5242
843.616	5303
843.752	5056
843.889	5014
844.025	5254
844.162	5041
844.298	5280
844.435	5064
844.571	5052
844.708	5212
844.844	5261
844.98	5368
845.117	5292
845.253	5147
845.389	5102
845.525	5170
845.661	5178
845.798	5033
845.934	5162
846.07	5014
846.206	5227
846.342	5273
846.478	5185
846.614	5033
846.75	5006
846.886	4923
847.022	5170
847.158	5022
847.294	5048
847.429	5132
847.565	5025
847.701	5387
847.837	4889
847.972	4809
848.108	4953
848.244	4927
848.379	4828
848.515	4748
848.65	4649
848.786	4752
848.921	4816
849.057	4919
849.192	4908
849.328	4885
849.463	4824
849.598	4805
849.734	4733
849.869	4691
850.004	4694
850.14	4664
850.275	4641
850.41	4519
850.545	4615
850.68	4577
850.815	4672
850.95	4637
851.085	4850
851.22	4801
851.355	4698
851.49	4668
851.625	4607
851.76	4706
851.895	4580
852.03	4554
852.165	4668
852.299	4664
852.434	4782
852.569	4748
852.703	4816
852.838	4793
852.973	4930
853.107	4930
853.242	4778
853.376	4694
853.511	4588
853.645	4645
853.78	4793
853.914	4725
854.048	4714
854.183	4660
854.317	4744
854.451	4854
854.585	4694
854.72	4664
854.854	4759
854.988	4603
855.122	4702
855.256	4577
855.39	4679
855.524	4801
855.658	4717
855.792	4744
855.926	4725
856.06	4759
856.194	4793
856.327	4714
856.461	4592
856.595	4641
856.729	4664
856.862	4748
856.996	4721
857.13	4710
857.263	4801
857.397	4847
857.53	4637
857.664	4721
857.797	4816
857.931	4771
858.064	4641
858.197	4755
858.331	4668
858.464	4618
858.597	4577
858.731	4618
858.864	4645
858.997	4637
859.13	4637
859.263	4653
859.396	4706
859.529	4580
859.662	4603
859.795	4558
859.928	4649
860.061	4805
860.194	4801
860.327	4603
860.46	4538
860.592	4717
860.725	4710
860.858	4717
860.99	4577
861.123	4485
861.256	4478
861.388	4660
861.521	5376
861.653	4447
861.786	4470
861.918	4478
862.05	4538
862.183	4577
862.315	4645
862.447	4649
862.58	4538
862.712	4402
862.844	4356
862.976	4523
863.108	4497
863.24	4866
863.372	4341
863.504	4371
863.636	4402
863.768	4516
863.9	4481
864.032	4371
864.164	4352
864.296	4519
864.428	4580
864.559	4561
864.691	4497
864.823	4561
864.954	4527
865.086	4504
865.217	4485
865.349	4428
865.48	4512
865.612	4542
865.743	4679
865.875	4432
866.006	4394
866.137	4493
866.269	4466
866.4	4413
866.531	4383
866.662	4402
866.793	4386
866.924	4459
867.055	4523
867.186	4424
867.317	4455
867.448	4363
867.579	4451
867.71	4413
867.841	4390
867.972	4447
868.103	4459
868.233	4447
868.364	4428
868.495	4493
868.625	4637
868.756	4786
868.886	4580
869.017	4603
869.147	4782
869.278	4809
869.408	4622
869.539	4687
869.669	4729
869.799	4637
869.929	4774
870.06	4725
870.19	4972
870.32	4911
870.45	4961
870.58	5041
870.71	5121
870.84	5094
870.97	4949
871.1	4949
871.23	5136
871.36	5128
871.489	5022
871.619	5045
871.749	5121
871.879	5121
872.008	5178
872.138	5048
872.267	4991
872.397	4843
872.526	4774
872.656	4736
872.785	4755
872.915	4930
873.044	5014
873.173	4965
873.303	4968
873.432	4999
873.561	4915
873.69	4866
873.819	4873
873.948	4934
874.077	4805
874.206	4801
874.335	4816
874.464	4915
874.593	5067
874.722	4999
874.851	5105
874.979	5052
875.108	5067
875.237	4881
875.365	4885
875.494	4877
875.623	4999
875.751	4790
875.88	4889
876.008	4946
876.136	5064
876.265	5231
876.393	5341
876.521	5261
876.65	5204
876.778	5227
876.906	5037
877.034	4980
877.162	5083
877.29	4987
877.418	5060
877.546	5041
877.674	5071
877.802	4980
877.93	5033
878.058	4968
878.185	4870
878.313	4984
878.441	4972
878.568	4816
878.696	4854
878.824	4961
878.951	4953
879.079	5086
879.206	5280
879.333	5067
879.461	4980
879.588	5010
879.715	5132
879.842	5220
879.97	4987
880.097	4805
880.224	4752
880.351	4828
880.478	4782
880.605	4816
880.732	4793
880.859	5113
880.986	4919
881.112	4915
881.239	4774
881.366	4675
881.493	4615
881.619	4596
881.746	4649
881.872	4622
881.999	4630
882.125	4706
882.252	4786
882.378	4786
882.505	4938
882.631	4816
882.757	4675
882.883	4759
883.01	4721
883.136	4668
883.262	4618
883.388	4611
883.514	4881
883.64	4847
883.766	4774
883.892	4691
884.018	4698
884.143	4870
884.269	5014
884.395	4672
884.52	4607
884.646	4656
884.772	4561
884.897	4542
885.023	4596
885.148	4767
885.274	4835
885.399	4812
885.524	4706
885.65	4687
885.775	4740
885.9	4725
886.025	4809
886.15	4809
886.275	4759
886.4	4653
886.525	4702
886.65	4710
886.775	4714
886.9	4892
887.025	5052
887.149	4824
887.274	4649
887.399	4592
887.523	4588
887.648	4618
887.773	4584
887.897	4748
888.021	4839
888.146	4672
888.27	4797
888.395	4911
888.519	4824
888.643	4778
888.767	4816
888.891	4649
889.015	4603
889.139	4660
889.263	4588
889.387	4744
889.511	4858
889.635	4786
889.759	4641
889.883	4660
890.006	4725
890.13	4816
890.254	4630
890.377	4675
890.501	4542
890.624	4516
890.748	4569
890.871	4481
890.995	4436
891.118	4402
891.241	4500
891.364	4565
891.488	4702
891.611	4508
891.734	4546
891.857	4546
891.98	4538
892.103	4645
892.226	4588
892.349	4569
892.471	4363
892.594	4504
892.717	4618
892.839	4561
892.962	4607
893.085	4702
893.207	4584
893.33	4432
893.452	4527
893.575	4637
893.697	4607
893.819	4774
893.941	4843
894.064	4706
894.186	4607
894.308	4580
894.43	4755
894.552	4782
894.674	4763
894.796	4573
894.918	4596
895.04	4584
895.161	4729
895.283	4675
895.405	4569
895.526	4630
895.648	4694
895.769	4714
895.891	4706
896.012	4752
896.134	4702
896.255	4698
896.376	4637
896.498	4626
896.619	4656
896.74	4622
896.861	4664
896.982	4892
897.103	5029
897.224	4809
897.345	4729
897.466	4672
897.587	4748
897.708	4862
897.828	4774
897.949	4656
898.07	4519
898.19	4641
898.311	4801
898.431	4675
898.552	4721
898.672	4809
898.792	4771
898.913	4717
899.033	4584
899.153	4500
899.273	4413
899.393	4474
899.513	4519
899.633	4489
899.753	4584
899.873	4538
899.993	4542
900.113	4558
900.232	4607
900.352	4554
900.472	4497
900.591	4390
900.711	4466
900.83	4466
900.95	4607
901.069	4698
901.189	4584
901.308	4329
901.427	4325
901.546	4413
901.665	4462
901.784	4550
901.904	4421
902.023	4329
902.141	4211
902.26	4162
902.379	4268
902.498	4234
902.617	4246
902.735	4386
902.854	4367
902.973	4322
903.091	4207
903.21	4242
903.328	4287
903.446	4265
903.565	4287
903.683	4352
903.801	4238
903.919	4432
904.038	4447
904.156	4306
904.274	4462
904.392	4363
904.51	4462
904.627	4478
904.745	4538
904.863	4634
904.981	4390
905.098	4306
905.216	4363
905.334	4405
905.451	4481
905.569	4409
905.686	4519
905.803	4577
905.921	4424
906.038	4508
906.155	4455
906.272	4421
906.389	4443
906.506	4375
906.623	4341
906.74	4367
906.857	4291
906.974	4379
907.091	4596
907.208	4675
907.324	4519
907.441	4519
907.557	4383
907.674	4386
907.79	4318
907.907	4386
908.023	4485
908.139	4432
908.256	4447
908.372	4443
908.488	4451
908.604	4306
908.72	4291
908.836	4363
908.952	4360
909.068	4405
909.184	4580
909.3	4447
909.415	4538
909.531	4538
909.647	4356
909.762	4367
909.878	4303
909.993	4428
910.108	4386
910.224	4428
910.339	4485
910.454	4371
910.57	4371
910.685	4314
910.8	4618
910.915	4592
911.03	4470
911.145	4310
911.259	4284
911.374	4314
911.489	4238
911.604	4246
911.718	4200
911.833	4196
911.947	4071
912.062	4025
912.176	4162
912.291	4265
912.405	4246
912.519	4474
912.633	4519
912.748	4379
912.862	4253
912.976	4234
913.09	4078
913.204	4177
913.318	4257
913.431	4405
913.545	4398
913.659	4440
913.772	4352
913.886	4207
914	4261
914.113	4417
914.226	4451
914.34	4383
914.453	4242
914.566	4424
914.68	4272
914.793	4348
914.906	4139
915.019	4101
915.132	4040
915.245	4154
915.358	4253
915.47	4249
915.583	4268
915.696	4280
915.809	4383
915.921	4421
916.034	4230
916.146	4238
916.259	4196
916.371	4409
916.483	4360
916.595	4268
916.708	4329
916.82	4322
916.932	4314
917.044	4348
917.156	4344
917.268	4249
917.38	4280
917.491	4333
917.603	4348
917.715	4451
917.826	4394
917.938	4348
918.049	4238
918.161	4402
918.272	4527
918.384	4508
918.495	4390
918.606	4257
918.717	4249
918.828	4337
918.939	4394
919.05	4249
919.161	4322
919.272	4105
919.383	4253
919.494	4470
919.604	4672
919.715	4447
919.826	4325
919.936	4344
920.047	4523
920.157	4516
920.267	4679
920.378	4561
920.488	4489
920.598	4721
920.708	4786
920.818	4717
920.928	4706
921.038	4923
921.148	4881
921.258	4637
921.368	4584
921.477	4481
921.587	4481
921.697	4386
921.806	4546
921.916	4405
922.025	4276
922.134	4299
922.244	4173
922.353	4352
922.462	4147
922.571	4131
922.68	4036
922.789	4006
922.898	4013
923.007	4029
923.116	4048
923.224	4078
923.333	4013
923.442	3964
923.55	3975
923.659	4013
923.767	4105
923.876	3998
923.984	4128
924.092	3987
924.201	4074
924.309	4086
924.417	4143
924.525	4090
924.633	4109
924.741	5006
924.849	3896
924.956	4143
925.064	3941
925.172	3892
925.279	3934
925.387	4055
925.494	4040
925.602	4299
925.709	4147
925.816	4032
925.924	4093
926.031	4211
926.138	4177
926.245	4238
926.352	4105
926.459	4200
926.566	4344
926.673	4139
926.779	4055
926.886	4059
926.993	3998
927.099	3949
927.206	3903
927.312	3892
927.419	4101
927.525	3987
927.631	4067
927.737	3941
927.843	3918
927.95	3835
928.056	3930
928.162	3956
928.267	4029
928.373	4641
928.479	4128
928.585	3896
928.69	3979
928.796	4090
928.901	3926
929.007	3827
929.112	3983
929.218	4002
929.323	3960
929.428	3937
929.533	4116
929.638	3937
929.743	3930
929.848	4071
929.953	3964
930.058	3922
930.163	3797
930.267	3789
930.372	3960
930.477	3797
930.581	4071
930.685	4006
930.79	3793
930.894	3835
930.998	3842
931.103	4029
931.207	3724
931.311	3679
931.415	3671
931.519	3507
931.623	3561
