Data from test_V78500241_2062.txt Node
Date: Fri Mar 25 17:03:20 CST 2022
User: usil
Spectrometer: V785-0024
Trigger mode: 0
Integration Time (sec): 4.000000E-1
Scans to average: 1
Nonlinearity correction enabled: false
Boxcar width: 0
Storing dark spectrum: false
XAxis mode: Wavelengths
Number of Pixels in Spectrum: 1024
>>>>>Begin Spectral Data<<<<<
801.071	7993
801.214	7989
801.356	7784
801.499	7887
801.641	7822
801.783	7860
801.926	7917
802.068	7906
802.211	7986
802.353	7978
802.496	7807
802.638	7818
802.78	7871
802.923	7989
803.065	7864
803.208	7856
803.35	7894
803.492	8069
803.635	8191
803.777	8050
803.919	8077
804.061	8495
804.204	8214
804.346	8046
804.488	7944
804.63	8065
804.773	8058
804.915	8050
805.057	8317
805.199	8202
805.341	8221
805.483	8301
805.626	8199
805.768	8176
805.91	8279
806.052	8183
806.194	8126
806.336	8271
806.478	8039
806.62	8065
806.762	8111
806.904	8256
807.046	8438
807.188	8355
807.33	8298
807.472	8256
807.614	8111
807.756	8138
807.898	7986
808.04	7875
808.182	7879
808.324	7833
808.465	7887
808.607	8035
808.749	8088
808.891	8176
809.033	8301
809.174	8225
809.316	8092
809.458	8134
809.6	8039
809.741	8081
809.883	8062
810.025	8046
810.166	8027
810.308	7944
810.45	7940
810.591	7792
810.733	7677
810.875	7624
811.016	7548
811.158	7476
811.299	7483
811.441	7689
811.582	7666
811.724	7605
811.865	7548
812.007	7571
812.148	7476
812.29	7567
812.431	7666
812.573	7864
812.714	8039
812.855	8161
812.997	8214
813.138	8252
813.279	8142
813.421	7989
813.562	7974
813.703	7776
813.845	7738
813.986	7449
814.127	7282
814.268	7187
814.41	7217
814.551	7141
814.692	7137
814.833	7053
814.974	7118
815.115	7156
815.256	7012
815.397	6920
815.539	6867
815.68	6798
815.821	6749
815.962	6837
816.103	6749
816.244	6627
816.385	6544
816.526	6608
816.666	6509
816.807	6308
816.948	6464
817.089	6483
817.23	6448
817.371	6315
817.512	6357
817.653	6384
817.793	6292
817.934	6414
818.075	6414
818.216	6395
818.356	6460
818.497	6254
818.638	6133
818.778	6167
818.919	6175
819.06	6072
819.2	6296
819.341	6331
819.481	6372
819.622	6570
819.762	6760
819.903	6673
820.043	6601
820.184	6582
820.324	6582
820.465	6681
820.605	6673
820.746	6677
820.886	6578
821.026	6673
821.167	6692
821.307	6859
821.447	6768
821.588	6749
821.728	6589
821.868	6494
822.008	6353
822.149	6403
822.289	6350
822.429	6235
822.569	6098
822.709	6190
822.849	5950
822.99	5954
823.13	5984
823.27	5954
823.41	5798
823.55	5878
823.69	5783
823.83	5813
823.97	5710
824.11	5547
824.25	5547
824.389	5596
824.529	5661
824.669	5539
824.809	5676
824.949	5718
825.089	5630
825.228	5596
825.368	5490
825.508	5395
825.648	5387
825.787	5360
825.927	5448
826.067	5360
826.206	5368
826.346	5452
826.485	5425
826.625	5436
826.765	5608
826.904	5501
827.044	5269
827.183	5223
827.323	5185
827.462	5299
827.601	5151
827.741	5193
827.88	5273
828.02	5166
828.159	5315
828.298	5364
828.437	5387
828.577	5311
828.716	5497
828.855	5402
828.994	5189
829.134	5189
829.273	5223
829.412	5155
829.551	5181
829.69	5220
829.829	5273
829.968	5406
830.107	5280
830.246	5318
830.385	5227
830.524	5136
830.663	5090
830.802	4995
830.941	4949
831.08	4896
831.219	4976
831.357	4991
831.496	5197
831.635	4949
831.774	4847
831.913	4854
832.051	4767
832.19	4816
832.329	4835
832.467	4675
832.606	4653
832.744	4729
832.883	4702
833.022	4721
833.16	4820
833.299	4885
833.437	4889
833.576	4911
833.714	4847
833.852	4961
833.991	4885
834.129	4968
834.267	4972
834.406	4965
834.544	5022
834.682	5033
834.821	5010
834.959	5185
835.097	4980
835.235	5201
835.373	5124
835.511	5140
835.65	5064
835.788	5067
835.926	4919
836.064	4911
836.202	4991
836.34	5201
836.478	5258
836.615	5174
836.753	5204
836.891	5315
837.029	5303
837.167	5235
837.305	5201
837.443	5170
837.58	5124
837.718	5292
837.856	5208
837.993	5162
838.131	5250
838.269	5261
838.406	5223
838.544	5181
838.681	5041
838.819	5018
838.956	4930
839.094	4946
839.231	4987
839.369	5064
839.506	5410
839.643	5258
839.781	5048
839.918	5025
840.055	5117
840.193	5109
840.33	5117
840.467	5181
840.604	5193
840.742	5383
840.879	5033
841.016	5151
841.153	5231
841.29	5372
841.427	5284
841.564	5326
841.701	5379
841.838	5341
841.975	5261
842.112	5277
842.249	5178
842.385	5151
842.522	5334
842.659	5189
842.796	5124
842.933	5208
843.069	5185
843.206	5170
843.343	5349
843.479	5250
843.616	5288
843.752	5060
843.889	5018
844.025	5220
844.162	5018
844.298	5311
844.435	5147
844.571	5151
844.708	5151
844.844	5311
844.98	5311
845.117	5318
845.253	5155
845.389	5086
845.525	5208
845.661	5170
845.798	5033
845.934	5208
846.07	5094
846.206	5239
846.342	5303
846.478	5220
846.614	4995
846.75	5014
846.886	4957
847.022	5147
847.158	5029
847.294	5083
847.429	5143
847.565	5121
847.701	5349
847.837	4896
847.972	4850
848.108	4976
848.244	5018
848.379	4778
848.515	4717
848.65	4759
848.786	4797
848.921	4820
849.057	4885
849.192	4949
849.328	4862
849.463	4858
849.598	4790
849.734	4771
849.869	4771
850.004	4656
850.14	4717
850.275	4622
850.41	4596
850.545	4630
850.68	4668
850.815	4607
850.95	4649
851.085	4881
851.22	4771
851.355	4683
851.49	4637
851.625	4626
851.76	4675
851.895	4630
852.03	4588
852.165	4687
852.299	4733
852.434	4801
852.569	4767
852.703	4774
852.838	4850
852.973	4984
853.107	4946
853.242	4793
853.376	4706
853.511	4603
853.645	4607
853.78	4805
853.914	4771
854.048	4691
854.183	4637
854.317	4717
854.451	4870
854.585	4683
854.72	4687
854.854	4797
854.988	4611
855.122	4645
855.256	4527
855.39	4675
855.524	4759
855.658	4736
855.792	4710
855.926	4744
856.06	4752
856.194	4847
856.327	4759
856.461	4672
856.595	4630
856.729	4664
856.862	4782
856.996	4702
857.13	4774
857.263	4786
857.397	4881
857.53	4714
857.664	4759
857.797	4755
857.931	4763
858.064	4698
858.197	4763
858.331	4664
858.464	4649
858.597	4569
858.731	4649
858.864	4672
858.997	4611
859.13	4668
859.263	4660
859.396	4771
859.529	4561
859.662	4535
859.795	4523
859.928	4634
860.061	4767
860.194	4767
860.327	4634
860.46	4592
860.592	4744
860.725	4752
860.858	4714
860.99	4618
861.123	4493
861.256	4618
861.388	4634
861.521	5296
861.653	4485
861.786	4508
861.918	4478
862.05	4546
862.183	4599
862.315	4615
862.447	4622
862.58	4542
862.712	4440
862.844	4371
862.976	4462
863.108	4436
863.24	4816
863.372	4375
863.504	4455
863.636	4398
863.768	4493
863.9	4466
864.032	4413
864.164	4421
864.296	4516
864.428	4565
864.559	4577
864.691	4554
864.823	4538
864.954	4512
865.086	4504
865.217	4500
865.349	4447
865.48	4516
865.612	4516
865.743	4626
865.875	4470
866.006	4394
866.137	4531
866.269	4466
866.4	4489
866.531	4466
866.662	4447
866.793	4428
866.924	4436
867.055	4497
867.186	4466
867.317	4470
867.448	4386
867.579	4421
867.71	4402
867.841	4402
867.972	4565
868.103	4508
868.233	4508
868.364	4455
868.495	4493
868.625	4675
868.756	4774
868.886	4588
869.017	4611
869.147	4820
869.278	4793
869.408	4653
869.539	4691
869.669	4752
869.799	4721
869.929	4809
870.06	4752
870.19	5010
870.32	4900
870.45	4953
870.58	5014
870.71	5083
870.84	5140
870.97	4999
871.1	4885
871.23	5197
871.36	5155
871.489	5067
871.619	5094
871.749	5159
871.879	5155
872.008	5208
872.138	5090
872.267	5056
872.397	4866
872.526	4824
872.656	4710
872.785	4809
872.915	5006
873.044	5033
873.173	4885
873.303	4984
873.432	5003
873.561	4949
873.69	4927
873.819	4866
873.948	4911
874.077	4843
874.206	4763
874.335	4831
874.464	4927
874.593	5033
874.722	4976
874.851	5098
874.979	5071
875.108	5045
875.237	4927
875.365	4889
875.494	4873
875.623	4987
875.751	4881
875.88	4858
876.008	4984
876.136	5064
876.265	5265
876.393	5387
876.521	5220
876.65	5166
876.778	5121
876.906	5136
877.034	5056
877.162	4995
877.29	5033
877.418	5025
877.546	5071
877.674	5094
877.802	5079
877.93	5018
878.058	4976
878.185	4885
878.313	4953
878.441	4987
878.568	4835
878.696	4854
878.824	4938
878.951	5045
879.079	5147
879.206	5322
879.333	5083
879.461	4980
879.588	5060
879.715	5204
879.842	5227
879.97	5045
880.097	4847
880.224	4763
880.351	4782
880.478	4877
880.605	4820
880.732	4797
880.859	5140
880.986	4908
881.112	4946
881.239	4786
881.366	4717
881.493	4645
881.619	4596
881.746	4626
881.872	4664
881.999	4668
882.125	4755
882.252	4843
882.378	4774
882.505	4942
882.631	4816
882.757	4698
882.883	4729
883.01	4755
883.136	4675
883.262	4653
883.388	4641
883.514	4801
883.64	4843
883.766	4835
883.892	4675
884.018	4733
884.143	4892
884.269	4995
884.395	4694
884.52	4660
884.646	4675
884.772	4634
884.897	4542
885.023	4649
885.148	4736
885.274	4904
885.399	4816
885.524	4702
885.65	4714
885.775	4782
885.9	4710
886.025	4866
886.15	4793
886.275	4706
886.4	4683
886.525	4736
886.65	4698
886.775	4668
886.9	4900
887.025	4991
887.149	4767
887.274	4626
887.399	4622
887.523	4615
887.648	4622
887.773	4607
887.897	4782
888.021	4793
888.146	4698
888.27	4847
888.395	4961
888.519	4824
888.643	4839
888.767	4782
888.891	4668
889.015	4611
889.139	4584
889.263	4607
889.387	4725
889.511	4858
889.635	4812
889.759	4675
889.883	4660
890.006	4778
890.13	4816
890.254	4698
890.377	4668
890.501	4558
890.624	4546
890.748	4622
890.871	4516
890.995	4424
891.118	4394
891.241	4561
891.364	4523
891.488	4675
891.611	4497
891.734	4538
891.857	4679
891.98	4580
892.103	4664
892.226	4596
892.349	4516
892.471	4451
892.594	4523
892.717	4569
892.839	4573
892.962	4584
893.085	4683
893.207	4622
893.33	4474
893.452	4561
893.575	4656
893.697	4592
893.819	4805
893.941	4793
894.064	4763
894.186	4588
894.308	4580
894.43	4755
894.552	4835
894.674	4755
894.796	4573
894.918	4607
895.04	4538
895.161	4683
895.283	4630
895.405	4588
895.526	4637
895.648	4702
895.769	4717
895.891	4729
896.012	4748
896.134	4729
896.255	4694
896.376	4668
896.498	4607
896.619	4706
896.74	4615
896.861	4622
896.982	4938
897.103	5090
897.224	4816
897.345	4778
897.466	4645
897.587	4733
897.708	4892
897.828	4778
897.949	4714
898.07	4577
898.19	4660
898.311	4820
898.431	4687
898.552	4729
898.672	4847
898.792	4809
898.913	4744
899.033	4618
899.153	4523
899.273	4421
899.393	4523
899.513	4538
899.633	4558
899.753	4558
899.873	4474
899.993	4573
900.113	4504
900.232	4592
900.352	4592
900.472	4489
900.591	4421
900.711	4504
900.83	4413
900.95	4599
901.069	4691
901.189	4516
901.308	4341
901.427	4333
901.546	4398
901.665	4489
901.784	4489
901.904	4386
902.023	4318
902.141	4181
902.26	4143
902.379	4291
902.498	4246
902.617	4265
902.735	4352
902.854	4394
902.973	4310
903.091	4223
903.21	4234
903.328	4306
903.446	4287
903.565	4242
903.683	4379
903.801	4280
903.919	4424
904.038	4462
904.156	4360
904.274	4405
904.392	4402
904.51	4459
904.627	4428
904.745	4580
904.863	4634
904.981	4394
905.098	4268
905.216	4375
905.334	4436
905.451	4440
905.569	4474
905.686	4493
905.803	4596
905.921	4405
906.038	4588
906.155	4474
906.272	4428
906.389	4455
906.506	4344
906.623	4363
906.74	4405
906.857	4265
906.974	4390
907.091	4573
907.208	4698
907.324	4626
907.441	4546
907.557	4360
907.674	4398
907.79	4341
907.907	4386
908.023	4504
908.139	4527
908.256	4455
908.372	4459
908.488	4424
908.604	4333
908.72	4329
908.836	4413
908.952	4375
909.068	4417
909.184	4561
909.3	4462
909.415	4542
909.531	4584
909.647	4310
909.762	4367
909.878	4333
909.993	4443
910.108	4390
910.224	4356
910.339	4481
910.454	4386
910.57	4405
910.685	4291
910.8	4679
910.915	4584
911.03	4512
911.145	4291
911.259	4363
911.374	4367
911.489	4295
911.604	4303
911.718	4147
911.833	4227
911.947	4147
912.062	4078
912.176	4192
912.291	4242
912.405	4287
912.519	4474
912.633	4493
912.748	4367
912.862	4295
912.976	4215
913.09	4097
913.204	4188
913.318	4291
913.431	4348
913.545	4379
913.659	4413
913.772	4348
913.886	4234
914	4200
914.113	4344
914.226	4497
914.34	4424
914.453	4287
914.566	4428
914.68	4306
914.793	4314
914.906	4139
915.019	4090
915.132	4082
915.245	4196
915.358	4215
915.47	4265
915.583	4234
915.696	4249
915.809	4405
915.921	4424
916.034	4299
916.146	4238
916.259	4215
916.371	4352
916.483	4360
916.595	4234
916.708	4341
916.82	4344
916.932	4291
917.044	4314
917.156	4303
917.268	4200
917.38	4295
917.491	4253
917.603	4318
917.715	4398
917.826	4455
917.938	4352
918.049	4223
918.161	4402
918.272	4527
918.384	4516
918.495	4451
918.606	4287
918.717	4196
918.828	4329
918.939	4344
919.05	4230
919.161	4329
919.272	4128
919.383	4284
919.494	4405
919.604	4649
919.715	4451
919.826	4341
919.936	4398
920.047	4554
920.157	4474
920.267	4698
920.378	4489
920.488	4512
920.598	4725
920.708	4870
920.818	4744
920.928	4771
921.038	5003
921.148	4896
921.258	4691
921.368	4558
921.477	4504
921.587	4481
921.697	4367
921.806	4577
921.916	4421
922.025	4306
922.134	4318
922.244	4200
922.353	4310
922.462	4143
922.571	4109
922.68	3979
922.789	3991
922.898	4036
923.007	3956
923.116	4105
923.224	4071
923.333	4093
923.442	3949
923.55	3972
923.659	4013
923.767	4086
923.876	3975
923.984	4093
924.092	3983
924.201	4082
924.309	4090
924.417	4128
924.525	4017
924.633	4105
924.741	5079
924.849	3880
924.956	4128
925.064	4010
925.172	3903
925.279	3968
925.387	4090
925.494	4093
925.602	4246
925.709	4196
925.816	4059
925.924	4128
926.031	4207
926.138	4169
926.245	4227
926.352	4101
926.459	4261
926.566	4329
926.673	4128
926.779	4090
926.886	4150
926.993	3979
927.099	4021
927.206	3960
927.312	3937
927.419	4078
927.525	4040
927.631	4120
927.737	3983
927.843	3975
927.95	3850
928.056	3960
928.162	4017
928.267	4086
928.373	4584
928.479	4150
928.585	3876
928.69	4006
928.796	4078
928.901	3964
929.007	3842
929.112	4002
929.218	3968
929.323	3968
929.428	3949
929.533	4082
929.638	3934
929.743	3949
929.848	4029
929.953	3979
930.058	3945
930.163	3766
930.267	3808
930.372	3975
930.477	3808
930.581	4093
930.685	3960
930.79	3827
930.894	3934
930.998	3854
931.103	4059
931.207	3740
931.311	3709
931.415	3679
931.519	3500
931.623	3553
