Data from test_V78500241_1137.txt Node
Date: Fri Mar 25 16:56:54 CST 2022
User: usil
Spectrometer: V785-0024
Trigger mode: 0
Integration Time (sec): 4.000000E-1
Scans to average: 1
Nonlinearity correction enabled: false
Boxcar width: 0
Storing dark spectrum: false
XAxis mode: Wavelengths
Number of Pixels in Spectrum: 1024
>>>>>Begin Spectral Data<<<<<
801.071	8065
801.214	8027
801.356	7887
801.499	7780
801.641	7818
801.783	7811
801.926	8043
802.068	7947
802.211	7955
802.353	7928
802.496	7811
802.638	7894
802.78	7833
802.923	7955
803.065	7837
803.208	7826
803.35	7955
803.492	8046
803.635	8119
803.777	8088
803.919	8103
804.061	8400
804.204	8134
804.346	8153
804.488	7955
804.63	8039
804.773	7963
804.915	8126
805.057	8279
805.199	8161
805.341	8187
805.483	8210
805.626	8180
805.768	8111
805.91	8180
806.052	8168
806.194	8130
806.336	8225
806.478	8084
806.62	8005
806.762	8065
806.904	8271
807.046	8507
807.188	8339
807.33	8237
807.472	8339
807.614	8130
807.756	8119
807.898	7974
808.04	7868
808.182	7932
808.324	7875
808.465	7959
808.607	8058
808.749	8111
808.891	8225
809.033	8324
809.174	8153
809.316	8024
809.458	8046
809.6	7944
809.741	8054
809.883	7986
810.025	8008
810.166	7993
810.308	8012
810.45	8043
810.591	7883
810.733	7670
810.875	7620
811.016	7434
811.158	7495
811.299	7578
811.441	7647
811.582	7670
811.724	7594
811.865	7491
812.007	7533
812.148	7487
812.29	7590
812.431	7742
812.573	7887
812.714	7951
812.855	8088
812.997	8138
813.138	8256
813.279	8164
813.421	8073
813.562	7970
813.703	7841
813.845	7792
813.986	7510
814.127	7266
814.268	7217
814.41	7183
814.551	7095
814.692	7152
814.833	7065
814.974	6966
815.115	7088
815.256	6901
815.397	6943
815.539	6958
815.68	6852
815.821	6787
815.962	6848
816.103	6833
816.244	6745
816.385	6635
816.526	6597
816.666	6475
816.807	6239
816.948	6452
817.089	6506
817.23	6403
817.371	6365
817.512	6433
817.653	6353
817.793	6300
817.934	6445
818.075	6448
818.216	6418
818.356	6410
818.497	6228
818.638	6060
818.778	6114
818.919	6140
819.06	6095
819.2	6304
819.341	6334
819.481	6369
819.622	6506
819.762	6665
819.903	6688
820.043	6544
820.184	6528
820.324	6563
820.465	6662
820.605	6700
820.746	6677
820.886	6551
821.026	6597
821.167	6692
821.307	6810
821.447	6779
821.588	6642
821.728	6578
821.868	6506
822.008	6289
822.149	6429
822.289	6418
822.429	6125
822.569	6159
822.709	6110
822.849	5977
822.99	5942
823.13	5958
823.27	5950
823.41	5771
823.55	5855
823.69	5775
823.83	5809
823.97	5638
824.11	5573
824.25	5520
824.389	5585
824.529	5600
824.669	5532
824.809	5657
824.949	5668
825.089	5608
825.228	5577
825.368	5376
825.508	5345
825.648	5326
825.787	5410
825.927	5448
826.067	5311
826.206	5269
826.346	5433
826.485	5402
826.625	5448
826.765	5528
826.904	5490
827.044	5254
827.183	5155
827.323	5147
827.462	5303
827.601	5178
827.741	5250
827.88	5246
828.02	5162
828.159	5261
828.298	5322
828.437	5379
828.577	5292
828.716	5547
828.855	5337
828.994	5159
829.134	5174
829.273	5197
829.412	5204
829.551	5166
829.69	5208
829.829	5227
829.968	5417
830.107	5265
830.246	5296
830.385	5181
830.524	5124
830.663	5098
830.802	5025
830.941	4930
831.08	4938
831.219	4991
831.357	4987
831.496	5178
831.635	4919
831.774	4843
831.913	4896
832.051	4752
832.19	4763
832.329	4858
832.467	4714
832.606	4687
832.744	4733
832.883	4774
833.022	4733
833.16	4797
833.299	4805
833.437	4843
833.576	4839
833.714	4934
833.852	4889
833.991	4896
834.129	5003
834.267	4987
834.406	4889
834.544	4995
834.682	5029
834.821	4991
834.959	5197
835.097	5033
835.235	5193
835.373	5132
835.511	5136
835.65	5052
835.788	5022
835.926	4927
836.064	4896
836.202	4930
836.34	5204
836.478	5239
836.615	5166
836.753	5208
836.891	5296
837.029	5303
837.167	5246
837.305	5166
837.443	5193
837.58	5102
837.718	5254
837.856	5258
837.993	5201
838.131	5265
838.269	5242
838.406	5258
838.544	5147
838.681	5090
838.819	5029
838.956	4927
839.094	4965
839.231	4953
839.369	5102
839.506	5448
839.643	5296
839.781	5060
839.918	4999
840.055	5109
840.193	5094
840.33	5185
840.467	5178
840.604	5227
840.742	5452
840.879	5079
841.016	5064
841.153	5098
841.29	5334
841.427	5353
841.564	5341
841.701	5353
841.838	5303
841.975	5277
842.112	5337
842.249	5235
842.385	5090
842.522	5318
842.659	5201
842.796	5162
842.933	5239
843.069	5136
843.206	5170
843.343	5315
843.479	5242
843.616	5284
843.752	5010
843.889	5083
844.025	5212
844.162	5029
844.298	5223
844.435	5140
844.571	5094
844.708	5197
844.844	5322
844.98	5330
845.117	5334
845.253	5162
845.389	5102
845.525	5189
845.661	5121
845.798	5018
845.934	5189
846.07	5052
846.206	5212
846.342	5303
846.478	5166
846.614	5018
846.75	4965
846.886	4957
847.022	5174
847.158	5025
847.294	5098
847.429	5067
847.565	5090
847.701	5383
847.837	4881
847.972	4828
848.108	4949
848.244	4957
848.379	4816
848.515	4755
848.65	4736
848.786	4748
848.921	4782
849.057	4904
849.192	4927
849.328	4812
849.463	4835
849.598	4805
849.734	4755
849.869	4672
850.004	4660
850.14	4637
850.275	4622
850.41	4577
850.545	4622
850.68	4634
850.815	4645
850.95	4645
851.085	4881
851.22	4729
851.355	4656
851.49	4679
851.625	4683
851.76	4675
851.895	4630
852.03	4538
852.165	4714
852.299	4710
852.434	4801
852.569	4767
852.703	4805
852.838	4870
852.973	4915
853.107	4949
853.242	4729
853.376	4702
853.511	4599
853.645	4683
853.78	4839
853.914	4675
854.048	4668
854.183	4634
854.317	4717
854.451	4870
854.585	4706
854.72	4649
854.854	4793
854.988	4596
855.122	4698
855.256	4607
855.39	4694
855.524	4805
855.658	4748
855.792	4706
855.926	4767
856.06	4733
856.194	4824
856.327	4725
856.461	4656
856.595	4622
856.729	4603
856.862	4736
856.996	4683
857.13	4740
857.263	4774
857.397	4835
857.53	4687
857.664	4721
857.797	4812
857.931	4809
858.064	4679
858.197	4774
858.331	4687
858.464	4630
858.597	4535
858.731	4618
858.864	4649
858.997	4653
859.13	4649
859.263	4748
859.396	4725
859.529	4607
859.662	4584
859.795	4580
859.928	4694
860.061	4805
860.194	4744
860.327	4622
860.46	4615
860.592	4702
860.725	4767
860.858	4706
860.99	4554
861.123	4527
861.256	4538
861.388	4630
861.521	5372
861.653	4443
861.786	4436
861.918	4462
862.05	4527
862.183	4558
862.315	4630
862.447	4660
862.58	4554
862.712	4436
862.844	4375
862.976	4481
863.108	4485
863.24	4915
863.372	4409
863.504	4390
863.636	4485
863.768	4478
863.9	4440
864.032	4402
864.164	4417
864.296	4485
864.428	4569
864.559	4577
864.691	4561
864.823	4546
864.954	4474
865.086	4500
865.217	4451
865.349	4424
865.48	4447
865.612	4527
865.743	4645
865.875	4481
866.006	4451
866.137	4466
866.269	4432
866.4	4428
866.531	4398
866.662	4409
866.793	4440
866.924	4421
867.055	4462
867.186	4535
867.317	4421
867.448	4367
867.579	4367
867.71	4424
867.841	4386
867.972	4485
868.103	4497
868.233	4478
868.364	4462
868.495	4512
868.625	4687
868.756	4725
868.886	4546
869.017	4584
869.147	4744
869.278	4755
869.408	4641
869.539	4649
869.669	4714
869.799	4660
869.929	4782
870.06	4755
870.19	4911
870.32	4900
870.45	4923
870.58	5006
870.71	5094
870.84	5109
870.97	4942
871.1	4938
871.23	5162
871.36	5140
871.489	5014
871.619	5071
871.749	5090
871.879	5136
872.008	5223
872.138	5071
872.267	5003
872.397	4854
872.526	4816
872.656	4755
872.785	4824
872.915	4957
873.044	5014
873.173	4923
873.303	5022
873.432	4923
873.561	4968
873.69	4949
873.819	4847
873.948	4881
874.077	4790
874.206	4771
874.335	4809
874.464	4980
874.593	5037
874.722	5029
874.851	5109
874.979	5052
875.108	5102
875.237	4949
875.365	4870
875.494	4881
875.623	4995
875.751	4847
875.88	4900
876.008	4991
876.136	5045
876.265	5231
876.393	5345
876.521	5258
876.65	5212
876.778	5143
876.906	5048
877.034	5048
877.162	5014
877.29	4976
877.418	5056
877.546	5067
877.674	5045
877.802	5048
877.93	4999
878.058	4930
878.185	4854
878.313	4949
878.441	4953
878.568	4774
878.696	4843
878.824	4987
878.951	4987
879.079	5181
879.206	5280
879.333	5117
879.461	4961
879.588	4976
879.715	5143
879.842	5258
879.97	4976
880.097	4809
880.224	4759
880.351	4843
880.478	4763
880.605	4824
880.732	4782
880.859	5128
880.986	4927
881.112	4965
881.239	4755
881.366	4653
881.493	4542
881.619	4588
881.746	4622
881.872	4649
881.999	4637
882.125	4706
882.252	4774
882.378	4858
882.505	4946
882.631	4812
882.757	4702
882.883	4710
883.01	4733
883.136	4656
883.262	4645
883.388	4596
883.514	4812
883.64	4930
883.766	4839
883.892	4710
884.018	4736
884.143	4892
884.269	4987
884.395	4653
884.52	4637
884.646	4630
884.772	4584
884.897	4561
885.023	4687
885.148	4778
885.274	4923
885.399	4805
885.524	4748
885.65	4683
885.775	4717
885.9	4679
886.025	4850
886.15	4839
886.275	4790
886.4	4740
886.525	4752
886.65	4668
886.775	4672
886.9	4911
887.025	5025
887.149	4820
887.274	4675
887.399	4603
887.523	4588
887.648	4584
887.773	4649
887.897	4812
888.021	4793
888.146	4675
888.27	4820
888.395	4915
888.519	4793
888.643	4847
888.767	4774
888.891	4717
889.015	4588
889.139	4653
889.263	4611
889.387	4744
889.511	4843
889.635	4809
889.759	4630
889.883	4596
890.006	4710
890.13	4816
890.254	4588
890.377	4694
890.501	4519
890.624	4550
890.748	4641
890.871	4508
890.995	4478
891.118	4394
891.241	4558
891.364	4531
891.488	4698
891.611	4504
891.734	4584
891.857	4611
891.98	4607
892.103	4679
892.226	4596
892.349	4580
892.471	4386
892.594	4569
892.717	4569
892.839	4558
892.962	4573
893.085	4672
893.207	4603
893.33	4455
893.452	4485
893.575	4679
893.697	4561
893.819	4805
893.941	4877
894.064	4801
894.186	4573
894.308	4554
894.43	4687
894.552	4828
894.674	4744
894.796	4550
894.918	4607
895.04	4561
895.161	4710
895.283	4656
895.405	4596
895.526	4672
895.648	4691
895.769	4683
895.891	4668
896.012	4763
896.134	4687
896.255	4603
896.376	4630
896.498	4558
896.619	4630
896.74	4592
896.861	4675
896.982	4938
897.103	5064
897.224	4824
897.345	4759
897.466	4653
897.587	4702
897.708	4858
897.828	4778
897.949	4683
898.07	4535
898.19	4660
898.311	4831
898.431	4691
898.552	4744
898.672	4774
898.792	4759
898.913	4687
899.033	4615
899.153	4508
899.273	4421
899.393	4527
899.513	4516
899.633	4519
899.753	4561
899.873	4516
899.993	4558
900.113	4569
900.232	4527
900.352	4535
900.472	4493
900.591	4413
900.711	4519
900.83	4436
900.95	4577
901.069	4706
901.189	4538
901.308	4333
901.427	4329
901.546	4390
901.665	4481
901.784	4462
901.904	4421
902.023	4310
902.141	4192
902.26	4147
902.379	4314
902.498	4265
902.617	4234
902.735	4356
902.854	4390
902.973	4352
903.091	4219
903.21	4215
903.328	4295
903.446	4257
903.565	4280
903.683	4367
903.801	4303
903.919	4394
904.038	4447
904.156	4314
904.274	4417
904.392	4459
904.51	4405
904.627	4462
904.745	4569
904.863	4634
904.981	4379
905.098	4287
905.216	4341
905.334	4455
905.451	4413
905.569	4413
905.686	4546
905.803	4550
905.921	4424
906.038	4580
906.155	4451
906.272	4375
906.389	4470
906.506	4371
906.623	4375
906.74	4386
906.857	4287
906.974	4383
907.091	4535
907.208	4649
907.324	4607
907.441	4508
907.557	4352
907.674	4344
907.79	4306
907.907	4341
908.023	4459
908.139	4470
908.256	4447
908.372	4455
908.488	4447
908.604	4333
908.72	4352
908.836	4341
908.952	4383
909.068	4459
909.184	4573
909.3	4497
909.415	4611
909.531	4527
909.647	4325
909.762	4337
909.878	4268
909.993	4455
910.108	4421
910.224	4371
910.339	4512
910.454	4440
910.57	4371
910.685	4291
910.8	4626
910.915	4599
911.03	4497
911.145	4291
911.259	4356
911.374	4318
911.489	4276
911.604	4306
911.718	4154
911.833	4200
911.947	4086
912.062	4040
912.176	4223
912.291	4215
912.405	4227
912.519	4466
912.633	4523
912.748	4375
912.862	4329
912.976	4204
913.09	4097
913.204	4196
913.318	4253
913.431	4363
913.545	4344
913.659	4409
913.772	4386
913.886	4261
914	4188
914.113	4402
914.226	4466
914.34	4367
914.453	4207
914.566	4432
914.68	4329
914.793	4363
914.906	4131
915.019	4109
915.132	4116
915.245	4207
915.358	4230
915.47	4230
915.583	4223
915.696	4314
915.809	4409
915.921	4432
916.034	4249
916.146	4249
916.259	4204
916.371	4375
916.483	4367
916.595	4314
916.708	4337
916.82	4329
916.932	4322
917.044	4352
917.156	4352
917.268	4207
917.38	4257
917.491	4318
917.603	4360
917.715	4466
917.826	4394
917.938	4371
918.049	4242
918.161	4375
918.272	4531
918.384	4493
918.495	4481
918.606	4284
918.717	4238
918.828	4333
918.939	4344
919.05	4261
919.161	4356
919.272	4150
919.383	4280
919.494	4443
919.604	4611
919.715	4459
919.826	4314
919.936	4394
920.047	4474
920.157	4466
920.267	4672
920.378	4523
920.488	4497
920.598	4668
920.708	4881
920.818	4706
920.928	4744
921.038	4957
921.148	4885
921.258	4607
921.368	4550
921.477	4470
921.587	4436
921.697	4348
921.806	4519
921.916	4428
922.025	4242
922.134	4284
922.244	4219
922.353	4360
922.462	4192
922.571	4131
922.68	4010
922.789	4002
922.898	4040
923.007	3987
923.116	4124
923.224	4097
923.333	4078
923.442	3964
923.55	3987
923.659	4063
923.767	4082
923.876	3998
923.984	4116
924.092	3949
924.201	4048
924.309	4101
924.417	4097
924.525	4071
924.633	4093
924.741	5079
924.849	3892
924.956	4135
925.064	3964
925.172	3911
925.279	3987
925.387	4063
925.494	4093
925.602	4234
925.709	4192
925.816	3994
925.924	4116
926.031	4219
926.138	4131
926.245	4181
926.352	4101
926.459	4230
926.566	4272
926.673	4196
926.779	4074
926.886	4074
926.993	3964
927.099	3945
927.206	3949
927.312	3949
927.419	4078
927.525	4044
927.631	4086
927.737	3945
927.843	3949
927.95	3857
928.056	3945
928.162	3960
928.267	3998
928.373	4664
928.479	4067
928.585	3876
928.69	4021
928.796	4044
928.901	3945
929.007	3854
929.112	3998
929.218	3972
929.323	3926
929.428	3915
929.533	4082
929.638	3918
929.743	3945
929.848	4025
929.953	4010
930.058	3930
930.163	3759
930.267	3838
930.372	3956
930.477	3800
930.581	4078
930.685	3896
930.79	3800
930.894	3880
930.998	3880
931.103	4067
931.207	3724
931.311	3701
931.415	3667
931.519	3530
931.623	3557
