Data from test_V78500241_204.txt Node
Date: Fri Mar 25 16:50:25 CST 2022
User: usil
Spectrometer: V785-0024
Trigger mode: 0
Integration Time (sec): 4.000000E-1
Scans to average: 1
Nonlinearity correction enabled: false
Boxcar width: 0
Storing dark spectrum: false
XAxis mode: Wavelengths
Number of Pixels in Spectrum: 1024
>>>>>Begin Spectral Data<<<<<
801.071	8058
801.214	7989
801.356	7841
801.499	7864
801.641	7792
801.783	7860
801.926	7997
802.068	7982
802.211	7989
802.353	8027
802.496	7837
802.638	7925
802.78	7963
802.923	7913
803.065	7841
803.208	7852
803.35	8024
803.492	8134
803.635	8088
803.777	8008
803.919	8134
804.061	8355
804.204	8081
804.346	8031
804.488	7986
804.63	8012
804.773	8008
804.915	8065
805.057	8267
805.199	8096
805.341	8233
805.483	8298
805.626	8199
805.768	8069
805.91	8081
806.052	8153
806.194	8084
806.336	8309
806.478	8138
806.62	8001
806.762	8115
806.904	8157
807.046	8336
807.188	8290
807.33	8259
807.472	8282
807.614	8084
807.756	8123
807.898	7978
808.04	7868
808.182	7955
808.324	7894
808.465	7871
808.607	8046
808.749	8065
808.891	8259
809.033	8294
809.174	8237
809.316	8043
809.458	8069
809.6	7959
809.741	8054
809.883	8016
810.025	8119
810.166	8138
810.308	8005
810.45	7989
810.591	7936
810.733	7757
810.875	7685
811.016	7521
811.158	7537
811.299	7548
811.441	7715
811.582	7647
811.724	7567
811.865	7529
812.007	7605
812.148	7632
812.29	7571
812.431	7769
812.573	7845
812.714	7959
812.855	8164
812.997	8206
813.138	8374
813.279	8164
813.421	8149
813.562	8020
813.703	7944
813.845	7780
813.986	7506
814.127	7270
814.268	7202
814.41	7217
814.551	7255
814.692	7179
814.833	7209
814.974	7126
815.115	7149
815.256	7023
815.397	6958
815.539	6985
815.68	6802
815.821	6825
815.962	6829
816.103	6882
816.244	6798
816.385	6650
816.526	6658
816.666	6578
816.807	6311
816.948	6441
817.089	6471
817.23	6479
817.371	6384
817.512	6426
817.653	6380
817.793	6361
817.934	6380
818.075	6422
818.216	6422
818.356	6433
818.497	6205
818.638	6072
818.778	6114
818.919	6167
819.06	6152
819.2	6327
819.341	6296
819.481	6372
819.622	6502
819.762	6719
819.903	6673
820.043	6563
820.184	6483
820.324	6593
820.465	6623
820.605	6642
820.746	6635
820.886	6490
821.026	6734
821.167	6692
821.307	6806
821.447	6726
821.588	6616
821.728	6597
821.868	6521
822.008	6372
822.149	6372
822.289	6369
822.429	6152
822.569	6117
822.709	6186
822.849	5901
822.99	5942
823.13	5866
823.27	5946
823.41	5802
823.55	5756
823.69	5733
823.83	5794
823.97	5649
824.11	5551
824.25	5547
824.389	5516
824.529	5592
824.669	5577
824.809	5623
824.949	5695
825.089	5596
825.228	5520
825.368	5357
825.508	5372
825.648	5383
825.787	5341
825.927	5402
826.067	5337
826.206	5223
826.346	5360
826.485	5395
826.625	5402
826.765	5547
826.904	5482
827.044	5239
827.183	5178
827.323	5159
827.462	5227
827.601	5140
827.741	5174
827.88	5181
828.02	5128
828.159	5261
828.298	5315
828.437	5296
828.577	5265
828.716	5501
828.855	5299
828.994	5147
829.134	5178
829.273	5170
829.412	5121
829.551	5132
829.69	5189
829.829	5227
829.968	5360
830.107	5269
830.246	5303
830.385	5162
830.524	5136
830.663	5018
830.802	4965
830.941	4919
831.08	4862
831.219	4976
831.357	4991
831.496	5124
831.635	4892
831.774	4816
831.913	4858
832.051	4740
832.19	4790
832.329	4847
832.467	4675
832.606	4668
832.744	4729
832.883	4637
833.022	4714
833.16	4793
833.299	4793
833.437	4805
833.576	4889
833.714	4847
833.852	4839
833.991	4908
834.129	4999
834.267	4949
834.406	4915
834.544	4987
834.682	4980
834.821	4999
834.959	5132
835.097	5014
835.235	5132
835.373	5121
835.511	5086
835.65	5056
835.788	5060
835.926	4904
836.064	4919
836.202	4904
836.34	5162
836.478	5299
836.615	5132
836.753	5166
836.891	5330
837.029	5261
837.167	5220
837.305	5178
837.443	5166
837.58	5094
837.718	5231
837.856	5216
837.993	5159
838.131	5273
838.269	5220
838.406	5223
838.544	5181
838.681	5060
838.819	4991
838.956	4889
839.094	4885
839.231	4927
839.369	5083
839.506	5421
839.643	5261
839.781	5079
839.918	4946
840.055	5048
840.193	5102
840.33	5105
840.467	5109
840.604	5181
840.742	5417
840.879	5136
841.016	5121
841.153	5155
841.29	5345
841.427	5330
841.564	5330
841.701	5364
841.838	5273
841.975	5242
842.112	5280
842.249	5102
842.385	5124
842.522	5299
842.659	5185
842.796	5197
842.933	5151
843.069	5132
843.206	5178
843.343	5326
843.479	5216
843.616	5258
843.752	5018
843.889	5060
844.025	5223
844.162	5052
844.298	5193
844.435	5121
844.571	4976
844.708	5231
844.844	5292
844.98	5383
845.117	5296
845.253	5136
845.389	5113
845.525	5162
845.661	5174
845.798	5083
845.934	5117
846.07	5006
846.206	5185
846.342	5269
846.478	5151
846.614	4999
846.75	4987
846.886	4949
847.022	5102
847.158	4968
847.294	5136
847.429	5117
847.565	5067
847.701	5334
847.837	4862
847.972	4839
848.108	4942
848.244	4953
848.379	4778
848.515	4710
848.65	4748
848.786	4736
848.921	4816
849.057	4862
849.192	4908
849.328	4805
849.463	4824
849.598	4805
849.734	4759
849.869	4653
850.004	4618
850.14	4698
850.275	4607
850.41	4508
850.545	4584
850.68	4577
850.815	4664
850.95	4653
851.085	4847
851.22	4752
851.355	4675
851.49	4630
851.625	4615
851.76	4630
851.895	4588
852.03	4466
852.165	4660
852.299	4733
852.434	4793
852.569	4790
852.703	4763
852.838	4824
852.973	4946
853.107	4938
853.242	4744
853.376	4702
853.511	4558
853.645	4637
853.78	4801
853.914	4702
854.048	4679
854.183	4664
854.317	4694
854.451	4828
854.585	4717
854.72	4672
854.854	4752
854.988	4615
855.122	4637
855.256	4535
855.39	4660
855.524	4771
855.658	4771
855.792	4675
855.926	4733
856.06	4759
856.194	4831
856.327	4729
856.461	4653
856.595	4603
856.729	4630
856.862	4710
856.996	4675
857.13	4683
857.263	4752
857.397	4767
857.53	4626
857.664	4729
857.797	4782
857.931	4839
858.064	4694
858.197	4733
858.331	4649
858.464	4592
858.597	4527
858.731	4622
858.864	4645
858.997	4641
859.13	4634
859.263	4668
859.396	4740
859.529	4611
859.662	4599
859.795	4504
859.928	4698
860.061	4763
860.194	4767
860.327	4580
860.46	4538
860.592	4771
860.725	4706
860.858	4725
860.99	4580
861.123	4504
861.256	4538
861.388	4603
861.521	5280
861.653	4474
861.786	4413
861.918	4462
862.05	4523
862.183	4554
862.315	4611
862.447	4698
862.58	4599
862.712	4428
862.844	4314
862.976	4466
863.108	4493
863.24	4870
863.372	4341
863.504	4402
863.636	4402
863.768	4500
863.9	4451
864.032	4375
864.164	4363
864.296	4500
864.428	4569
864.559	4542
864.691	4542
864.823	4500
864.954	4527
865.086	4542
865.217	4466
865.349	4421
865.48	4421
865.612	4512
865.743	4630
865.875	4459
866.006	4436
866.137	4436
866.269	4428
866.4	4421
866.531	4409
866.662	4432
866.793	4379
866.924	4413
867.055	4455
867.186	4447
867.317	4398
867.448	4375
867.579	4413
867.71	4363
867.841	4344
867.972	4466
868.103	4459
868.233	4421
868.364	4424
868.495	4516
868.625	4637
868.756	4763
868.886	4523
869.017	4649
869.147	4774
869.278	4793
869.408	4622
869.539	4649
869.669	4683
869.799	4683
869.929	4793
870.06	4710
870.19	4995
870.32	4919
870.45	4980
870.58	5041
870.71	5067
870.84	5071
870.97	4938
871.1	4892
871.23	5174
871.36	5140
871.489	5052
871.619	5075
871.749	5140
871.879	5159
872.008	5208
872.138	5102
872.267	4984
872.397	4900
872.526	4835
872.656	4717
872.785	4866
872.915	4942
873.044	4961
873.173	4942
873.303	4999
873.432	4961
873.561	4984
873.69	4866
873.819	4885
873.948	4904
874.077	4843
874.206	4752
874.335	4809
874.464	4896
874.593	5010
874.722	4961
874.851	5098
874.979	5079
875.108	5056
875.237	4942
875.365	4885
875.494	4892
875.623	4972
875.751	4797
875.88	4881
876.008	4995
876.136	4919
876.265	5159
876.393	5349
876.521	5258
876.65	5273
876.778	5201
876.906	5117
877.034	4987
877.162	5090
877.29	5029
877.418	5048
877.546	5033
877.674	5090
877.802	5018
877.93	5010
878.058	4900
878.185	4915
878.313	4946
878.441	4984
878.568	4831
878.696	4858
878.824	5003
878.951	4972
879.079	5109
879.206	5288
879.333	5121
879.461	4999
879.588	5018
879.715	5151
879.842	5201
879.97	5006
880.097	4763
880.224	4790
880.351	4816
880.478	4809
880.605	4790
880.732	4843
880.859	5064
880.986	4919
881.112	4904
881.239	4786
881.366	4675
881.493	4637
881.619	4580
881.746	4679
881.872	4656
881.999	4656
882.125	4725
882.252	4793
882.378	4812
882.505	4957
882.631	4797
882.757	4736
882.883	4710
883.01	4736
883.136	4611
883.262	4603
883.388	4565
883.514	4816
883.64	4847
883.766	4809
883.892	4656
884.018	4752
884.143	4923
884.269	5006
884.395	4691
884.52	4603
884.646	4656
884.772	4577
884.897	4611
885.023	4740
885.148	4774
885.274	4854
885.399	4824
885.524	4675
885.65	4740
885.775	4740
885.9	4721
886.025	4938
886.15	4767
886.275	4691
886.4	4687
886.525	4691
886.65	4679
886.775	4668
886.9	4923
887.025	5079
887.149	4839
887.274	4679
887.399	4596
887.523	4596
887.648	4653
887.773	4584
887.897	4790
888.021	4752
888.146	4675
888.27	4835
888.395	4934
888.519	4820
888.643	4778
888.767	4843
888.891	4683
889.015	4611
889.139	4725
889.263	4630
889.387	4790
889.511	4885
889.635	4824
889.759	4649
889.883	4653
890.006	4687
890.13	4839
890.254	4611
890.377	4706
890.501	4531
890.624	4561
890.748	4649
890.871	4573
890.995	4424
891.118	4402
891.241	4481
891.364	4546
891.488	4687
891.611	4512
891.734	4535
891.857	4599
891.98	4558
892.103	4653
892.226	4596
892.349	4550
892.471	4440
892.594	4519
892.717	4554
892.839	4580
892.962	4641
893.085	4683
893.207	4615
893.33	4447
893.452	4519
893.575	4645
893.697	4573
893.819	4786
893.941	4858
894.064	4767
894.186	4565
894.308	4558
894.43	4710
894.552	4839
894.674	4752
894.796	4573
894.918	4577
895.04	4592
895.161	4687
895.283	4660
895.405	4603
895.526	4622
895.648	4679
895.769	4717
895.891	4729
896.012	4744
896.134	4721
896.255	4698
896.376	4649
896.498	4580
896.619	4691
896.74	4687
896.861	4653
896.982	4908
897.103	5117
897.224	4801
897.345	4793
897.466	4641
897.587	4740
897.708	4809
897.828	4820
897.949	4759
898.07	4565
898.19	4691
898.311	4843
898.431	4660
898.552	4744
898.672	4843
898.792	4767
898.913	4740
899.033	4622
899.153	4558
899.273	4462
899.393	4527
899.513	4512
899.633	4546
899.753	4538
899.873	4489
899.993	4611
900.113	4596
900.232	4630
900.352	4523
900.472	4489
900.591	4409
900.711	4470
900.83	4470
900.95	4626
901.069	4660
901.189	4561
901.308	4341
901.427	4318
901.546	4363
901.665	4497
901.784	4508
901.904	4390
902.023	4348
902.141	4166
902.26	4185
902.379	4318
902.498	4238
902.617	4261
902.735	4394
902.854	4371
902.973	4341
903.091	4192
903.21	4188
903.328	4344
903.446	4303
903.565	4287
903.683	4413
903.801	4242
903.919	4432
904.038	4462
904.156	4348
904.274	4447
904.392	4421
904.51	4451
904.627	4474
904.745	4588
904.863	4618
904.981	4398
905.098	4329
905.216	4352
905.334	4474
905.451	4417
905.569	4470
905.686	4535
905.803	4580
905.921	4451
906.038	4550
906.155	4493
906.272	4371
906.389	4466
906.506	4386
906.623	4428
906.74	4417
906.857	4287
906.974	4394
907.091	4554
907.208	4691
907.324	4554
907.441	4493
907.557	4379
907.674	4417
907.79	4295
907.907	4386
908.023	4459
908.139	4493
908.256	4462
908.372	4478
908.488	4451
908.604	4402
908.72	4348
908.836	4379
908.952	4352
909.068	4478
909.184	4542
909.3	4527
909.415	4603
909.531	4561
909.647	4348
909.762	4383
909.878	4356
909.993	4436
910.108	4432
910.224	4413
910.339	4440
910.454	4421
910.57	4348
910.685	4249
910.8	4653
910.915	4607
911.03	4512
911.145	4287
911.259	4367
911.374	4337
911.489	4306
911.604	4249
911.718	4207
911.833	4223
911.947	4074
912.062	4048
912.176	4204
912.291	4238
912.405	4253
912.519	4481
912.633	4527
912.748	4394
912.862	4322
912.976	4249
913.09	4131
913.204	4215
913.318	4257
913.431	4383
913.545	4394
913.659	4428
913.772	4329
913.886	4257
914	4230
914.113	4436
914.226	4474
914.34	4409
914.453	4261
914.566	4424
914.68	4348
914.793	4386
914.906	4158
915.019	4162
915.132	4074
915.245	4219
915.358	4227
915.47	4234
915.583	4249
915.696	4276
915.809	4440
915.921	4440
916.034	4215
916.146	4310
916.259	4227
916.371	4421
916.483	4386
916.595	4215
916.708	4322
916.82	4299
916.932	4329
917.044	4325
917.156	4371
917.268	4227
917.38	4291
917.491	4287
917.603	4341
917.715	4421
917.826	4470
917.938	4363
918.049	4257
918.161	4386
918.272	4580
918.384	4523
918.495	4432
918.606	4337
918.717	4261
918.828	4348
918.939	4405
919.05	4287
919.161	4318
919.272	4200
919.383	4291
919.494	4470
919.604	4626
919.715	4440
919.826	4356
919.936	4417
920.047	4550
920.157	4485
920.267	4706
920.378	4577
920.488	4519
920.598	4717
920.708	4866
920.818	4809
920.928	4805
921.038	4911
921.148	4923
921.258	4592
921.368	4550
921.477	4478
921.587	4432
921.697	4363
921.806	4592
921.916	4428
922.025	4310
922.134	4272
922.244	4268
922.353	4344
922.462	4143
922.571	4116
922.68	3987
922.789	3964
922.898	4078
923.007	4006
923.116	4135
923.224	4071
923.333	4093
923.442	4010
923.55	3960
923.659	4055
923.767	4086
923.876	4002
923.984	4116
924.092	3991
924.201	4090
924.309	4086
924.417	4124
924.525	4063
924.633	4135
924.741	5045
924.849	3964
924.956	4188
925.064	3968
925.172	3945
925.279	3941
925.387	4059
925.494	4074
925.602	4253
925.709	4188
925.816	4124
925.924	4131
926.031	4200
926.138	4177
926.245	4169
926.352	4097
926.459	4287
926.566	4295
926.673	4150
926.779	4040
926.886	4101
926.993	3960
927.099	3972
927.206	3953
927.312	3945
927.419	4055
927.525	4021
927.631	4090
927.737	4025
927.843	3972
927.95	3861
928.056	3983
928.162	3987
928.267	4059
928.373	4702
928.479	4150
928.585	3876
928.69	3979
928.796	4105
928.901	3994
929.007	3846
929.112	3987
929.218	3964
929.323	3956
929.428	3918
929.533	4067
929.638	3915
929.743	3975
929.848	4044
929.953	4021
930.058	3960
930.163	3812
930.267	3857
930.372	3975
930.477	3808
930.581	4105
930.685	3930
930.79	3846
930.894	3945
930.998	3842
931.103	4048
931.207	3759
931.311	3720
931.415	3694
931.519	3538
931.623	3553
