Data from test_V78500241_180.txt Node
Date: Fri Mar 25 16:50:15 CST 2022
User: usil
Spectrometer: V785-0024
Trigger mode: 0
Integration Time (sec): 4.000000E-1
Scans to average: 1
Nonlinearity correction enabled: false
Boxcar width: 0
Storing dark spectrum: false
XAxis mode: Wavelengths
Number of Pixels in Spectrum: 1024
>>>>>Begin Spectral Data<<<<<
801.071	7982
801.214	8024
801.356	7868
801.499	7890
801.641	7811
801.783	7738
801.926	8058
802.068	7997
802.211	8012
802.353	7936
802.496	7864
802.638	7940
802.78	7928
802.923	7963
803.065	7909
803.208	7868
803.35	7970
803.492	8084
803.635	8180
803.777	7928
803.919	8081
804.061	8408
804.204	8134
804.346	8050
804.488	7913
804.63	8111
804.773	7959
804.915	8031
805.057	8180
805.199	8142
805.341	8119
805.483	8206
805.626	8142
805.768	8054
805.91	8172
806.052	8180
806.194	8153
806.336	8317
806.478	8096
806.62	8062
806.762	8103
806.904	8199
807.046	8461
807.188	8351
807.33	8259
807.472	8298
807.614	8199
807.756	8100
807.898	8005
808.04	7913
808.182	7909
808.324	7860
808.465	7913
808.607	8024
808.749	8065
808.891	8183
809.033	8328
809.174	8172
809.316	8058
809.458	8046
809.6	8046
809.741	8046
809.883	8065
810.025	8069
810.166	8065
810.308	8012
810.45	7928
810.591	7921
810.733	7818
810.875	7689
811.016	7567
811.158	7540
811.299	7597
811.441	7788
811.582	7681
811.724	7605
811.865	7510
812.007	7651
812.148	7597
812.29	7655
812.431	7803
812.573	7913
812.714	8016
812.855	8164
812.997	8290
813.138	8336
813.279	8168
813.421	8153
813.562	8035
813.703	7868
813.845	7742
813.986	7483
814.127	7312
814.268	7240
814.41	7225
814.551	7156
814.692	7152
814.833	7042
814.974	7122
815.115	7137
815.256	7057
815.397	6958
815.539	6962
815.68	6894
815.821	6821
815.962	6844
816.103	6802
816.244	6745
816.385	6703
816.526	6711
816.666	6570
816.807	6346
816.948	6429
817.089	6467
817.23	6475
817.371	6437
817.512	6418
817.653	6426
817.793	6342
817.934	6429
818.075	6460
818.216	6445
818.356	6361
818.497	6209
818.638	6144
818.778	6152
818.919	6087
819.06	6205
819.2	6334
819.341	6315
819.481	6357
819.622	6513
819.762	6787
819.903	6635
820.043	6582
820.184	6540
820.324	6593
820.465	6730
820.605	6654
820.746	6658
820.886	6502
821.026	6654
821.167	6741
821.307	6760
821.447	6806
821.588	6650
821.728	6574
821.868	6525
822.008	6338
822.149	6338
822.289	6391
822.429	6171
822.569	6098
822.709	6114
822.849	5893
822.99	5920
823.13	5950
823.27	5901
823.41	5779
823.55	5756
823.69	5802
823.83	5786
823.97	5691
824.11	5524
824.25	5524
824.389	5596
824.529	5573
824.669	5535
824.809	5668
824.949	5615
825.089	5600
825.228	5562
825.368	5387
825.508	5334
825.648	5372
825.787	5376
825.927	5360
826.067	5318
826.206	5334
826.346	5368
826.485	5383
826.625	5440
826.765	5592
826.904	5448
827.044	5250
827.183	5307
827.323	5185
827.462	5261
827.601	5178
827.741	5170
827.88	5277
828.02	5128
828.159	5246
828.298	5341
828.437	5372
828.577	5280
828.716	5474
828.855	5349
828.994	5181
829.134	5170
829.273	5258
829.412	5170
829.551	5208
829.69	5239
829.829	5265
829.968	5452
830.107	5246
830.246	5318
830.385	5201
830.524	5208
830.663	5109
830.802	5064
830.941	4934
831.08	4900
831.219	5025
831.357	4976
831.496	5208
831.635	4999
831.774	4870
831.913	4877
832.051	4778
832.19	4763
832.329	4873
832.467	4748
832.606	4702
832.744	4801
832.883	4714
833.022	4774
833.16	4835
833.299	4911
833.437	4881
833.576	4873
833.714	4949
833.852	4968
833.991	4995
834.129	5010
834.267	4972
834.406	4965
834.544	5037
834.682	5029
834.821	4995
834.959	5185
835.097	5060
835.235	5170
835.373	5128
835.511	5155
835.65	5117
835.788	5071
835.926	5006
836.064	4915
836.202	4976
836.34	5216
836.478	5292
836.615	5159
836.753	5307
836.891	5318
837.029	5318
837.167	5296
837.305	5204
837.443	5178
837.58	5136
837.718	5261
837.856	5284
837.993	5174
838.131	5326
838.269	5254
838.406	5258
838.544	5216
838.681	5105
838.819	5037
838.956	4980
839.094	4915
839.231	5029
839.369	5140
839.506	5512
839.643	5254
839.781	5113
839.918	5037
840.055	5155
840.193	5197
840.33	5124
840.467	5162
840.604	5273
840.742	5417
840.879	5124
841.016	5086
841.153	5220
841.29	5402
841.427	5372
841.564	5322
841.701	5391
841.838	5303
841.975	5242
842.112	5258
842.249	5231
842.385	5121
842.522	5410
842.659	5204
842.796	5212
842.933	5265
843.069	5193
843.206	5170
843.343	5379
843.479	5280
843.616	5284
843.752	5048
843.889	5022
844.025	5242
844.162	5071
844.298	5193
844.435	5117
844.571	5090
844.708	5246
844.844	5315
844.98	5406
845.117	5345
845.253	5189
845.389	5121
845.525	5193
845.661	5204
845.798	5064
845.934	5166
846.07	5090
846.206	5250
846.342	5326
846.478	5208
846.614	5056
846.75	5006
846.886	4949
847.022	5197
847.158	5029
847.294	5113
847.429	5151
847.565	5140
847.701	5349
847.837	4877
847.972	4843
848.108	5025
848.244	5014
848.379	4809
848.515	4801
848.65	4778
848.786	4782
848.921	4843
849.057	4900
849.192	4965
849.328	4904
849.463	4877
849.598	4831
849.734	4839
849.869	4771
850.004	4660
850.14	4679
850.275	4641
850.41	4542
850.545	4599
850.68	4664
850.815	4672
850.95	4687
851.085	4889
851.22	4805
851.355	4740
851.49	4706
851.625	4691
851.76	4675
851.895	4603
852.03	4607
852.165	4653
852.299	4733
852.434	4862
852.569	4748
852.703	4831
852.838	4881
852.973	4968
853.107	4968
853.242	4767
853.376	4748
853.511	4561
853.645	4679
853.78	4854
853.914	4733
854.048	4759
854.183	4672
854.317	4714
854.451	4915
854.585	4748
854.72	4664
854.854	4831
854.988	4630
855.122	4694
855.256	4565
855.39	4729
855.524	4847
855.658	4774
855.792	4790
855.926	4740
856.06	4801
856.194	4828
856.327	4763
856.461	4641
856.595	4649
856.729	4626
856.862	4816
856.996	4721
857.13	4774
857.263	4744
857.397	4850
857.53	4664
857.664	4755
857.797	4790
857.931	4816
858.064	4714
858.197	4778
858.331	4702
858.464	4611
858.597	4565
858.731	4694
858.864	4668
858.997	4637
859.13	4725
859.263	4733
859.396	4809
859.529	4615
859.662	4634
859.795	4592
859.928	4687
860.061	4778
860.194	4801
860.327	4634
860.46	4637
860.592	4835
860.725	4752
860.858	4786
860.99	4596
861.123	4584
861.256	4542
861.388	4649
861.521	5436
861.653	4542
861.786	4466
861.918	4508
862.05	4577
862.183	4565
862.315	4603
862.447	4683
862.58	4599
862.712	4432
862.844	4367
862.976	4531
863.108	4542
863.24	4896
863.372	4333
863.504	4440
863.636	4451
863.768	4527
863.9	4508
864.032	4417
864.164	4413
864.296	4504
864.428	4577
864.559	4573
864.691	4596
864.823	4546
864.954	4565
865.086	4558
865.217	4478
865.349	4402
865.48	4447
865.612	4527
865.743	4641
865.875	4554
866.006	4493
866.137	4504
866.269	4443
866.4	4459
866.531	4474
866.662	4443
866.793	4447
866.924	4481
867.055	4512
867.186	4493
867.317	4451
867.448	4409
867.579	4390
867.71	4440
867.841	4413
867.972	4504
868.103	4535
868.233	4451
868.364	4504
868.495	4531
868.625	4691
868.756	4835
868.886	4637
869.017	4660
869.147	4824
869.278	4801
869.408	4714
869.539	4656
869.669	4816
869.799	4687
869.929	4793
870.06	4824
870.19	5010
870.32	4938
870.45	5022
870.58	5060
870.71	5113
870.84	5083
870.97	4980
871.1	4911
871.23	5208
871.36	5071
871.489	5060
871.619	5162
871.749	5105
871.879	5166
872.008	5223
872.138	5083
872.267	5018
872.397	4866
872.526	4843
872.656	4740
872.785	4862
872.915	4984
873.044	5041
873.173	4976
873.303	4965
873.432	4953
873.561	5003
873.69	4911
873.819	4892
873.948	4965
874.077	4866
874.206	4801
874.335	4824
874.464	4961
874.593	5075
874.722	4980
874.851	5124
874.979	5098
875.108	5090
875.237	4938
875.365	4904
875.494	4976
875.623	4980
875.751	4839
875.88	4934
876.008	5052
876.136	5048
876.265	5231
876.393	5364
876.521	5284
876.65	5265
876.778	5223
876.906	5037
877.034	5060
877.162	5132
877.29	5064
877.418	5086
877.546	5056
877.674	5025
877.802	5075
877.93	5056
878.058	4965
878.185	4938
878.313	5041
878.441	4930
878.568	4797
878.696	4892
878.824	4976
878.951	5079
879.079	5174
879.206	5349
879.333	5128
879.461	5037
879.588	5025
879.715	5128
879.842	5299
879.97	5083
880.097	4843
880.224	4797
880.351	4835
880.478	4847
880.605	4824
880.732	4797
880.859	5143
880.986	4908
881.112	4904
881.239	4843
881.366	4714
881.493	4637
881.619	4626
881.746	4679
881.872	4653
881.999	4714
882.125	4702
882.252	4801
882.378	4881
882.505	4984
882.631	4870
882.757	4675
882.883	4736
883.01	4771
883.136	4714
883.262	4630
883.388	4634
883.514	4873
883.64	4858
883.766	4816
883.892	4748
884.018	4744
884.143	4942
884.269	5067
884.395	4679
884.52	4626
884.646	4672
884.772	4607
884.897	4618
885.023	4706
885.148	4774
885.274	4858
885.399	4862
885.524	4702
885.65	4717
885.775	4771
885.9	4706
886.025	4942
886.15	4839
886.275	4736
886.4	4679
886.525	4748
886.65	4725
886.775	4752
886.9	4938
887.025	5079
887.149	4854
887.274	4656
887.399	4622
887.523	4656
887.648	4618
887.773	4618
887.897	4748
888.021	4862
888.146	4771
888.27	4828
888.395	4942
888.519	4854
888.643	4862
888.767	4870
888.891	4744
889.015	4592
889.139	4634
889.263	4660
889.387	4763
889.511	4904
889.635	4843
889.759	4645
889.883	4725
890.006	4740
890.13	4858
890.254	4645
890.377	4668
890.501	4592
890.624	4519
890.748	4645
890.871	4569
890.995	4466
891.118	4436
891.241	4523
891.364	4596
891.488	4668
891.611	4531
891.734	4611
891.857	4641
891.98	4622
892.103	4622
892.226	4634
892.349	4508
892.471	4455
892.594	4542
892.717	4626
892.839	4622
892.962	4611
893.085	4702
893.207	4618
893.33	4462
893.452	4577
893.575	4656
893.697	4615
893.819	4797
893.941	4843
894.064	4850
894.186	4599
894.308	4634
894.43	4752
894.552	4839
894.674	4778
894.796	4546
894.918	4656
895.04	4611
895.161	4740
895.283	4675
895.405	4622
895.526	4672
895.648	4702
895.769	4736
895.891	4717
896.012	4812
896.134	4736
896.255	4683
896.376	4588
896.498	4645
896.619	4691
896.74	4618
896.861	4653
896.982	4934
897.103	5109
897.224	4854
897.345	4748
897.466	4653
897.587	4771
897.708	4896
897.828	4801
897.949	4714
898.07	4523
898.19	4664
898.311	4862
898.431	4710
898.552	4755
898.672	4828
898.792	4862
898.913	4774
899.033	4675
899.153	4550
899.273	4436
899.393	4474
899.513	4523
899.633	4596
899.753	4577
899.873	4523
899.993	4607
900.113	4546
900.232	4603
900.352	4546
900.472	4569
900.591	4436
900.711	4500
900.83	4417
900.95	4668
901.069	4717
901.189	4577
901.308	4390
901.427	4341
901.546	4383
901.665	4500
901.784	4527
901.904	4428
902.023	4352
902.141	4242
902.26	4223
902.379	4318
902.498	4291
902.617	4246
902.735	4379
902.854	4436
902.973	4383
903.091	4265
903.21	4249
903.328	4325
903.446	4287
903.565	4287
903.683	4348
903.801	4265
903.919	4428
904.038	4493
904.156	4325
904.274	4443
904.392	4436
904.51	4459
904.627	4489
904.745	4599
904.863	4710
904.981	4436
905.098	4352
905.216	4379
905.334	4466
905.451	4481
905.569	4481
905.686	4596
905.803	4531
905.921	4432
906.038	4523
906.155	4481
906.272	4432
906.389	4432
906.506	4341
906.623	4424
906.74	4363
906.857	4306
906.974	4360
907.091	4641
907.208	4702
907.324	4656
907.441	4481
907.557	4375
907.674	4352
907.79	4363
907.907	4417
908.023	4500
908.139	4489
908.256	4424
908.372	4527
908.488	4451
908.604	4371
908.72	4341
908.836	4386
908.952	4371
909.068	4504
909.184	4561
909.3	4489
909.415	4565
909.531	4523
909.647	4379
909.762	4360
909.878	4379
909.993	4443
910.108	4390
910.224	4455
910.339	4478
910.454	4447
910.57	4367
910.685	4325
910.8	4725
910.915	4626
911.03	4504
911.145	4386
911.259	4386
911.374	4443
911.489	4360
911.604	4299
911.718	4196
911.833	4223
911.947	4143
912.062	4032
912.176	4257
912.291	4284
912.405	4352
912.519	4497
912.633	4538
912.748	4379
912.862	4363
912.976	4246
913.09	4116
913.204	4204
913.318	4295
913.431	4383
913.545	4402
913.659	4493
913.772	4322
913.886	4280
914	4230
914.113	4402
914.226	4474
914.34	4371
914.453	4257
914.566	4451
914.68	4337
914.793	4360
914.906	4188
915.019	4196
915.132	4086
915.245	4204
915.358	4204
915.47	4284
915.583	4261
915.696	4249
915.809	4485
915.921	4417
916.034	4284
916.146	4238
916.259	4284
916.371	4375
916.483	4325
916.595	4253
916.708	4325
916.82	4344
916.932	4306
917.044	4341
917.156	4344
917.268	4249
917.38	4310
917.491	4253
917.603	4375
917.715	4432
917.826	4474
917.938	4390
918.049	4261
918.161	4363
918.272	4554
918.384	4527
918.495	4504
918.606	4276
918.717	4295
918.828	4333
918.939	4394
919.05	4291
919.161	4284
919.272	4131
919.383	4230
919.494	4466
919.604	4618
919.715	4466
919.826	4390
919.936	4470
920.047	4523
920.157	4481
920.267	4714
920.378	4561
920.488	4516
920.598	4702
920.708	4896
920.818	4729
920.928	4755
921.038	4965
921.148	4908
921.258	4694
921.368	4577
921.477	4481
921.587	4489
921.697	4356
921.806	4573
921.916	4474
922.025	4276
922.134	4280
922.244	4257
922.353	4356
922.462	4219
922.571	4128
922.68	4032
922.789	3998
922.898	4055
923.007	3975
923.116	4147
923.224	4143
923.333	4093
923.442	4017
923.55	3972
923.659	4051
923.767	4124
923.876	4025
923.984	4150
924.092	4032
924.201	4090
924.309	4116
924.417	4139
924.525	4086
924.633	4112
924.741	4949
924.849	3941
924.956	4135
925.064	3968
925.172	3926
925.279	4013
925.387	4074
925.494	4036
925.602	4223
925.709	4188
925.816	4021
925.924	4101
926.031	4253
926.138	4188
926.245	4249
926.352	4097
926.459	4238
926.566	4318
926.673	4166
926.779	4067
926.886	4082
926.993	3960
927.099	3987
927.206	3987
927.312	3972
927.419	4063
927.525	4048
927.631	4097
927.737	4017
927.843	4006
927.95	3873
928.056	3953
928.162	3983
928.267	4086
928.373	4714
928.479	4105
928.585	3918
928.69	4059
928.796	4082
928.901	3991
929.007	3865
929.112	4010
929.218	4017
929.323	3972
929.428	3937
929.533	4154
929.638	3949
929.743	3953
929.848	4032
929.953	4021
930.058	3945
930.163	3831
930.267	3880
930.372	3941
930.477	3812
930.581	4082
930.685	3983
930.79	3808
930.894	3892
930.998	3903
931.103	4048
931.207	3724
931.311	3682
931.415	3709
931.519	3534
931.623	3519
