Data from test_V78500241_1131.txt Node
Date: Fri Mar 25 16:56:51 CST 2022
User: usil
Spectrometer: V785-0024
Trigger mode: 0
Integration Time (sec): 4.000000E-1
Scans to average: 1
Nonlinearity correction enabled: false
Boxcar width: 0
Storing dark spectrum: false
XAxis mode: Wavelengths
Number of Pixels in Spectrum: 1024
>>>>>Begin Spectral Data<<<<<
801.071	7944
801.214	7940
801.356	7860
801.499	7811
801.641	7712
801.783	7803
801.926	7951
802.068	7940
802.211	7906
802.353	7963
802.496	7849
802.638	7879
802.78	7852
802.923	7936
803.065	7936
803.208	7856
803.35	7944
803.492	8084
803.635	8138
803.777	7982
803.919	8145
804.061	8412
804.204	8134
804.346	8031
804.488	7989
804.63	8119
804.773	7989
804.915	8100
805.057	8271
805.199	8164
805.341	8218
805.483	8214
805.626	8202
805.768	8149
805.91	8252
806.052	8149
806.194	8088
806.336	8263
806.478	8069
806.62	8012
806.762	8077
806.904	8259
807.046	8377
807.188	8290
807.33	8233
807.472	8317
807.614	8134
807.756	8111
807.898	7982
808.04	7849
808.182	7879
808.324	7807
808.465	7947
808.607	8008
808.749	8092
808.891	8149
809.033	8183
809.174	8202
809.316	8084
809.458	8035
809.6	7951
809.741	8005
809.883	7947
810.025	8107
810.166	8065
810.308	8005
810.45	8058
810.591	7928
810.733	7704
810.875	7582
811.016	7480
811.158	7483
811.299	7571
811.441	7670
811.582	7590
811.724	7537
811.865	7449
812.007	7510
812.148	7556
812.29	7594
812.431	7609
812.573	7890
812.714	7970
812.855	8088
812.997	8180
813.138	8370
813.279	8172
813.421	8130
813.562	8001
813.703	7826
813.845	7818
813.986	7472
814.127	7213
814.268	7225
814.41	7168
814.551	7145
814.692	7126
814.833	7061
814.974	7019
815.115	7076
815.256	6985
815.397	6913
815.539	6897
815.68	6806
815.821	6791
815.962	6787
816.103	6798
816.244	6688
816.385	6582
816.526	6521
816.666	6414
816.807	6281
816.948	6429
817.089	6471
817.23	6422
817.371	6353
817.512	6346
817.653	6403
817.793	6342
817.934	6395
818.075	6460
818.216	6380
818.356	6365
818.497	6186
818.638	6072
818.778	6182
818.919	6125
819.06	6178
819.2	6304
819.341	6266
819.481	6342
819.622	6506
819.762	6692
819.903	6688
820.043	6627
820.184	6547
820.324	6574
820.465	6658
820.605	6719
820.746	6654
820.886	6464
821.026	6585
821.167	6658
821.307	6757
821.447	6749
821.588	6582
821.728	6570
821.868	6445
822.008	6262
822.149	6346
822.289	6372
822.429	6144
822.569	6072
822.709	6201
822.849	5893
822.99	5870
823.13	5923
823.27	5855
823.41	5775
823.55	5802
823.69	5760
823.83	5718
823.97	5661
824.11	5520
824.25	5497
824.389	5535
824.529	5585
824.669	5566
824.809	5661
824.949	5688
825.089	5551
825.228	5474
825.368	5383
825.508	5318
825.648	5364
825.787	5334
825.927	5345
826.067	5292
826.206	5349
826.346	5368
826.485	5311
826.625	5429
826.765	5532
826.904	5501
827.044	5235
827.183	5185
827.323	5086
827.462	5212
827.601	5151
827.741	5201
827.88	5170
828.02	5136
828.159	5189
828.298	5311
828.437	5376
828.577	5288
828.716	5493
828.855	5337
828.994	5170
829.134	5140
829.273	5155
829.412	5132
829.551	5136
829.69	5170
829.829	5216
829.968	5341
830.107	5216
830.246	5284
830.385	5185
830.524	5083
830.663	5003
830.802	4934
830.941	4934
831.08	4892
831.219	5003
831.357	4942
831.496	5155
831.635	4911
831.774	4839
831.913	4835
832.051	4744
832.19	4755
832.329	4793
832.467	4691
832.606	4592
832.744	4702
832.883	4702
833.022	4740
833.16	4733
833.299	4812
833.437	4843
833.576	4729
833.714	4835
833.852	4854
833.991	4881
834.129	4915
834.267	4930
834.406	4885
834.544	4934
834.682	4961
834.821	4934
834.959	5132
835.097	4953
835.235	5105
835.373	5090
835.511	5090
835.65	5014
835.788	5033
835.926	4919
836.064	4881
836.202	4908
836.34	5155
836.478	5227
836.615	5113
836.753	5189
836.891	5261
837.029	5193
837.167	5185
837.305	5155
837.443	5109
837.58	5018
837.718	5227
837.856	5098
837.993	5181
838.131	5197
838.269	5174
838.406	5193
838.544	5185
838.681	4957
838.819	5010
838.956	4877
839.094	4873
839.231	4911
839.369	5052
839.506	5379
839.643	5284
839.781	5029
839.918	4923
840.055	5102
840.193	5132
840.33	5071
840.467	5159
840.604	5178
840.742	5391
840.879	5014
841.016	5037
841.153	5132
841.29	5372
841.427	5368
841.564	5265
841.701	5334
841.838	5337
841.975	5227
842.112	5242
842.249	5151
842.385	5083
842.522	5261
842.659	5166
842.796	5102
842.933	5216
843.069	5143
843.206	5185
843.343	5292
843.479	5231
843.616	5254
843.752	5033
843.889	5045
844.025	5174
844.162	5025
844.298	5223
844.435	5094
844.571	5010
844.708	5208
844.844	5277
844.98	5303
845.117	5261
845.253	5166
845.389	5052
845.525	5170
845.661	5143
845.798	4968
845.934	5155
846.07	5056
846.206	5147
846.342	5334
846.478	5162
846.614	5033
846.75	4972
846.886	4911
847.022	5090
847.158	5022
847.294	5045
847.429	5075
847.565	5060
847.701	5258
847.837	4786
847.972	4778
848.108	4942
848.244	4919
848.379	4729
848.515	4706
848.65	4717
848.786	4767
848.921	4782
849.057	4828
849.192	4843
849.328	4801
849.463	4805
849.598	4736
849.734	4725
849.869	4702
850.004	4622
850.14	4656
850.275	4607
850.41	4527
850.545	4558
850.68	4565
850.815	4626
850.95	4626
851.085	4850
851.22	4759
851.355	4656
851.49	4607
851.625	4626
851.76	4603
851.895	4554
852.03	4527
852.165	4611
852.299	4725
852.434	4778
852.569	4683
852.703	4752
852.838	4778
852.973	4927
853.107	4873
853.242	4687
853.376	4660
853.511	4508
853.645	4569
853.78	4778
853.914	4660
854.048	4664
854.183	4573
854.317	4660
854.451	4839
854.585	4694
854.72	4599
854.854	4744
854.988	4599
855.122	4573
855.256	4497
855.39	4664
855.524	4782
855.658	4702
855.792	4717
855.926	4694
856.06	4774
856.194	4782
856.327	4622
856.461	4577
856.595	4573
856.729	4622
856.862	4710
856.996	4675
857.13	4733
857.263	4733
857.397	4782
857.53	4641
857.664	4698
857.797	4683
857.931	4710
858.064	4649
858.197	4748
858.331	4641
858.464	4580
858.597	4573
858.731	4634
858.864	4588
858.997	4599
859.13	4653
859.263	4664
859.396	4668
859.529	4592
859.662	4504
859.795	4504
859.928	4577
860.061	4729
860.194	4736
860.327	4592
860.46	4535
860.592	4698
860.725	4694
860.858	4675
860.99	4569
861.123	4489
861.256	4523
861.388	4618
861.521	5273
861.653	4481
861.786	4466
861.918	4443
862.05	4497
862.183	4485
862.315	4512
862.447	4618
862.58	4519
862.712	4405
862.844	4276
862.976	4447
863.108	4459
863.24	4870
863.372	4341
863.504	4402
863.636	4432
863.768	4485
863.9	4424
864.032	4386
864.164	4402
864.296	4466
864.428	4542
864.559	4519
864.691	4542
864.823	4508
864.954	4504
865.086	4485
865.217	4447
865.349	4428
865.48	4447
865.612	4470
865.743	4599
865.875	4447
866.006	4428
866.137	4466
866.269	4451
866.4	4421
866.531	4417
866.662	4360
866.793	4379
866.924	4386
867.055	4519
867.186	4413
867.317	4379
867.448	4360
867.579	4375
867.71	4383
867.841	4341
867.972	4459
868.103	4455
868.233	4462
868.364	4428
868.495	4478
868.625	4683
868.756	4725
868.886	4584
869.017	4653
869.147	4752
869.278	4752
869.408	4626
869.539	4588
869.669	4691
869.799	4637
869.929	4729
870.06	4725
870.19	4911
870.32	4923
870.45	4904
870.58	4930
870.71	5086
870.84	5067
870.97	4850
871.1	4927
871.23	5128
871.36	5136
871.489	5025
871.619	5048
871.749	5052
871.879	5128
872.008	5147
872.138	5014
872.267	4946
872.397	4850
872.526	4793
872.656	4721
872.785	4790
872.915	4908
873.044	4957
873.173	4934
873.303	4949
873.432	4896
873.561	4908
873.69	4850
873.819	4816
873.948	4896
874.077	4771
874.206	4714
874.335	4790
874.464	4900
874.593	5056
874.722	4915
874.851	5079
874.979	5048
875.108	5022
875.237	4881
875.365	4843
875.494	4862
875.623	4965
875.751	4759
875.88	4892
876.008	4946
876.136	5025
876.265	5220
876.393	5337
876.521	5235
876.65	5212
876.778	5204
876.906	5041
877.034	4984
877.162	5086
877.29	4957
877.418	5094
877.546	5056
877.674	5018
877.802	5037
877.93	5037
878.058	4915
878.185	4866
878.313	4980
878.441	4923
878.568	4839
878.696	4930
878.824	4972
878.951	4965
879.079	5147
879.206	5303
879.333	5083
879.461	4984
879.588	5006
879.715	5128
879.842	5204
879.97	5029
880.097	4790
880.224	4752
880.351	4835
880.478	4824
880.605	4835
880.732	4820
880.859	5056
880.986	4896
881.112	4900
881.239	4797
881.366	4687
881.493	4611
881.619	4630
881.746	4679
881.872	4679
881.999	4736
882.125	4721
882.252	4786
882.378	4790
882.505	4987
882.631	4847
882.757	4660
882.883	4694
883.01	4744
883.136	4675
883.262	4679
883.388	4622
883.514	4870
883.64	4946
883.766	4828
883.892	4668
884.018	4782
884.143	4919
884.269	5033
884.395	4725
884.52	4660
884.646	4672
884.772	4622
884.897	4580
885.023	4725
885.148	4828
885.274	4968
885.399	4820
885.524	4755
885.65	4679
885.775	4771
885.9	4767
886.025	4892
886.15	4885
886.275	4774
886.4	4698
886.525	4733
886.65	4694
886.775	4771
886.9	4972
887.025	5083
887.149	4854
887.274	4683
887.399	4664
887.523	4584
887.648	4569
887.773	4611
887.897	4752
888.021	4809
888.146	4778
888.27	4820
888.395	4900
888.519	4839
888.643	4824
888.767	4820
888.891	4675
889.015	4615
889.139	4656
889.263	4653
889.387	4755
889.511	4870
889.635	4816
889.759	4672
889.883	4626
890.006	4755
890.13	4896
890.254	4656
890.377	4698
890.501	4596
890.624	4588
890.748	4656
890.871	4531
890.995	4451
891.118	4413
891.241	4531
891.364	4558
891.488	4687
891.611	4523
891.734	4588
891.857	4656
891.98	4615
892.103	4599
892.226	4588
892.349	4607
892.471	4451
892.594	4592
892.717	4641
892.839	4607
892.962	4668
893.085	4702
893.207	4599
893.33	4489
893.452	4538
893.575	4653
893.697	4611
893.819	4797
893.941	4824
894.064	4782
894.186	4653
894.308	4592
894.43	4763
894.552	4847
894.674	4793
894.796	4592
894.918	4577
895.04	4596
895.161	4656
895.283	4698
895.405	4626
895.526	4679
895.648	4683
895.769	4767
895.891	4736
896.012	4752
896.134	4733
896.255	4664
896.376	4656
896.498	4607
896.619	4660
896.74	4584
896.861	4698
896.982	4923
897.103	5094
897.224	4858
897.345	4729
897.466	4698
897.587	4733
897.708	4892
897.828	4793
897.949	4706
898.07	4584
898.19	4603
898.311	4850
898.431	4702
898.552	4744
898.672	4866
898.792	4797
898.913	4733
899.033	4637
899.153	4542
899.273	4474
899.393	4523
899.513	4531
899.633	4527
899.753	4599
899.873	4516
899.993	4622
900.113	4596
900.232	4573
900.352	4538
900.472	4519
900.591	4432
900.711	4516
900.83	4489
900.95	4634
901.069	4721
901.189	4546
901.308	4341
901.427	4379
901.546	4402
901.665	4489
901.784	4558
901.904	4405
902.023	4375
902.141	4246
902.26	4169
902.379	4341
902.498	4299
902.617	4276
902.735	4363
902.854	4447
902.973	4367
903.091	4227
903.21	4246
903.328	4310
903.446	4314
903.565	4284
903.683	4383
903.801	4287
903.919	4436
904.038	4493
904.156	4344
904.274	4451
904.392	4451
904.51	4432
904.627	4500
904.745	4558
904.863	4622
904.981	4424
905.098	4325
905.216	4455
905.334	4447
905.451	4428
905.569	4478
905.686	4550
905.803	4588
905.921	4405
906.038	4565
906.155	4569
906.272	4436
906.389	4504
906.506	4409
906.623	4440
906.74	4375
906.857	4318
906.974	4341
907.091	4573
907.208	4733
907.324	4664
907.441	4508
907.557	4325
907.674	4390
907.79	4333
907.907	4402
908.023	4459
908.139	4508
908.256	4447
908.372	4432
908.488	4470
908.604	4363
908.72	4363
908.836	4394
908.952	4402
909.068	4466
909.184	4634
909.3	4493
909.415	4558
909.531	4569
909.647	4394
909.762	4405
909.878	4367
909.993	4455
910.108	4451
910.224	4436
910.339	4466
910.454	4428
910.57	4360
910.685	4310
910.8	4668
910.915	4622
911.03	4519
911.145	4352
911.259	4375
911.374	4417
911.489	4318
911.604	4272
911.718	4192
911.833	4238
911.947	4135
912.062	4029
912.176	4227
912.291	4238
912.405	4234
912.519	4519
912.633	4478
912.748	4405
912.862	4344
912.976	4181
913.09	4139
913.204	4169
913.318	4227
913.431	4375
913.545	4390
913.659	4466
913.772	4379
913.886	4261
914	4215
914.113	4367
914.226	4447
914.34	4360
914.453	4253
914.566	4428
914.68	4344
914.793	4367
914.906	4207
915.019	4143
915.132	4120
915.245	4223
915.358	4215
915.47	4257
915.583	4280
915.696	4337
915.809	4409
915.921	4417
916.034	4310
916.146	4303
916.259	4265
916.371	4405
916.483	4402
916.595	4295
916.708	4348
916.82	4333
916.932	4352
917.044	4322
917.156	4337
917.268	4242
917.38	4303
917.491	4299
917.603	4356
917.715	4451
917.826	4466
917.938	4352
918.049	4230
918.161	4421
918.272	4569
918.384	4603
918.495	4466
918.606	4325
918.717	4272
918.828	4383
918.939	4386
919.05	4280
919.161	4329
919.272	4147
919.383	4211
919.494	4447
919.604	4660
919.715	4398
919.826	4383
919.936	4405
920.047	4542
920.157	4455
920.267	4721
920.378	4550
920.488	4485
920.598	4725
920.708	4854
920.818	4782
920.928	4725
921.038	4987
921.148	4896
921.258	4611
921.368	4516
921.477	4519
921.587	4436
921.697	4329
921.806	4538
921.916	4436
922.025	4261
922.134	4287
922.244	4295
922.353	4333
922.462	4211
922.571	4204
922.68	4025
922.789	3968
922.898	4063
923.007	4017
923.116	4116
923.224	4112
923.333	4093
923.442	3998
923.55	3991
923.659	4025
923.767	4131
923.876	3987
923.984	4090
924.092	3998
924.201	4116
924.309	4082
924.417	4105
924.525	4071
924.633	4105
924.741	5071
924.849	3949
924.956	4150
925.064	3972
925.172	3911
925.279	3983
925.387	4006
925.494	4071
925.602	4177
925.709	4196
925.816	4082
925.924	4166
926.031	4211
926.138	4211
926.245	4181
926.352	4074
926.459	4253
926.566	4363
926.673	4207
926.779	4078
926.886	4105
926.993	4044
927.099	3991
927.206	3930
927.312	3964
927.419	4093
927.525	4078
927.631	4078
927.737	3960
927.843	3972
927.95	3865
928.056	3945
928.162	3991
928.267	4051
928.373	4679
928.479	4090
928.585	3896
928.69	4006
928.796	4078
928.901	3983
929.007	3857
929.112	4010
929.218	4025
929.323	3956
929.428	3934
929.533	4112
929.638	3926
929.743	3949
929.848	4090
929.953	3998
930.058	3941
930.163	3759
930.267	3800
930.372	3953
930.477	3827
930.581	4101
930.685	3964
930.79	3838
930.894	3911
930.998	3869
931.103	4086
931.207	3720
931.311	3686
931.415	3671
931.519	3534
931.623	3519
