Data from test_V78500241_1995.txt Node
Date: Fri Mar 25 17:02:52 CST 2022
User: usil
Spectrometer: V785-0024
Trigger mode: 0
Integration Time (sec): 4.000000E-1
Scans to average: 1
Nonlinearity correction enabled: false
Boxcar width: 0
Storing dark spectrum: false
XAxis mode: Wavelengths
Number of Pixels in Spectrum: 1024
>>>>>Begin Spectral Data<<<<<
801.071	8005
801.214	7986
801.356	7818
801.499	7864
801.641	7826
801.783	7845
801.926	7944
802.068	7875
802.211	7906
802.353	8020
802.496	7792
802.638	7807
802.78	7883
802.923	7940
803.065	7772
803.208	7879
803.35	7951
803.492	8111
803.635	8073
803.777	7963
803.919	8107
804.061	8377
804.204	8206
804.346	8027
804.488	7906
804.63	8161
804.773	7993
804.915	8111
805.057	8275
805.199	8069
805.341	8176
805.483	8263
805.626	8199
805.768	8183
805.91	8176
806.052	8191
806.194	8081
806.336	8290
806.478	8092
806.62	8046
806.762	8107
806.904	8267
807.046	8511
807.188	8355
807.33	8320
807.472	8305
807.614	8134
807.756	8123
807.898	8005
808.04	7898
808.182	7845
808.324	7921
808.465	7917
808.607	8092
808.749	8145
808.891	8202
809.033	8298
809.174	8218
809.316	8062
809.458	8119
809.6	8054
809.741	8016
809.883	8054
810.025	8126
810.166	8054
810.308	8092
810.45	7989
810.591	7852
810.733	7723
810.875	7685
811.016	7529
811.158	7487
811.299	7609
811.441	7685
811.582	7700
811.724	7582
811.865	7506
812.007	7575
812.148	7559
812.29	7628
812.431	7727
812.573	7925
812.714	7959
812.855	8103
812.997	8187
813.138	8328
813.279	8149
813.421	8100
813.562	7925
813.703	7849
813.845	7689
813.986	7434
814.127	7202
814.268	7217
814.41	7160
814.551	7171
814.692	7221
814.833	7126
814.974	7084
815.115	7110
815.256	7023
815.397	6909
815.539	6970
815.68	6859
815.821	6772
815.962	6829
816.103	6837
816.244	6730
816.385	6623
816.526	6589
816.666	6509
816.807	6292
816.948	6429
817.089	6395
817.23	6388
817.371	6353
817.512	6357
817.653	6391
817.793	6388
817.934	6414
818.075	6467
818.216	6403
818.356	6407
818.497	6251
818.638	6182
818.778	6175
818.919	6129
819.06	6171
819.2	6311
819.341	6346
819.481	6315
819.622	6536
819.762	6722
819.903	6715
820.043	6593
820.184	6627
820.324	6544
820.465	6684
820.605	6719
820.746	6654
820.886	6536
821.026	6684
821.167	6684
821.307	6787
821.447	6787
821.588	6673
821.728	6551
821.868	6555
822.008	6353
822.149	6399
822.289	6399
822.429	6117
822.569	6091
822.709	6102
822.849	5904
822.99	5912
823.13	5961
823.27	5904
823.41	5764
823.55	5771
823.69	5707
823.83	5779
823.97	5695
824.11	5562
824.25	5471
824.389	5551
824.529	5566
824.669	5520
824.809	5630
824.949	5653
825.089	5638
825.228	5562
825.368	5337
825.508	5353
825.648	5349
825.787	5387
825.927	5349
826.067	5303
826.206	5322
826.346	5387
826.485	5395
826.625	5425
826.765	5543
826.904	5493
827.044	5254
827.183	5239
827.323	5201
827.462	5223
827.601	5166
827.741	5136
827.88	5178
828.02	5071
828.159	5269
828.298	5258
828.437	5345
828.577	5277
828.716	5436
828.855	5326
828.994	5121
829.134	5185
829.273	5189
829.412	5105
829.551	5071
829.69	5143
829.829	5254
829.968	5410
830.107	5246
830.246	5299
830.385	5193
830.524	5140
830.663	5090
830.802	4991
830.941	4862
831.08	4873
831.219	4961
831.357	4934
831.496	5174
831.635	4946
831.774	4881
831.913	4831
832.051	4725
832.19	4694
832.329	4858
832.467	4664
832.606	4660
832.744	4740
832.883	4710
833.022	4714
833.16	4812
833.299	4862
833.437	4820
833.576	4812
833.714	4831
833.852	4862
833.991	4904
834.129	4965
834.267	4949
834.406	4900
834.544	4968
834.682	4949
834.821	4995
834.959	5185
835.097	4968
835.235	5117
835.373	5014
835.511	5109
835.65	5060
835.788	5090
835.926	4911
836.064	4831
836.202	4953
836.34	5151
836.478	5292
836.615	5124
836.753	5204
836.891	5273
837.029	5242
837.167	5193
837.305	5147
837.443	5147
837.58	5048
837.718	5235
837.856	5197
837.993	5204
838.131	5231
838.269	5201
838.406	5197
838.544	5170
838.681	5010
838.819	4972
838.956	4862
839.094	4889
839.231	5022
839.369	5064
839.506	5383
839.643	5239
839.781	5056
839.918	5006
840.055	5086
840.193	5071
840.33	5147
840.467	5121
840.604	5189
840.742	5459
840.879	5094
841.016	5075
841.153	5136
841.29	5379
841.427	5337
841.564	5311
841.701	5368
841.838	5261
841.975	5227
842.112	5292
842.249	5132
842.385	5098
842.522	5334
842.659	5136
842.796	5124
842.933	5235
843.069	5124
843.206	5166
843.343	5315
843.479	5280
843.616	5246
843.752	5014
843.889	5006
844.025	5212
844.162	5037
844.298	5220
844.435	5048
844.571	5083
844.708	5178
844.844	5280
844.98	5379
845.117	5288
845.253	5124
845.389	5075
845.525	5201
845.661	5151
845.798	5025
845.934	5117
846.07	5033
846.206	5197
846.342	5265
846.478	5159
846.614	5003
846.75	4938
846.886	4934
847.022	5086
847.158	4995
847.294	5075
847.429	5128
847.565	5033
847.701	5353
847.837	4850
847.972	4793
848.108	4923
848.244	4919
848.379	4797
848.515	4717
848.65	4691
848.786	4740
848.921	4790
849.057	4900
849.192	4854
849.328	4774
849.463	4847
849.598	4752
849.734	4793
849.869	4649
850.004	4634
850.14	4630
850.275	4577
850.41	4550
850.545	4584
850.68	4637
850.815	4580
850.95	4618
851.085	4847
851.22	4767
851.355	4664
851.49	4588
851.625	4641
851.76	4634
851.895	4538
852.03	4519
852.165	4626
852.299	4744
852.434	4752
852.569	4763
852.703	4793
852.838	4835
852.973	4919
853.107	4953
853.242	4748
853.376	4679
853.511	4561
853.645	4630
853.78	4763
853.914	4702
854.048	4622
854.183	4630
854.317	4668
854.451	4847
854.585	4672
854.72	4622
854.854	4736
854.988	4607
855.122	4611
855.256	4546
855.39	4660
855.524	4767
855.658	4752
855.792	4694
855.926	4714
856.06	4755
856.194	4771
856.327	4672
856.461	4622
856.595	4660
856.729	4645
856.862	4706
856.996	4740
857.13	4733
857.263	4774
857.397	4797
857.53	4698
857.664	4729
857.797	4736
857.931	4759
858.064	4679
858.197	4717
858.331	4656
858.464	4592
858.597	4497
858.731	4637
858.864	4626
858.997	4542
859.13	4641
859.263	4580
859.396	4694
859.529	4531
859.662	4550
859.795	4489
859.928	4641
860.061	4740
860.194	4752
860.327	4596
860.46	4554
860.592	4660
860.725	4721
860.858	4744
860.99	4531
861.123	4519
861.256	4500
861.388	4599
861.521	5159
861.653	4481
861.786	4428
861.918	4500
862.05	4516
862.183	4554
862.315	4611
862.447	4592
862.58	4478
862.712	4379
862.844	4291
862.976	4440
863.108	4436
863.24	4774
863.372	4356
863.504	4405
863.636	4405
863.768	4497
863.9	4466
864.032	4398
864.164	4409
864.296	4508
864.428	4535
864.559	4550
864.691	4512
864.823	4531
864.954	4512
865.086	4462
865.217	4459
865.349	4402
865.48	4432
865.612	4523
865.743	4641
865.875	4485
866.006	4409
866.137	4470
866.269	4462
866.4	4470
866.531	4371
866.662	4360
866.793	4348
866.924	4413
867.055	4519
867.186	4417
867.317	4432
867.448	4394
867.579	4367
867.71	4424
867.841	4402
867.972	4462
868.103	4455
868.233	4489
868.364	4447
868.495	4462
868.625	4641
868.756	4786
868.886	4561
869.017	4611
869.147	4782
869.278	4744
869.408	4683
869.539	4630
869.669	4668
869.799	4649
869.929	4786
870.06	4725
870.19	4934
870.32	4870
870.45	4938
870.58	4949
870.71	5064
870.84	5025
870.97	4923
871.1	4946
871.23	5162
871.36	5117
871.489	5029
871.619	5064
871.749	5094
871.879	5090
872.008	5174
872.138	5064
872.267	5003
872.397	4847
872.526	4835
872.656	4744
872.785	4790
872.915	4896
873.044	5003
873.173	4915
873.303	4991
873.432	4980
873.561	4949
873.69	4831
873.819	4881
873.948	4927
874.077	4793
874.206	4774
874.335	4778
874.464	4915
874.593	5083
874.722	4942
874.851	5056
874.979	5041
875.108	5045
875.237	4900
875.365	4881
875.494	4896
875.623	5014
875.751	4835
875.88	4828
876.008	4938
876.136	5102
876.265	5216
876.393	5322
876.521	5254
876.65	5235
876.778	5166
876.906	5064
877.034	5060
877.162	5041
877.29	4968
877.418	5048
877.546	5025
877.674	5041
877.802	5041
877.93	4991
878.058	4942
878.185	4839
878.313	4900
878.441	4953
878.568	4831
878.696	4858
878.824	4984
878.951	4987
879.079	5121
879.206	5273
879.333	5067
879.461	4995
879.588	5018
879.715	5159
879.842	5197
879.97	5003
880.097	4805
880.224	4759
880.351	4782
880.478	4809
880.605	4816
880.732	4858
880.859	5067
880.986	4862
881.112	4881
881.239	4767
881.366	4698
881.493	4558
881.619	4599
881.746	4630
881.872	4607
881.999	4679
882.125	4694
882.252	4767
882.378	4816
882.505	4972
882.631	4820
882.757	4717
882.883	4774
883.01	4710
883.136	4698
883.262	4618
883.388	4607
883.514	4828
883.64	4858
883.766	4809
883.892	4694
884.018	4763
884.143	4858
884.269	5025
884.395	4694
884.52	4637
884.646	4664
884.772	4588
884.897	4531
885.023	4710
885.148	4771
885.274	4812
885.399	4790
885.524	4714
885.65	4645
885.775	4729
885.9	4725
886.025	4873
886.15	4820
886.275	4740
886.4	4683
886.525	4740
886.65	4714
886.775	4683
886.9	4949
887.025	5056
887.149	4805
887.274	4626
887.399	4618
887.523	4603
887.648	4538
887.773	4550
887.897	4759
888.021	4778
888.146	4679
888.27	4801
888.395	4915
888.519	4782
888.643	4782
888.767	4854
888.891	4637
889.015	4599
889.139	4618
889.263	4615
889.387	4717
889.511	4900
889.635	4820
889.759	4607
889.883	4618
890.006	4698
890.13	4843
890.254	4634
890.377	4687
890.501	4550
890.624	4516
890.748	4626
890.871	4508
890.995	4424
891.118	4367
891.241	4478
891.364	4538
891.488	4691
891.611	4485
891.734	4523
891.857	4573
891.98	4577
892.103	4656
892.226	4573
892.349	4527
892.471	4383
892.594	4527
892.717	4622
892.839	4504
892.962	4653
893.085	4607
893.207	4641
893.33	4447
893.452	4565
893.575	4618
893.697	4611
893.819	4755
893.941	4835
894.064	4778
894.186	4588
894.308	4573
894.43	4778
894.552	4828
894.674	4744
894.796	4531
894.918	4618
895.04	4565
895.161	4710
895.283	4649
895.405	4580
895.526	4603
895.648	4664
895.769	4672
895.891	4714
896.012	4782
896.134	4729
896.255	4668
896.376	4645
896.498	4618
896.619	4675
896.74	4565
896.861	4653
896.982	4911
897.103	5075
897.224	4778
897.345	4774
897.466	4634
897.587	4740
897.708	4881
897.828	4805
897.949	4679
898.07	4569
898.19	4630
898.311	4839
898.431	4668
898.552	4725
898.672	4809
898.792	4793
898.913	4729
899.033	4649
899.153	4531
899.273	4462
899.393	4493
899.513	4588
899.633	4554
899.753	4519
899.873	4538
899.993	4577
900.113	4531
900.232	4573
900.352	4538
900.472	4493
900.591	4432
900.711	4535
900.83	4432
900.95	4584
901.069	4637
901.189	4500
901.308	4428
901.427	4272
901.546	4386
901.665	4462
901.784	4508
901.904	4379
902.023	4360
902.141	4207
902.26	4181
902.379	4299
902.498	4253
902.617	4211
902.735	4360
902.854	4386
902.973	4341
903.091	4215
903.21	4211
903.328	4291
903.446	4325
903.565	4242
903.683	4329
903.801	4314
903.919	4402
904.038	4417
904.156	4318
904.274	4436
904.392	4371
904.51	4417
904.627	4474
904.745	4550
904.863	4626
904.981	4443
905.098	4322
905.216	4363
905.334	4390
905.451	4405
905.569	4447
905.686	4569
905.803	4592
905.921	4417
906.038	4558
906.155	4493
906.272	4341
906.389	4466
906.506	4375
906.623	4402
906.74	4383
906.857	4318
906.974	4371
907.091	4538
907.208	4615
907.324	4599
907.441	4542
907.557	4352
907.674	4360
907.79	4329
907.907	4348
908.023	4455
908.139	4455
908.256	4405
908.372	4470
908.488	4443
908.604	4367
908.72	4329
908.836	4329
908.952	4375
909.068	4394
909.184	4618
909.3	4500
909.415	4550
909.531	4558
909.647	4367
909.762	4383
909.878	4375
909.993	4417
910.108	4421
910.224	4402
910.339	4459
910.454	4405
910.57	4386
910.685	4318
910.8	4637
910.915	4603
911.03	4481
911.145	4280
911.259	4333
911.374	4417
911.489	4287
911.604	4276
911.718	4192
911.833	4211
911.947	4097
912.062	4032
912.176	4185
912.291	4257
912.405	4246
912.519	4466
912.633	4531
912.748	4402
912.862	4310
912.976	4207
913.09	4109
913.204	4181
913.318	4287
913.431	4375
913.545	4352
913.659	4485
913.772	4398
913.886	4242
914	4215
914.113	4360
914.226	4493
914.34	4402
914.453	4227
914.566	4436
914.68	4227
914.793	4276
914.906	4135
915.019	4143
915.132	4063
915.245	4166
915.358	4223
915.47	4230
915.583	4246
915.696	4310
915.809	4405
915.921	4360
916.034	4215
916.146	4261
916.259	4196
916.371	4371
916.483	4325
916.595	4265
916.708	4329
916.82	4322
916.932	4310
917.044	4341
917.156	4306
917.268	4204
917.38	4287
917.491	4287
917.603	4367
917.715	4413
917.826	4436
917.938	4348
918.049	4246
918.161	4386
918.272	4527
918.384	4538
918.495	4436
918.606	4249
918.717	4268
918.828	4314
918.939	4337
919.05	4253
919.161	4341
919.272	4135
919.383	4253
919.494	4398
919.604	4596
919.715	4394
919.826	4379
919.936	4405
920.047	4523
920.157	4531
920.267	4596
920.378	4535
920.488	4523
920.598	4729
920.708	4870
920.818	4729
920.928	4801
921.038	4968
921.148	4843
921.258	4630
921.368	4588
921.477	4466
921.587	4413
921.697	4363
921.806	4497
921.916	4394
922.025	4268
922.134	4287
922.244	4204
922.353	4318
922.462	4154
922.571	4105
922.68	3998
922.789	3960
922.898	4017
923.007	3953
923.116	4090
923.224	4048
923.333	4071
923.442	3998
923.55	4025
923.659	4040
923.767	4074
923.876	3998
923.984	4131
924.092	3991
924.201	4101
924.309	4112
924.417	4063
924.525	4101
924.633	4120
924.741	5018
924.849	3907
924.956	4143
925.064	4002
925.172	3884
925.279	3941
925.387	4036
925.494	4044
925.602	4192
925.709	4200
925.816	4067
925.924	4082
926.031	4207
926.138	4162
926.245	4215
926.352	4097
926.459	4230
926.566	4333
926.673	4139
926.779	4048
926.886	4074
926.993	4002
927.099	3956
927.206	3934
927.312	3945
927.419	4074
927.525	4055
927.631	4093
927.737	3956
927.843	3953
927.95	3838
928.056	3915
928.162	4002
928.267	4101
928.373	4550
928.479	4101
928.585	3888
928.69	4025
928.796	4074
928.901	3975
929.007	3827
929.112	3998
929.218	3983
929.323	3915
929.428	3922
929.533	4112
929.638	3926
929.743	3918
929.848	4017
929.953	4010
930.058	3937
930.163	3823
930.267	3812
930.372	3964
930.477	3793
930.581	4067
930.685	3918
930.79	3816
930.894	3899
930.998	3831
931.103	4048
931.207	3694
931.311	3671
931.415	3663
931.519	3523
931.623	3515
