Data from test_V78500241_2275.txt Node
Date: Fri Mar 25 17:04:49 CST 2022
User: usil
Spectrometer: V785-0024
Trigger mode: 0
Integration Time (sec): 4.000000E-1
Scans to average: 1
Nonlinearity correction enabled: false
Boxcar width: 0
Storing dark spectrum: false
XAxis mode: Wavelengths
Number of Pixels in Spectrum: 1024
>>>>>Begin Spectral Data<<<<<
801.071	8016
801.214	7883
801.356	7830
801.499	7860
801.641	7757
801.783	7807
801.926	7849
802.068	7921
802.211	8020
802.353	7955
802.496	7841
802.638	7852
802.78	7883
802.923	7875
803.065	7849
803.208	7864
803.35	7921
803.492	8043
803.635	8202
803.777	8008
803.919	8115
804.061	8454
804.204	8187
804.346	8092
804.488	7917
804.63	8069
804.773	8031
804.915	8081
805.057	8240
805.199	8191
805.341	8172
805.483	8271
805.626	8187
805.768	8149
805.91	8252
806.052	8240
806.194	8115
806.336	8256
806.478	8123
806.62	8027
806.762	8180
806.904	8279
807.046	8469
807.188	8404
807.33	8343
807.472	8271
807.614	8069
807.756	8123
807.898	7944
808.04	7788
808.182	7849
808.324	7902
808.465	7909
808.607	8050
808.749	8138
808.891	8191
809.033	8199
809.174	8210
809.316	8077
809.458	8100
809.6	8008
809.741	8008
809.883	8020
810.025	8043
810.166	8027
810.308	7974
810.45	7989
810.591	7890
810.733	7689
810.875	7628
811.016	7499
811.158	7426
811.299	7533
811.441	7689
811.582	7643
811.724	7533
811.865	7518
812.007	7521
812.148	7491
812.29	7616
812.431	7784
812.573	7833
812.714	7997
812.855	8126
812.997	8218
813.138	8294
813.279	8161
813.421	8062
813.562	7932
813.703	7776
813.845	7738
813.986	7476
814.127	7213
814.268	7122
814.41	7213
814.551	7187
814.692	7137
814.833	7103
814.974	7114
815.115	7129
815.256	6932
815.397	6920
815.539	6905
815.68	6776
815.821	6768
815.962	6901
816.103	6833
816.244	6673
816.385	6608
816.526	6635
816.666	6566
816.807	6300
816.948	6441
817.089	6448
817.23	6414
817.371	6365
817.512	6357
817.653	6369
817.793	6376
817.934	6357
818.075	6410
818.216	6429
818.356	6365
818.497	6270
818.638	6083
818.778	6110
818.919	6178
819.06	6171
819.2	6331
819.341	6327
819.481	6399
819.622	6528
819.762	6722
819.903	6681
820.043	6570
820.184	6532
820.324	6589
820.465	6711
820.605	6669
820.746	6616
820.886	6544
821.026	6707
821.167	6734
821.307	6798
821.447	6711
821.588	6662
821.728	6585
821.868	6464
822.008	6357
822.149	6376
822.289	6369
822.429	6186
822.569	6072
822.709	6106
822.849	5931
822.99	5969
823.13	5954
823.27	5958
823.41	5764
823.55	5756
823.69	5714
823.83	5798
823.97	5611
824.11	5505
824.25	5490
824.389	5566
824.529	5592
824.669	5551
824.809	5627
824.949	5699
825.089	5558
825.228	5554
825.368	5383
825.508	5402
825.648	5318
825.787	5368
825.927	5364
826.067	5311
826.206	5223
826.346	5353
826.485	5341
826.625	5372
826.765	5532
826.904	5421
827.044	5280
827.183	5220
827.323	5159
827.462	5185
827.601	5178
827.741	5181
827.88	5178
828.02	5071
828.159	5201
828.298	5269
828.437	5376
828.577	5265
828.716	5433
828.855	5318
828.994	5185
829.134	5170
829.273	5197
829.412	5151
829.551	5079
829.69	5201
829.829	5239
829.968	5387
830.107	5280
830.246	5216
830.385	5159
830.524	5105
830.663	5037
830.802	4968
830.941	4930
831.08	4892
831.219	4980
831.357	4942
831.496	5121
831.635	4949
831.774	4850
831.913	4805
832.051	4729
832.19	4725
832.329	4816
832.467	4672
832.606	4664
832.744	4733
832.883	4687
833.022	4672
833.16	4866
833.299	4831
833.437	4809
833.576	4790
833.714	4870
833.852	4870
833.991	4892
834.129	4946
834.267	4968
834.406	4892
834.544	4923
834.682	4953
834.821	4999
834.959	5136
835.097	4938
835.235	5143
835.373	5060
835.511	5102
835.65	5064
835.788	4961
835.926	4877
836.064	4892
836.202	4927
836.34	5132
836.478	5258
836.615	5140
836.753	5174
836.891	5273
837.029	5231
837.167	5212
837.305	5155
837.443	5140
837.58	5098
837.718	5284
837.856	5220
837.993	5143
838.131	5265
838.269	5193
838.406	5212
838.544	5201
838.681	5006
838.819	5029
838.956	4892
839.094	4908
839.231	5037
839.369	5029
839.506	5455
839.643	5197
839.781	5071
839.918	5064
840.055	5083
840.193	5121
840.33	5113
840.467	5109
840.604	5166
840.742	5414
840.879	5083
841.016	5094
841.153	5121
841.29	5318
841.427	5311
841.564	5315
841.701	5372
841.838	5208
841.975	5189
842.112	5258
842.249	5124
842.385	5121
842.522	5330
842.659	5136
842.796	5143
842.933	5143
843.069	5132
843.206	5113
843.343	5296
843.479	5315
843.616	5227
843.752	5006
843.889	4999
844.025	5216
844.162	5037
844.298	5208
844.435	5075
844.571	5014
844.708	5216
844.844	5311
844.98	5311
845.117	5311
845.253	5128
845.389	5025
845.525	5197
845.661	5178
845.798	4980
845.934	5132
846.07	5018
846.206	5174
846.342	5273
846.478	5094
846.614	5018
846.75	4923
846.886	4961
847.022	5102
847.158	4991
847.294	5014
847.429	5109
847.565	5064
847.701	5326
847.837	4786
847.972	4831
848.108	4908
848.244	4949
848.379	4793
848.515	4687
848.65	4717
848.786	4729
848.921	4778
849.057	4885
849.192	4858
849.328	4786
849.463	4866
849.598	4740
849.734	4767
849.869	4668
850.004	4626
850.14	4679
850.275	4603
850.41	4481
850.545	4538
850.68	4599
850.815	4584
850.95	4653
851.085	4816
851.22	4702
851.355	4675
851.49	4569
851.625	4649
851.76	4653
851.895	4580
852.03	4512
852.165	4634
852.299	4664
852.434	4797
852.569	4755
852.703	4767
852.838	4835
852.973	4896
853.107	4904
853.242	4672
853.376	4653
853.511	4565
853.645	4580
853.78	4820
853.914	4702
854.048	4687
854.183	4653
854.317	4675
854.451	4835
854.585	4634
854.72	4664
854.854	4733
854.988	4592
855.122	4675
855.256	4519
855.39	4607
855.524	4759
855.658	4740
855.792	4706
855.926	4702
856.06	4778
856.194	4786
856.327	4679
856.461	4584
856.595	4592
856.729	4634
856.862	4736
856.996	4733
857.13	4672
857.263	4725
857.397	4786
857.53	4675
857.664	4691
857.797	4740
857.931	4767
858.064	4691
858.197	4725
858.331	4653
858.464	4607
858.597	4538
858.731	4634
858.864	4596
858.997	4596
859.13	4691
859.263	4653
859.396	4664
859.529	4607
859.662	4516
859.795	4508
859.928	4634
860.061	4763
860.194	4752
860.327	4630
860.46	4546
860.592	4641
860.725	4694
860.858	4702
860.99	4580
861.123	4512
861.256	4489
861.388	4584
861.521	5288
861.653	4481
861.786	4428
861.918	4455
862.05	4493
862.183	4519
862.315	4599
862.447	4656
862.58	4512
862.712	4344
862.844	4344
862.976	4466
863.108	4462
863.24	4873
863.372	4318
863.504	4428
863.636	4379
863.768	4432
863.9	4459
864.032	4371
864.164	4379
864.296	4462
864.428	4516
864.559	4565
864.691	4466
864.823	4447
864.954	4466
865.086	4489
865.217	4432
865.349	4405
865.48	4447
865.612	4478
865.743	4573
865.875	4440
866.006	4379
866.137	4478
866.269	4417
866.4	4390
866.531	4402
866.662	4341
866.793	4405
866.924	4409
867.055	4500
867.186	4424
867.317	4421
867.448	4375
867.579	4375
867.71	4348
867.841	4371
867.972	4462
868.103	4451
868.233	4451
868.364	4451
868.495	4466
868.625	4660
868.756	4755
868.886	4599
869.017	4611
869.147	4767
869.278	4797
869.408	4668
869.539	4710
869.669	4694
869.799	4656
869.929	4774
870.06	4717
870.19	4972
870.32	4885
870.45	4961
870.58	5037
870.71	5113
870.84	5067
870.97	4938
871.1	4858
871.23	5159
871.36	5121
871.489	5006
871.619	5045
871.749	5086
871.879	5124
872.008	5181
872.138	5060
872.267	4949
872.397	4866
872.526	4812
872.656	4702
872.785	4763
872.915	4949
873.044	5025
873.173	4946
873.303	4934
873.432	4995
873.561	4946
873.69	4839
873.819	4839
873.948	4927
874.077	4793
874.206	4752
874.335	4805
874.464	4900
874.593	5041
874.722	4930
874.851	5071
874.979	5056
875.108	5048
875.237	4892
875.365	4866
875.494	4858
875.623	4946
875.751	4824
875.88	4847
876.008	4984
876.136	5010
876.265	5223
876.393	5349
876.521	5254
876.65	5223
876.778	5105
876.906	5094
877.034	5022
877.162	5041
877.29	4976
877.418	5071
877.546	5014
877.674	5090
877.802	5018
877.93	5041
878.058	4896
878.185	4854
878.313	4949
878.441	4972
878.568	4843
878.696	4889
878.824	4972
878.951	4972
879.079	5090
879.206	5280
879.333	5083
879.461	4984
879.588	4949
879.715	5124
879.842	5246
879.97	5010
880.097	4782
880.224	4774
880.351	4839
880.478	4858
880.605	4820
880.732	4759
880.859	5094
880.986	4877
881.112	4934
881.239	4782
881.366	4664
881.493	4603
881.619	4626
881.746	4630
881.872	4630
881.999	4649
882.125	4649
882.252	4755
882.378	4812
882.505	4896
882.631	4767
882.757	4615
882.883	4736
883.01	4675
883.136	4618
883.262	4588
883.388	4573
883.514	4812
883.64	4889
883.766	4740
883.892	4641
884.018	4694
884.143	4877
884.269	4984
884.395	4626
884.52	4622
884.646	4675
884.772	4561
884.897	4542
885.023	4641
885.148	4759
885.274	4889
885.399	4793
885.524	4645
885.65	4660
885.775	4717
885.9	4679
886.025	4839
886.15	4782
886.275	4748
886.4	4656
886.525	4691
886.65	4660
886.775	4721
886.9	4915
887.025	5025
887.149	4835
887.274	4618
887.399	4569
887.523	4558
887.648	4588
887.773	4611
887.897	4786
888.021	4782
888.146	4683
888.27	4809
888.395	4934
888.519	4843
888.643	4790
888.767	4816
888.891	4672
889.015	4550
889.139	4702
889.263	4626
889.387	4820
889.511	4862
889.635	4778
889.759	4645
889.883	4630
890.006	4778
890.13	4862
890.254	4615
890.377	4691
890.501	4538
890.624	4550
890.748	4656
890.871	4546
890.995	4470
891.118	4386
891.241	4512
891.364	4538
891.488	4664
891.611	4558
891.734	4542
891.857	4660
891.98	4588
892.103	4706
892.226	4694
892.349	4580
892.471	4523
892.594	4592
892.717	4622
892.839	4584
892.962	4660
893.085	4664
893.207	4645
893.33	4466
893.452	4611
893.575	4679
893.697	4615
893.819	4816
893.941	4934
894.064	4820
894.186	4622
894.308	4611
894.43	4752
894.552	4873
894.674	4801
894.796	4580
894.918	4634
895.04	4637
895.161	4694
895.283	4752
895.405	4607
895.526	4710
895.648	4736
895.769	4733
895.891	4744
896.012	4797
896.134	4771
896.255	4729
896.376	4641
896.498	4687
896.619	4702
896.74	4645
896.861	4687
896.982	4968
897.103	5102
897.224	4839
897.345	4790
897.466	4698
897.587	4759
897.708	4900
897.828	4816
897.949	4729
898.07	4580
898.19	4645
898.311	4847
898.431	4729
898.552	4774
898.672	4889
898.792	4824
898.913	4771
899.033	4637
899.153	4573
899.273	4497
899.393	4542
899.513	4565
899.633	4588
899.753	4584
899.873	4531
899.993	4615
900.113	4565
900.232	4641
900.352	4577
900.472	4523
900.591	4371
900.711	4546
900.83	4508
900.95	4611
901.069	4706
901.189	4584
901.308	4386
901.427	4322
901.546	4413
901.665	4508
901.784	4554
901.904	4394
902.023	4325
902.141	4230
902.26	4173
902.379	4325
902.498	4249
902.617	4261
902.735	4390
902.854	4417
902.973	4405
903.091	4249
903.21	4276
903.328	4299
903.446	4322
903.565	4242
903.683	4363
903.801	4299
903.919	4383
904.038	4436
904.156	4405
904.274	4466
904.392	4405
904.51	4466
904.627	4500
904.745	4592
904.863	4683
904.981	4436
905.098	4333
905.216	4360
905.334	4436
905.451	4485
905.569	4489
905.686	4561
905.803	4565
905.921	4440
906.038	4607
906.155	4493
906.272	4451
906.389	4485
906.506	4348
906.623	4386
906.74	4424
906.857	4383
906.974	4394
907.091	4603
907.208	4702
907.324	4626
907.441	4512
907.557	4371
907.674	4371
907.79	4352
907.907	4394
908.023	4542
908.139	4466
908.256	4527
908.372	4500
908.488	4443
908.604	4409
908.72	4352
908.836	4405
908.952	4432
909.068	4497
909.184	4615
909.3	4459
909.415	4649
909.531	4565
909.647	4390
909.762	4371
909.878	4360
909.993	4485
910.108	4436
910.224	4417
910.339	4519
910.454	4436
910.57	4428
910.685	4325
910.8	4679
910.915	4592
911.03	4462
911.145	4390
911.259	4379
911.374	4398
911.489	4322
911.604	4291
911.718	4211
911.833	4257
911.947	4139
912.062	4044
912.176	4261
912.291	4249
912.405	4265
912.519	4512
912.633	4546
912.748	4413
912.862	4341
912.976	4230
913.09	4093
913.204	4223
913.318	4242
913.431	4409
913.545	4367
913.659	4504
913.772	4417
913.886	4268
914	4238
914.113	4424
914.226	4440
914.34	4459
914.453	4268
914.566	4443
914.68	4329
914.793	4348
914.906	4192
915.019	4120
915.132	4071
915.245	4215
915.358	4223
915.47	4272
915.583	4303
915.696	4333
915.809	4489
915.921	4478
916.034	4276
916.146	4249
916.259	4230
916.371	4432
916.483	4398
916.595	4344
916.708	4310
916.82	4329
916.932	4379
917.044	4348
917.156	4348
917.268	4246
917.38	4280
917.491	4265
917.603	4402
917.715	4485
917.826	4443
917.938	4383
918.049	4257
918.161	4386
918.272	4535
918.384	4565
918.495	4481
918.606	4287
918.717	4299
918.828	4443
918.939	4424
919.05	4276
919.161	4352
919.272	4169
919.383	4284
919.494	4493
919.604	4599
919.715	4462
919.826	4432
919.936	4466
920.047	4558
920.157	4516
920.267	4698
920.378	4577
920.488	4470
920.598	4694
920.708	4885
920.818	4767
920.928	4797
921.038	4991
921.148	4919
921.258	4656
921.368	4626
921.477	4508
921.587	4455
921.697	4417
921.806	4618
921.916	4451
922.025	4295
922.134	4299
922.244	4268
922.353	4367
922.462	4246
922.571	4169
922.68	4055
922.789	3979
922.898	4048
923.007	4044
923.116	4112
923.224	4055
923.333	4147
923.442	4029
923.55	4013
923.659	4071
923.767	4093
923.876	4025
923.984	4166
924.092	4059
924.201	4101
924.309	4116
924.417	4124
924.525	4090
924.633	4120
924.741	5136
924.849	3945
924.956	4147
925.064	3998
925.172	3953
925.279	3949
925.387	4074
925.494	4101
925.602	4207
925.709	4181
925.816	4025
925.924	4120
926.031	4272
926.138	4238
926.245	4238
926.352	4082
926.459	4287
926.566	4303
926.673	4166
926.779	4086
926.886	4093
926.993	4006
927.099	3960
927.206	3975
927.312	4025
927.419	4086
927.525	4032
927.631	4112
927.737	3949
927.843	3937
927.95	3861
928.056	3979
928.162	3949
928.267	4044
928.373	4733
928.479	4173
928.585	3869
928.69	4021
928.796	4086
928.901	4002
929.007	3888
929.112	4036
929.218	4021
929.323	3945
929.428	3960
929.533	4131
929.638	3937
929.743	3953
929.848	4082
929.953	4044
930.058	3934
930.163	3835
930.267	3823
930.372	4032
930.477	3793
930.581	4112
930.685	3991
930.79	3823
930.894	3873
930.998	3888
931.103	4013
931.207	3732
931.311	3732
931.415	3679
931.519	3530
931.623	3549
