Data from test_V78500241_1925.txt Node
Date: Fri Mar 25 17:02:23 CST 2022
User: usil
Spectrometer: V785-0024
Trigger mode: 0
Integration Time (sec): 4.000000E-1
Scans to average: 1
Nonlinearity correction enabled: false
Boxcar width: 0
Storing dark spectrum: false
XAxis mode: Wavelengths
Number of Pixels in Spectrum: 1024
>>>>>Begin Spectral Data<<<<<
801.071	8031
801.214	7978
801.356	7822
801.499	7856
801.641	7826
801.783	7799
801.926	7879
802.068	7936
802.211	7963
802.353	7970
802.496	7868
802.638	7883
802.78	7932
802.923	7875
803.065	7837
803.208	7780
803.35	7932
803.492	8073
803.635	8062
803.777	7970
803.919	8107
804.061	8442
804.204	8134
804.346	8035
804.488	7997
804.63	8065
804.773	8050
804.915	8035
805.057	8279
805.199	8187
805.341	8115
805.483	8259
805.626	8221
805.768	8092
805.91	8214
806.052	8233
806.194	8100
806.336	8294
806.478	8058
806.62	8016
806.762	8107
806.904	8256
807.046	8450
807.188	8396
807.33	8355
807.472	8370
807.614	8111
807.756	8199
807.898	8027
808.04	7917
808.182	7909
808.324	7849
808.465	7852
808.607	8027
808.749	8084
808.891	8218
809.033	8286
809.174	8248
809.316	8081
809.458	8065
809.6	7997
809.741	8027
809.883	8062
810.025	8123
810.166	7986
810.308	7963
810.45	7944
810.591	7803
810.733	7750
810.875	7662
811.016	7426
811.158	7381
811.299	7597
811.441	7742
811.582	7670
811.724	7605
811.865	7605
812.007	7601
812.148	7578
812.29	7613
812.431	7734
812.573	7860
812.714	8012
812.855	8145
812.997	8157
813.138	8221
813.279	8134
813.421	8046
813.562	7959
813.703	7772
813.845	7708
813.986	7388
814.127	7168
814.268	7190
814.41	7217
814.551	7179
814.692	7209
814.833	7088
814.974	7080
815.115	7095
815.256	6916
815.397	6935
815.539	6958
815.68	6875
815.821	6745
815.962	6814
816.103	6814
816.244	6757
816.385	6620
816.526	6631
816.666	6563
816.807	6315
816.948	6460
817.089	6448
817.23	6414
817.371	6327
817.512	6331
817.653	6399
817.793	6350
817.934	6384
818.075	6486
818.216	6445
818.356	6391
818.497	6220
818.638	6133
818.778	6148
818.919	6106
819.06	6213
819.2	6292
819.341	6311
819.481	6365
819.622	6525
819.762	6646
819.903	6700
820.043	6585
820.184	6540
820.324	6551
820.465	6726
820.605	6669
820.746	6616
820.886	6559
821.026	6627
821.167	6707
821.307	6783
821.447	6798
821.588	6726
821.728	6597
821.868	6490
822.008	6395
822.149	6311
822.289	6319
822.429	6133
822.569	6095
822.709	6102
822.849	5870
822.99	5916
823.13	5942
823.27	5882
823.41	5779
823.55	5745
823.69	5779
823.83	5779
823.97	5661
824.11	5524
824.25	5516
824.389	5566
824.529	5554
824.669	5471
824.809	5619
824.949	5649
825.089	5627
825.228	5524
825.368	5330
825.508	5334
825.648	5391
825.787	5387
825.927	5341
826.067	5303
826.206	5273
826.346	5364
826.485	5391
826.625	5391
826.765	5532
826.904	5417
827.044	5250
827.183	5155
827.323	5094
827.462	5204
827.601	5185
827.741	5140
827.88	5223
828.02	5064
828.159	5239
828.298	5284
828.437	5284
828.577	5273
828.716	5398
828.855	5318
828.994	5193
829.134	5121
829.273	5159
829.412	5102
829.551	5128
829.69	5208
829.829	5235
829.968	5383
830.107	5322
830.246	5227
830.385	5162
830.524	5121
830.663	5067
830.802	4942
830.941	4885
831.08	4870
831.219	4938
831.357	4930
831.496	5128
831.635	4953
831.774	4866
831.913	4858
832.051	4740
832.19	4755
832.329	4828
832.467	4634
832.606	4634
832.744	4714
832.883	4698
833.022	4714
833.16	4835
833.299	4782
833.437	4797
833.576	4824
833.714	4847
833.852	4889
833.991	4835
834.129	4930
834.267	4976
834.406	4858
834.544	5022
834.682	4953
834.821	4961
834.959	5128
835.097	5010
835.235	5147
835.373	5079
835.511	5071
835.65	5006
835.788	5052
835.926	4881
836.064	4896
836.202	4877
836.34	5162
836.478	5239
836.615	5105
836.753	5212
836.891	5235
837.029	5197
837.167	5155
837.305	5166
837.443	5151
837.58	5071
837.718	5201
837.856	5174
837.993	5166
838.131	5197
838.269	5227
838.406	5220
838.544	5212
838.681	4984
838.819	4957
838.956	4870
839.094	4896
839.231	4972
839.369	5060
839.506	5429
839.643	5201
839.781	5090
839.918	4999
840.055	5045
840.193	5048
840.33	5052
840.467	5128
840.604	5124
840.742	5398
840.879	5090
841.016	5060
841.153	5128
841.29	5311
841.427	5303
841.564	5303
841.701	5357
841.838	5239
841.975	5254
842.112	5220
842.249	5094
842.385	5071
842.522	5315
842.659	5121
842.796	5136
842.933	5197
843.069	5136
843.206	5124
843.343	5307
843.479	5265
843.616	5250
843.752	4995
843.889	5010
844.025	5216
844.162	4976
844.298	5178
844.435	5048
844.571	5052
844.708	5208
844.844	5292
844.98	5364
845.117	5216
845.253	5136
845.389	5098
845.525	5166
845.661	5170
845.798	5029
845.934	5105
846.07	5079
846.206	5201
846.342	5284
846.478	5140
846.614	5041
846.75	4930
846.886	4980
847.022	5090
847.158	5010
847.294	5048
847.429	5052
847.565	5102
847.701	5322
847.837	4839
847.972	4778
848.108	4968
848.244	4908
848.379	4759
848.515	4755
848.65	4698
848.786	4744
848.921	4740
849.057	4824
849.192	4930
849.328	4790
849.463	4820
849.598	4782
849.734	4790
849.869	4691
850.004	4630
850.14	4660
850.275	4588
850.41	4523
850.545	4603
850.68	4584
850.815	4611
850.95	4607
851.085	4831
851.22	4782
851.355	4664
851.49	4592
851.625	4634
851.76	4675
851.895	4550
852.03	4531
852.165	4637
852.299	4679
852.434	4759
852.569	4733
852.703	4782
852.838	4847
852.973	4885
853.107	4949
853.242	4744
853.376	4622
853.511	4577
853.645	4615
853.78	4774
853.914	4649
854.048	4672
854.183	4626
854.317	4683
854.451	4786
854.585	4630
854.72	4626
854.854	4736
854.988	4641
855.122	4603
855.256	4516
855.39	4607
855.524	4797
855.658	4660
855.792	4748
855.926	4710
856.06	4725
856.194	4755
856.327	4683
856.461	4611
856.595	4622
856.729	4622
856.862	4755
856.996	4645
857.13	4710
857.263	4725
857.397	4740
857.53	4649
857.664	4717
857.797	4752
857.931	4778
858.064	4656
858.197	4729
858.331	4630
858.464	4596
858.597	4561
858.731	4630
858.864	4641
858.997	4615
859.13	4626
859.263	4672
859.396	4706
859.529	4615
859.662	4558
859.795	4527
859.928	4668
860.061	4733
860.194	4733
860.327	4584
860.46	4580
860.592	4664
860.725	4653
860.858	4710
860.99	4588
861.123	4519
861.256	4519
861.388	4599
861.521	5280
861.653	4493
861.786	4386
861.918	4451
862.05	4535
862.183	4538
862.315	4584
862.447	4630
862.58	4516
862.712	4360
862.844	4291
862.976	4432
863.108	4424
863.24	4725
863.372	4306
863.504	4402
863.636	4424
863.768	4443
863.9	4436
864.032	4371
864.164	4402
864.296	4432
864.428	4500
864.559	4546
864.691	4531
864.823	4497
864.954	4485
865.086	4508
865.217	4432
865.349	4424
865.48	4459
865.612	4478
865.743	4626
865.875	4440
866.006	4417
866.137	4428
866.269	4455
866.4	4421
866.531	4405
866.662	4360
866.793	4356
866.924	4398
867.055	4447
867.186	4428
867.317	4398
867.448	4371
867.579	4379
867.71	4379
867.841	4341
867.972	4462
868.103	4462
868.233	4451
868.364	4459
868.495	4493
868.625	4611
868.756	4759
868.886	4558
869.017	4615
869.147	4755
869.278	4801
869.408	4653
869.539	4596
869.669	4740
869.799	4637
869.929	4752
870.06	4717
870.19	4911
870.32	4900
870.45	4908
870.58	5022
870.71	5048
870.84	5083
870.97	4968
871.1	4889
871.23	5121
871.36	5083
871.489	4984
871.619	5098
871.749	5098
871.879	5086
872.008	5121
872.138	5071
872.267	4957
872.397	4831
872.526	4809
872.656	4729
872.785	4778
872.915	4930
873.044	4953
873.173	4919
873.303	4976
873.432	4957
873.561	4942
873.69	4885
873.819	4797
873.948	4900
874.077	4759
874.206	4725
874.335	4828
874.464	4923
874.593	5045
874.722	4957
874.851	5060
874.979	5022
875.108	5006
875.237	4896
875.365	4881
875.494	4873
875.623	4965
875.751	4824
875.88	4854
876.008	4991
876.136	5048
876.265	5174
876.393	5360
876.521	5242
876.65	5220
876.778	5136
876.906	5052
877.034	4999
877.162	5045
877.29	4923
877.418	5064
877.546	5045
877.674	4995
877.802	5010
877.93	5045
878.058	4938
878.185	4858
878.313	4987
878.441	4911
878.568	4793
878.696	4824
878.824	4900
878.951	5006
879.079	5109
879.206	5231
879.333	5094
879.461	4934
879.588	4968
879.715	5105
879.842	5220
879.97	5006
880.097	4782
880.224	4752
880.351	4854
880.478	4797
880.605	4809
880.732	4748
880.859	5056
880.986	4881
881.112	4877
881.239	4774
881.366	4675
881.493	4599
881.619	4592
881.746	4634
881.872	4615
881.999	4641
882.125	4660
882.252	4812
882.378	4847
882.505	4946
882.631	4748
882.757	4668
882.883	4717
883.01	4725
883.136	4637
883.262	4527
883.388	4622
883.514	4782
883.64	4839
883.766	4812
883.892	4634
884.018	4706
884.143	4866
884.269	5029
884.395	4668
884.52	4580
884.646	4641
884.772	4565
884.897	4500
885.023	4691
885.148	4839
885.274	4816
885.399	4744
885.524	4672
885.65	4733
885.775	4748
885.9	4683
886.025	4786
886.15	4755
886.275	4729
886.4	4653
886.525	4714
886.65	4691
886.775	4698
886.9	4877
887.025	5033
887.149	4812
887.274	4599
887.399	4611
887.523	4569
887.648	4569
887.773	4626
887.897	4782
888.021	4759
888.146	4664
888.27	4793
888.395	4896
888.519	4778
888.643	4831
888.767	4805
888.891	4691
889.015	4637
889.139	4626
889.263	4611
889.387	4774
889.511	4831
889.635	4824
889.759	4664
889.883	4702
890.006	4694
890.13	4866
890.254	4630
890.377	4725
890.501	4516
890.624	4550
890.748	4607
890.871	4542
890.995	4455
891.118	4447
891.241	4561
891.364	4577
891.488	4672
891.611	4535
891.734	4546
891.857	4653
891.98	4599
892.103	4687
892.226	4637
892.349	4561
892.471	4443
892.594	4561
892.717	4618
892.839	4584
892.962	4611
893.085	4721
893.207	4649
893.33	4462
893.452	4523
893.575	4672
893.697	4653
893.819	4793
893.941	4870
894.064	4801
894.186	4611
894.308	4618
894.43	4767
894.552	4828
894.674	4771
894.796	4584
894.918	4641
895.04	4611
895.161	4752
895.283	4698
895.405	4653
895.526	4675
895.648	4736
895.769	4702
895.891	4725
896.012	4774
896.134	4797
896.255	4759
896.376	4683
896.498	4634
896.619	4683
896.74	4618
896.861	4687
896.982	4965
897.103	5151
897.224	4870
897.345	4774
897.466	4767
897.587	4759
897.708	4908
897.828	4835
897.949	4729
898.07	4603
898.19	4710
898.311	4866
898.431	4672
898.552	4763
898.672	4831
898.792	4828
898.913	4752
899.033	4660
899.153	4573
899.273	4481
899.393	4542
899.513	4569
899.633	4584
899.753	4584
899.873	4542
899.993	4607
900.113	4535
900.232	4599
900.352	4580
900.472	4466
900.591	4424
900.711	4516
900.83	4512
900.95	4611
901.069	4748
901.189	4592
901.308	4398
901.427	4356
901.546	4413
901.665	4474
901.784	4519
901.904	4394
902.023	4306
902.141	4246
902.26	4211
902.379	4299
902.498	4261
902.617	4253
902.735	4390
902.854	4440
902.973	4390
903.091	4284
903.21	4272
903.328	4341
903.446	4276
903.565	4268
903.683	4409
903.801	4303
903.919	4417
904.038	4519
904.156	4379
904.274	4447
904.392	4428
904.51	4417
904.627	4493
904.745	4596
904.863	4672
904.981	4440
905.098	4333
905.216	4402
905.334	4462
905.451	4470
905.569	4466
905.686	4580
905.803	4615
905.921	4455
906.038	4565
906.155	4542
906.272	4428
906.389	4512
906.506	4398
906.623	4421
906.74	4443
906.857	4329
906.974	4413
907.091	4596
907.208	4634
907.324	4603
907.441	4531
907.557	4379
907.674	4417
907.79	4341
907.907	4409
908.023	4481
908.139	4519
908.256	4455
908.372	4474
908.488	4485
908.604	4417
908.72	4371
908.836	4405
908.952	4348
909.068	4436
909.184	4603
909.3	4500
909.415	4630
909.531	4599
909.647	4409
909.762	4409
909.878	4348
909.993	4432
910.108	4443
910.224	4417
910.339	4523
910.454	4428
910.57	4386
910.685	4325
910.8	4679
910.915	4634
911.03	4470
911.145	4329
911.259	4344
911.374	4428
911.489	4341
911.604	4268
911.718	4192
911.833	4211
911.947	4147
912.062	4078
912.176	4204
912.291	4249
912.405	4287
912.519	4542
912.633	4550
912.748	4383
912.862	4325
912.976	4192
913.09	4120
913.204	4211
913.318	4287
913.431	4402
913.545	4379
913.659	4474
913.772	4383
913.886	4295
914	4246
914.113	4413
914.226	4470
914.34	4428
914.453	4306
914.566	4447
914.68	4333
914.793	4356
914.906	4131
915.019	4124
915.132	4112
915.245	4223
915.358	4295
915.47	4253
915.583	4268
915.696	4318
915.809	4413
915.921	4440
916.034	4284
916.146	4325
916.259	4219
916.371	4443
916.483	4390
916.595	4246
916.708	4360
916.82	4337
916.932	4363
917.044	4344
917.156	4318
917.268	4299
917.38	4333
917.491	4310
917.603	4386
917.715	4417
917.826	4447
917.938	4367
918.049	4280
918.161	4440
918.272	4592
918.384	4504
918.495	4489
918.606	4276
918.717	4291
918.828	4341
918.939	4409
919.05	4299
919.161	4375
919.272	4185
919.383	4253
919.494	4447
919.604	4656
919.715	4421
919.826	4386
919.936	4455
920.047	4550
920.157	4527
920.267	4683
920.378	4558
920.488	4516
920.598	4752
920.708	4923
920.818	4790
920.928	4820
921.038	4915
921.148	4873
921.258	4710
921.368	4577
921.477	4508
921.587	4474
921.697	4375
921.806	4542
921.916	4497
922.025	4329
922.134	4291
922.244	4249
922.353	4363
922.462	4192
922.571	4162
922.68	4044
922.789	3975
922.898	4051
923.007	4048
923.116	4169
923.224	4101
923.333	4097
923.442	4032
923.55	3994
923.659	4071
923.767	4143
923.876	3987
923.984	4143
924.092	3979
924.201	4063
924.309	4097
924.417	4097
924.525	4086
924.633	4150
924.741	5083
924.849	3953
924.956	4158
925.064	3987
925.172	3918
925.279	3960
925.387	4078
925.494	4093
925.602	4234
925.709	4192
925.816	4093
925.924	4112
926.031	4238
926.138	4162
926.245	4230
926.352	4131
926.459	4234
926.566	4322
926.673	4207
926.779	4128
926.886	4116
926.993	3983
927.099	3987
927.206	3991
927.312	3934
927.419	4097
927.525	4010
927.631	4109
927.737	4040
927.843	3949
927.95	3884
928.056	3968
928.162	3998
928.267	4105
928.373	4588
928.479	4154
928.585	3899
928.69	4025
928.796	4086
928.901	3979
929.007	3876
929.112	4002
929.218	3979
929.323	3960
929.428	3964
929.533	4135
929.638	3945
929.743	3956
929.848	4059
929.953	4036
930.058	3915
930.163	3804
930.267	3778
930.372	3975
930.477	3873
930.581	4101
930.685	3949
930.79	3827
930.894	3876
930.998	3854
931.103	4025
931.207	3713
931.311	3686
931.415	3694
931.519	3526
931.623	3557
