Data from test_V78500241_1206.txt Node
Date: Fri Mar 25 16:57:23 CST 2022
User: usil
Spectrometer: V785-0024
Trigger mode: 0
Integration Time (sec): 4.000000E-1
Scans to average: 1
Nonlinearity correction enabled: false
Boxcar width: 0
Storing dark spectrum: false
XAxis mode: Wavelengths
Number of Pixels in Spectrum: 1024
>>>>>Begin Spectral Data<<<<<
801.071	8084
801.214	8103
801.356	7940
801.499	7932
801.641	7887
801.783	7868
801.926	8027
802.068	7997
802.211	7997
802.353	7986
802.496	7849
802.638	7936
802.78	8005
802.923	7978
803.065	7909
803.208	7974
803.35	8016
803.492	8164
803.635	8157
803.777	8043
803.919	8153
804.061	8503
804.204	8206
804.346	8084
804.488	7959
804.63	8164
804.773	8031
804.915	8157
805.057	8362
805.199	8210
805.341	8275
805.483	8320
805.626	8176
805.768	8145
805.91	8218
806.052	8259
806.194	8161
806.336	8320
806.478	8161
806.62	8123
806.762	8183
806.904	8248
807.046	8446
807.188	8381
807.33	8415
807.472	8355
807.614	8153
807.756	8161
807.898	7989
808.04	7883
808.182	8008
808.324	7970
808.465	7925
808.607	8103
808.749	8195
808.891	8214
809.033	8317
809.174	8221
809.316	8046
809.458	8058
809.6	7993
809.741	8050
809.883	8043
810.025	8134
810.166	8142
810.308	8069
810.45	8024
810.591	7890
810.733	7693
810.875	7700
811.016	7506
811.158	7518
811.299	7666
811.441	7757
811.582	7742
811.724	7613
811.865	7495
812.007	7590
812.148	7689
812.29	7693
812.431	7788
812.573	7970
812.714	7978
812.855	8123
812.997	8240
813.138	8290
813.279	8164
813.421	8130
813.562	8062
813.703	7913
813.845	7734
813.986	7533
814.127	7225
814.268	7225
814.41	7240
814.551	7145
814.692	7164
814.833	7133
814.974	7080
815.115	7164
815.256	6973
815.397	6890
815.539	6966
815.68	6890
815.821	6772
815.962	6833
816.103	6859
816.244	6726
816.385	6631
816.526	6623
816.666	6559
816.807	6323
816.948	6467
817.089	6486
817.23	6464
817.371	6395
817.512	6388
817.653	6380
817.793	6331
817.934	6395
818.075	6502
818.216	6452
818.356	6388
818.497	6224
818.638	6167
818.778	6190
818.919	6178
819.06	6175
819.2	6361
819.341	6331
819.481	6376
819.622	6532
819.762	6787
819.903	6681
820.043	6593
820.184	6677
820.324	6585
820.465	6703
820.605	6722
820.746	6616
820.886	6486
821.026	6662
821.167	6696
821.307	6791
821.447	6814
821.588	6669
821.728	6616
821.868	6563
822.008	6327
822.149	6418
822.289	6350
822.429	6133
822.569	6057
822.709	6155
822.849	5935
822.99	5965
823.13	5988
823.27	5901
823.41	5817
823.55	5836
823.69	5752
823.83	5836
823.97	5665
824.11	5554
824.25	5474
824.389	5585
824.529	5634
824.669	5509
824.809	5627
824.949	5642
825.089	5592
825.228	5570
825.368	5414
825.508	5318
825.648	5349
825.787	5421
825.927	5372
826.067	5337
826.206	5307
826.346	5349
826.485	5417
826.625	5452
826.765	5512
826.904	5459
827.044	5288
827.183	5212
827.323	5159
827.462	5261
827.601	5178
827.741	5159
827.88	5208
828.02	5128
828.159	5284
828.298	5284
828.437	5391
828.577	5330
828.716	5474
828.855	5368
828.994	5185
829.134	5140
829.273	5212
829.412	5140
829.551	5159
829.69	5170
829.829	5326
829.968	5357
830.107	5242
830.246	5280
830.385	5174
830.524	5105
830.663	5090
830.802	4995
830.941	4915
831.08	4896
831.219	5010
831.357	4968
831.496	5159
831.635	4946
831.774	4831
831.913	4854
832.051	4679
832.19	4790
832.329	4866
832.467	4717
832.606	4660
832.744	4774
832.883	4736
833.022	4717
833.16	4805
833.299	4824
833.437	4858
833.576	4843
833.714	4923
833.852	4847
833.991	4862
834.129	4980
834.267	4968
834.406	4889
834.544	5006
834.682	4957
834.821	4968
834.959	5204
835.097	5003
835.235	5105
835.373	5083
835.511	5140
835.65	5060
835.788	5045
835.926	4942
836.064	4911
836.202	4949
836.34	5178
836.478	5235
836.615	5121
836.753	5227
836.891	5292
837.029	5288
837.167	5242
837.305	5242
837.443	5178
837.58	5098
837.718	5242
837.856	5181
837.993	5140
838.131	5246
838.269	5212
838.406	5178
838.544	5201
838.681	5067
838.819	5018
838.956	4892
839.094	4919
839.231	4980
839.369	5064
839.506	5417
839.643	5307
839.781	5025
839.918	5064
840.055	5109
840.193	5128
840.33	5109
840.467	5174
840.604	5193
840.742	5467
840.879	5121
841.016	5071
841.153	5136
841.29	5429
841.427	5330
841.564	5280
841.701	5391
841.838	5265
841.975	5197
842.112	5261
842.249	5162
842.385	5162
842.522	5337
842.659	5208
842.796	5170
842.933	5166
843.069	5185
843.206	5216
843.343	5265
843.479	5258
843.616	5311
843.752	4999
843.889	5037
844.025	5201
844.162	5033
844.298	5208
844.435	5083
844.571	5052
844.708	5189
844.844	5353
844.98	5337
845.117	5349
845.253	5246
845.389	5067
845.525	5193
845.661	5140
845.798	5056
845.934	5185
846.07	5045
846.206	5170
846.342	5273
846.478	5231
846.614	5029
846.75	4972
846.886	4991
847.022	5185
847.158	5037
847.294	5094
847.429	5124
847.565	5045
847.701	5337
847.837	4915
847.972	4828
848.108	4984
848.244	4976
848.379	4767
848.515	4736
848.65	4729
848.786	4733
848.921	4763
849.057	4896
849.192	4934
849.328	4850
849.463	4828
849.598	4805
849.734	4755
849.869	4721
850.004	4645
850.14	4664
850.275	4615
850.41	4500
850.545	4573
850.68	4588
850.815	4618
850.95	4668
851.085	4824
851.22	4755
851.355	4660
851.49	4592
851.625	4630
851.76	4588
851.895	4550
852.03	4550
852.165	4637
852.299	4733
852.434	4805
852.569	4774
852.703	4755
852.838	4843
852.973	4961
853.107	4881
853.242	4778
853.376	4675
853.511	4516
853.645	4611
853.78	4824
853.914	4721
854.048	4649
854.183	4698
854.317	4740
854.451	4812
854.585	4630
854.72	4615
854.854	4740
854.988	4569
855.122	4645
855.256	4508
855.39	4660
855.524	4786
855.658	4694
855.792	4714
855.926	4725
856.06	4771
856.194	4854
856.327	4744
856.461	4603
856.595	4630
856.729	4634
856.862	4736
856.996	4691
857.13	4759
857.263	4771
857.397	4771
857.53	4668
857.664	4767
857.797	4755
857.931	4809
858.064	4702
858.197	4717
858.331	4691
858.464	4618
858.597	4527
858.731	4611
858.864	4668
858.997	4584
859.13	4687
859.263	4630
859.396	4717
859.529	4607
859.662	4611
859.795	4535
859.928	4626
860.061	4752
860.194	4729
860.327	4660
860.46	4584
860.592	4721
860.725	4698
860.858	4740
860.99	4592
861.123	4573
861.256	4569
861.388	4649
861.521	5250
861.653	4485
861.786	4455
861.918	4474
862.05	4504
862.183	4523
862.315	4599
862.447	4672
862.58	4558
862.712	4409
862.844	4337
862.976	4538
863.108	4466
863.24	4854
863.372	4325
863.504	4424
863.636	4424
863.768	4470
863.9	4470
864.032	4360
864.164	4417
864.296	4531
864.428	4500
864.559	4622
864.691	4554
864.823	4493
864.954	4565
865.086	4504
865.217	4500
865.349	4394
865.48	4402
865.612	4523
865.743	4649
865.875	4462
866.006	4440
866.137	4489
866.269	4428
866.4	4428
866.531	4440
866.662	4390
866.793	4405
866.924	4413
867.055	4493
867.186	4451
867.317	4447
867.448	4390
867.579	4390
867.71	4356
867.841	4360
867.972	4455
868.103	4459
868.233	4466
868.364	4436
868.495	4485
868.625	4626
868.756	4736
868.886	4584
869.017	4649
869.147	4793
869.278	4786
869.408	4622
869.539	4660
869.669	4706
869.799	4733
869.929	4767
870.06	4675
870.19	4892
870.32	4930
870.45	4927
870.58	4980
870.71	5128
870.84	5113
870.97	4965
871.1	4862
871.23	5121
871.36	5121
871.489	4991
871.619	5128
871.749	5094
871.879	5140
872.008	5185
872.138	5045
872.267	4949
872.397	4854
872.526	4801
872.656	4691
872.785	4786
872.915	4968
873.044	5022
873.173	4953
873.303	5018
873.432	4885
873.561	4923
873.69	4873
873.819	4843
873.948	4930
874.077	4816
874.206	4809
874.335	4812
874.464	4900
874.593	5060
874.722	4980
874.851	5094
874.979	5022
875.108	5029
875.237	4919
875.365	4877
875.494	4904
875.623	4961
875.751	4835
875.88	4885
876.008	4991
876.136	5025
876.265	5189
876.393	5357
876.521	5239
876.65	5231
876.778	5185
876.906	5045
877.034	5025
877.162	5033
877.29	4984
877.418	5052
877.546	5048
877.674	5071
877.802	5041
877.93	5033
878.058	4923
878.185	4881
878.313	4976
878.441	4949
878.568	4797
878.696	4812
878.824	4946
878.951	4949
879.079	5147
879.206	5303
879.333	5067
879.461	4942
879.588	5014
879.715	5117
879.842	5269
879.97	4930
880.097	4801
880.224	4702
880.351	4771
880.478	4847
880.605	4805
880.732	4793
880.859	5060
880.986	4870
881.112	4866
881.239	4790
881.366	4691
881.493	4565
881.619	4569
881.746	4641
881.872	4645
881.999	4599
882.125	4698
882.252	4755
882.378	4816
882.505	4968
882.631	4782
882.757	4717
882.883	4752
883.01	4740
883.136	4641
883.262	4596
883.388	4611
883.514	4786
883.64	4866
883.766	4793
883.892	4649
884.018	4683
884.143	4911
884.269	5025
884.395	4698
884.52	4569
884.646	4660
884.772	4584
884.897	4523
885.023	4664
885.148	4744
885.274	4843
885.399	4854
885.524	4759
885.65	4702
885.775	4702
885.9	4717
886.025	4889
886.15	4782
886.275	4702
886.4	4649
886.525	4748
886.65	4675
886.775	4664
886.9	4919
887.025	5037
887.149	4774
887.274	4641
887.399	4615
887.523	4630
887.648	4546
887.773	4569
887.897	4752
888.021	4759
888.146	4702
888.27	4820
888.395	4942
888.519	4774
888.643	4809
888.767	4847
888.891	4656
889.015	4592
889.139	4641
889.263	4546
889.387	4755
889.511	4850
889.635	4812
889.759	4626
889.883	4592
890.006	4702
890.13	4870
890.254	4573
890.377	4653
890.501	4508
890.624	4500
890.748	4645
890.871	4508
890.995	4424
891.118	4379
891.241	4500
891.364	4516
891.488	4599
891.611	4478
891.734	4554
891.857	4588
891.98	4561
892.103	4660
892.226	4554
892.349	4512
892.471	4432
892.594	4504
892.717	4592
892.839	4577
892.962	4584
893.085	4660
893.207	4546
893.33	4409
893.452	4519
893.575	4656
893.697	4599
893.819	4774
893.941	4850
894.064	4820
894.186	4611
894.308	4542
894.43	4698
894.552	4812
894.674	4740
894.796	4527
894.918	4618
895.04	4550
895.161	4710
895.283	4656
895.405	4561
895.526	4607
895.648	4672
895.769	4672
895.891	4702
896.012	4687
896.134	4714
896.255	4618
896.376	4649
896.498	4577
896.619	4710
896.74	4592
896.861	4637
896.982	4919
897.103	5121
897.224	4854
897.345	4748
897.466	4683
897.587	4733
897.708	4839
897.828	4790
897.949	4702
898.07	4565
898.19	4634
898.311	4809
898.431	4679
898.552	4733
898.672	4820
898.792	4778
898.913	4729
899.033	4626
899.153	4432
899.273	4409
899.393	4493
899.513	4527
899.633	4516
899.753	4561
899.873	4455
899.993	4561
900.113	4546
900.232	4588
900.352	4546
900.472	4489
900.591	4432
900.711	4489
900.83	4428
900.95	4592
901.069	4660
901.189	4516
901.308	4417
901.427	4284
901.546	4379
901.665	4413
901.784	4504
901.904	4390
902.023	4253
902.141	4196
902.26	4139
902.379	4295
902.498	4234
902.617	4223
902.735	4367
902.854	4386
902.973	4402
903.091	4177
903.21	4234
903.328	4261
903.446	4230
903.565	4276
903.683	4360
903.801	4238
903.919	4356
904.038	4440
904.156	4333
904.274	4436
904.392	4367
904.51	4405
904.627	4417
904.745	4577
904.863	4630
904.981	4344
905.098	4291
905.216	4325
905.334	4417
905.451	4428
905.569	4436
905.686	4538
905.803	4584
905.921	4394
906.038	4535
906.155	4478
906.272	4375
906.389	4440
906.506	4333
906.623	4337
906.74	4440
906.857	4318
906.974	4390
907.091	4546
907.208	4679
907.324	4599
907.441	4500
907.557	4337
907.674	4272
907.79	4318
907.907	4348
908.023	4424
908.139	4459
908.256	4394
908.372	4497
908.488	4390
908.604	4383
908.72	4341
908.836	4375
908.952	4348
909.068	4451
909.184	4592
909.3	4516
909.415	4580
909.531	4577
909.647	4333
909.762	4329
909.878	4341
909.993	4436
910.108	4402
910.224	4451
910.339	4504
910.454	4375
910.57	4333
910.685	4310
910.8	4645
910.915	4561
911.03	4516
911.145	4356
911.259	4295
911.374	4356
911.489	4325
911.604	4268
911.718	4150
911.833	4169
911.947	4051
912.062	4025
912.176	4227
912.291	4188
912.405	4249
912.519	4466
912.633	4504
912.748	4375
912.862	4310
912.976	4200
913.09	4082
913.204	4135
913.318	4242
913.431	4371
913.545	4371
913.659	4409
913.772	4363
913.886	4211
914	4207
914.113	4371
914.226	4462
914.34	4424
914.453	4219
914.566	4451
914.68	4268
914.793	4306
914.906	4169
915.019	4128
915.132	4048
915.245	4188
915.358	4192
915.47	4234
915.583	4257
915.696	4268
915.809	4432
915.921	4383
916.034	4280
916.146	4246
916.259	4242
916.371	4352
916.483	4383
916.595	4276
916.708	4333
916.82	4306
916.932	4287
917.044	4322
917.156	4314
917.268	4257
917.38	4242
917.491	4230
917.603	4314
917.715	4432
917.826	4451
917.938	4310
918.049	4249
918.161	4363
918.272	4535
918.384	4504
918.495	4489
918.606	4287
918.717	4192
918.828	4325
918.939	4367
919.05	4230
919.161	4303
919.272	4116
919.383	4242
919.494	4417
919.604	4630
919.715	4390
919.826	4348
919.936	4417
920.047	4497
920.157	4512
920.267	4721
920.378	4474
920.488	4440
920.598	4698
920.708	4866
920.818	4759
920.928	4752
921.038	4972
921.148	4915
921.258	4672
921.368	4558
921.477	4500
921.587	4436
921.697	4379
921.806	4565
921.916	4424
922.025	4276
922.134	4234
922.244	4215
922.353	4306
922.462	4169
922.571	4124
922.68	3998
922.789	3964
922.898	3975
923.007	3987
923.116	4090
923.224	4029
923.333	4055
923.442	3983
923.55	3968
923.659	4078
923.767	4105
923.876	3991
923.984	4097
924.092	3968
924.201	4090
924.309	4048
924.417	4097
924.525	4025
924.633	4109
924.741	5033
924.849	3934
924.956	4112
925.064	3949
925.172	3922
925.279	3945
925.387	4051
925.494	4040
925.602	4234
925.709	4139
925.816	4036
925.924	4105
926.031	4192
926.138	4105
926.245	4219
926.352	4074
926.459	4261
926.566	4287
926.673	4143
926.779	4059
926.886	4067
926.993	3956
927.099	3918
927.206	3892
927.312	3907
927.419	4006
927.525	4025
927.631	4105
927.737	3934
927.843	3975
927.95	3842
928.056	3956
928.162	3979
928.267	4044
928.373	4691
928.479	4112
928.585	3873
928.69	3991
928.796	4082
928.901	3987
929.007	3865
929.112	4032
929.218	3956
929.323	3926
929.428	3896
929.533	4074
929.638	3861
929.743	3998
929.848	4032
929.953	3991
930.058	3896
930.163	3755
930.267	3850
930.372	3934
930.477	3778
930.581	4090
930.685	3930
930.79	3804
930.894	3896
930.998	3861
931.103	4021
931.207	3709
931.311	3701
931.415	3618
931.519	3530
931.623	3488
