Data from test_V78500241_127.txt Node
Date: Fri Mar 25 16:49:53 CST 2022
User: usil
Spectrometer: V785-0024
Trigger mode: 0
Integration Time (sec): 4.000000E-1
Scans to average: 1
Nonlinearity correction enabled: false
Boxcar width: 0
Storing dark spectrum: false
XAxis mode: Wavelengths
Number of Pixels in Spectrum: 1024
>>>>>Begin Spectral Data<<<<<
801.071	8073
801.214	7974
801.356	7894
801.499	7890
801.641	7799
801.783	7830
801.926	8027
802.068	7944
802.211	8043
802.353	7982
802.496	7879
802.638	7928
802.78	7887
802.923	7932
803.065	7860
803.208	7841
803.35	7951
803.492	8088
803.635	8202
803.777	8031
803.919	8073
804.061	8396
804.204	8062
804.346	8024
804.488	7993
804.63	8016
804.773	7989
804.915	8126
805.057	8290
805.199	8172
805.341	8195
805.483	8263
805.626	8153
805.768	8077
805.91	8145
806.052	8218
806.194	8123
806.336	8301
806.478	8180
806.62	8077
806.762	8157
806.904	8218
807.046	8469
807.188	8275
807.33	8324
807.472	8324
807.614	8164
807.756	8134
807.898	8027
808.04	7883
808.182	7883
808.324	7944
808.465	7967
808.607	8020
808.749	8065
808.891	8286
809.033	8355
809.174	8187
809.316	8008
809.458	8024
809.6	7989
809.741	8001
809.883	8115
810.025	8100
810.166	8096
810.308	8088
810.45	8039
810.591	7860
810.733	7765
810.875	7734
811.016	7563
811.158	7506
811.299	7643
811.441	7784
811.582	7689
811.724	7597
811.865	7586
812.007	7643
812.148	7670
812.29	7677
812.431	7776
812.573	7967
812.714	8062
812.855	8259
812.997	8252
813.138	8454
813.279	8244
813.421	8123
813.562	8058
813.703	7906
813.845	7784
813.986	7499
814.127	7331
814.268	7289
814.41	7213
814.551	7156
814.692	7187
814.833	7137
814.974	7179
815.115	7164
815.256	7004
815.397	7034
815.539	7012
815.68	6844
815.821	6814
815.962	6871
816.103	6814
816.244	6722
816.385	6677
816.526	6681
816.666	6532
816.807	6388
816.948	6441
817.089	6475
817.23	6490
817.371	6429
817.512	6380
817.653	6448
817.793	6350
817.934	6414
818.075	6536
818.216	6456
818.356	6452
818.497	6266
818.638	6148
818.778	6182
818.919	6171
819.06	6190
819.2	6273
819.341	6357
819.481	6372
819.622	6536
819.762	6764
819.903	6722
820.043	6623
820.184	6585
820.324	6604
820.465	6711
820.605	6673
820.746	6642
820.886	6490
821.026	6696
821.167	6715
821.307	6806
821.447	6798
821.588	6707
821.728	6654
821.868	6517
822.008	6388
822.149	6391
822.289	6433
822.429	6194
822.569	6136
822.709	6155
822.849	5980
822.99	5942
823.13	5927
823.27	5950
823.41	5783
823.55	5870
823.69	5847
823.83	5764
823.97	5703
824.11	5524
824.25	5566
824.389	5596
824.529	5585
824.669	5608
824.809	5707
824.949	5733
825.089	5646
825.228	5604
825.368	5429
825.508	5379
825.648	5357
825.787	5391
825.927	5364
826.067	5337
826.206	5265
826.346	5417
826.485	5425
826.625	5398
826.765	5532
826.904	5471
827.044	5280
827.183	5197
827.323	5178
827.462	5299
827.601	5178
827.741	5178
827.88	5235
828.02	5162
828.159	5254
828.298	5307
828.437	5379
828.577	5250
828.716	5474
828.855	5273
828.994	5170
829.134	5147
829.273	5246
829.412	5185
829.551	5102
829.69	5151
829.829	5277
829.968	5353
830.107	5330
830.246	5296
830.385	5216
830.524	5189
830.663	5109
830.802	4949
830.941	4919
831.08	4850
831.219	4980
831.357	5003
831.496	5162
831.635	4949
831.774	4873
831.913	4847
832.051	4702
832.19	4797
832.329	4839
832.467	4721
832.606	4649
832.744	4740
832.883	4752
833.022	4748
833.16	4725
833.299	4862
833.437	4858
833.576	4854
833.714	4873
833.852	4877
833.991	4923
834.129	4930
834.267	4999
834.406	4934
834.544	4999
834.682	4980
834.821	4949
834.959	5181
835.097	4995
835.235	5166
835.373	5071
835.511	5162
835.65	5079
835.788	5029
835.926	4980
836.064	4866
836.202	4991
836.34	5227
836.478	5193
836.615	5151
836.753	5265
836.891	5326
837.029	5250
837.167	5193
837.305	5178
837.443	5143
837.58	5143
837.718	5284
837.856	5204
837.993	5128
838.131	5265
838.269	5292
838.406	5227
838.544	5178
838.681	5128
838.819	5090
838.956	4946
839.094	4862
839.231	4987
839.369	5113
839.506	5478
839.643	5292
839.781	5060
839.918	5052
840.055	5060
840.193	5090
840.33	5132
840.467	5159
840.604	5235
840.742	5471
840.879	5102
841.016	5075
841.153	5166
841.29	5360
841.427	5341
841.564	5368
841.701	5353
841.838	5242
841.975	5204
842.112	5296
842.249	5140
842.385	5090
842.522	5334
842.659	5189
842.796	5143
842.933	5208
843.069	5155
843.206	5128
843.343	5280
843.479	5265
843.616	5296
843.752	5045
843.889	5022
844.025	5246
844.162	5052
844.298	5280
844.435	5041
844.571	5064
844.708	5220
844.844	5265
844.98	5372
845.117	5349
845.253	5208
845.389	5079
845.525	5185
845.661	5151
845.798	5098
845.934	5136
846.07	5090
846.206	5216
846.342	5330
846.478	5261
846.614	4987
846.75	4995
846.886	4953
847.022	5178
847.158	5067
847.294	5079
847.429	5113
847.565	5067
847.701	5326
847.837	4877
847.972	4812
848.108	4995
848.244	4972
848.379	4797
848.515	4721
848.65	4748
848.786	4767
848.921	4786
849.057	4900
849.192	4927
849.328	4862
849.463	4892
849.598	4809
849.734	4805
849.869	4721
850.004	4668
850.14	4721
850.275	4615
850.41	4523
850.545	4630
850.68	4615
850.815	4656
850.95	4622
851.085	4862
851.22	4744
851.355	4717
851.49	4668
851.625	4660
851.76	4588
851.895	4561
852.03	4615
852.165	4702
852.299	4748
852.434	4767
852.569	4736
852.703	4782
852.838	4908
852.973	4889
853.107	4938
853.242	4733
853.376	4645
853.511	4596
853.645	4656
853.78	4885
853.914	4668
854.048	4675
854.183	4698
854.317	4729
854.451	4877
854.585	4675
854.72	4664
854.854	4793
854.988	4584
855.122	4634
855.256	4592
855.39	4660
855.524	4805
855.658	4702
855.792	4675
855.926	4694
856.06	4828
856.194	4843
856.327	4706
856.461	4634
856.595	4675
856.729	4634
856.862	4763
856.996	4656
857.13	4767
857.263	4774
857.397	4858
857.53	4649
857.664	4763
857.797	4805
857.931	4809
858.064	4736
858.197	4706
858.331	4694
858.464	4637
858.597	4489
858.731	4607
858.864	4641
858.997	4588
859.13	4660
859.263	4698
859.396	4694
859.529	4603
859.662	4630
859.795	4542
859.928	4653
860.061	4767
860.194	4748
860.327	4637
860.46	4523
860.592	4710
860.725	4744
860.858	4675
860.99	4554
861.123	4523
861.256	4527
861.388	4634
861.521	5376
861.653	4500
861.786	4474
861.918	4436
862.05	4508
862.183	4538
862.315	4618
862.447	4645
862.58	4603
862.712	4417
862.844	4329
862.976	4462
863.108	4466
863.24	4915
863.372	4329
863.504	4440
863.636	4432
863.768	4508
863.9	4466
864.032	4405
864.164	4432
864.296	4512
864.428	4538
864.559	4577
864.691	4550
864.823	4531
864.954	4466
865.086	4512
865.217	4466
865.349	4436
865.48	4436
865.612	4523
865.743	4607
865.875	4485
866.006	4462
866.137	4497
866.269	4455
866.4	4417
866.531	4424
866.662	4386
866.793	4409
866.924	4470
867.055	4500
867.186	4451
867.317	4459
867.448	4398
867.579	4424
867.71	4367
867.841	4367
867.972	4455
868.103	4519
868.233	4478
868.364	4459
868.495	4508
868.625	4634
868.756	4786
868.886	4573
869.017	4618
869.147	4786
869.278	4812
869.408	4675
869.539	4645
869.669	4721
869.799	4649
869.929	4790
870.06	4725
870.19	4980
870.32	4946
870.45	4976
870.58	5018
870.71	5147
870.84	5124
870.97	4980
871.1	4938
871.23	5181
871.36	5102
871.489	5029
871.619	5098
871.749	5090
871.879	5162
872.008	5178
872.138	5075
872.267	4968
872.397	4820
872.526	4812
872.656	4748
872.785	4778
872.915	4968
873.044	5071
873.173	4938
873.303	4946
873.432	4957
873.561	4934
873.69	4900
873.819	4896
873.948	4904
874.077	4843
874.206	4835
874.335	4820
874.464	4938
874.593	5071
874.722	4953
874.851	5109
874.979	5117
875.108	5067
875.237	4915
875.365	4862
875.494	4854
875.623	5003
875.751	4812
875.88	4930
876.008	4957
876.136	5041
876.265	5174
876.393	5360
876.521	5277
876.65	5216
876.778	5220
876.906	5045
877.034	4968
877.162	5041
877.29	4934
877.418	5052
877.546	5003
877.674	5037
877.802	5033
877.93	4999
878.058	4991
878.185	4847
878.313	4927
878.441	4942
878.568	4786
878.696	4828
878.824	5006
878.951	4991
879.079	5170
879.206	5326
879.333	5041
879.461	4984
879.588	5010
879.715	5132
879.842	5239
879.97	4980
880.097	4831
880.224	4763
880.351	4774
880.478	4850
880.605	4854
880.732	4771
880.859	5094
880.986	4892
881.112	4896
881.239	4801
881.366	4660
881.493	4607
881.619	4615
881.746	4698
881.872	4683
881.999	4675
882.125	4698
882.252	4763
882.378	4816
882.505	4957
882.631	4828
882.757	4729
882.883	4744
883.01	4744
883.136	4660
883.262	4561
883.388	4634
883.514	4816
883.64	4919
883.766	4812
883.892	4736
884.018	4740
884.143	4915
884.269	5037
884.395	4729
884.52	4694
884.646	4702
884.772	4622
884.897	4622
885.023	4721
885.148	4820
885.274	4915
885.399	4896
885.524	4736
885.65	4717
885.775	4812
885.9	4809
886.025	4923
886.15	4877
886.275	4793
886.4	4668
886.525	4771
886.65	4793
886.775	4755
886.9	4934
887.025	5117
887.149	4881
887.274	4714
887.399	4672
887.523	4656
887.648	4630
887.773	4641
887.897	4805
888.021	4854
888.146	4714
888.27	4900
888.395	4968
888.519	4877
888.643	4847
888.767	4889
888.891	4740
889.015	4717
889.139	4683
889.263	4675
889.387	4847
889.511	4930
889.635	4828
889.759	4740
889.883	4672
890.006	4839
890.13	4904
890.254	4649
890.377	4759
890.501	4626
890.624	4599
890.748	4698
890.871	4588
890.995	4481
891.118	4451
891.241	4622
891.364	4599
891.488	4710
891.611	4546
891.734	4615
891.857	4668
891.98	4626
892.103	4687
892.226	4618
892.349	4542
892.471	4497
892.594	4611
892.717	4603
892.839	4596
892.962	4611
893.085	4729
893.207	4637
893.33	4481
893.452	4535
893.575	4763
893.697	4626
893.819	4858
893.941	4870
894.064	4774
894.186	4641
894.308	4577
894.43	4820
894.552	4911
894.674	4805
894.796	4645
894.918	4641
895.04	4645
895.161	4771
895.283	4706
895.405	4615
895.526	4691
895.648	4748
895.769	4714
895.891	4774
896.012	4805
896.134	4801
896.255	4706
896.376	4630
896.498	4710
896.619	4736
896.74	4645
896.861	4656
896.982	4987
897.103	5121
897.224	4873
897.345	4816
897.466	4679
897.587	4778
897.708	4892
897.828	4824
897.949	4721
898.07	4645
898.19	4668
898.311	4923
898.431	4774
898.552	4809
898.672	4843
898.792	4805
898.913	4771
899.033	4649
899.153	4531
899.273	4474
899.393	4577
899.513	4622
899.633	4607
899.753	4607
899.873	4573
899.993	4694
900.113	4618
900.232	4637
900.352	4611
900.472	4542
900.591	4504
900.711	4550
900.83	4497
900.95	4668
901.069	4729
901.189	4561
901.308	4424
901.427	4352
901.546	4436
901.665	4504
901.784	4577
901.904	4383
902.023	4348
902.141	4188
902.26	4253
902.379	4333
902.498	4337
902.617	4291
902.735	4443
902.854	4481
902.973	4402
903.091	4295
903.21	4238
903.328	4360
903.446	4310
903.565	4348
903.683	4375
903.801	4322
903.919	4436
904.038	4474
904.156	4341
904.274	4493
904.392	4443
904.51	4508
904.627	4508
904.745	4637
904.863	4744
904.981	4436
905.098	4390
905.216	4440
905.334	4478
905.451	4459
905.569	4481
905.686	4637
905.803	4641
905.921	4478
906.038	4626
906.155	4519
906.272	4417
906.389	4485
906.506	4413
906.623	4417
906.74	4455
906.857	4379
906.974	4474
907.091	4577
907.208	4710
907.324	4630
907.441	4558
907.557	4390
907.674	4421
907.79	4360
907.907	4470
908.023	4504
908.139	4497
908.256	4451
908.372	4535
908.488	4554
908.604	4383
908.72	4386
908.836	4436
908.952	4379
909.068	4497
909.184	4637
909.3	4542
909.415	4637
909.531	4615
909.647	4470
909.762	4447
909.878	4375
909.993	4554
910.108	4481
910.224	4398
910.339	4531
910.454	4470
910.57	4398
910.685	4344
910.8	4687
910.915	4630
911.03	4558
911.145	4413
911.259	4398
911.374	4432
911.489	4341
911.604	4337
911.718	4246
911.833	4234
911.947	4120
912.062	4078
912.176	4295
912.291	4261
912.405	4306
912.519	4497
912.633	4546
912.748	4379
912.862	4367
912.976	4268
913.09	4135
913.204	4253
913.318	4348
913.431	4398
913.545	4405
913.659	4497
913.772	4428
913.886	4287
914	4280
914.113	4402
914.226	4508
914.34	4462
914.453	4272
914.566	4478
914.68	4333
914.793	4360
914.906	4173
915.019	4166
915.132	4112
915.245	4253
915.358	4253
915.47	4310
915.583	4333
915.696	4375
915.809	4466
915.921	4474
916.034	4314
916.146	4287
916.259	4257
916.371	4421
916.483	4390
916.595	4337
916.708	4337
916.82	4325
916.932	4360
917.044	4371
917.156	4432
917.268	4303
917.38	4276
917.491	4325
917.603	4421
917.715	4481
917.826	4485
917.938	4405
918.049	4291
918.161	4455
918.272	4641
918.384	4603
918.495	4512
918.606	4386
918.717	4265
918.828	4417
918.939	4413
919.05	4303
919.161	4329
919.272	4219
919.383	4268
919.494	4455
919.604	4668
919.715	4519
919.826	4417
919.936	4459
920.047	4538
920.157	4561
920.267	4763
920.378	4596
920.488	4558
920.598	4748
920.708	4953
920.818	4763
920.928	4790
921.038	5029
921.148	4942
921.258	4634
921.368	4660
921.477	4554
921.587	4459
921.697	4424
921.806	4577
921.916	4474
922.025	4325
922.134	4310
922.244	4272
922.353	4379
922.462	4211
922.571	4131
922.68	4059
922.789	4006
922.898	4036
923.007	4067
923.116	4150
923.224	4074
923.333	4124
923.442	4051
923.55	4029
923.659	4086
923.767	4128
923.876	4063
923.984	4188
924.092	4040
924.201	4128
924.309	4139
924.417	4131
924.525	4071
924.633	4135
924.741	4885
924.849	3983
924.956	4204
925.064	4010
925.172	3956
925.279	3994
925.387	4105
925.494	4112
925.602	4249
925.709	4211
925.816	4051
925.924	4181
926.031	4272
926.138	4238
926.245	4291
926.352	4147
926.459	4287
926.566	4386
926.673	4188
926.779	4124
926.886	4128
926.993	4032
927.099	3994
927.206	3972
927.312	3975
927.419	4082
927.525	4063
927.631	4116
927.737	4010
927.843	3915
927.95	3838
928.056	4006
928.162	4082
928.267	4097
928.373	4653
928.479	4173
928.585	3949
928.69	4090
928.796	4147
928.901	4029
929.007	3884
929.112	4048
929.218	4040
929.323	4032
929.428	3994
929.533	4128
929.638	3956
929.743	3964
929.848	4032
929.953	4032
930.058	4029
930.163	3838
930.267	3850
930.372	4017
930.477	3842
930.581	4128
930.685	3979
930.79	3831
930.894	3918
930.998	3926
931.103	4090
931.207	3743
931.311	3797
931.415	3736
931.519	3538
931.623	3606
