Data from test_V78500241_2022.txt Node
Date: Fri Mar 25 17:03:03 CST 2022
User: usil
Spectrometer: V785-0024
Trigger mode: 0
Integration Time (sec): 4.000000E-1
Scans to average: 1
Nonlinearity correction enabled: false
Boxcar width: 0
Storing dark spectrum: false
XAxis mode: Wavelengths
Number of Pixels in Spectrum: 1024
>>>>>Begin Spectral Data<<<<<
801.071	7982
801.214	7928
801.356	7856
801.499	7750
801.641	7784
801.783	7788
801.926	7936
802.068	7970
802.211	7921
802.353	8016
802.496	7818
802.638	7818
802.78	7837
802.923	7875
803.065	7822
803.208	7913
803.35	7944
803.492	8050
803.635	8115
803.777	8054
803.919	8142
804.061	8438
804.204	8164
804.346	8100
804.488	7989
804.63	8119
804.773	8001
804.915	8081
805.057	8202
805.199	8191
805.341	8187
805.483	8199
805.626	8164
805.768	8153
805.91	8176
806.052	8176
806.194	8058
806.336	8286
806.478	8134
806.62	8119
806.762	8206
806.904	8290
807.046	8495
807.188	8450
807.33	8320
807.472	8355
807.614	8210
807.756	8130
807.898	8008
808.04	7833
808.182	7852
808.324	7875
808.465	7845
808.607	7986
808.749	8069
808.891	8240
809.033	8279
809.174	8237
809.316	8081
809.458	8058
809.6	8020
809.741	8043
809.883	8100
810.025	8046
810.166	8103
810.308	8020
810.45	7955
810.591	7883
810.733	7734
810.875	7662
811.016	7514
811.158	7476
811.299	7540
811.441	7715
811.582	7708
811.724	7594
811.865	7559
812.007	7655
812.148	7624
812.29	7639
812.431	7708
812.573	7917
812.714	7986
812.855	8199
812.997	8187
813.138	8328
813.279	8157
813.421	8065
813.562	7967
813.703	7818
813.845	7696
813.986	7415
814.127	7225
814.268	7240
814.41	7168
814.551	7213
814.692	7194
814.833	7069
814.974	7069
815.115	7046
815.256	7023
815.397	6901
815.539	6981
815.68	6776
815.821	6783
815.962	6875
816.103	6798
816.244	6696
816.385	6662
816.526	6563
816.666	6498
816.807	6361
816.948	6441
817.089	6467
817.23	6395
817.371	6357
817.512	6376
817.653	6395
817.793	6331
817.934	6384
818.075	6502
818.216	6441
818.356	6494
818.497	6235
818.638	6106
818.778	6125
818.919	6163
819.06	6140
819.2	6338
819.341	6277
819.481	6331
819.622	6509
819.762	6738
819.903	6726
820.043	6559
820.184	6555
820.324	6566
820.465	6669
820.605	6745
820.746	6627
820.886	6563
821.026	6646
821.167	6673
821.307	6745
821.447	6779
821.588	6620
821.728	6597
821.868	6513
822.008	6296
822.149	6399
822.289	6353
822.429	6159
822.569	6125
822.709	6053
822.849	5851
822.99	5847
823.13	5859
823.27	5920
823.41	5802
823.55	5802
823.69	5802
823.83	5741
823.97	5638
824.11	5497
824.25	5478
824.389	5554
824.529	5604
824.669	5543
824.809	5608
824.949	5688
825.089	5577
825.228	5505
825.368	5402
825.508	5303
825.648	5337
825.787	5421
825.927	5357
826.067	5284
826.206	5269
826.346	5410
826.485	5402
826.625	5414
826.765	5543
826.904	5463
827.044	5227
827.183	5147
827.323	5109
827.462	5235
827.601	5159
827.741	5174
827.88	5208
828.02	5124
828.159	5212
828.298	5242
828.437	5292
828.577	5307
828.716	5482
828.855	5326
828.994	5159
829.134	5170
829.273	5227
829.412	5105
829.551	5098
829.69	5197
829.829	5201
829.968	5391
830.107	5292
830.246	5242
830.385	5162
830.524	5178
830.663	5018
830.802	4911
830.941	4896
831.08	4862
831.219	4984
831.357	4965
831.496	5124
831.635	4915
831.774	4854
831.913	4850
832.051	4736
832.19	4767
832.329	4839
832.467	4698
832.606	4615
832.744	4748
832.883	4702
833.022	4733
833.16	4786
833.299	4812
833.437	4854
833.576	4801
833.714	4839
833.852	4870
833.991	4904
834.129	4927
834.267	4957
834.406	4854
834.544	4949
834.682	5003
834.821	4972
834.959	5117
835.097	5025
835.235	5143
835.373	5064
835.511	5098
835.65	5060
835.788	5025
835.926	4881
836.064	4866
836.202	4885
836.34	5166
836.478	5147
836.615	5113
836.753	5201
836.891	5288
837.029	5242
837.167	5162
837.305	5181
837.443	5132
837.58	5109
837.718	5258
837.856	5216
837.993	5128
838.131	5231
838.269	5208
838.406	5193
838.544	5231
838.681	5014
838.819	5037
838.956	4911
839.094	4896
839.231	4984
839.369	5117
839.506	5410
839.643	5246
839.781	5075
839.918	5029
840.055	5083
840.193	5094
840.33	5083
840.467	5128
840.604	5197
840.742	5429
840.879	5037
841.016	5121
841.153	5136
841.29	5372
841.427	5299
841.564	5307
841.701	5334
841.838	5261
841.975	5227
842.112	5250
842.249	5124
842.385	5105
842.522	5303
842.659	5098
842.796	5117
842.933	5174
843.069	5170
843.206	5136
843.343	5273
843.479	5208
843.616	5216
843.752	5025
843.889	5006
844.025	5250
844.162	5037
844.298	5178
844.435	5102
844.571	5029
844.708	5193
844.844	5303
844.98	5318
845.117	5288
845.253	5162
845.389	5086
845.525	5201
845.661	5109
845.798	5067
845.934	5109
846.07	5037
846.206	5216
846.342	5223
846.478	5151
846.614	4991
846.75	4991
846.886	4923
847.022	5121
847.158	4991
847.294	5022
847.429	5090
847.565	5048
847.701	5296
847.837	4843
847.972	4767
848.108	4946
848.244	4915
848.379	4736
848.515	4744
848.65	4733
848.786	4744
848.921	4759
849.057	4828
849.192	4896
849.328	4778
849.463	4835
849.598	4763
849.734	4729
849.869	4767
850.004	4649
850.14	4634
850.275	4607
850.41	4504
850.545	4550
850.68	4596
850.815	4573
850.95	4592
851.085	4824
851.22	4721
851.355	4649
851.49	4577
851.625	4599
851.76	4599
851.895	4561
852.03	4485
852.165	4656
852.299	4740
852.434	4752
852.569	4774
852.703	4767
852.838	4790
852.973	4953
853.107	4911
853.242	4771
853.376	4645
853.511	4546
853.645	4637
853.78	4797
853.914	4683
854.048	4675
854.183	4630
854.317	4687
854.451	4801
854.585	4664
854.72	4630
854.854	4759
854.988	4611
855.122	4596
855.256	4573
855.39	4637
855.524	4786
855.658	4714
855.792	4706
855.926	4725
856.06	4755
856.194	4850
856.327	4683
856.461	4599
856.595	4615
856.729	4592
856.862	4774
856.996	4683
857.13	4710
857.263	4740
857.397	4744
857.53	4634
857.664	4706
857.797	4763
857.931	4725
858.064	4668
858.197	4771
858.331	4683
858.464	4618
858.597	4546
858.731	4626
858.864	4645
858.997	4569
859.13	4660
859.263	4691
859.396	4641
859.529	4569
859.662	4538
859.795	4535
859.928	4599
860.061	4763
860.194	4763
860.327	4569
860.46	4531
860.592	4698
860.725	4744
860.858	4740
860.99	4607
861.123	4500
861.256	4569
861.388	4641
861.521	5246
861.653	4455
861.786	4436
861.918	4443
862.05	4512
862.183	4546
862.315	4603
862.447	4634
862.58	4538
862.712	4379
862.844	4390
862.976	4440
863.108	4451
863.24	4752
863.372	4322
863.504	4428
863.636	4421
863.768	4455
863.9	4428
864.032	4363
864.164	4424
864.296	4459
864.428	4554
864.559	4573
864.691	4512
864.823	4493
864.954	4493
865.086	4485
865.217	4417
865.349	4402
865.48	4402
865.612	4485
865.743	4626
865.875	4478
866.006	4417
866.137	4455
866.269	4447
866.4	4428
866.531	4394
866.662	4390
866.793	4402
866.924	4375
867.055	4447
867.186	4485
867.317	4428
867.448	4383
867.579	4402
867.71	4409
867.841	4348
867.972	4440
868.103	4440
868.233	4424
868.364	4466
868.495	4424
868.625	4668
868.756	4790
868.886	4573
869.017	4592
869.147	4790
869.278	4812
869.408	4672
869.539	4645
869.669	4714
869.799	4664
869.929	4714
870.06	4748
870.19	4904
870.32	4892
870.45	4949
870.58	5060
870.71	5067
870.84	5098
870.97	4965
871.1	4854
871.23	5121
871.36	5136
871.489	4991
871.619	5048
871.749	5094
871.879	5113
872.008	5121
872.138	5079
872.267	5006
872.397	4839
872.526	4835
872.656	4698
872.785	4828
872.915	4949
873.044	4984
873.173	4911
873.303	4938
873.432	4927
873.561	4953
873.69	4828
873.819	4885
873.948	4953
874.077	4805
874.206	4752
874.335	4831
874.464	4904
874.593	5102
874.722	4961
874.851	5083
874.979	5064
875.108	5041
875.237	4915
875.365	4877
875.494	4904
875.623	4946
875.751	4782
875.88	4854
876.008	4968
876.136	5052
876.265	5204
876.393	5337
876.521	5269
876.65	5204
876.778	5220
876.906	5090
877.034	4949
877.162	5048
877.29	4957
877.418	5056
877.546	5029
877.674	5037
877.802	4980
877.93	5025
878.058	4927
878.185	4862
878.313	4949
878.441	5003
878.568	4805
878.696	4854
878.824	4927
878.951	4999
879.079	5124
879.206	5254
879.333	5048
879.461	4961
879.588	4972
879.715	5052
879.842	5197
879.97	4980
880.097	4786
880.224	4782
880.351	4782
880.478	4809
880.605	4816
880.732	4752
880.859	5022
880.986	4885
881.112	4889
881.239	4740
881.366	4672
881.493	4596
881.619	4577
881.746	4599
881.872	4637
881.999	4641
882.125	4698
882.252	4748
882.378	4778
882.505	4976
882.631	4858
882.757	4634
882.883	4725
883.01	4744
883.136	4618
883.262	4588
883.388	4580
883.514	4824
883.64	4892
883.766	4774
883.892	4675
884.018	4725
884.143	4961
884.269	4991
884.395	4649
884.52	4618
884.646	4675
884.772	4569
884.897	4573
885.023	4649
885.148	4816
885.274	4847
885.399	4812
885.524	4706
885.65	4702
885.775	4694
885.9	4694
886.025	4866
886.15	4774
886.275	4767
886.4	4683
886.525	4744
886.65	4672
886.775	4729
886.9	4889
887.025	4987
887.149	4812
887.274	4675
887.399	4565
887.523	4607
887.648	4554
887.773	4584
887.897	4774
888.021	4759
888.146	4668
888.27	4831
888.395	4866
888.519	4778
888.643	4767
888.767	4797
888.891	4649
889.015	4580
889.139	4698
889.263	4634
889.387	4805
889.511	4835
889.635	4812
889.759	4641
889.883	4641
890.006	4733
890.13	4854
890.254	4611
890.377	4668
890.501	4546
890.624	4535
890.748	4626
890.871	4466
890.995	4436
891.118	4329
891.241	4455
891.364	4558
891.488	4615
891.611	4554
891.734	4569
891.857	4588
891.98	4618
892.103	4596
892.226	4550
892.349	4512
892.471	4424
892.594	4538
892.717	4584
892.839	4584
892.962	4611
893.085	4672
893.207	4622
893.33	4493
893.452	4470
893.575	4683
893.697	4637
893.819	4767
893.941	4820
894.064	4778
894.186	4611
894.308	4599
894.43	4744
894.552	4809
894.674	4717
894.796	4508
894.918	4592
895.04	4615
895.161	4664
895.283	4656
895.405	4573
895.526	4664
895.648	4687
895.769	4710
895.891	4710
896.012	4744
896.134	4729
896.255	4683
896.376	4626
896.498	4596
896.619	4672
896.74	4618
896.861	4622
896.982	4938
897.103	5025
897.224	4801
897.345	4759
897.466	4649
897.587	4736
897.708	4908
897.828	4763
897.949	4683
898.07	4588
898.19	4694
898.311	4786
898.431	4698
898.552	4649
898.672	4805
898.792	4771
898.913	4717
899.033	4649
899.153	4489
899.273	4421
899.393	4489
899.513	4504
899.633	4523
899.753	4470
899.873	4550
899.993	4554
900.113	4573
900.232	4592
900.352	4550
900.472	4504
900.591	4402
900.711	4466
900.83	4432
900.95	4546
901.069	4660
901.189	4527
901.308	4371
901.427	4303
901.546	4341
901.665	4440
901.784	4493
901.904	4344
902.023	4318
902.141	4173
902.26	4185
902.379	4344
902.498	4249
902.617	4249
902.735	4363
902.854	4371
902.973	4360
903.091	4246
903.21	4238
903.328	4284
903.446	4257
903.565	4211
903.683	4314
903.801	4337
903.919	4375
904.038	4428
904.156	4272
904.274	4436
904.392	4386
904.51	4466
904.627	4455
904.745	4615
904.863	4596
904.981	4390
905.098	4356
905.216	4402
905.334	4390
905.451	4455
905.569	4455
905.686	4497
905.803	4569
905.921	4402
906.038	4573
906.155	4459
906.272	4402
906.389	4447
906.506	4295
906.623	4352
906.74	4348
906.857	4310
906.974	4314
907.091	4569
907.208	4694
907.324	4580
907.441	4538
907.557	4367
907.674	4337
907.79	4337
907.907	4356
908.023	4474
908.139	4459
908.256	4428
908.372	4474
908.488	4436
908.604	4363
908.72	4314
908.836	4337
908.952	4398
909.068	4428
909.184	4565
909.3	4489
909.415	4535
909.531	4569
909.647	4325
909.762	4363
909.878	4390
909.993	4432
910.108	4428
910.224	4424
910.339	4462
910.454	4367
910.57	4375
910.685	4287
910.8	4615
910.915	4561
911.03	4478
911.145	4333
911.259	4348
911.374	4375
911.489	4356
911.604	4303
911.718	4173
911.833	4223
911.947	4055
912.062	4013
912.176	4246
912.291	4223
912.405	4253
912.519	4474
912.633	4497
912.748	4367
912.862	4325
912.976	4230
913.09	4112
913.204	4188
913.318	4215
913.431	4402
913.545	4348
913.659	4440
913.772	4363
913.886	4238
914	4219
914.113	4356
914.226	4409
914.34	4379
914.453	4234
914.566	4470
914.68	4257
914.793	4303
914.906	4173
915.019	4147
915.132	4086
915.245	4185
915.358	4234
915.47	4238
915.583	4253
915.696	4322
915.809	4363
915.921	4398
916.034	4268
916.146	4265
916.259	4215
916.371	4363
916.483	4394
916.595	4268
916.708	4322
916.82	4333
916.932	4276
917.044	4272
917.156	4299
917.268	4207
917.38	4314
917.491	4268
917.603	4329
917.715	4417
917.826	4440
917.938	4367
918.049	4276
918.161	4424
918.272	4554
918.384	4523
918.495	4421
918.606	4318
918.717	4230
918.828	4287
918.939	4398
919.05	4272
919.161	4268
919.272	4173
919.383	4242
919.494	4466
919.604	4592
919.715	4440
919.826	4371
919.936	4413
920.047	4531
920.157	4512
920.267	4744
920.378	4500
920.488	4504
920.598	4694
920.708	4858
920.818	4740
920.928	4736
921.038	4938
921.148	4934
921.258	4588
921.368	4550
921.477	4504
921.587	4481
921.697	4360
921.806	4580
921.916	4451
922.025	4287
922.134	4242
922.244	4219
922.353	4295
922.462	4215
922.571	4135
922.68	4017
922.789	3930
922.898	4051
923.007	3945
923.116	4097
923.224	4078
923.333	4090
923.442	3983
923.55	3987
923.659	4051
923.767	4120
923.876	4036
923.984	4135
924.092	4002
924.201	4082
924.309	4101
924.417	4143
924.525	4051
924.633	4051
924.741	5048
924.849	3922
924.956	4105
925.064	3968
925.172	3873
925.279	3972
925.387	4010
925.494	4036
925.602	4238
925.709	4173
925.816	4006
925.924	4116
926.031	4215
926.138	4162
926.245	4215
926.352	4086
926.459	4227
926.566	4303
926.673	4173
926.779	4093
926.886	4109
926.993	4029
927.099	3918
927.206	3941
927.312	3911
927.419	4063
927.525	4036
927.631	4074
927.737	3979
927.843	3911
927.95	3835
928.056	3941
928.162	3991
928.267	4097
928.373	4569
928.479	4101
928.585	3918
928.69	4040
928.796	4078
928.901	3960
929.007	3861
929.112	3991
929.218	3922
929.323	3922
929.428	3968
929.533	4131
929.638	3907
929.743	3934
929.848	3998
929.953	3941
930.058	3880
930.163	3793
930.267	3804
930.372	3975
930.477	3816
930.581	4078
930.685	3964
930.79	3800
930.894	3876
930.998	3842
931.103	4078
931.207	3705
931.311	3667
931.415	3701
931.519	3542
931.623	3542
