Data from test_V78500241_528.txt Node
Date: Fri Mar 25 16:52:40 CST 2022
User: usil
Spectrometer: V785-0024
Trigger mode: 0
Integration Time (sec): 4.000000E-1
Scans to average: 1
Nonlinearity correction enabled: false
Boxcar width: 0
Storing dark spectrum: false
XAxis mode: Wavelengths
Number of Pixels in Spectrum: 1024
>>>>>Begin Spectral Data<<<<<
801.071	8069
801.214	7982
801.356	7852
801.499	7868
801.641	7700
801.783	7856
801.926	8058
802.068	7974
802.211	8027
802.353	7997
802.496	7921
802.638	7841
802.78	7925
802.923	7925
803.065	7811
803.208	7826
803.35	7940
803.492	8035
803.635	8077
803.777	8054
803.919	8081
804.061	8362
804.204	8096
804.346	7989
804.488	7947
804.63	8024
804.773	7951
804.915	8008
805.057	8259
805.199	8153
805.341	8240
805.483	8256
805.626	8172
805.768	8054
805.91	8096
806.052	8161
806.194	8107
806.336	8221
806.478	8058
806.62	8088
806.762	8168
806.904	8195
807.046	8404
807.188	8267
807.33	8187
807.472	8252
807.614	8145
807.756	8100
807.898	7951
808.04	7875
808.182	7860
808.324	7925
808.465	7864
808.607	7955
808.749	8126
808.891	8164
809.033	8275
809.174	8100
809.316	8043
809.458	8058
809.6	7997
809.741	8012
809.883	8069
810.025	8088
810.166	8046
810.308	8016
810.45	7986
810.591	7890
810.733	7696
810.875	7636
811.016	7495
811.158	7487
811.299	7636
811.441	7795
811.582	7643
811.724	7605
811.865	7533
812.007	7632
812.148	7567
812.29	7681
812.431	7734
812.573	7875
812.714	7925
812.855	8142
812.997	8267
813.138	8317
813.279	8256
813.421	8123
813.562	8062
813.703	7906
813.845	7822
813.986	7510
814.127	7282
814.268	7285
814.41	7236
814.551	7168
814.692	7213
814.833	7129
814.974	7072
815.115	7137
815.256	6928
815.397	6901
815.539	7000
815.68	6806
815.821	6741
815.962	6844
816.103	6840
816.244	6738
816.385	6601
816.526	6620
816.666	6517
816.807	6315
816.948	6445
817.089	6448
817.23	6460
817.371	6357
817.512	6365
817.653	6384
817.793	6361
817.934	6388
818.075	6418
818.216	6460
818.356	6426
818.497	6136
818.638	6083
818.778	6098
818.919	6106
819.06	6136
819.2	6338
819.341	6285
819.481	6350
819.622	6578
819.762	6730
819.903	6700
820.043	6574
820.184	6521
820.324	6547
820.465	6608
820.605	6604
820.746	6665
820.886	6467
821.026	6646
821.167	6642
821.307	6677
821.447	6681
821.588	6669
821.728	6490
821.868	6418
822.008	6296
822.149	6342
822.289	6384
822.429	6079
822.569	6011
822.709	6068
822.849	5889
822.99	5904
823.13	5874
823.27	5923
823.41	5832
823.55	5722
823.69	5699
823.83	5756
823.97	5668
824.11	5547
824.25	5512
824.389	5558
824.529	5589
824.669	5520
824.809	5634
824.949	5722
825.089	5665
825.228	5592
825.368	5391
825.508	5364
825.648	5337
825.787	5410
825.927	5364
826.067	5334
826.206	5269
826.346	5391
826.485	5444
826.625	5444
826.765	5630
826.904	5478
827.044	5307
827.183	5250
827.323	5170
827.462	5277
827.601	5197
827.741	5185
827.88	5242
828.02	5189
828.159	5296
828.298	5337
828.437	5387
828.577	5288
828.716	5512
828.855	5357
828.994	5227
829.134	5174
829.273	5216
829.412	5124
829.551	5140
829.69	5197
829.829	5216
829.968	5322
830.107	5322
830.246	5299
830.385	5246
830.524	5193
830.663	5079
830.802	5033
830.941	4949
831.08	4923
831.219	5052
831.357	5037
831.496	5174
831.635	4987
831.774	4930
831.913	4942
832.051	4744
832.19	4744
832.329	4877
832.467	4702
832.606	4725
832.744	4771
832.883	4733
833.022	4805
833.16	4870
833.299	4839
833.437	4889
833.576	4885
833.714	4870
833.852	4892
833.991	4938
834.129	5018
834.267	4915
834.406	4961
834.544	5006
834.682	5025
834.821	5025
834.959	5239
835.097	5029
835.235	5197
835.373	5121
835.511	5216
835.65	5014
835.788	5037
835.926	4938
836.064	4923
836.202	4980
836.34	5162
836.478	5261
836.615	5094
836.753	5235
836.891	5349
837.029	5246
837.167	5201
837.305	5159
837.443	5155
837.58	5117
837.718	5261
837.856	5235
837.993	5162
838.131	5246
838.269	5265
838.406	5239
838.544	5220
838.681	5079
838.819	5075
838.956	4938
839.094	4900
839.231	5048
839.369	5132
839.506	5463
839.643	5227
839.781	5113
839.918	5052
840.055	5143
840.193	5155
840.33	5159
840.467	5189
840.604	5231
840.742	5455
840.879	5090
841.016	5147
841.153	5170
841.29	5383
841.427	5391
841.564	5372
841.701	5349
841.838	5330
841.975	5273
842.112	5307
842.249	5155
842.385	5124
842.522	5353
842.659	5197
842.796	5174
842.933	5220
843.069	5181
843.206	5181
843.343	5315
843.479	5231
843.616	5250
843.752	5037
843.889	5060
844.025	5284
844.162	5048
844.298	5242
844.435	5105
844.571	5174
844.708	5231
844.844	5315
844.98	5349
845.117	5303
845.253	5166
845.389	5083
845.525	5178
845.661	5170
845.798	5022
845.934	5185
846.07	5105
846.206	5216
846.342	5292
846.478	5235
846.614	5033
846.75	5003
846.886	4961
847.022	5162
847.158	5041
847.294	5086
847.429	5159
847.565	5048
847.701	5353
847.837	4881
847.972	4816
848.108	4976
848.244	4968
848.379	4774
848.515	4733
848.65	4733
848.786	4778
848.921	4816
849.057	4885
849.192	4949
849.328	4847
849.463	4847
849.598	4824
849.734	4786
849.869	4755
850.004	4698
850.14	4694
850.275	4607
850.41	4523
850.545	4584
850.68	4660
850.815	4679
850.95	4607
851.085	4820
851.22	4778
851.355	4714
851.49	4611
851.625	4641
851.76	4626
851.895	4584
852.03	4535
852.165	4706
852.299	4744
852.434	4862
852.569	4755
852.703	4782
852.838	4854
852.973	4911
853.107	4953
853.242	4744
853.376	4664
853.511	4607
853.645	4687
853.78	4847
853.914	4706
854.048	4744
854.183	4702
854.317	4729
854.451	4881
854.585	4744
854.72	4664
854.854	4767
854.988	4569
855.122	4679
855.256	4580
855.39	4736
855.524	4854
855.658	4714
855.792	4710
855.926	4786
856.06	4778
856.194	4801
856.327	4622
856.461	4653
856.595	4618
856.729	4702
856.862	4790
856.996	4725
857.13	4752
857.263	4831
857.397	4843
857.53	4706
857.664	4729
857.797	4797
857.931	4793
858.064	4729
858.197	4733
858.331	4687
858.464	4656
858.597	4527
858.731	4664
858.864	4641
858.997	4626
859.13	4679
859.263	4691
859.396	4714
859.529	4615
859.662	4580
859.795	4550
859.928	4637
860.061	4740
860.194	4793
860.327	4634
860.46	4588
860.592	4778
860.725	4755
860.858	4733
860.99	4626
861.123	4546
861.256	4554
861.388	4645
861.521	5452
861.653	4558
861.786	4474
861.918	4489
862.05	4527
862.183	4569
862.315	4626
862.447	4668
862.58	4599
862.712	4462
862.844	4360
862.976	4516
863.108	4497
863.24	4934
863.372	4337
863.504	4466
863.636	4417
863.768	4542
863.9	4466
864.032	4363
864.164	4386
864.296	4474
864.428	4588
864.559	4603
864.691	4626
864.823	4489
864.954	4516
865.086	4504
865.217	4504
865.349	4459
865.48	4478
865.612	4516
865.743	4641
865.875	4531
866.006	4493
866.137	4481
866.269	4413
866.4	4443
866.531	4459
866.662	4447
866.793	4455
866.924	4409
867.055	4535
867.186	4580
867.317	4451
867.448	4379
867.579	4394
867.71	4402
867.841	4390
867.972	4554
868.103	4466
868.233	4462
868.364	4493
868.495	4516
868.625	4733
868.756	4759
868.886	4599
869.017	4698
869.147	4763
869.278	4778
869.408	4679
869.539	4634
869.669	4782
869.799	4672
869.929	4767
870.06	4729
870.19	4999
870.32	5006
870.45	4980
870.58	5060
870.71	5117
870.84	5105
870.97	4968
871.1	4915
871.23	5128
871.36	5197
871.489	5064
871.619	5102
871.749	5132
871.879	5147
872.008	5162
872.138	5052
872.267	4999
872.397	4881
872.526	4831
872.656	4721
872.785	4812
872.915	4972
873.044	5064
873.173	4961
873.303	4961
873.432	5003
873.561	4930
873.69	4923
873.819	4938
873.948	4904
874.077	4854
874.206	4782
874.335	4858
874.464	4949
874.593	5098
874.722	4953
874.851	5170
874.979	5102
875.108	5086
875.237	4965
875.365	4877
875.494	4911
875.623	4984
875.751	4843
875.88	4915
876.008	4995
876.136	5075
876.265	5235
876.393	5349
876.521	5280
876.65	5277
876.778	5273
876.906	5064
877.034	5098
877.162	5052
877.29	5071
877.418	5067
877.546	5037
877.674	5102
877.802	5132
877.93	5033
878.058	4976
878.185	4881
878.313	5029
878.441	4953
878.568	4820
878.696	4885
878.824	4995
878.951	5033
879.079	5124
879.206	5315
879.333	5140
879.461	4987
879.588	5014
879.715	5136
879.842	5239
879.97	5025
880.097	4774
880.224	4801
880.351	4820
880.478	4889
880.605	4774
880.732	4805
880.859	5121
880.986	4915
881.112	4976
881.239	4782
881.366	4702
881.493	4630
881.619	4618
881.746	4664
881.872	4660
881.999	4694
882.125	4752
882.252	4843
882.378	4877
882.505	5022
882.631	4812
882.757	4740
882.883	4725
883.01	4805
883.136	4672
883.262	4622
883.388	4634
883.514	4854
883.64	4850
883.766	4778
883.892	4687
884.018	4717
884.143	4870
884.269	5029
884.395	4714
884.52	4668
884.646	4660
884.772	4584
884.897	4596
885.023	4710
885.148	4793
885.274	4927
885.399	4793
885.524	4759
885.65	4729
885.775	4786
885.9	4733
886.025	4885
886.15	4771
886.275	4752
886.4	4733
886.525	4725
886.65	4675
886.775	4694
886.9	4965
887.025	4999
887.149	4831
887.274	4675
887.399	4615
887.523	4618
887.648	4580
887.773	4588
887.897	4774
888.021	4831
888.146	4691
888.27	4847
888.395	4923
888.519	4824
888.643	4812
888.767	4816
888.891	4710
889.015	4672
889.139	4679
889.263	4660
889.387	4763
889.511	4877
889.635	4805
889.759	4653
889.883	4645
890.006	4748
890.13	4797
890.254	4660
890.377	4706
890.501	4527
890.624	4569
890.748	4618
890.871	4455
890.995	4485
891.118	4394
891.241	4542
891.364	4523
891.488	4649
891.611	4523
891.734	4565
891.857	4596
891.98	4535
892.103	4687
892.226	4615
892.349	4546
892.471	4436
892.594	4596
892.717	4607
892.839	4577
892.962	4588
893.085	4675
893.207	4607
893.33	4481
893.452	4573
893.575	4645
893.697	4664
893.819	4812
893.941	4831
894.064	4763
894.186	4558
894.308	4592
894.43	4740
894.552	4759
894.674	4774
894.796	4500
894.918	4641
895.04	4596
895.161	4691
895.283	4771
895.405	4599
895.526	4649
895.648	4683
895.769	4725
895.891	4729
896.012	4774
896.134	4733
896.255	4687
896.376	4649
896.498	4637
896.619	4706
896.74	4656
896.861	4656
896.982	4957
897.103	5056
897.224	4831
897.345	4786
897.466	4691
897.587	4729
897.708	4889
897.828	4801
897.949	4702
898.07	4607
898.19	4656
898.311	4850
898.431	4752
898.552	4725
898.672	4839
898.792	4820
898.913	4771
899.033	4622
899.153	4546
899.273	4470
899.393	4470
899.513	4535
899.633	4508
899.753	4550
899.873	4493
899.993	4615
900.113	4558
900.232	4611
900.352	4542
900.472	4508
900.591	4432
900.711	4485
900.83	4462
900.95	4641
901.069	4675
901.189	4592
901.308	4379
901.427	4341
901.546	4375
901.665	4485
901.784	4535
901.904	4390
902.023	4386
902.141	4166
902.26	4154
902.379	4303
902.498	4295
902.617	4249
902.735	4409
902.854	4436
902.973	4394
903.091	4215
903.21	4261
903.328	4322
903.446	4325
903.565	4284
903.683	4367
903.801	4265
903.919	4432
904.038	4424
904.156	4295
904.274	4405
904.392	4413
904.51	4455
904.627	4485
904.745	4580
904.863	4641
904.981	4405
905.098	4322
905.216	4341
905.334	4440
905.451	4470
905.569	4459
905.686	4611
905.803	4580
905.921	4405
906.038	4577
906.155	4489
906.272	4386
906.389	4470
906.506	4356
906.623	4383
906.74	4421
906.857	4280
906.974	4402
907.091	4542
907.208	4702
907.324	4656
907.441	4531
907.557	4333
907.674	4348
907.79	4344
907.907	4344
908.023	4554
908.139	4500
908.256	4432
908.372	4462
908.488	4466
908.604	4341
908.72	4284
908.836	4337
908.952	4443
909.068	4409
909.184	4622
909.3	4500
909.415	4554
909.531	4584
909.647	4413
909.762	4390
909.878	4375
909.993	4424
910.108	4424
910.224	4466
910.339	4459
910.454	4413
910.57	4386
910.685	4306
910.8	4664
910.915	4580
911.03	4516
911.145	4348
911.259	4329
911.374	4337
911.489	4314
911.604	4272
911.718	4185
911.833	4173
911.947	4055
912.062	4074
912.176	4196
912.291	4280
912.405	4230
912.519	4478
912.633	4535
912.748	4413
912.862	4325
912.976	4207
913.09	4112
913.204	4166
913.318	4272
913.431	4375
913.545	4352
913.659	4424
913.772	4356
913.886	4299
914	4246
914.113	4390
914.226	4436
914.34	4379
914.453	4257
914.566	4451
914.68	4284
914.793	4314
914.906	4188
915.019	4135
915.132	4063
915.245	4200
915.358	4196
915.47	4196
915.583	4314
915.696	4310
915.809	4428
915.921	4398
916.034	4310
916.146	4257
916.259	4227
916.371	4394
916.483	4379
916.595	4272
916.708	4325
916.82	4337
916.932	4341
917.044	4341
917.156	4314
917.268	4227
917.38	4303
917.491	4257
917.603	4348
917.715	4409
917.826	4424
917.938	4367
918.049	4234
918.161	4367
918.272	4531
918.384	4573
918.495	4447
918.606	4291
918.717	4234
918.828	4363
918.939	4428
919.05	4265
919.161	4360
919.272	4135
919.383	4242
919.494	4436
919.604	4634
919.715	4421
919.826	4394
919.936	4363
920.047	4519
920.157	4493
920.267	4729
920.378	4538
920.488	4489
920.598	4710
920.708	4919
920.818	4774
920.928	4748
921.038	4949
921.148	4908
921.258	4649
921.368	4592
921.477	4527
921.587	4462
921.697	4383
921.806	4573
921.916	4409
922.025	4249
922.134	4234
922.244	4238
922.353	4337
922.462	4188
922.571	4166
922.68	3979
922.789	3960
922.898	4044
923.007	3975
923.116	4097
923.224	4063
923.333	4082
923.442	3979
923.55	3994
923.659	4059
923.767	4101
923.876	3987
923.984	4124
924.092	4002
924.201	4082
924.309	4162
924.417	4112
924.525	4055
924.633	4128
924.741	5090
924.849	3956
924.956	4147
925.064	3934
925.172	3922
925.279	3960
925.387	4059
925.494	4086
925.602	4215
925.709	4181
925.816	4032
925.924	4147
926.031	4253
926.138	4207
926.245	4215
926.352	4112
926.459	4272
926.566	4295
926.673	4150
926.779	4135
926.886	4078
926.993	3975
927.099	3975
927.206	3926
927.312	3907
927.419	4082
927.525	4010
927.631	4093
927.737	3911
927.843	3972
927.95	3808
928.056	3956
928.162	3987
928.267	4101
928.373	4668
928.479	4150
928.585	3884
928.69	4071
928.796	4055
928.901	3934
929.007	3873
929.112	3991
929.218	3972
929.323	3972
929.428	3964
929.533	4124
929.638	3896
929.743	3964
929.848	4059
929.953	3979
930.058	3918
930.163	3789
930.267	3827
930.372	3968
930.477	3823
930.581	4109
930.685	3926
930.79	3835
930.894	3941
930.998	3876
931.103	4059
931.207	3713
931.311	3701
931.415	3686
931.519	3557
931.623	3538
