Data from test_V78500241_1432.txt Node
Date: Fri Mar 25 16:58:57 CST 2022
User: usil
Spectrometer: V785-0024
Trigger mode: 0
Integration Time (sec): 4.000000E-1
Scans to average: 1
Nonlinearity correction enabled: false
Boxcar width: 0
Storing dark spectrum: false
XAxis mode: Wavelengths
Number of Pixels in Spectrum: 1024
>>>>>Begin Spectral Data<<<<<
801.071	7947
801.214	8012
801.356	7909
801.499	7921
801.641	7803
801.783	7776
801.926	7951
802.068	7883
802.211	7955
802.353	7909
802.496	7822
802.638	7856
802.78	7856
802.923	7868
803.065	7883
803.208	7860
803.35	7936
803.492	8008
803.635	8153
803.777	8031
803.919	8069
804.061	8374
804.204	8145
804.346	8046
804.488	7921
804.63	8096
804.773	8065
804.915	8062
805.057	8294
805.199	8142
805.341	8202
805.483	8263
805.626	8221
805.768	8039
805.91	8199
806.052	8157
806.194	8084
806.336	8252
806.478	8069
806.62	8054
806.762	8077
806.904	8229
807.046	8492
807.188	8294
807.33	8256
807.472	8309
807.614	8157
807.756	8138
807.898	7963
808.04	7894
808.182	7875
808.324	7856
808.465	7921
808.607	8084
808.749	8073
808.891	8153
809.033	8256
809.174	8218
809.316	8001
809.458	8138
809.6	8035
809.741	8039
809.883	8001
810.025	8077
810.166	8046
810.308	8016
810.45	8001
810.591	7940
810.733	7734
810.875	7605
811.016	7495
811.158	7441
811.299	7506
811.441	7719
811.582	7590
811.724	7590
811.865	7480
812.007	7514
812.148	7636
812.29	7552
812.431	7746
812.573	7898
812.714	7978
812.855	8142
812.997	8161
813.138	8271
813.279	8214
813.421	8039
813.562	8054
813.703	7849
813.845	7765
813.986	7400
814.127	7240
814.268	7209
814.41	7190
814.551	7187
814.692	7149
814.833	7050
814.974	7114
815.115	7114
815.256	6958
815.397	6882
815.539	6875
815.68	6802
815.821	6818
815.962	6890
816.103	6798
816.244	6726
816.385	6620
816.526	6570
816.666	6479
816.807	6262
816.948	6372
817.089	6418
817.23	6441
817.371	6319
817.512	6372
817.653	6369
817.793	6399
817.934	6376
818.075	6471
818.216	6429
818.356	6350
818.497	6209
818.638	6106
818.778	6159
818.919	6152
819.06	6125
819.2	6311
819.341	6292
819.481	6365
819.622	6528
819.762	6642
819.903	6620
820.043	6597
820.184	6563
820.324	6544
820.465	6639
820.605	6665
820.746	6604
820.886	6460
821.026	6597
821.167	6665
821.307	6768
821.447	6776
821.588	6684
821.728	6578
821.868	6494
822.008	6304
822.149	6414
822.289	6315
822.429	6114
822.569	6102
822.709	6087
822.849	5882
822.99	5836
823.13	5939
823.27	5904
823.41	5703
823.55	5703
823.69	5726
823.83	5775
823.97	5642
824.11	5501
824.25	5535
824.389	5547
824.529	5592
824.669	5490
824.809	5630
824.949	5657
825.089	5604
825.228	5577
825.368	5345
825.508	5334
825.648	5372
825.787	5364
825.927	5360
826.067	5337
826.206	5292
826.346	5376
826.485	5353
826.625	5368
826.765	5497
826.904	5459
827.044	5181
827.183	5223
827.323	5113
827.462	5277
827.601	5178
827.741	5189
827.88	5189
828.02	5094
828.159	5216
828.298	5273
828.437	5322
828.577	5280
828.716	5478
828.855	5292
828.994	5098
829.134	5132
829.273	5185
829.412	5162
829.551	5113
829.69	5151
829.829	5235
829.968	5337
830.107	5280
830.246	5227
830.385	5185
830.524	5147
830.663	5052
830.802	4976
830.941	4919
831.08	4847
831.219	4904
831.357	4961
831.496	5128
831.635	4923
831.774	4801
831.913	4870
832.051	4679
832.19	4717
832.329	4801
832.467	4733
832.606	4634
832.744	4721
832.883	4694
833.022	4740
833.16	4752
833.299	4824
833.437	4816
833.576	4805
833.714	4870
833.852	4831
833.991	4858
834.129	4919
834.267	4915
834.406	4854
834.544	4953
834.682	4949
834.821	4942
834.959	5124
835.097	4995
835.235	5105
835.373	5075
835.511	5033
835.65	5037
835.788	5003
835.926	4942
836.064	4862
836.202	4927
836.34	5185
836.478	5216
836.615	5105
836.753	5170
836.891	5220
837.029	5235
837.167	5162
837.305	5132
837.443	5132
837.58	5086
837.718	5235
837.856	5136
837.993	5162
838.131	5193
838.269	5181
838.406	5193
838.544	5098
838.681	5037
838.819	4957
838.956	4892
839.094	4908
839.231	4953
839.369	5003
839.506	5444
839.643	5220
839.781	5075
839.918	4984
840.055	5056
840.193	5060
840.33	5075
840.467	5102
840.604	5181
840.742	5433
840.879	5060
841.016	5025
841.153	5178
841.29	5357
841.427	5265
841.564	5318
841.701	5269
841.838	5216
841.975	5235
842.112	5201
842.249	5132
842.385	5121
842.522	5261
842.659	5140
842.796	5140
842.933	5151
843.069	5083
843.206	5132
843.343	5242
843.479	5216
843.616	5277
843.752	4995
843.889	4965
844.025	5220
844.162	5006
844.298	5208
844.435	5124
844.571	5083
844.708	5227
844.844	5318
844.98	5318
845.117	5277
845.253	5109
845.389	5045
845.525	5132
845.661	5140
845.798	4995
845.934	5117
846.07	5025
846.206	5147
846.342	5235
846.478	5128
846.614	5006
846.75	4965
846.886	4904
847.022	5117
847.158	4987
847.294	4999
847.429	5064
847.565	5018
847.701	5330
847.837	4858
847.972	4812
848.108	4900
848.244	4923
848.379	4729
848.515	4710
848.65	4717
848.786	4687
848.921	4774
849.057	4877
849.192	4843
849.328	4790
849.463	4820
849.598	4809
849.734	4755
849.869	4714
850.004	4603
850.14	4596
850.275	4630
850.41	4519
850.545	4565
850.68	4607
850.815	4588
850.95	4573
851.085	4782
851.22	4725
851.355	4637
851.49	4588
851.625	4622
851.76	4630
851.895	4489
852.03	4466
852.165	4603
852.299	4691
852.434	4752
852.569	4755
852.703	4759
852.838	4790
852.973	4930
853.107	4904
853.242	4767
853.376	4698
853.511	4535
853.645	4615
853.78	4831
853.914	4710
854.048	4611
854.183	4630
854.317	4672
854.451	4774
854.585	4660
854.72	4634
854.854	4755
854.988	4603
855.122	4615
855.256	4508
855.39	4660
855.524	4763
855.658	4733
855.792	4656
855.926	4717
856.06	4729
856.194	4767
856.327	4622
856.461	4592
856.595	4577
856.729	4577
856.862	4725
856.996	4694
857.13	4702
857.263	4748
857.397	4771
857.53	4615
857.664	4694
857.797	4752
857.931	4778
858.064	4706
858.197	4691
858.331	4649
858.464	4618
858.597	4504
858.731	4630
858.864	4626
858.997	4573
859.13	4626
859.263	4630
859.396	4744
859.529	4584
859.662	4542
859.795	4565
859.928	4637
860.061	4767
860.194	4778
860.327	4634
860.46	4584
860.592	4729
860.725	4755
860.858	4736
860.99	4618
861.123	4519
861.256	4538
861.388	4615
861.521	5459
861.653	4535
861.786	4436
861.918	4481
862.05	4531
862.183	4577
862.315	4694
862.447	4702
862.58	4577
862.712	4466
862.844	4367
862.976	4508
863.108	4478
863.24	4942
863.372	4375
863.504	4421
863.636	4398
863.768	4504
863.9	4470
864.032	4402
864.164	4443
864.296	4519
864.428	4618
864.559	4554
864.691	4569
864.823	4542
864.954	4523
865.086	4584
865.217	4512
865.349	4478
865.48	4478
865.612	4516
865.743	4626
865.875	4481
866.006	4466
866.137	4500
866.269	4516
866.4	4474
866.531	4432
866.662	4390
866.793	4451
866.924	4405
867.055	4550
867.186	4481
867.317	4481
867.448	4440
867.579	4451
867.71	4398
867.841	4379
867.972	4485
868.103	4489
868.233	4474
868.364	4481
868.495	4561
868.625	4698
868.756	4759
868.886	4615
869.017	4615
869.147	4759
869.278	4763
869.408	4672
869.539	4664
869.669	4778
869.799	4618
869.929	4790
870.06	4740
870.19	4999
870.32	4965
870.45	4968
870.58	5083
870.71	5132
870.84	5090
870.97	4987
871.1	4968
871.23	5185
871.36	5159
871.489	5052
871.619	5143
871.749	5162
871.879	5121
872.008	5174
872.138	5090
872.267	5018
872.397	4877
872.526	4873
872.656	4729
872.785	4790
872.915	5014
873.044	5014
873.173	4953
873.303	4995
873.432	4991
873.561	4980
873.69	4862
873.819	4889
873.948	4949
874.077	4866
874.206	4790
874.335	4858
874.464	4961
874.593	5201
874.722	5022
874.851	5178
874.979	5067
875.108	5056
875.237	4949
875.365	4896
875.494	4854
875.623	4999
875.751	4824
875.88	4862
876.008	4995
876.136	5041
876.265	5208
876.393	5364
876.521	5307
876.65	5277
876.778	5216
876.906	5098
877.034	5067
877.162	5102
877.29	5056
877.418	5090
877.546	5041
877.674	5086
877.802	5048
877.93	4991
878.058	4961
878.185	4930
878.313	4984
878.441	4980
878.568	4797
878.696	4892
878.824	4934
878.951	5014
879.079	5174
879.206	5334
879.333	5113
879.461	4976
879.588	4987
879.715	5136
879.842	5261
879.97	5079
880.097	4820
880.224	4782
880.351	4843
880.478	4904
880.605	4797
880.732	4816
880.859	5079
880.986	4908
881.112	4976
881.239	4835
881.366	4717
881.493	4615
881.619	4634
881.746	4683
881.872	4748
881.999	4698
882.125	4740
882.252	4816
882.378	4820
882.505	4995
882.631	4839
882.757	4679
882.883	4748
883.01	4729
883.136	4691
883.262	4641
883.388	4679
883.514	4862
883.64	4892
883.766	4771
883.892	4672
884.018	4736
884.143	4904
884.269	5022
884.395	4706
884.52	4675
884.646	4702
884.772	4607
884.897	4584
885.023	4694
885.148	4866
885.274	4873
885.399	4797
885.524	4721
885.65	4706
885.775	4782
885.9	4767
886.025	4850
886.15	4801
886.275	4710
886.4	4679
886.525	4733
886.65	4729
886.775	4736
886.9	4938
887.025	5041
887.149	4820
887.274	4622
887.399	4592
887.523	4626
887.648	4577
887.773	4630
887.897	4812
888.021	4816
888.146	4755
888.27	4862
888.395	4915
888.519	4839
888.643	4828
888.767	4877
888.891	4672
889.015	4603
889.139	4679
889.263	4607
889.387	4812
889.511	4862
889.635	4843
889.759	4672
889.883	4725
890.006	4786
890.13	4873
890.254	4592
890.377	4771
890.501	4599
890.624	4577
890.748	4630
890.871	4516
890.995	4474
891.118	4432
891.241	4573
891.364	4573
891.488	4653
891.611	4516
891.734	4618
891.857	4622
891.98	4592
892.103	4691
892.226	4656
892.349	4493
892.471	4424
892.594	4569
892.717	4573
892.839	4599
892.962	4554
893.085	4733
893.207	4645
893.33	4512
893.452	4519
893.575	4637
893.697	4603
893.819	4877
893.941	4854
894.064	4748
894.186	4630
894.308	4596
894.43	4725
894.552	4862
894.674	4748
894.796	4569
894.918	4656
895.04	4592
895.161	4706
895.283	4694
895.405	4645
895.526	4691
895.648	4744
895.769	4717
895.891	4759
896.012	4710
896.134	4748
896.255	4725
896.376	4622
896.498	4630
896.619	4744
896.74	4584
896.861	4656
896.982	4946
897.103	5113
897.224	4847
897.345	4786
897.466	4759
897.587	4714
897.708	4873
897.828	4767
897.949	4698
898.07	4550
898.19	4603
898.311	4847
898.431	4702
898.552	4759
898.672	4843
898.792	4797
898.913	4729
899.033	4664
899.153	4531
899.273	4459
899.393	4527
899.513	4558
899.633	4527
899.753	4584
899.873	4504
899.993	4577
900.113	4630
900.232	4618
900.352	4558
900.472	4485
900.591	4462
900.711	4481
900.83	4481
900.95	4622
901.069	4683
901.189	4569
901.308	4443
901.427	4367
901.546	4398
901.665	4481
901.784	4516
901.904	4383
902.023	4337
902.141	4196
902.26	4219
902.379	4360
902.498	4257
902.617	4257
902.735	4421
902.854	4421
902.973	4417
903.091	4207
903.21	4295
903.328	4314
903.446	4284
903.565	4325
903.683	4383
903.801	4291
903.919	4466
904.038	4443
904.156	4310
904.274	4478
904.392	4409
904.51	4440
904.627	4489
904.745	4569
904.863	4694
904.981	4405
905.098	4348
905.216	4386
905.334	4440
905.451	4436
905.569	4470
905.686	4596
905.803	4592
905.921	4466
906.038	4569
906.155	4504
906.272	4432
906.389	4466
906.506	4352
906.623	4367
906.74	4432
906.857	4375
906.974	4375
907.091	4546
907.208	4721
907.324	4577
907.441	4504
907.557	4337
907.674	4367
907.79	4295
907.907	4383
908.023	4500
908.139	4493
908.256	4424
908.372	4478
908.488	4474
908.604	4371
908.72	4360
908.836	4390
908.952	4390
909.068	4459
909.184	4603
909.3	4485
909.415	4599
909.531	4580
909.647	4409
909.762	4394
909.878	4371
909.993	4413
910.108	4466
910.224	4409
910.339	4485
910.454	4379
910.57	4379
910.685	4371
910.8	4668
910.915	4584
911.03	4508
911.145	4344
911.259	4337
911.374	4409
911.489	4310
911.604	4325
911.718	4204
911.833	4204
911.947	4101
912.062	4067
912.176	4257
912.291	4253
912.405	4333
912.519	4466
912.633	4531
912.748	4405
912.862	4280
912.976	4246
913.09	4143
913.204	4177
913.318	4249
913.431	4375
913.545	4344
913.659	4386
913.772	4386
913.886	4272
914	4246
914.113	4394
914.226	4497
914.34	4390
914.453	4249
914.566	4455
914.68	4356
914.793	4371
914.906	4135
915.019	4166
915.132	4116
915.245	4162
915.358	4257
915.47	4249
915.583	4249
915.696	4314
915.809	4417
915.921	4474
916.034	4280
916.146	4287
916.259	4265
916.371	4424
916.483	4367
916.595	4291
916.708	4371
916.82	4322
916.932	4348
917.044	4360
917.156	4356
917.268	4249
917.38	4303
917.491	4261
917.603	4314
917.715	4421
917.826	4474
917.938	4363
918.049	4242
918.161	4375
918.272	4519
918.384	4538
918.495	4474
918.606	4344
918.717	4257
918.828	4306
918.939	4367
919.05	4265
919.161	4348
919.272	4147
919.383	4211
919.494	4424
919.604	4618
919.715	4405
919.826	4341
919.936	4386
920.047	4535
920.157	4478
920.267	4736
920.378	4554
920.488	4481
920.598	4679
920.708	4923
920.818	4801
920.928	4721
921.038	4984
921.148	4877
921.258	4675
921.368	4577
921.477	4489
921.587	4504
921.697	4405
921.806	4523
921.916	4405
922.025	4249
922.134	4227
922.244	4238
922.353	4295
922.462	4181
922.571	4109
922.68	4059
922.789	3975
922.898	4025
923.007	3987
923.116	4120
923.224	4082
923.333	4097
923.442	3987
923.55	4006
923.659	4032
923.767	4112
923.876	4059
923.984	4120
924.092	3998
924.201	4078
924.309	4063
924.417	4139
924.525	4059
924.633	4109
924.741	5018
924.849	3915
924.956	4143
925.064	4025
925.172	3941
925.279	3991
925.387	4063
925.494	4036
925.602	4268
925.709	4204
925.816	4067
925.924	4150
926.031	4249
926.138	4181
926.245	4188
926.352	4063
926.459	4234
926.566	4322
926.673	4162
926.779	4097
926.886	4097
926.993	4017
927.099	4017
927.206	3953
927.312	3964
927.419	4036
927.525	4048
927.631	4116
927.737	3979
927.843	3934
927.95	3876
928.056	3979
928.162	4029
928.267	4112
928.373	4668
928.479	4169
928.585	3937
928.69	4071
928.796	4158
928.901	4013
929.007	3880
929.112	4044
929.218	4032
929.323	3991
929.428	3987
929.533	4105
929.638	3975
929.743	3968
929.848	4063
929.953	4025
930.058	3987
930.163	3846
930.267	3835
930.372	4017
930.477	3850
930.581	4086
930.685	3998
930.79	3903
930.894	3892
930.998	3907
931.103	4071
931.207	3766
931.311	3751
931.415	3686
931.519	3523
931.623	3561
