Data from test_V78500241_2810.txt Node
Date: Fri Mar 25 17:08:32 CST 2022
User: usil
Spectrometer: V785-0024
Trigger mode: 0
Integration Time (sec): 4.000000E-1
Scans to average: 1
Nonlinearity correction enabled: false
Boxcar width: 0
Storing dark spectrum: false
XAxis mode: Wavelengths
Number of Pixels in Spectrum: 1024
>>>>>Begin Spectral Data<<<<<
801.071	8001
801.214	8081
801.356	7947
801.499	7951
801.641	7845
801.783	7856
801.926	7970
802.068	7997
802.211	8046
802.353	8058
802.496	7849
802.638	7928
802.78	7970
802.923	8008
803.065	7894
803.208	7864
803.35	7909
803.492	8145
803.635	8225
803.777	8012
803.919	8145
804.061	8465
804.204	8168
804.346	7978
804.488	7989
804.63	8096
804.773	8069
804.915	8092
805.057	8317
805.199	8180
805.341	8225
805.483	8202
805.626	8210
805.768	8191
805.91	8275
806.052	8164
806.194	8161
806.336	8336
806.478	8077
806.62	8187
806.762	8161
806.904	8225
807.046	8389
807.188	8374
807.33	8336
807.472	8332
807.614	8206
807.756	8164
807.898	8100
808.04	7879
808.182	7963
808.324	7936
808.465	7959
808.607	8123
808.749	8138
808.891	8218
809.033	8279
809.174	8267
809.316	8202
809.458	8054
809.6	8039
809.741	8024
809.883	8092
810.025	8183
810.166	8077
810.308	8115
810.45	8046
810.591	7947
810.733	7746
810.875	7704
811.016	7556
811.158	7506
811.299	7636
811.441	7753
811.582	7742
811.724	7609
811.865	7586
812.007	7578
812.148	7575
812.29	7628
812.431	7738
812.573	7894
812.714	8020
812.855	8176
812.997	8294
813.138	8324
813.279	8214
813.421	8069
813.562	8005
813.703	7833
813.845	7799
813.986	7438
814.127	7362
814.268	7217
814.41	7236
814.551	7168
814.692	7259
814.833	7080
814.974	7084
815.115	7175
815.256	6928
815.397	6966
815.539	6973
815.68	6791
815.821	6840
815.962	6821
816.103	6901
816.244	6730
816.385	6627
816.526	6658
816.666	6471
816.807	6308
816.948	6429
817.089	6509
817.23	6433
817.371	6422
817.512	6426
817.653	6376
817.793	6388
817.934	6403
818.075	6467
818.216	6452
818.356	6407
818.497	6232
818.638	6152
818.778	6152
818.919	6190
819.06	6190
819.2	6380
819.341	6304
819.481	6342
819.622	6494
819.762	6738
819.903	6749
820.043	6608
820.184	6589
820.324	6631
820.465	6711
820.605	6722
820.746	6620
820.886	6582
821.026	6658
821.167	6753
821.307	6821
821.447	6787
821.588	6642
821.728	6627
821.868	6528
822.008	6327
822.149	6429
822.289	6391
822.429	6175
822.569	6091
822.709	6194
822.849	5950
822.99	5893
823.13	5908
823.27	5912
823.41	5847
823.55	5779
823.69	5832
823.83	5745
823.97	5699
824.11	5604
824.25	5528
824.389	5570
824.529	5596
824.669	5619
824.809	5619
824.949	5649
825.089	5627
825.228	5577
825.368	5425
825.508	5318
825.648	5372
825.787	5410
825.927	5425
826.067	5307
826.206	5334
826.346	5398
826.485	5372
826.625	5433
826.765	5497
826.904	5448
827.044	5261
827.183	5170
827.323	5159
827.462	5220
827.601	5162
827.741	5178
827.88	5239
828.02	5090
828.159	5242
828.298	5250
828.437	5334
828.577	5307
828.716	5482
828.855	5315
828.994	5170
829.134	5147
829.273	5124
829.412	5155
829.551	5083
829.69	5208
829.829	5254
829.968	5406
830.107	5280
830.246	5288
830.385	5204
830.524	5102
830.663	5075
830.802	4984
830.941	4896
831.08	4904
831.219	5056
831.357	4976
831.496	5166
831.635	4915
831.774	4858
831.913	4866
832.051	4710
832.19	4733
832.329	4786
832.467	4656
832.606	4672
832.744	4782
832.883	4729
833.022	4702
833.16	4790
833.299	4877
833.437	4835
833.576	4835
833.714	4805
833.852	4858
833.991	4900
834.129	4957
834.267	4968
834.406	4938
834.544	5003
834.682	5014
834.821	4972
834.959	5143
835.097	4995
835.235	5117
835.373	5094
835.511	5094
835.65	4995
835.788	5003
835.926	4934
836.064	4862
836.202	4889
836.34	5113
836.478	5261
836.615	5136
836.753	5204
836.891	5284
837.029	5197
837.167	5212
837.305	5151
837.443	5140
837.58	5143
837.718	5254
837.856	5181
837.993	5231
838.131	5273
838.269	5254
838.406	5212
838.544	5212
838.681	5025
838.819	5037
838.956	4866
839.094	4934
839.231	4934
839.369	5071
839.506	5421
839.643	5242
839.781	5029
839.918	5010
840.055	5098
840.193	5098
840.33	5094
840.467	5140
840.604	5170
840.742	5448
840.879	5071
841.016	5121
841.153	5162
841.29	5368
841.427	5326
841.564	5273
841.701	5379
841.838	5223
841.975	5246
842.112	5250
842.249	5159
842.385	5143
842.522	5307
842.659	5178
842.796	5132
842.933	5147
843.069	5140
843.206	5178
843.343	5334
843.479	5216
843.616	5227
843.752	5014
843.889	5052
844.025	5204
844.162	5037
844.298	5223
844.435	5052
844.571	5025
844.708	5155
844.844	5311
844.98	5311
845.117	5284
845.253	5197
845.389	5052
845.525	5128
845.661	5147
845.798	5037
845.934	5136
846.07	5048
846.206	5170
846.342	5280
846.478	5174
846.614	5003
846.75	4987
846.886	4911
847.022	5143
847.158	5064
847.294	5022
847.429	5086
847.565	5067
847.701	5318
847.837	4870
847.972	4805
848.108	5006
848.244	4934
848.379	4835
848.515	4767
848.65	4816
848.786	4771
848.921	4812
849.057	4877
849.192	4904
849.328	4816
849.463	4828
849.598	4797
849.734	4790
849.869	4717
850.004	4630
850.14	4675
850.275	4618
850.41	4493
850.545	4565
850.68	4577
850.815	4637
850.95	4607
851.085	4820
851.22	4771
851.355	4683
851.49	4641
851.625	4611
851.76	4626
851.895	4550
852.03	4538
852.165	4660
852.299	4698
852.434	4790
852.569	4763
852.703	4774
852.838	4850
852.973	4976
853.107	4900
853.242	4691
853.376	4702
853.511	4558
853.645	4622
853.78	4824
853.914	4710
854.048	4664
854.183	4660
854.317	4729
854.451	4850
854.585	4702
854.72	4607
854.854	4767
854.988	4573
855.122	4649
855.256	4565
855.39	4668
855.524	4774
855.658	4691
855.792	4679
855.926	4706
856.06	4706
856.194	4831
856.327	4706
856.461	4592
856.595	4565
856.729	4672
856.862	4763
856.996	4717
857.13	4748
857.263	4725
857.397	4828
857.53	4672
857.664	4687
857.797	4744
857.931	4763
858.064	4675
858.197	4744
858.331	4645
858.464	4569
858.597	4573
858.731	4630
858.864	4656
858.997	4626
859.13	4653
859.263	4714
859.396	4710
859.529	4626
859.662	4546
859.795	4554
859.928	4630
860.061	4752
860.194	4812
860.327	4622
860.46	4599
860.592	4706
860.725	4725
860.858	4721
860.99	4569
861.123	4497
861.256	4493
861.388	4611
861.521	5311
861.653	4474
861.786	4417
861.918	4470
862.05	4550
862.183	4550
862.315	4622
862.447	4649
862.58	4546
862.712	4421
862.844	4310
862.976	4489
863.108	4424
863.24	4767
863.372	4337
863.504	4402
863.636	4424
863.768	4459
863.9	4451
864.032	4356
864.164	4383
864.296	4459
864.428	4584
864.559	4584
864.691	4497
864.823	4542
864.954	4462
865.086	4481
865.217	4466
865.349	4413
865.48	4478
865.612	4504
865.743	4641
865.875	4447
866.006	4421
866.137	4459
866.269	4428
866.4	4443
866.531	4417
866.662	4417
866.793	4405
866.924	4436
867.055	4455
867.186	4462
867.317	4436
867.448	4367
867.579	4371
867.71	4398
867.841	4409
867.972	4470
868.103	4432
868.233	4421
868.364	4474
868.495	4466
868.625	4645
868.756	4774
868.886	4584
869.017	4622
869.147	4774
869.278	4774
869.408	4634
869.539	4618
869.669	4687
869.799	4618
869.929	4740
870.06	4717
870.19	5014
870.32	4877
870.45	4961
870.58	5037
870.71	5071
870.84	5124
870.97	4919
871.1	4938
871.23	5128
871.36	5086
871.489	5029
871.619	5029
871.749	5140
871.879	5143
872.008	5181
872.138	5071
872.267	4995
872.397	4885
872.526	4828
872.656	4679
872.785	4816
872.915	4972
873.044	4991
873.173	4908
873.303	4976
873.432	5022
873.561	4972
873.69	4877
873.819	4904
873.948	4904
874.077	4835
874.206	4755
874.335	4759
874.464	4961
874.593	5003
874.722	4961
874.851	5098
874.979	5064
875.108	5041
875.237	4911
875.365	4911
875.494	4930
875.623	4953
875.751	4793
875.88	4850
876.008	4984
876.136	5037
876.265	5155
876.393	5334
876.521	5261
876.65	5208
876.778	5170
876.906	5048
877.034	5025
877.162	5056
877.29	4976
877.418	5067
877.546	5090
877.674	5041
877.802	5075
877.93	4968
878.058	4953
878.185	4877
878.313	4957
878.441	4957
878.568	4793
878.696	4858
878.824	4991
878.951	5003
879.079	5098
879.206	5288
879.333	5109
879.461	4911
879.588	5003
879.715	5109
879.842	5223
879.97	5060
880.097	4790
880.224	4755
880.351	4801
880.478	4847
880.605	4778
880.732	4809
880.859	5083
880.986	4904
881.112	4900
881.239	4771
881.366	4653
881.493	4615
881.619	4592
881.746	4607
881.872	4626
881.999	4679
882.125	4687
882.252	4809
882.378	4835
882.505	4930
882.631	4824
882.757	4660
882.883	4733
883.01	4721
883.136	4664
883.262	4599
883.388	4656
883.514	4824
883.64	4862
883.766	4809
883.892	4691
884.018	4714
884.143	4949
884.269	4980
884.395	4664
884.52	4634
884.646	4622
884.772	4668
884.897	4519
885.023	4683
885.148	4805
885.274	4835
885.399	4733
885.524	4675
885.65	4687
885.775	4725
885.9	4710
886.025	4828
886.15	4801
886.275	4679
886.4	4630
886.525	4725
886.65	4717
886.775	4691
886.9	4915
887.025	5006
887.149	4809
887.274	4664
887.399	4561
887.523	4630
887.648	4569
887.773	4569
887.897	4714
888.021	4771
888.146	4649
888.27	4862
888.395	4919
888.519	4786
888.643	4854
888.767	4797
888.891	4691
889.015	4584
889.139	4630
889.263	4626
889.387	4797
889.511	4831
889.635	4790
889.759	4656
889.883	4634
890.006	4759
890.13	4862
890.254	4622
890.377	4603
890.501	4519
890.624	4512
890.748	4664
890.871	4542
890.995	4421
891.118	4394
891.241	4497
891.364	4516
891.488	4660
891.611	4466
891.734	4550
891.857	4611
891.98	4538
892.103	4622
892.226	4573
892.349	4546
892.471	4447
892.594	4569
892.717	4630
892.839	4584
892.962	4580
893.085	4660
893.207	4634
893.33	4447
893.452	4497
893.575	4653
893.697	4516
893.819	4774
893.941	4812
894.064	4744
894.186	4588
894.308	4558
894.43	4653
894.552	4809
894.674	4748
894.796	4527
894.918	4573
895.04	4565
895.161	4714
895.283	4683
895.405	4569
895.526	4615
895.648	4698
895.769	4698
895.891	4721
896.012	4740
896.134	4694
896.255	4672
896.376	4683
896.498	4584
896.619	4660
896.74	4596
896.861	4641
896.982	4881
897.103	5105
897.224	4847
897.345	4721
897.466	4649
897.587	4656
897.708	4843
897.828	4759
897.949	4691
898.07	4569
898.19	4622
898.311	4824
898.431	4683
898.552	4721
898.672	4786
898.792	4778
898.913	4721
899.033	4637
899.153	4523
899.273	4485
899.393	4489
899.513	4470
899.633	4531
899.753	4527
899.873	4519
899.993	4580
900.113	4489
900.232	4550
900.352	4538
900.472	4504
900.591	4466
900.711	4512
900.83	4386
900.95	4580
901.069	4672
901.189	4538
901.308	4360
901.427	4322
901.546	4348
901.665	4508
901.784	4500
901.904	4447
902.023	4329
902.141	4200
902.26	4181
902.379	4303
902.498	4234
902.617	4219
902.735	4352
902.854	4413
902.973	4322
903.091	4207
903.21	4242
903.328	4333
903.446	4265
903.565	4249
903.683	4337
903.801	4280
903.919	4440
904.038	4402
904.156	4306
904.274	4424
904.392	4398
904.51	4451
904.627	4470
904.745	4554
904.863	4649
904.981	4390
905.098	4314
905.216	4341
905.334	4413
905.451	4478
905.569	4417
905.686	4577
905.803	4523
905.921	4417
906.038	4546
906.155	4481
906.272	4390
906.389	4428
906.506	4356
906.623	4386
906.74	4405
906.857	4306
906.974	4390
907.091	4573
907.208	4630
907.324	4577
907.441	4489
907.557	4348
907.674	4284
907.79	4295
907.907	4371
908.023	4485
908.139	4459
908.256	4462
908.372	4443
908.488	4451
908.604	4325
908.72	4276
908.836	4344
908.952	4390
909.068	4421
909.184	4584
909.3	4493
909.415	4554
909.531	4558
909.647	4344
909.762	4375
909.878	4341
909.993	4481
910.108	4424
910.224	4390
910.339	4474
910.454	4383
910.57	4363
910.685	4303
910.8	4645
910.915	4577
911.03	4481
911.145	4272
911.259	4299
911.374	4329
911.489	4261
911.604	4223
911.718	4162
911.833	4230
911.947	4032
912.062	4025
912.176	4196
912.291	4219
912.405	4272
912.519	4405
912.633	4500
912.748	4375
912.862	4337
912.976	4215
913.09	4097
913.204	4196
913.318	4223
913.431	4348
913.545	4341
913.659	4424
913.772	4329
913.886	4265
914	4223
914.113	4386
914.226	4398
914.34	4367
914.453	4196
914.566	4424
914.68	4329
914.793	4318
914.906	4128
915.019	4120
915.132	4067
915.245	4169
915.358	4227
915.47	4234
915.583	4276
915.696	4295
915.809	4405
915.921	4394
916.034	4246
916.146	4249
916.259	4249
916.371	4386
916.483	4390
916.595	4287
916.708	4344
916.82	4348
916.932	4344
917.044	4295
917.156	4337
917.268	4257
917.38	4287
917.491	4356
917.603	4322
917.715	4367
917.826	4451
917.938	4375
918.049	4291
918.161	4417
918.272	4527
918.384	4523
918.495	4478
918.606	4314
918.717	4223
918.828	4363
918.939	4394
919.05	4295
919.161	4363
919.272	4162
919.383	4295
919.494	4512
919.604	4675
919.715	4516
919.826	4337
919.936	4478
920.047	4569
920.157	4546
920.267	4755
920.378	4573
920.488	4580
920.598	4790
920.708	4942
920.818	4805
920.928	4828
921.038	5029
921.148	4942
921.258	4683
921.368	4630
921.477	4516
921.587	4527
921.697	4402
921.806	4580
921.916	4504
922.025	4348
922.134	4337
922.244	4310
922.353	4371
922.462	4238
922.571	4196
922.68	4025
922.789	4013
922.898	4093
923.007	4086
923.116	4162
923.224	4158
923.333	4166
923.442	4055
923.55	4025
923.659	4112
923.767	4131
923.876	4124
923.984	4204
924.092	4063
924.201	4154
924.309	4109
924.417	4158
924.525	4067
924.633	4154
924.741	4949
924.849	3937
924.956	4234
925.064	4021
925.172	3960
925.279	4010
925.387	4097
925.494	4093
925.602	4246
925.709	4249
925.816	4078
925.924	4196
926.031	4287
926.138	4242
926.245	4242
926.352	4131
926.459	4337
926.566	4371
926.673	4204
926.779	4082
926.886	4139
926.993	4036
927.099	4002
927.206	4013
927.312	3998
927.419	4063
927.525	4074
927.631	4166
927.737	4010
927.843	3975
927.95	3918
928.056	4025
928.162	4025
928.267	4135
928.373	4740
928.479	4196
928.585	3865
928.69	4086
928.796	4101
928.901	4006
929.007	3922
929.112	4055
929.218	4040
929.323	3972
929.428	4025
929.533	4181
929.638	3956
929.743	3983
929.848	4135
929.953	4021
930.058	3987
930.163	3865
930.267	3903
930.372	4029
930.477	3835
930.581	4131
930.685	3983
930.79	3854
930.894	3945
930.998	3888
931.103	4074
931.207	3808
931.311	3774
931.415	3736
931.519	3572
931.623	3584
