Data from test_V78500241_1972.txt Node
Date: Fri Mar 25 17:02:42 CST 2022
User: usil
Spectrometer: V785-0024
Trigger mode: 0
Integration Time (sec): 4.000000E-1
Scans to average: 1
Nonlinearity correction enabled: false
Boxcar width: 0
Storing dark spectrum: false
XAxis mode: Wavelengths
Number of Pixels in Spectrum: 1024
>>>>>Begin Spectral Data<<<<<
801.071	8005
801.214	7947
801.356	7833
801.499	7792
801.641	7849
801.783	7852
801.926	7967
802.068	7898
802.211	7928
802.353	7963
802.496	7833
802.638	7871
802.78	7894
802.923	7822
803.065	7852
803.208	7883
803.35	7955
803.492	8035
803.635	8107
803.777	8054
803.919	8145
804.061	8415
804.204	8107
804.346	8005
804.488	7978
804.63	8130
804.773	8039
804.915	8081
805.057	8282
805.199	8191
805.341	8202
805.483	8233
805.626	8138
805.768	8084
805.91	8202
806.052	8221
806.194	8130
806.336	8263
806.478	8069
806.62	8100
806.762	8149
806.904	8225
807.046	8503
807.188	8358
807.33	8301
807.472	8366
807.614	8123
807.756	8119
807.898	7944
808.04	7879
808.182	7849
808.324	7879
808.465	7906
808.607	8050
808.749	8123
808.891	8195
809.033	8279
809.174	8244
809.316	8092
809.458	8142
809.6	7997
809.741	8054
809.883	8024
810.025	8039
810.166	8050
810.308	8039
810.45	7955
810.591	7871
810.733	7746
810.875	7670
811.016	7499
811.158	7384
811.299	7487
811.441	7799
811.582	7658
811.724	7518
811.865	7605
812.007	7613
812.148	7594
812.29	7552
812.431	7738
812.573	7795
812.714	7978
812.855	8081
812.997	8202
813.138	8317
813.279	8195
813.421	8081
813.562	7913
813.703	7811
813.845	7738
813.986	7400
814.127	7255
814.268	7213
814.41	7202
814.551	7152
814.692	7213
814.833	7126
814.974	7031
815.115	7080
815.256	6943
815.397	6886
815.539	6939
815.68	6768
815.821	6738
815.962	6901
816.103	6753
816.244	6665
816.385	6631
816.526	6639
816.666	6490
816.807	6327
816.948	6410
817.089	6433
817.23	6456
817.371	6414
817.512	6353
817.653	6452
817.793	6296
817.934	6399
818.075	6445
818.216	6433
818.356	6391
818.497	6266
818.638	6110
818.778	6152
818.919	6155
819.06	6197
819.2	6289
819.341	6334
819.481	6448
819.622	6536
819.762	6764
819.903	6776
820.043	6559
820.184	6502
820.324	6574
820.465	6715
820.605	6673
820.746	6620
820.886	6513
821.026	6639
821.167	6662
821.307	6810
821.447	6741
821.588	6673
821.728	6525
821.868	6486
822.008	6327
822.149	6331
822.289	6338
822.429	6178
822.569	6133
822.709	6098
822.849	5939
822.99	5874
823.13	5954
823.27	5904
823.41	5760
823.55	5794
823.69	5817
823.83	5794
823.97	5657
824.11	5577
824.25	5512
824.389	5551
824.529	5566
824.669	5512
824.809	5638
824.949	5665
825.089	5585
825.228	5562
825.368	5425
825.508	5387
825.648	5349
825.787	5330
825.927	5349
826.067	5296
826.206	5265
826.346	5398
826.485	5406
826.625	5436
826.765	5551
826.904	5551
827.044	5239
827.183	5193
827.323	5109
827.462	5223
827.601	5181
827.741	5201
827.88	5212
828.02	5083
828.159	5201
828.298	5307
828.437	5345
828.577	5280
828.716	5520
828.855	5334
828.994	5193
829.134	5151
829.273	5124
829.412	5147
829.551	5124
829.69	5193
829.829	5311
829.968	5383
830.107	5269
830.246	5284
830.385	5147
830.524	5113
830.663	5056
830.802	5010
830.941	4904
831.08	4877
831.219	4946
831.357	4965
831.496	5162
831.635	4889
831.774	4820
831.913	4828
832.051	4748
832.19	4714
832.329	4809
832.467	4679
832.606	4675
832.744	4744
832.883	4694
833.022	4706
833.16	4763
833.299	4850
833.437	4805
833.576	4828
833.714	4850
833.852	4839
833.991	4858
834.129	4972
834.267	4953
834.406	4934
834.544	4976
834.682	4968
834.821	4961
834.959	5155
835.097	4995
835.235	5117
835.373	5166
835.511	5075
835.65	4995
835.788	5045
835.926	4946
836.064	4885
836.202	4919
836.34	5151
836.478	5239
836.615	5109
836.753	5166
836.891	5315
837.029	5216
837.167	5143
837.305	5178
837.443	5143
837.58	5086
837.718	5246
837.856	5159
837.993	5117
838.131	5223
838.269	5201
838.406	5208
838.544	5239
838.681	5022
838.819	5003
838.956	4870
839.094	4892
839.231	4987
839.369	5090
839.506	5421
839.643	5258
839.781	5075
839.918	5025
840.055	5105
840.193	5105
840.33	5109
840.467	5147
840.604	5174
840.742	5482
840.879	5094
841.016	5109
841.153	5189
841.29	5334
841.427	5383
841.564	5292
841.701	5315
841.838	5231
841.975	5250
842.112	5261
842.249	5166
842.385	5147
842.522	5292
842.659	5159
842.796	5197
842.933	5185
843.069	5136
843.206	5128
843.343	5265
843.479	5277
843.616	5231
843.752	5006
843.889	5014
844.025	5174
844.162	5025
844.298	5220
844.435	5056
844.571	5052
844.708	5170
844.844	5315
844.98	5315
845.117	5239
845.253	5117
845.389	5098
845.525	5151
845.661	5136
845.798	5029
845.934	5102
846.07	5056
846.206	5189
846.342	5273
846.478	5174
846.614	4980
846.75	4942
846.886	4934
847.022	5155
847.158	5010
847.294	5083
847.429	5086
847.565	5033
847.701	5296
847.837	4866
847.972	4816
848.108	4938
848.244	4942
848.379	4774
848.515	4698
848.65	4687
848.786	4786
848.921	4706
849.057	4877
849.192	4881
849.328	4820
849.463	4847
849.598	4793
849.734	4733
849.869	4691
850.004	4596
850.14	4691
850.275	4603
850.41	4531
850.545	4554
850.68	4569
850.815	4603
850.95	4637
851.085	4812
851.22	4752
851.355	4660
851.49	4592
851.625	4634
851.76	4694
851.895	4546
852.03	4558
852.165	4683
852.299	4675
852.434	4706
852.569	4733
852.703	4763
852.838	4854
852.973	4949
853.107	4934
853.242	4793
853.376	4641
853.511	4542
853.645	4573
853.78	4782
853.914	4706
854.048	4679
854.183	4672
854.317	4634
854.451	4786
854.585	4691
854.72	4603
854.854	4736
854.988	4584
855.122	4607
855.256	4531
855.39	4634
855.524	4786
855.658	4717
855.792	4698
855.926	4767
856.06	4706
856.194	4763
856.327	4714
856.461	4607
856.595	4618
856.729	4622
856.862	4733
856.996	4637
857.13	4755
857.263	4767
857.397	4809
857.53	4656
857.664	4748
857.797	4748
857.931	4759
858.064	4687
858.197	4748
858.331	4618
858.464	4622
858.597	4535
858.731	4634
858.864	4649
858.997	4584
859.13	4641
859.263	4596
859.396	4687
859.529	4618
859.662	4618
859.795	4542
859.928	4649
860.061	4721
860.194	4725
860.327	4584
860.46	4531
860.592	4679
860.725	4675
860.858	4736
860.99	4611
861.123	4504
861.256	4489
861.388	4637
861.521	5201
861.653	4462
861.786	4421
861.918	4474
862.05	4546
862.183	4569
862.315	4615
862.447	4706
862.58	4519
862.712	4402
862.844	4295
862.976	4493
863.108	4497
863.24	4759
863.372	4356
863.504	4417
863.636	4402
863.768	4466
863.9	4386
864.032	4390
864.164	4413
864.296	4462
864.428	4478
864.559	4550
864.691	4500
864.823	4478
864.954	4493
865.086	4504
865.217	4440
865.349	4428
865.48	4451
865.612	4489
865.743	4618
865.875	4421
866.006	4478
866.137	4459
866.269	4432
866.4	4466
866.531	4371
866.662	4421
866.793	4413
866.924	4432
867.055	4516
867.186	4470
867.317	4394
867.448	4371
867.579	4405
867.71	4314
867.841	4371
867.972	4462
868.103	4424
868.233	4447
868.364	4417
868.495	4527
868.625	4618
868.756	4778
868.886	4558
869.017	4580
869.147	4790
869.278	4752
869.408	4637
869.539	4607
869.669	4717
869.799	4679
869.929	4759
870.06	4736
870.19	4961
870.32	4900
870.45	4961
870.58	4995
870.71	5094
870.84	5037
870.97	4961
871.1	4904
871.23	5174
871.36	5075
871.489	4984
871.619	5048
871.749	5098
871.879	5136
872.008	5151
872.138	5037
872.267	4972
872.397	4831
872.526	4793
872.656	4702
872.785	4831
872.915	4946
873.044	5014
873.173	4942
873.303	4938
873.432	4957
873.561	5014
873.69	4858
873.819	4797
873.948	4908
874.077	4805
874.206	4782
874.335	4767
874.464	4923
874.593	5052
874.722	4938
874.851	5083
874.979	5041
875.108	5056
875.237	4965
875.365	4904
875.494	4870
875.623	4934
875.751	4801
875.88	4889
876.008	4946
876.136	5067
876.265	5227
876.393	5383
876.521	5227
876.65	5208
876.778	5128
876.906	5079
877.034	4957
877.162	5029
877.29	5010
877.418	5025
877.546	5048
877.674	5014
877.802	5029
877.93	4987
878.058	4870
878.185	4877
878.313	4949
878.441	4938
878.568	4774
878.696	4831
878.824	4889
878.951	4976
879.079	5121
879.206	5239
879.333	5117
879.461	4953
879.588	5045
879.715	5064
879.842	5212
879.97	5014
880.097	4748
880.224	4717
880.351	4820
880.478	4835
880.605	4801
880.732	4786
880.859	5083
880.986	4870
881.112	4919
881.239	4797
881.366	4717
881.493	4588
881.619	4607
881.746	4622
881.872	4656
881.999	4622
882.125	4607
882.252	4820
882.378	4812
882.505	4942
882.631	4793
882.757	4649
882.883	4721
883.01	4706
883.136	4641
883.262	4542
883.388	4588
883.514	4771
883.64	4790
883.766	4805
883.892	4577
884.018	4736
884.143	4881
884.269	4987
884.395	4645
884.52	4660
884.646	4634
884.772	4603
884.897	4573
885.023	4691
885.148	4767
885.274	4828
885.399	4812
885.524	4717
885.65	4717
885.775	4771
885.9	4679
886.025	4835
886.15	4801
886.275	4714
886.4	4645
886.525	4752
886.65	4645
886.775	4668
886.9	4835
887.025	4976
887.149	4801
887.274	4664
887.399	4615
887.523	4565
887.648	4535
887.773	4573
887.897	4774
888.021	4729
888.146	4679
888.27	4805
888.395	4896
888.519	4797
888.643	4812
888.767	4805
888.891	4637
889.015	4596
889.139	4641
889.263	4607
889.387	4782
889.511	4854
889.635	4820
889.759	4656
889.883	4656
890.006	4706
890.13	4786
890.254	4660
890.377	4675
890.501	4554
890.624	4558
890.748	4615
890.871	4561
890.995	4409
891.118	4390
891.241	4527
891.364	4565
891.488	4649
891.611	4561
891.734	4538
891.857	4599
891.98	4542
892.103	4622
892.226	4569
892.349	4478
892.471	4409
892.594	4527
892.717	4599
892.839	4577
892.962	4558
893.085	4603
893.207	4580
893.33	4508
893.452	4512
893.575	4622
893.697	4554
893.819	4755
893.941	4847
894.064	4828
894.186	4565
894.308	4504
894.43	4740
894.552	4809
894.674	4755
894.796	4558
894.918	4550
895.04	4569
895.161	4653
895.283	4706
895.405	4626
895.526	4641
895.648	4637
895.769	4694
895.891	4729
896.012	4752
896.134	4733
896.255	4664
896.376	4679
896.498	4542
896.619	4675
896.74	4603
896.861	4694
896.982	4896
897.103	5064
897.224	4820
897.345	4710
897.466	4637
897.587	4717
897.708	4828
897.828	4801
897.949	4691
898.07	4546
898.19	4694
898.311	4866
898.431	4645
898.552	4714
898.672	4786
898.792	4828
898.913	4721
899.033	4660
899.153	4485
899.273	4424
899.393	4432
899.513	4508
899.633	4554
899.753	4573
899.873	4519
899.993	4558
900.113	4500
900.232	4626
900.352	4561
900.472	4508
900.591	4367
900.711	4485
900.83	4409
900.95	4561
901.069	4691
901.189	4527
901.308	4375
901.427	4318
901.546	4371
901.665	4443
901.784	4493
901.904	4413
902.023	4348
902.141	4211
902.26	4166
902.379	4322
902.498	4207
902.617	4242
902.735	4371
902.854	4398
902.973	4318
903.091	4230
903.21	4154
903.328	4306
903.446	4284
903.565	4219
903.683	4333
903.801	4257
903.919	4371
904.038	4383
904.156	4280
904.274	4424
904.392	4447
904.51	4436
904.627	4485
904.745	4607
904.863	4599
904.981	4375
905.098	4291
905.216	4360
905.334	4436
905.451	4421
905.569	4417
905.686	4550
905.803	4554
905.921	4379
906.038	4569
906.155	4474
906.272	4398
906.389	4474
906.506	4344
906.623	4360
906.74	4402
906.857	4325
906.974	4379
907.091	4573
907.208	4687
907.324	4611
907.441	4508
907.557	4356
907.674	4333
907.79	4299
907.907	4348
908.023	4470
908.139	4462
908.256	4443
908.372	4497
908.488	4432
908.604	4398
908.72	4310
908.836	4390
908.952	4352
909.068	4440
909.184	4622
909.3	4451
909.415	4573
909.531	4561
909.647	4352
909.762	4402
909.878	4348
909.993	4390
910.108	4379
910.224	4363
910.339	4474
910.454	4432
910.57	4394
910.685	4299
910.8	4637
910.915	4561
911.03	4504
911.145	4295
911.259	4337
911.374	4413
911.489	4318
911.604	4299
911.718	4162
911.833	4215
911.947	4074
912.062	4071
912.176	4253
912.291	4230
912.405	4265
912.519	4497
912.633	4512
912.748	4341
912.862	4352
912.976	4227
913.09	4074
913.204	4154
913.318	4238
913.431	4363
913.545	4356
913.659	4413
913.772	4356
913.886	4223
914	4219
914.113	4386
914.226	4440
914.34	4367
914.453	4249
914.566	4440
914.68	4291
914.793	4337
914.906	4150
915.019	4071
915.132	4086
915.245	4188
915.358	4204
915.47	4238
915.583	4280
915.696	4314
915.809	4390
915.921	4424
916.034	4223
916.146	4242
916.259	4219
916.371	4360
916.483	4375
916.595	4246
916.708	4329
916.82	4360
916.932	4306
917.044	4299
917.156	4303
917.268	4227
917.38	4306
917.491	4249
917.603	4295
917.715	4371
917.826	4459
917.938	4291
918.049	4253
918.161	4405
918.272	4546
918.384	4523
918.495	4466
918.606	4322
918.717	4272
918.828	4341
918.939	4348
919.05	4299
919.161	4291
919.272	4139
919.383	4215
919.494	4447
919.604	4607
919.715	4405
919.826	4367
919.936	4409
920.047	4523
920.157	4527
920.267	4687
920.378	4546
920.488	4504
920.598	4702
920.708	4870
920.818	4702
920.928	4771
921.038	4942
921.148	4908
921.258	4637
921.368	4493
921.477	4497
921.587	4398
921.697	4360
921.806	4531
921.916	4402
922.025	4295
922.134	4257
922.244	4219
922.353	4318
922.462	4173
922.571	4131
922.68	3991
922.789	3975
922.898	4025
923.007	3945
923.116	4082
923.224	4051
923.333	4109
923.442	3991
923.55	3956
923.659	4013
923.767	4109
923.876	4040
923.984	4147
924.092	3983
924.201	4055
924.309	4071
924.417	4131
924.525	4090
924.633	4112
924.741	5067
924.849	3922
924.956	4166
925.064	3930
925.172	3922
925.279	3960
925.387	4093
925.494	4055
925.602	4177
925.709	4150
925.816	4036
925.924	4120
926.031	4227
926.138	4166
926.245	4177
926.352	4051
926.459	4242
926.566	4306
926.673	4150
926.779	4101
926.886	4105
926.993	3934
927.099	3899
927.206	3915
927.312	3949
927.419	4067
927.525	4029
927.631	4090
927.737	3896
927.843	3918
927.95	3842
928.056	3941
928.162	3960
928.267	4090
928.373	4653
928.479	4093
928.585	3846
928.69	4032
928.796	4074
928.901	3949
929.007	3884
929.112	3983
929.218	4013
929.323	3896
929.428	3960
929.533	4101
929.638	3903
929.743	3998
929.848	4040
929.953	3972
930.058	3911
930.163	3781
930.267	3800
930.372	3960
930.477	3797
930.581	4093
930.685	3934
930.79	3800
930.894	3873
930.998	3873
931.103	4048
931.207	3713
931.311	3701
931.415	3675
931.519	3511
931.623	3496
