Data from test_V78500241_1813.txt Node
Date: Fri Mar 25 17:01:36 CST 2022
User: usil
Spectrometer: V785-0024
Trigger mode: 0
Integration Time (sec): 4.000000E-1
Scans to average: 1
Nonlinearity correction enabled: false
Boxcar width: 0
Storing dark spectrum: false
XAxis mode: Wavelengths
Number of Pixels in Spectrum: 1024
>>>>>Begin Spectral Data<<<<<
801.071	8016
801.214	7997
801.356	7902
801.499	7826
801.641	7792
801.783	7841
801.926	8039
802.068	7982
802.211	8005
802.353	8046
802.496	7887
802.638	7849
802.78	7883
802.923	7993
803.065	7978
803.208	7875
803.35	7959
803.492	8134
803.635	8138
803.777	8012
803.919	8069
804.061	8351
804.204	8180
804.346	8058
804.488	7997
804.63	8065
804.773	8035
804.915	8088
805.057	8259
805.199	8134
805.341	8229
805.483	8275
805.626	8199
805.768	8092
805.91	8172
806.052	8225
806.194	8092
806.336	8248
806.478	8077
806.62	8084
806.762	8107
806.904	8279
807.046	8503
807.188	8419
807.33	8298
807.472	8267
807.614	8180
807.756	8126
807.898	7936
808.04	7879
808.182	7894
808.324	7906
808.465	7906
808.607	8016
808.749	8123
808.891	8233
809.033	8343
809.174	8233
809.316	8039
809.458	8062
809.6	8050
809.741	8005
809.883	8058
810.025	8084
810.166	7982
810.308	8024
810.45	7997
810.591	7841
810.733	7689
810.875	7658
811.016	7537
811.158	7483
811.299	7605
811.441	7723
811.582	7693
811.724	7571
811.865	7537
812.007	7575
812.148	7597
812.29	7620
812.431	7795
812.573	7947
812.714	8035
812.855	8134
812.997	8221
813.138	8419
813.279	8218
813.421	8092
813.562	7902
813.703	7803
813.845	7772
813.986	7392
814.127	7228
814.268	7126
814.41	7206
814.551	7168
814.692	7240
814.833	7057
814.974	7091
815.115	7080
815.256	6943
815.397	6985
815.539	6993
815.68	6810
815.821	6772
815.962	6844
816.103	6863
816.244	6692
816.385	6559
816.526	6612
816.666	6506
816.807	6254
816.948	6452
817.089	6483
817.23	6452
817.371	6357
817.512	6357
817.653	6407
817.793	6346
817.934	6471
818.075	6448
818.216	6395
818.356	6369
818.497	6178
818.638	6121
818.778	6175
818.919	6152
819.06	6098
819.2	6338
819.341	6289
819.481	6380
819.622	6532
819.762	6726
819.903	6707
820.043	6597
820.184	6578
820.324	6597
820.465	6734
820.605	6623
820.746	6623
820.886	6551
821.026	6623
821.167	6741
821.307	6829
821.447	6859
821.588	6642
821.728	6620
821.868	6475
822.008	6350
822.149	6395
822.289	6399
822.429	6125
822.569	6060
822.709	6197
822.849	5973
822.99	5904
823.13	5908
823.27	5897
823.41	5828
823.55	5821
823.69	5805
823.83	5817
823.97	5691
824.11	5528
824.25	5532
824.389	5611
824.529	5642
824.669	5592
824.809	5703
824.949	5684
825.089	5657
825.228	5608
825.368	5387
825.508	5387
825.648	5425
825.787	5448
825.927	5391
826.067	5395
826.206	5372
826.346	5421
826.485	5357
826.625	5429
826.765	5577
826.904	5535
827.044	5292
827.183	5250
827.323	5174
827.462	5349
827.601	5220
827.741	5193
827.88	5242
828.02	5159
828.159	5330
828.298	5315
828.437	5402
828.577	5337
828.716	5520
828.855	5349
828.994	5185
829.134	5189
829.273	5212
829.412	5185
829.551	5178
829.69	5246
829.829	5273
829.968	5417
830.107	5353
830.246	5311
830.385	5185
830.524	5197
830.663	5113
830.802	5006
830.941	4953
831.08	4942
831.219	4976
831.357	4965
831.496	5162
831.635	4953
831.774	4866
831.913	4900
832.051	4740
832.19	4797
832.329	4892
832.467	4725
832.606	4649
832.744	4782
832.883	4748
833.022	4763
833.16	4801
833.299	4881
833.437	4835
833.576	4858
833.714	4873
833.852	4915
833.991	4911
834.129	4976
834.267	4980
834.406	4904
834.544	5010
834.682	5010
834.821	5003
834.959	5178
835.097	5048
835.235	5216
835.373	5109
835.511	5132
835.65	5022
835.788	5075
835.926	4915
836.064	4889
836.202	4961
836.34	5197
836.478	5288
836.615	5181
836.753	5250
836.891	5307
837.029	5261
837.167	5227
837.305	5201
837.443	5204
837.58	5113
837.718	5307
837.856	5193
837.993	5128
838.131	5258
838.269	5242
838.406	5216
838.544	5204
838.681	5071
838.819	5052
838.956	4930
839.094	4961
839.231	4984
839.369	5143
839.506	5414
839.643	5299
839.781	5102
839.918	5025
840.055	5136
840.193	5113
840.33	5128
840.467	5162
840.604	5216
840.742	5440
840.879	5102
841.016	5075
841.153	5159
841.29	5360
841.427	5376
841.564	5368
841.701	5387
841.838	5246
841.975	5284
842.112	5292
842.249	5151
842.385	5147
842.522	5353
842.659	5197
842.796	5170
842.933	5193
843.069	5159
843.206	5227
843.343	5280
843.479	5299
843.616	5277
843.752	5079
843.889	5052
844.025	5220
844.162	5102
844.298	5254
844.435	5109
844.571	5071
844.708	5235
844.844	5345
844.98	5395
845.117	5280
845.253	5117
845.389	5143
845.525	5197
845.661	5178
845.798	5041
845.934	5170
846.07	5060
846.206	5227
846.342	5284
846.478	5265
846.614	5094
846.75	4980
846.886	4999
847.022	5155
847.158	5018
847.294	5056
847.429	5121
847.565	5048
847.701	5341
847.837	4900
847.972	4828
848.108	5029
848.244	4934
848.379	4820
848.515	4786
848.65	4744
848.786	4786
848.921	4812
849.057	4877
849.192	4934
849.328	4809
849.463	4873
849.598	4896
849.734	4763
849.869	4736
850.004	4694
850.14	4710
850.275	4656
850.41	4527
850.545	4611
850.68	4577
850.815	4645
850.95	4675
851.085	4809
851.22	4801
851.355	4660
851.49	4664
851.625	4653
851.76	4660
851.895	4592
852.03	4573
852.165	4714
852.299	4752
852.434	4809
852.569	4820
852.703	4778
852.838	4885
852.973	4927
853.107	4961
853.242	4805
853.376	4656
853.511	4588
853.645	4611
853.78	4824
853.914	4710
854.048	4721
854.183	4645
854.317	4771
854.451	4877
854.585	4702
854.72	4679
854.854	4759
854.988	4611
855.122	4664
855.256	4535
855.39	4656
855.524	4790
855.658	4752
855.792	4710
855.926	4771
856.06	4782
856.194	4835
856.327	4736
856.461	4573
856.595	4687
856.729	4611
856.862	4786
856.996	4717
857.13	4733
857.263	4763
857.397	4862
857.53	4679
857.664	4698
857.797	4786
857.931	4774
858.064	4710
858.197	4793
858.331	4653
858.464	4645
858.597	4531
858.731	4622
858.864	4683
858.997	4603
859.13	4664
859.263	4748
859.396	4733
859.529	4611
859.662	4656
859.795	4569
859.928	4630
860.061	4790
860.194	4786
860.327	4637
860.46	4573
860.592	4759
860.725	4812
860.858	4725
860.99	4599
861.123	4584
861.256	4565
861.388	4584
861.521	5459
861.653	4565
861.786	4443
861.918	4523
862.05	4558
862.183	4580
862.315	4634
862.447	4694
862.58	4565
862.712	4413
862.844	4318
862.976	4500
863.108	4489
863.24	4900
863.372	4348
863.504	4409
863.636	4424
863.768	4474
863.9	4493
864.032	4344
864.164	4413
864.296	4497
864.428	4561
864.559	4558
864.691	4535
864.823	4535
864.954	4493
865.086	4504
865.217	4462
865.349	4462
865.48	4462
865.612	4516
865.743	4668
865.875	4489
866.006	4443
866.137	4500
866.269	4447
866.4	4455
866.531	4447
866.662	4375
866.793	4451
866.924	4413
867.055	4500
867.186	4493
867.317	4409
867.448	4344
867.579	4413
867.71	4428
867.841	4409
867.972	4455
868.103	4478
868.233	4504
868.364	4508
868.495	4474
868.625	4656
868.756	4774
868.886	4580
869.017	4656
869.147	4816
869.278	4782
869.408	4653
869.539	4664
869.669	4725
869.799	4649
869.929	4771
870.06	4744
870.19	4957
870.32	4968
870.45	4957
870.58	5037
870.71	5060
870.84	5124
870.97	5045
871.1	4923
871.23	5136
871.36	5166
871.489	5071
871.619	5045
871.749	5098
871.879	5140
872.008	5216
872.138	5052
872.267	4980
872.397	4866
872.526	4820
872.656	4740
872.785	4812
872.915	5003
873.044	5048
873.173	4965
873.303	4999
873.432	4976
873.561	4972
873.69	4881
873.819	4889
873.948	4919
874.077	4816
874.206	4759
874.335	4843
874.464	4923
874.593	5037
874.722	4961
874.851	5128
874.979	5048
875.108	5006
875.237	4965
875.365	4889
875.494	4908
875.623	4980
875.751	4904
875.88	4889
876.008	5018
876.136	5067
876.265	5231
876.393	5376
876.521	5250
876.65	5265
876.778	5136
876.906	5071
877.034	5052
877.162	5033
877.29	5025
877.418	5086
877.546	5060
877.674	5029
877.802	5045
877.93	4984
878.058	5025
878.185	4858
878.313	4984
878.441	4911
878.568	4835
878.696	4900
878.824	4946
878.951	5033
879.079	5178
879.206	5277
879.333	5098
879.461	4987
879.588	5014
879.715	5136
879.842	5296
879.97	5018
880.097	4809
880.224	4767
880.351	4843
880.478	4847
880.605	4778
880.732	4854
880.859	5147
880.986	4896
881.112	4949
881.239	4748
881.366	4717
881.493	4622
881.619	4622
881.746	4664
881.872	4645
881.999	4672
882.125	4675
882.252	4786
882.378	4835
882.505	5018
882.631	4858
882.757	4698
882.883	4725
883.01	4714
883.136	4706
883.262	4645
883.388	4599
883.514	4835
883.64	4835
883.766	4782
883.892	4649
884.018	4706
884.143	4915
884.269	5025
884.395	4729
884.52	4596
884.646	4653
884.772	4645
884.897	4569
885.023	4615
885.148	4790
885.274	4862
885.399	4797
885.524	4733
885.65	4736
885.775	4774
885.9	4744
886.025	4854
886.15	4805
886.275	4759
886.4	4656
886.525	4694
886.65	4706
886.775	4706
886.9	4911
887.025	5052
887.149	4820
887.274	4618
887.399	4584
887.523	4622
887.648	4584
887.773	4596
887.897	4725
888.021	4809
888.146	4714
888.27	4843
888.395	4930
888.519	4801
888.643	4828
888.767	4858
888.891	4725
889.015	4588
889.139	4641
889.263	4607
889.387	4771
889.511	4850
889.635	4850
889.759	4641
889.883	4660
890.006	4767
890.13	4809
890.254	4630
890.377	4691
890.501	4569
890.624	4546
890.748	4675
890.871	4523
890.995	4493
891.118	4394
891.241	4538
891.364	4550
891.488	4664
891.611	4588
891.734	4527
891.857	4599
891.98	4603
892.103	4702
892.226	4637
892.349	4519
892.471	4421
892.594	4596
892.717	4592
892.839	4588
892.962	4599
893.085	4683
893.207	4580
893.33	4493
893.452	4550
893.575	4721
893.697	4580
893.819	4793
893.941	4889
894.064	4797
894.186	4573
894.308	4588
894.43	4752
894.552	4816
894.674	4729
894.796	4577
894.918	4599
895.04	4588
895.161	4710
895.283	4645
895.405	4577
895.526	4660
895.648	4664
895.769	4664
895.891	4702
896.012	4714
896.134	4714
896.255	4683
896.376	4649
896.498	4584
896.619	4679
896.74	4611
896.861	4649
896.982	4915
897.103	5117
897.224	4782
897.345	4759
897.466	4698
897.587	4744
897.708	4850
897.828	4801
897.949	4710
898.07	4622
898.19	4634
898.311	4854
898.431	4683
898.552	4729
898.672	4847
898.792	4812
898.913	4774
899.033	4649
899.153	4512
899.273	4474
899.393	4519
899.513	4535
899.633	4481
899.753	4580
899.873	4538
899.993	4615
900.113	4527
900.232	4592
900.352	4508
900.472	4508
900.591	4462
900.711	4500
900.83	4417
900.95	4565
901.069	4672
901.189	4500
901.308	4367
901.427	4348
901.546	4337
901.665	4451
901.784	4493
901.904	4421
902.023	4352
902.141	4207
902.26	4200
902.379	4325
902.498	4276
902.617	4207
902.735	4375
902.854	4394
902.973	4352
903.091	4219
903.21	4227
903.328	4291
903.446	4268
903.565	4295
903.683	4371
903.801	4303
903.919	4405
904.038	4481
904.156	4314
904.274	4466
904.392	4440
904.51	4500
904.627	4508
904.745	4599
904.863	4656
904.981	4383
905.098	4291
905.216	4363
905.334	4451
905.451	4455
905.569	4470
905.686	4538
905.803	4565
905.921	4417
906.038	4596
906.155	4451
906.272	4386
906.389	4451
906.506	4322
906.623	4367
906.74	4413
906.857	4318
906.974	4375
907.091	4519
907.208	4622
907.324	4634
907.441	4519
907.557	4329
907.674	4344
907.79	4299
907.907	4417
908.023	4489
908.139	4417
908.256	4432
908.372	4493
908.488	4436
908.604	4398
908.72	4253
908.836	4352
908.952	4394
909.068	4440
909.184	4504
909.3	4462
909.415	4542
909.531	4550
909.647	4333
909.762	4398
909.878	4356
909.993	4443
910.108	4428
910.224	4443
910.339	4428
910.454	4398
910.57	4383
910.685	4295
910.8	4672
910.915	4603
911.03	4516
911.145	4295
911.259	4371
911.374	4371
911.489	4276
911.604	4295
911.718	4181
911.833	4211
911.947	4090
912.062	4071
912.176	4249
912.291	4246
912.405	4287
912.519	4474
912.633	4459
912.748	4360
912.862	4341
912.976	4234
913.09	4124
913.204	4173
913.318	4238
913.431	4409
913.545	4329
913.659	4409
913.772	4383
913.886	4211
914	4238
914.113	4409
914.226	4470
914.34	4363
914.453	4207
914.566	4462
914.68	4360
914.793	4310
914.906	4169
915.019	4139
915.132	4120
915.245	4192
915.358	4196
915.47	4215
915.583	4268
915.696	4314
915.809	4363
915.921	4459
916.034	4276
916.146	4306
916.259	4215
916.371	4409
916.483	4379
916.595	4265
916.708	4318
916.82	4287
916.932	4284
917.044	4329
917.156	4363
917.268	4249
917.38	4268
917.491	4261
917.603	4409
917.715	4375
917.826	4413
917.938	4367
918.049	4291
918.161	4375
918.272	4577
918.384	4573
918.495	4451
918.606	4310
918.717	4204
918.828	4329
918.939	4314
919.05	4276
919.161	4322
919.272	4169
919.383	4211
919.494	4459
919.604	4611
919.715	4451
919.826	4360
919.936	4413
920.047	4500
920.157	4462
920.267	4698
920.378	4542
920.488	4493
920.598	4744
920.708	4881
920.818	4771
920.928	4763
921.038	4991
921.148	4911
921.258	4626
921.368	4550
921.477	4508
921.587	4470
921.697	4383
921.806	4546
921.916	4356
922.025	4276
922.134	4234
922.244	4238
922.353	4322
922.462	4162
922.571	4143
922.68	3975
922.789	3956
922.898	4010
923.007	3987
923.116	4078
923.224	4074
923.333	4082
923.442	4021
923.55	4013
923.659	4067
923.767	4135
923.876	3960
923.984	4097
924.092	3975
924.201	4032
924.309	4128
924.417	4109
924.525	4063
924.633	4128
924.741	5083
924.849	3911
924.956	4150
925.064	3953
925.172	3956
925.279	3972
925.387	4059
925.494	4044
925.602	4204
925.709	4169
925.816	4036
925.924	4124
926.031	4238
926.138	4158
926.245	4188
926.352	4082
926.459	4268
926.566	4303
926.673	4166
926.779	4071
926.886	4082
926.993	3956
927.099	3949
927.206	3960
927.312	4006
927.419	4044
927.525	4029
927.631	4093
927.737	3964
927.843	3903
927.95	3869
928.056	3960
928.162	3979
928.267	4036
928.373	4565
928.479	4105
928.585	3873
928.69	4013
928.796	4090
928.901	3998
929.007	3838
929.112	3975
929.218	3915
929.323	3956
929.428	3975
929.533	4105
929.638	3941
929.743	3964
929.848	4044
929.953	3983
930.058	3911
930.163	3740
930.267	3823
930.372	3964
930.477	3861
930.581	4067
930.685	3941
930.79	3812
930.894	3854
930.998	3823
931.103	4063
931.207	3751
931.311	3663
931.415	3667
931.519	3485
931.623	3568
