Data from test_V78500241_17.txt Node
Date: Fri Mar 25 16:49:07 CST 2022
User: usil
Spectrometer: V785-0024
Trigger mode: 0
Integration Time (sec): 4.000000E-1
Scans to average: 1
Nonlinearity correction enabled: false
Boxcar width: 0
Storing dark spectrum: false
XAxis mode: Wavelengths
Number of Pixels in Spectrum: 1024
>>>>>Begin Spectral Data<<<<<
801.071	8119
801.214	8065
801.356	7928
801.499	7928
801.641	7826
801.783	7845
801.926	8043
802.068	7959
802.211	8027
802.353	8031
802.496	8062
802.638	7947
802.78	8001
802.923	7936
803.065	7909
803.208	7921
803.35	8020
803.492	8195
803.635	8123
803.777	8035
803.919	8172
804.061	8423
804.204	8149
804.346	8142
804.488	8016
804.63	8130
804.773	7989
804.915	8111
805.057	8259
805.199	8180
805.341	8248
805.483	8240
805.626	8259
805.768	8172
805.91	8214
806.052	8157
806.194	8100
806.336	8286
806.478	8157
806.62	8100
806.762	8233
806.904	8286
807.046	8454
807.188	8446
807.33	8286
807.472	8370
807.614	8161
807.756	8221
807.898	8058
808.04	7940
808.182	7959
808.324	7959
808.465	7936
808.607	8012
808.749	8145
808.891	8183
809.033	8225
809.174	8218
809.316	8161
809.458	8024
809.6	7959
809.741	7989
809.883	8020
810.025	8123
810.166	8073
810.308	8073
810.45	8024
810.591	7932
810.733	7822
810.875	7746
811.016	7594
811.158	7567
811.299	7708
811.441	7772
811.582	7723
811.724	7609
811.865	7582
812.007	7666
812.148	7620
812.29	7620
812.431	7841
812.573	7909
812.714	7978
812.855	8214
812.997	8317
813.138	8320
813.279	8206
813.421	8107
813.562	8081
813.703	7986
813.845	7799
813.986	7495
814.127	7350
814.268	7202
814.41	7266
814.551	7213
814.692	7274
814.833	7110
814.974	7122
815.115	7141
815.256	6985
815.397	6970
815.539	6958
815.68	6798
815.821	6795
815.962	6913
816.103	6928
816.244	6745
816.385	6662
816.526	6646
816.666	6506
816.807	6399
816.948	6418
817.089	6464
817.23	6490
817.371	6426
817.512	6388
817.653	6407
817.793	6384
817.934	6433
818.075	6471
818.216	6509
818.356	6486
818.497	6277
818.638	6152
818.778	6194
818.919	6220
819.06	6201
819.2	6319
819.341	6376
819.481	6376
819.622	6623
819.762	6757
819.903	6757
820.043	6642
820.184	6582
820.324	6612
820.465	6753
820.605	6692
820.746	6707
820.886	6555
821.026	6715
821.167	6757
821.307	6837
821.447	6829
821.588	6669
821.728	6654
821.868	6555
822.008	6376
822.149	6391
822.289	6426
822.429	6190
822.569	6125
822.709	6197
822.849	5996
822.99	5969
823.13	6003
823.27	5946
823.41	5844
823.55	5813
823.69	5802
823.83	5813
823.97	5745
824.11	5638
824.25	5524
824.389	5600
824.529	5649
824.669	5581
824.809	5699
824.949	5741
825.089	5638
825.228	5615
825.368	5448
825.508	5425
825.648	5429
825.787	5383
825.927	5448
826.067	5383
826.206	5357
826.346	5440
826.485	5474
826.625	5444
826.765	5592
826.904	5505
827.044	5280
827.183	5254
827.323	5162
827.462	5254
827.601	5223
827.741	5170
827.88	5239
828.02	5140
828.159	5277
828.298	5299
828.437	5410
828.577	5337
828.716	5554
828.855	5372
828.994	5189
829.134	5201
829.273	5258
829.412	5181
829.551	5155
829.69	5170
829.829	5296
829.968	5414
830.107	5315
830.246	5311
830.385	5189
830.524	5235
830.663	5128
830.802	5006
830.941	4927
831.08	4885
831.219	5045
831.357	4980
831.496	5208
831.635	4972
831.774	4896
831.913	4881
832.051	4782
832.19	4767
832.329	4870
832.467	4717
832.606	4694
832.744	4809
832.883	4778
833.022	4752
833.16	4778
833.299	4847
833.437	4847
833.576	4843
833.714	4896
833.852	4938
833.991	4968
834.129	4987
834.267	4999
834.406	4934
834.544	5048
834.682	5060
834.821	4968
834.959	5223
835.097	5071
835.235	5174
835.373	5105
835.511	5102
835.65	5052
835.788	5075
835.926	4946
836.064	4904
836.202	4976
836.34	5227
836.478	5227
836.615	5162
836.753	5269
836.891	5292
837.029	5322
837.167	5273
837.305	5201
837.443	5159
837.58	5117
837.718	5326
837.856	5216
837.993	5185
838.131	5277
838.269	5235
838.406	5220
838.544	5201
838.681	5094
838.819	5113
838.956	4919
839.094	4987
839.231	4999
839.369	5090
839.506	5524
839.643	5269
839.781	5041
839.918	5083
840.055	5181
840.193	5090
840.33	5128
840.467	5166
840.604	5269
840.742	5512
840.879	5079
841.016	5140
841.153	5178
841.29	5440
841.427	5402
841.564	5372
841.701	5425
841.838	5288
841.975	5303
842.112	5284
842.249	5159
842.385	5159
842.522	5395
842.659	5242
842.796	5204
842.933	5242
843.069	5204
843.206	5185
843.343	5330
843.479	5258
843.616	5273
843.752	5052
843.889	5067
844.025	5242
844.162	5056
844.298	5258
844.435	5174
844.571	5090
844.708	5204
844.844	5334
844.98	5406
845.117	5360
845.253	5220
845.389	5147
845.525	5189
845.661	5174
845.798	5105
845.934	5151
846.07	5037
846.206	5212
846.342	5357
846.478	5235
846.614	5105
846.75	5022
846.886	4942
847.022	5185
847.158	5045
847.294	5109
847.429	5166
847.565	5067
847.701	5341
847.837	4911
847.972	4835
848.108	4991
848.244	4980
848.379	4831
848.515	4763
848.65	4755
848.786	4767
848.921	4797
849.057	4930
849.192	4934
849.328	4873
849.463	4877
849.598	4839
849.734	4839
849.869	4733
850.004	4675
850.14	4706
850.275	4637
850.41	4558
850.545	4596
850.68	4664
850.815	4660
850.95	4668
851.085	4900
851.22	4755
851.355	4717
851.49	4622
851.625	4679
851.76	4744
851.895	4588
852.03	4573
852.165	4615
852.299	4733
852.434	4835
852.569	4801
852.703	4774
852.838	4877
852.973	4930
853.107	4915
853.242	4755
853.376	4691
853.511	4615
853.645	4653
853.78	4835
853.914	4744
854.048	4721
854.183	4729
854.317	4721
854.451	4927
854.585	4729
854.72	4710
854.854	4748
854.988	4618
855.122	4717
855.256	4527
855.39	4656
855.524	4820
855.658	4801
855.792	4752
855.926	4771
856.06	4748
856.194	4862
856.327	4721
856.461	4630
856.595	4596
856.729	4675
856.862	4809
856.996	4702
857.13	4710
857.263	4835
857.397	4835
857.53	4717
857.664	4744
857.797	4812
857.931	4873
858.064	4755
858.197	4767
858.331	4740
858.464	4649
858.597	4561
858.731	4672
858.864	4664
858.997	4637
859.13	4653
859.263	4672
859.396	4729
859.529	4641
859.662	4550
859.795	4599
859.928	4698
860.061	4812
860.194	4797
860.327	4641
860.46	4580
860.592	4725
860.725	4774
860.858	4763
860.99	4580
861.123	4580
861.256	4558
861.388	4687
861.521	5417
861.653	4508
861.786	4481
861.918	4466
862.05	4573
862.183	4508
862.315	4649
862.447	4656
862.58	4558
862.712	4455
862.844	4314
862.976	4516
863.108	4497
863.24	4915
863.372	4371
863.504	4424
863.636	4474
863.768	4462
863.9	4470
864.032	4367
864.164	4390
864.296	4508
864.428	4577
864.559	4542
864.691	4516
864.823	4554
864.954	4531
865.086	4516
865.217	4474
865.349	4455
865.48	4500
865.612	4542
865.743	4672
865.875	4455
866.006	4478
866.137	4550
866.269	4443
866.4	4466
866.531	4481
866.662	4470
866.793	4443
866.924	4489
867.055	4531
867.186	4489
867.317	4398
867.448	4432
867.579	4405
867.71	4405
867.841	4386
867.972	4485
868.103	4489
868.233	4493
868.364	4512
868.495	4508
868.625	4698
868.756	4835
868.886	4588
869.017	4653
869.147	4820
869.278	4839
869.408	4733
869.539	4675
869.669	4740
869.799	4733
869.929	4805
870.06	4790
870.19	5006
870.32	4995
870.45	4949
870.58	5033
870.71	5155
870.84	5166
870.97	4991
871.1	4934
871.23	5193
871.36	5181
871.489	5102
871.619	5178
871.749	5193
871.879	5155
872.008	5288
872.138	5109
872.267	5060
872.397	4942
872.526	4896
872.656	4824
872.785	4885
872.915	4976
873.044	5128
873.173	5064
873.303	5090
873.432	5037
873.561	5083
873.69	4972
873.819	4968
873.948	5064
874.077	4927
874.206	4870
874.335	4919
874.464	4980
874.593	5151
874.722	5025
874.851	5189
874.979	5124
875.108	5083
875.237	5006
875.365	4968
875.494	4995
875.623	5045
875.751	4896
875.88	4972
876.008	5094
876.136	5109
876.265	5254
876.393	5402
876.521	5357
876.65	5296
876.778	5246
876.906	5159
877.034	5147
877.162	5155
877.29	5102
877.418	5204
877.546	5166
877.674	5105
877.802	5090
877.93	5132
878.058	5006
878.185	4911
878.313	5075
878.441	5075
878.568	4892
878.696	4938
878.824	5033
878.951	5071
879.079	5254
879.206	5349
879.333	5212
879.461	5090
879.588	5052
879.715	5174
879.842	5330
879.97	5083
880.097	4850
880.224	4786
880.351	4923
880.478	4919
880.605	4862
880.732	4892
880.859	5166
880.986	4991
881.112	5006
881.239	4843
881.366	4797
881.493	4660
881.619	4672
881.746	4729
881.872	4729
881.999	4763
882.125	4797
882.252	4881
882.378	4923
882.505	5045
882.631	4858
882.757	4835
882.883	4797
883.01	4858
883.136	4740
883.262	4672
883.388	4691
883.514	4873
883.64	4930
883.766	4885
883.892	4733
884.018	4786
884.143	4946
884.269	5067
884.395	4782
884.52	4710
884.646	4744
884.772	4630
884.897	4615
885.023	4729
885.148	4885
885.274	4919
885.399	4900
885.524	4805
885.65	4786
885.775	4820
885.9	4809
886.025	4896
886.15	4892
886.275	4824
886.4	4698
886.525	4812
886.65	4748
886.775	4717
886.9	4991
887.025	5094
887.149	4911
887.274	4721
887.399	4641
887.523	4717
887.648	4672
887.773	4656
887.897	4866
888.021	4873
888.146	4763
888.27	4915
888.395	4980
888.519	4915
888.643	4862
888.767	4930
888.891	4801
889.015	4691
889.139	4717
889.263	4691
889.387	4809
889.511	4934
889.635	4870
889.759	4675
889.883	4679
890.006	4809
890.13	4934
890.254	4694
890.377	4717
890.501	4653
890.624	4615
890.748	4706
890.871	4603
890.995	4554
891.118	4516
891.241	4596
891.364	4641
891.488	4683
891.611	4588
891.734	4645
891.857	4698
891.98	4626
892.103	4714
892.226	4672
892.349	4558
892.471	4493
892.594	4634
892.717	4649
892.839	4675
892.962	4664
893.085	4755
893.207	4721
893.33	4554
893.452	4580
893.575	4771
893.697	4706
893.819	4900
893.941	4904
894.064	4854
894.186	4672
894.308	4649
894.43	4809
894.552	4896
894.674	4790
894.796	4641
894.918	4668
895.04	4637
895.161	4793
895.283	4771
895.405	4675
895.526	4694
895.648	4767
895.769	4733
895.891	4782
896.012	4755
896.134	4793
896.255	4721
896.376	4710
896.498	4694
896.619	4694
896.74	4664
896.861	4714
896.982	5025
897.103	5151
897.224	4923
897.345	4786
897.466	4805
897.587	4820
897.708	4980
897.828	4824
897.949	4725
898.07	4668
898.19	4710
898.311	4866
898.431	4771
898.552	4790
898.672	4881
898.792	4885
898.913	4820
899.033	4748
899.153	4565
899.273	4500
899.393	4603
899.513	4630
899.633	4592
899.753	4588
899.873	4592
899.993	4664
900.113	4645
900.232	4675
900.352	4618
900.472	4538
900.591	4504
900.711	4550
900.83	4470
900.95	4706
901.069	4759
901.189	4634
901.308	4451
901.427	4398
901.546	4440
901.665	4550
901.784	4596
901.904	4485
902.023	4405
902.141	4249
902.26	4204
902.379	4360
902.498	4337
902.617	4253
902.735	4440
902.854	4497
902.973	4402
903.091	4268
903.21	4291
903.328	4348
903.446	4329
903.565	4394
903.683	4436
903.801	4299
903.919	4474
904.038	4500
904.156	4428
904.274	4527
904.392	4474
904.51	4474
904.627	4580
904.745	4653
904.863	4721
904.981	4466
905.098	4371
905.216	4451
905.334	4470
905.451	4493
905.569	4516
905.686	4706
905.803	4637
905.921	4535
906.038	4641
906.155	4554
906.272	4470
906.389	4538
906.506	4413
906.623	4436
906.74	4455
906.857	4367
906.974	4478
907.091	4649
907.208	4721
907.324	4668
907.441	4592
907.557	4436
907.674	4383
907.79	4375
907.907	4440
908.023	4561
908.139	4550
908.256	4497
908.372	4580
908.488	4508
908.604	4428
908.72	4360
908.836	4447
908.952	4440
909.068	4516
909.184	4653
909.3	4516
909.415	4611
909.531	4626
909.647	4459
909.762	4478
909.878	4413
909.993	4497
910.108	4466
910.224	4516
910.339	4554
910.454	4531
910.57	4424
910.685	4348
910.8	4733
910.915	4622
911.03	4527
911.145	4348
911.259	4462
911.374	4428
911.489	4356
911.604	4291
911.718	4230
911.833	4242
911.947	4154
912.062	4093
912.176	4360
912.291	4303
912.405	4352
912.519	4535
912.633	4596
912.748	4485
912.862	4375
912.976	4329
913.09	4169
913.204	4291
913.318	4333
913.431	4508
913.545	4451
913.659	4508
913.772	4405
913.886	4344
914	4329
914.113	4405
914.226	4489
914.34	4478
914.453	4291
914.566	4470
914.68	4390
914.793	4424
914.906	4249
915.019	4204
915.132	4154
915.245	4192
915.358	4265
915.47	4287
915.583	4341
915.696	4306
915.809	4485
915.921	4493
916.034	4325
916.146	4325
916.259	4295
916.371	4462
916.483	4390
916.595	4356
916.708	4394
916.82	4398
916.932	4363
917.044	4371
917.156	4390
917.268	4333
917.38	4341
917.491	4344
917.603	4352
917.715	4462
917.826	4485
917.938	4421
918.049	4379
918.161	4459
918.272	4656
918.384	4588
918.495	4542
918.606	4390
918.717	4341
918.828	4424
918.939	4421
919.05	4356
919.161	4371
919.272	4192
919.383	4291
919.494	4519
919.604	4691
919.715	4512
919.826	4455
919.936	4447
920.047	4641
920.157	4546
920.267	4782
920.378	4611
920.488	4580
920.598	4740
920.708	4919
920.818	4862
920.928	4843
921.038	5025
921.148	5022
921.258	4687
921.368	4588
921.477	4550
921.587	4523
921.697	4451
921.806	4634
921.916	4493
922.025	4337
922.134	4341
922.244	4314
922.353	4379
922.462	4310
922.571	4238
922.68	4002
922.789	4051
922.898	4097
923.007	4097
923.116	4200
923.224	4169
923.333	4135
923.442	4097
923.55	4051
923.659	4067
923.767	4177
923.876	4063
923.984	4166
924.092	4021
924.201	4150
924.309	4150
924.417	4211
924.525	4139
924.633	4223
924.741	5109
924.849	3945
924.956	4139
925.064	4013
925.172	3979
925.279	4032
925.387	4097
925.494	4109
925.602	4265
925.709	4253
925.816	4093
925.924	4166
926.031	4329
926.138	4219
926.245	4238
926.352	4147
926.459	4310
926.566	4409
926.673	4192
926.779	4135
926.886	4147
926.993	4036
927.099	3994
927.206	4010
927.312	3983
927.419	4139
927.525	4086
927.631	4120
927.737	4048
927.843	4025
927.95	3915
928.056	4021
928.162	4063
928.267	4128
928.373	4763
928.479	4135
928.585	3934
928.69	4120
928.796	4162
928.901	4036
929.007	3892
929.112	4086
929.218	4059
929.323	3979
929.428	4029
929.533	4215
929.638	3975
929.743	4017
929.848	4128
929.953	4090
930.058	4013
930.163	3850
930.267	3911
930.372	4025
930.477	3816
930.581	4109
930.685	4017
930.79	3876
930.894	3964
930.998	3911
931.103	4090
931.207	3781
931.311	3751
931.415	3709
931.519	3564
931.623	3603
