Data from test_V78500241_179.txt Node
Date: Fri Mar 25 16:50:14 CST 2022
User: usil
Spectrometer: V785-0024
Trigger mode: 0
Integration Time (sec): 4.000000E-1
Scans to average: 1
Nonlinearity correction enabled: false
Boxcar width: 0
Storing dark spectrum: false
XAxis mode: Wavelengths
Number of Pixels in Spectrum: 1024
>>>>>Begin Spectral Data<<<<<
801.071	8043
801.214	8008
801.356	7860
801.499	7898
801.641	7780
801.783	7833
801.926	7967
802.068	7932
802.211	8027
802.353	7932
802.496	7818
802.638	7947
802.78	7894
802.923	7932
803.065	7898
803.208	7902
803.35	7951
803.492	8107
803.635	8221
803.777	7997
803.919	8111
804.061	8446
804.204	8096
804.346	8024
804.488	7940
804.63	8103
804.773	7955
804.915	8065
805.057	8187
805.199	8210
805.341	8202
805.483	8301
805.626	8206
805.768	8138
805.91	8199
806.052	8218
806.194	8107
806.336	8259
806.478	8081
806.62	8035
806.762	8172
806.904	8240
807.046	8454
807.188	8309
807.33	8267
807.472	8309
807.614	8233
807.756	8180
807.898	8031
808.04	7921
808.182	7849
808.324	7909
808.465	7944
808.607	8088
808.749	8088
808.891	8267
809.033	8377
809.174	8240
809.316	8073
809.458	8043
809.6	7967
809.741	8081
809.883	7989
810.025	8134
810.166	8107
810.308	7993
810.45	7982
810.591	7951
810.733	7803
810.875	7674
811.016	7552
811.158	7563
811.299	7582
811.441	7784
811.582	7620
811.724	7548
811.865	7533
812.007	7616
812.148	7620
812.29	7700
812.431	7761
812.573	7944
812.714	7982
812.855	8191
812.997	8279
813.138	8393
813.279	8195
813.421	8084
813.562	8008
813.703	7906
813.845	7792
813.986	7464
814.127	7251
814.268	7263
814.41	7259
814.551	7221
814.692	7270
814.833	7145
814.974	7168
815.115	7118
815.256	7008
815.397	6901
815.539	6935
815.68	6871
815.821	6863
815.962	6852
816.103	6844
816.244	6753
816.385	6642
816.526	6631
816.666	6502
816.807	6384
816.948	6479
817.089	6456
817.23	6433
817.371	6471
817.512	6369
817.653	6418
817.793	6403
817.934	6429
818.075	6486
818.216	6479
818.356	6357
818.497	6163
818.638	6136
818.778	6152
818.919	6190
819.06	6167
819.2	6308
819.341	6384
819.481	6353
819.622	6456
819.762	6711
819.903	6681
820.043	6578
820.184	6547
820.324	6589
820.465	6696
820.605	6669
820.746	6627
820.886	6521
821.026	6696
821.167	6684
821.307	6810
821.447	6829
821.588	6700
821.728	6601
821.868	6551
822.008	6372
822.149	6311
822.289	6361
822.429	6194
822.569	6110
822.709	6194
822.849	5904
822.99	5923
823.13	5961
823.27	5954
823.41	5771
823.55	5809
823.69	5779
823.83	5813
823.97	5611
824.11	5581
824.25	5486
824.389	5566
824.529	5570
824.669	5558
824.809	5695
824.949	5688
825.089	5646
825.228	5570
825.368	5467
825.508	5341
825.648	5357
825.787	5337
825.927	5353
826.067	5284
826.206	5296
826.346	5368
826.485	5410
826.625	5406
826.765	5547
826.904	5471
827.044	5269
827.183	5197
827.323	5113
827.462	5307
827.601	5181
827.741	5216
827.88	5193
828.02	5098
828.159	5235
828.298	5353
828.437	5372
828.577	5277
828.716	5493
828.855	5334
828.994	5155
829.134	5185
829.273	5193
829.412	5166
829.551	5128
829.69	5102
829.829	5246
829.968	5372
830.107	5299
830.246	5318
830.385	5201
830.524	5193
830.663	5109
830.802	4984
830.941	4866
831.08	4911
831.219	5052
831.357	5006
831.496	5155
831.635	4896
831.774	4854
831.913	4858
832.051	4786
832.19	4767
832.329	4824
832.467	4672
832.606	4706
832.744	4714
832.883	4714
833.022	4733
833.16	4786
833.299	4824
833.437	4828
833.576	4835
833.714	4854
833.852	4850
833.991	4896
834.129	4972
834.267	4942
834.406	4957
834.544	4980
834.682	4984
834.821	4999
834.959	5136
835.097	4980
835.235	5159
835.373	5113
835.511	5102
835.65	5045
835.788	5064
835.926	4915
836.064	4915
836.202	4934
836.34	5181
836.478	5246
836.615	5117
836.753	5250
836.891	5353
837.029	5284
837.167	5174
837.305	5216
837.443	5121
837.58	5071
837.718	5269
837.856	5216
837.993	5121
838.131	5280
838.269	5181
838.406	5212
838.544	5170
838.681	5048
838.819	5045
838.956	4877
839.094	4919
839.231	4961
839.369	5124
839.506	5471
839.643	5227
839.781	5105
839.918	5003
840.055	5147
840.193	5109
840.33	5162
840.467	5113
840.604	5166
840.742	5448
840.879	5140
841.016	5102
841.153	5140
841.29	5414
841.427	5341
841.564	5311
841.701	5288
841.838	5315
841.975	5273
842.112	5284
842.249	5102
842.385	5071
842.522	5349
842.659	5201
842.796	5155
842.933	5193
843.069	5216
843.206	5201
843.343	5277
843.479	5258
843.616	5273
843.752	5025
843.889	5037
844.025	5227
844.162	5033
844.298	5254
844.435	5124
844.571	5033
844.708	5166
844.844	5284
844.98	5330
845.117	5330
845.253	5140
845.389	5117
845.525	5132
845.661	5117
845.798	5045
845.934	5170
846.07	5064
846.206	5140
846.342	5315
846.478	5170
846.614	5037
846.75	4961
846.886	4953
847.022	5174
847.158	4984
847.294	5113
847.429	5136
847.565	5113
847.701	5330
847.837	4870
847.972	4824
848.108	4930
848.244	4919
848.379	4793
848.515	4702
848.65	4721
848.786	4748
848.921	4809
849.057	4862
849.192	4889
849.328	4812
849.463	4854
849.598	4793
849.734	4793
849.869	4759
850.004	4683
850.14	4702
850.275	4649
850.41	4508
850.545	4577
850.68	4599
850.815	4596
850.95	4679
851.085	4843
851.22	4740
851.355	4691
851.49	4622
851.625	4645
851.76	4653
851.895	4592
852.03	4554
852.165	4706
852.299	4733
852.434	4816
852.569	4717
852.703	4752
852.838	4816
852.973	4965
853.107	4942
853.242	4721
853.376	4664
853.511	4618
853.645	4611
853.78	4782
853.914	4710
854.048	4733
854.183	4660
854.317	4702
854.451	4870
854.585	4717
854.72	4630
854.854	4778
854.988	4546
855.122	4641
855.256	4550
855.39	4611
855.524	4759
855.658	4752
855.792	4702
855.926	4698
856.06	4752
856.194	4774
856.327	4672
856.461	4645
856.595	4656
856.729	4615
856.862	4790
856.996	4679
857.13	4702
857.263	4744
857.397	4812
857.53	4660
857.664	4733
857.797	4782
857.931	4805
858.064	4714
858.197	4736
858.331	4675
858.464	4618
858.597	4538
858.731	4577
858.864	4611
858.997	4641
859.13	4683
859.263	4691
859.396	4771
859.529	4603
859.662	4630
859.795	4554
859.928	4653
860.061	4755
860.194	4748
860.327	4596
860.46	4561
860.592	4721
860.725	4759
860.858	4763
860.99	4592
861.123	4550
861.256	4538
861.388	4622
861.521	5391
861.653	4466
861.786	4478
861.918	4455
862.05	4558
862.183	4618
862.315	4607
862.447	4622
862.58	4523
862.712	4405
862.844	4303
862.976	4546
863.108	4451
863.24	4889
863.372	4352
863.504	4428
863.636	4413
863.768	4462
863.9	4478
864.032	4383
864.164	4409
864.296	4497
864.428	4561
864.559	4558
864.691	4592
864.823	4550
864.954	4516
865.086	4523
865.217	4459
865.349	4455
865.48	4417
865.612	4508
865.743	4634
865.875	4485
866.006	4474
866.137	4519
866.269	4440
866.4	4436
866.531	4440
866.662	4405
866.793	4451
866.924	4424
867.055	4558
867.186	4462
867.317	4394
867.448	4363
867.579	4356
867.71	4424
867.841	4363
867.972	4481
868.103	4478
868.233	4516
868.364	4493
868.495	4481
868.625	4733
868.756	4740
868.886	4630
869.017	4607
869.147	4755
869.278	4744
869.408	4675
869.539	4653
869.669	4759
869.799	4683
869.929	4759
870.06	4763
870.19	4942
870.32	4942
870.45	4953
870.58	5018
870.71	5105
870.84	5132
870.97	4980
871.1	4908
871.23	5136
871.36	5162
871.489	5033
871.619	5090
871.749	5086
871.879	5166
872.008	5170
872.138	5025
872.267	4984
872.397	4839
872.526	4831
872.656	4721
872.785	4801
872.915	4987
873.044	5041
873.173	4976
873.303	4968
873.432	4976
873.561	4976
873.69	4843
873.819	4919
873.948	4987
874.077	4889
874.206	4710
874.335	4858
874.464	4949
874.593	5086
874.722	4980
874.851	5117
874.979	5075
875.108	5033
875.237	4889
875.365	4858
875.494	4919
875.623	4946
875.751	4847
875.88	4923
876.008	4995
876.136	5075
876.265	5216
876.393	5376
876.521	5239
876.65	5265
876.778	5178
876.906	5060
877.034	5029
877.162	5056
877.29	5014
877.418	5060
877.546	5048
877.674	5086
877.802	5083
877.93	4991
878.058	4927
878.185	4870
878.313	4984
878.441	4980
878.568	4790
878.696	4866
878.824	4995
878.951	5025
879.079	5143
879.206	5337
879.333	5121
879.461	4949
879.588	5056
879.715	5201
879.842	5288
879.97	5045
880.097	4771
880.224	4797
880.351	4870
880.478	4774
880.605	4759
880.732	4862
880.859	5136
880.986	4908
881.112	4968
881.239	4843
881.366	4740
881.493	4626
881.619	4622
881.746	4634
881.872	4683
881.999	4641
882.125	4733
882.252	4828
882.378	4824
882.505	4961
882.631	4805
882.757	4653
882.883	4721
883.01	4744
883.136	4687
883.262	4550
883.388	4599
883.514	4774
883.64	4900
883.766	4847
883.892	4691
884.018	4672
884.143	4900
884.269	5014
884.395	4702
884.52	4580
884.646	4641
884.772	4637
884.897	4599
885.023	4668
885.148	4797
885.274	4904
885.399	4809
885.524	4710
885.65	4687
885.775	4717
885.9	4721
886.025	4862
886.15	4809
886.275	4736
886.4	4714
886.525	4687
886.65	4706
886.775	4717
886.9	4953
887.025	5033
887.149	4835
887.274	4714
887.399	4649
887.523	4634
887.648	4592
887.773	4615
887.897	4740
888.021	4763
888.146	4725
888.27	4866
888.395	4927
888.519	4828
888.643	4771
888.767	4873
888.891	4664
889.015	4615
889.139	4622
889.263	4637
889.387	4736
889.511	4873
889.635	4797
889.759	4668
889.883	4683
890.006	4752
890.13	4843
890.254	4645
890.377	4717
890.501	4558
890.624	4535
890.748	4637
890.871	4558
890.995	4447
891.118	4352
891.241	4508
891.364	4538
891.488	4691
891.611	4478
891.734	4577
891.857	4656
891.98	4588
892.103	4618
892.226	4592
892.349	4561
892.471	4428
892.594	4561
892.717	4580
892.839	4603
892.962	4618
893.085	4634
893.207	4592
893.33	4462
893.452	4538
893.575	4694
893.697	4569
893.819	4816
893.941	4801
894.064	4805
894.186	4622
894.308	4561
894.43	4744
894.552	4831
894.674	4755
894.796	4596
894.918	4607
895.04	4550
895.161	4714
895.283	4691
895.405	4603
895.526	4615
895.648	4714
895.769	4664
895.891	4694
896.012	4759
896.134	4725
896.255	4664
896.376	4725
896.498	4634
896.619	4694
896.74	4580
896.861	4675
896.982	4911
897.103	5098
897.224	4866
897.345	4752
897.466	4641
897.587	4729
897.708	4904
897.828	4812
897.949	4721
898.07	4546
898.19	4615
898.311	4824
898.431	4679
898.552	4767
898.672	4835
898.792	4786
898.913	4786
899.033	4660
899.153	4527
899.273	4447
899.393	4554
899.513	4531
899.633	4561
899.753	4569
899.873	4554
899.993	4611
900.113	4569
900.232	4618
900.352	4565
900.472	4497
900.591	4371
900.711	4500
900.83	4443
900.95	4622
901.069	4649
901.189	4535
901.308	4344
901.427	4306
901.546	4402
901.665	4481
901.784	4497
901.904	4424
902.023	4325
902.141	4223
902.26	4169
902.379	4299
902.498	4257
902.617	4196
902.735	4333
902.854	4424
902.973	4383
903.091	4230
903.21	4196
903.328	4291
903.446	4280
903.565	4268
903.683	4314
903.801	4310
903.919	4428
904.038	4390
904.156	4325
904.274	4417
904.392	4360
904.51	4421
904.627	4478
904.745	4569
904.863	4599
904.981	4409
905.098	4284
905.216	4413
905.334	4428
905.451	4481
905.569	4436
905.686	4538
905.803	4611
905.921	4432
906.038	4546
906.155	4508
906.272	4478
906.389	4497
906.506	4329
906.623	4424
906.74	4383
906.857	4337
906.974	4356
907.091	4535
907.208	4683
907.324	4611
907.441	4493
907.557	4363
907.674	4371
907.79	4348
907.907	4371
908.023	4493
908.139	4462
908.256	4459
908.372	4493
908.488	4459
908.604	4360
908.72	4356
908.836	4386
908.952	4402
909.068	4428
909.184	4542
909.3	4455
909.415	4611
909.531	4538
909.647	4375
909.762	4402
909.878	4306
909.993	4466
910.108	4409
910.224	4443
910.339	4527
910.454	4451
910.57	4402
910.685	4318
910.8	4649
910.915	4599
911.03	4462
911.145	4341
911.259	4371
911.374	4402
911.489	4295
911.604	4284
911.718	4162
911.833	4200
911.947	4074
912.062	4051
912.176	4261
912.291	4261
912.405	4291
912.519	4485
912.633	4535
912.748	4405
912.862	4291
912.976	4204
913.09	4093
913.204	4192
913.318	4219
913.431	4432
913.545	4356
913.659	4470
913.772	4405
913.886	4310
914	4284
914.113	4341
914.226	4421
914.34	4394
914.453	4257
914.566	4451
914.68	4379
914.793	4314
914.906	4158
915.019	4055
915.132	4116
915.245	4204
915.358	4204
915.47	4257
915.583	4325
915.696	4284
915.809	4402
915.921	4455
916.034	4284
916.146	4215
916.259	4257
916.371	4413
916.483	4363
916.595	4280
916.708	4291
916.82	4314
916.932	4322
917.044	4310
917.156	4303
917.268	4234
917.38	4325
917.491	4280
917.603	4356
917.715	4440
917.826	4424
917.938	4371
918.049	4249
918.161	4421
918.272	4535
918.384	4546
918.495	4474
918.606	4310
918.717	4242
918.828	4352
918.939	4424
919.05	4265
919.161	4314
919.272	4154
919.383	4211
919.494	4440
919.604	4637
919.715	4432
919.826	4344
919.936	4417
920.047	4550
920.157	4535
920.267	4736
920.378	4577
920.488	4531
920.598	4729
920.708	4889
920.818	4771
920.928	4809
921.038	4946
921.148	4949
921.258	4649
921.368	4596
921.477	4542
921.587	4421
921.697	4367
921.806	4588
921.916	4455
922.025	4253
922.134	4272
922.244	4272
922.353	4363
922.462	4196
922.571	4150
922.68	4032
922.789	3979
922.898	4063
923.007	3972
923.116	4139
923.224	4063
923.333	4097
923.442	3972
923.55	3968
923.659	4044
923.767	4112
923.876	3987
923.984	4150
924.092	4010
924.201	4071
924.309	4105
924.417	4177
924.525	4105
924.633	4135
924.741	4904
924.849	3903
924.956	4150
925.064	3972
925.172	3915
925.279	4013
925.387	4097
925.494	4048
925.602	4242
925.709	4257
925.816	4048
925.924	4101
926.031	4181
926.138	4177
926.245	4227
926.352	4177
926.459	4249
926.566	4287
926.673	4173
926.779	4109
926.886	4101
926.993	3941
927.099	3941
927.206	3983
927.312	3949
927.419	4040
927.525	4025
927.631	4097
927.737	3956
927.843	3956
927.95	3831
928.056	3983
928.162	4040
928.267	4086
928.373	4736
928.479	4154
928.585	3861
928.69	3987
928.796	4074
928.901	3937
929.007	3838
929.112	4006
929.218	4002
929.323	3987
929.428	3911
929.533	4143
929.638	3918
929.743	3991
929.848	4051
929.953	3987
930.058	3922
930.163	3823
930.267	3861
930.372	3979
930.477	3789
930.581	4067
930.685	3907
930.79	3857
930.894	3934
930.998	3861
931.103	4040
931.207	3766
931.311	3713
931.415	3675
931.519	3507
931.623	3507
