Data from test_V78500241_639.txt Node
Date: Fri Mar 25 16:53:26 CST 2022
User: usil
Spectrometer: V785-0024
Trigger mode: 0
Integration Time (sec): 4.000000E-1
Scans to average: 1
Nonlinearity correction enabled: false
Boxcar width: 0
Storing dark spectrum: false
XAxis mode: Wavelengths
Number of Pixels in Spectrum: 1024
>>>>>Begin Spectral Data<<<<<
801.071	8043
801.214	7978
801.356	7864
801.499	7879
801.641	7833
801.783	7826
801.926	8073
802.068	8020
802.211	7982
802.353	8069
802.496	7928
802.638	7993
802.78	7917
802.923	7917
803.065	7818
803.208	7856
803.35	8012
803.492	8058
803.635	8214
803.777	8058
803.919	8119
804.061	8381
804.204	8012
804.346	8027
804.488	7974
804.63	8107
804.773	8050
804.915	8130
805.057	8324
805.199	8218
805.341	8271
805.483	8332
805.626	8279
805.768	8088
805.91	8218
806.052	8153
806.194	8130
806.336	8256
806.478	8126
806.62	8130
806.762	8081
806.904	8237
807.046	8457
807.188	8355
807.33	8320
807.472	8358
807.614	8187
807.756	8183
807.898	8050
808.04	7814
808.182	7928
808.324	7883
808.465	7974
808.607	8065
808.749	8126
808.891	8172
809.033	8191
809.174	8199
809.316	8058
809.458	8046
809.6	8035
809.741	8008
809.883	8027
810.025	8069
810.166	8100
810.308	8039
810.45	8081
810.591	7940
810.733	7731
810.875	7704
811.016	7533
811.158	7480
811.299	7594
811.441	7795
811.582	7719
811.724	7601
811.865	7514
812.007	7605
812.148	7601
812.29	7655
812.431	7719
812.573	7803
812.714	7879
812.855	8153
812.997	8248
813.138	8381
813.279	8218
813.421	8142
813.562	8050
813.703	7967
813.845	7723
813.986	7499
814.127	7312
814.268	7270
814.41	7221
814.551	7175
814.692	7183
814.833	7061
814.974	7118
815.115	7099
815.256	6993
815.397	6951
815.539	6909
815.68	6905
815.821	6787
815.962	6913
816.103	6867
816.244	6719
816.385	6677
816.526	6700
816.666	6460
816.807	6285
816.948	6429
817.089	6498
817.23	6452
817.371	6384
817.512	6399
817.653	6388
817.793	6388
817.934	6388
818.075	6464
818.216	6414
818.356	6372
818.497	6292
818.638	6136
818.778	6228
818.919	6140
819.06	6121
819.2	6327
819.341	6319
819.481	6361
819.622	6467
819.762	6700
819.903	6692
820.043	6547
820.184	6479
820.324	6540
820.465	6616
820.605	6669
820.746	6662
820.886	6483
821.026	6631
821.167	6783
821.307	6722
821.447	6688
821.588	6658
821.728	6570
821.868	6445
822.008	6281
822.149	6372
822.289	6315
822.429	6136
822.569	6060
822.709	6110
822.849	5904
822.99	5878
823.13	5958
823.27	5942
823.41	5760
823.55	5779
823.69	5798
823.83	5756
823.97	5691
824.11	5554
824.25	5535
824.389	5535
824.529	5585
824.669	5543
824.809	5623
824.949	5668
825.089	5665
825.228	5558
825.368	5326
825.508	5330
825.648	5353
825.787	5383
825.927	5349
826.067	5288
826.206	5299
826.346	5387
826.485	5452
826.625	5455
826.765	5558
826.904	5463
827.044	5147
827.183	5212
827.323	5147
827.462	5235
827.601	5155
827.741	5155
827.88	5181
828.02	5102
828.159	5242
828.298	5246
828.437	5357
828.577	5307
828.716	5501
828.855	5277
828.994	5227
829.134	5212
829.273	5201
829.412	5155
829.551	5136
829.69	5151
829.829	5212
829.968	5349
830.107	5223
830.246	5284
830.385	5117
830.524	5113
830.663	5052
830.802	4980
830.941	4904
831.08	4881
831.219	5003
831.357	4968
831.496	5170
831.635	4938
831.774	4892
831.913	4870
832.051	4733
832.19	4755
832.329	4870
832.467	4702
832.606	4656
832.744	4736
832.883	4706
833.022	4744
833.16	4786
833.299	4797
833.437	4843
833.576	4847
833.714	4896
833.852	4839
833.991	4858
834.129	4949
834.267	4949
834.406	4930
834.544	4942
834.682	4999
834.821	4965
834.959	5212
835.097	5048
835.235	5136
835.373	5079
835.511	5102
835.65	5067
835.788	5029
835.926	4896
836.064	4877
836.202	4923
836.34	5162
836.478	5227
836.615	5140
836.753	5239
836.891	5261
837.029	5269
837.167	5174
837.305	5166
837.443	5128
837.58	5075
837.718	5242
837.856	5178
837.993	5128
838.131	5254
838.269	5201
838.406	5193
838.544	5197
838.681	4999
838.819	5025
838.956	4915
839.094	4896
839.231	4965
839.369	5105
839.506	5414
839.643	5246
839.781	5090
839.918	4995
840.055	5071
840.193	5132
840.33	5090
840.467	5140
840.604	5128
840.742	5395
840.879	5105
841.016	5098
841.153	5143
841.29	5383
841.427	5345
841.564	5326
841.701	5376
841.838	5292
841.975	5261
842.112	5273
842.249	5147
842.385	5136
842.522	5337
842.659	5170
842.796	5174
842.933	5220
843.069	5178
843.206	5212
843.343	5254
843.479	5235
843.616	5265
843.752	5079
843.889	4980
844.025	5223
844.162	5025
844.298	5193
844.435	5071
844.571	5071
844.708	5174
844.844	5261
844.98	5360
845.117	5311
845.253	5140
845.389	5105
845.525	5193
845.661	5162
845.798	5083
845.934	5124
846.07	5060
846.206	5197
846.342	5269
846.478	5212
846.614	5056
846.75	4957
846.886	4972
847.022	5151
847.158	4991
847.294	5041
847.429	5075
847.565	5060
847.701	5334
847.837	4892
847.972	4793
848.108	4953
848.244	4938
848.379	4801
848.515	4771
848.65	4733
848.786	4744
848.921	4763
849.057	4877
849.192	4908
849.328	4854
849.463	4824
849.598	4797
849.734	4805
849.869	4664
850.004	4622
850.14	4698
850.275	4611
850.41	4550
850.545	4580
850.68	4592
850.815	4637
850.95	4622
851.085	4839
851.22	4717
851.355	4675
851.49	4641
851.625	4664
851.76	4683
851.895	4573
852.03	4531
852.165	4683
852.299	4725
852.434	4797
852.569	4706
852.703	4729
852.838	4831
852.973	4862
853.107	4885
853.242	4725
853.376	4618
853.511	4546
853.645	4615
853.78	4839
853.914	4675
854.048	4675
854.183	4656
854.317	4694
854.451	4850
854.585	4672
854.72	4660
854.854	4744
854.988	4577
855.122	4607
855.256	4523
855.39	4675
855.524	4763
855.658	4687
855.792	4679
855.926	4744
856.06	4717
856.194	4790
856.327	4649
856.461	4611
856.595	4641
856.729	4664
856.862	4721
856.996	4660
857.13	4721
857.263	4748
857.397	4805
857.53	4683
857.664	4759
857.797	4790
857.931	4786
858.064	4714
858.197	4752
858.331	4668
858.464	4634
858.597	4512
858.731	4607
858.864	4649
858.997	4554
859.13	4660
859.263	4729
859.396	4683
859.529	4592
859.662	4554
859.795	4538
859.928	4603
860.061	4774
860.194	4767
860.327	4538
860.46	4569
860.592	4706
860.725	4729
860.858	4702
860.99	4641
861.123	4500
861.256	4512
861.388	4641
861.521	5372
861.653	4481
861.786	4436
861.918	4470
862.05	4485
862.183	4554
862.315	4637
862.447	4584
862.58	4550
862.712	4413
862.844	4341
862.976	4459
863.108	4424
863.24	4877
863.372	4341
863.504	4394
863.636	4405
863.768	4443
863.9	4424
864.032	4314
864.164	4432
864.296	4390
864.428	4519
864.559	4569
864.691	4527
864.823	4504
864.954	4459
865.086	4504
865.217	4443
865.349	4409
865.48	4440
865.612	4508
865.743	4603
865.875	4504
866.006	4447
866.137	4466
866.269	4459
866.4	4398
866.531	4424
866.662	4421
866.793	4379
866.924	4436
867.055	4523
867.186	4402
867.317	4383
867.448	4390
867.579	4402
867.71	4352
867.841	4371
867.972	4485
868.103	4485
868.233	4466
868.364	4440
868.495	4470
868.625	4664
868.756	4790
868.886	4588
869.017	4653
869.147	4767
869.278	4767
869.408	4656
869.539	4607
869.669	4717
869.799	4660
869.929	4691
870.06	4683
870.19	4934
870.32	4904
870.45	4900
870.58	4968
870.71	5079
870.84	5090
870.97	4980
871.1	4904
871.23	5166
871.36	5136
871.489	4984
871.619	5048
871.749	5064
871.879	5090
872.008	5140
872.138	5029
872.267	4961
872.397	4866
872.526	4752
872.656	4733
872.785	4801
872.915	4942
873.044	5045
873.173	4946
873.303	4938
873.432	4957
873.561	4991
873.69	4919
873.819	4812
873.948	4927
874.077	4824
874.206	4797
874.335	4824
874.464	4896
874.593	5090
874.722	5025
874.851	5075
874.979	5018
875.108	4995
875.237	4923
875.365	4866
875.494	4858
875.623	5003
875.751	4816
875.88	4839
876.008	4980
876.136	5048
876.265	5216
876.393	5315
876.521	5246
876.65	5280
876.778	5117
876.906	5060
877.034	5060
877.162	5029
877.29	4991
877.418	5071
877.546	5056
877.674	5056
877.802	5037
877.93	5041
878.058	4896
878.185	4858
878.313	4934
878.441	4904
878.568	4759
878.696	4923
878.824	4942
878.951	5022
879.079	5121
879.206	5284
879.333	5048
879.461	4984
879.588	4991
879.715	5117
879.842	5208
879.97	4991
880.097	4801
880.224	4721
880.351	4820
880.478	4850
880.605	4786
880.732	4805
880.859	5064
880.986	4877
881.112	4904
881.239	4790
881.366	4645
881.493	4603
881.619	4596
881.746	4672
881.872	4679
881.999	4668
882.125	4672
882.252	4809
882.378	4793
882.505	4934
882.631	4778
882.757	4622
882.883	4729
883.01	4710
883.136	4637
883.262	4630
883.388	4641
883.514	4828
883.64	4812
883.766	4809
883.892	4645
884.018	4687
884.143	4904
884.269	5056
884.395	4683
884.52	4626
884.646	4645
884.772	4565
884.897	4538
885.023	4645
885.148	4790
885.274	4828
885.399	4797
885.524	4683
885.65	4687
885.775	4752
885.9	4725
886.025	4828
886.15	4831
886.275	4763
886.4	4622
886.525	4736
886.65	4668
886.775	4710
886.9	4885
887.025	5010
887.149	4839
887.274	4679
887.399	4596
887.523	4630
887.648	4558
887.773	4580
887.897	4778
888.021	4736
888.146	4645
888.27	4801
888.395	4881
888.519	4820
888.643	4809
888.767	4774
888.891	4675
889.015	4569
889.139	4687
889.263	4618
889.387	4736
889.511	4820
889.635	4774
889.759	4596
889.883	4630
890.006	4725
890.13	4854
890.254	4592
890.377	4664
890.501	4512
890.624	4500
890.748	4615
890.871	4535
890.995	4447
891.118	4402
891.241	4546
891.364	4497
891.488	4675
891.611	4478
891.734	4493
891.857	4611
891.98	4588
892.103	4664
892.226	4649
892.349	4573
892.471	4402
892.594	4561
892.717	4626
892.839	4542
892.962	4550
893.085	4622
893.207	4611
893.33	4447
893.452	4523
893.575	4653
893.697	4649
893.819	4824
893.941	4820
894.064	4774
894.186	4558
894.308	4584
894.43	4752
894.552	4839
894.674	4771
894.796	4569
894.918	4630
895.04	4611
895.161	4691
895.283	4694
895.405	4599
895.526	4630
895.648	4698
895.769	4736
895.891	4687
896.012	4778
896.134	4691
896.255	4714
896.376	4641
896.498	4668
896.619	4729
896.74	4611
896.861	4641
896.982	4934
897.103	5067
897.224	4812
897.345	4721
897.466	4679
897.587	4767
897.708	4850
897.828	4790
897.949	4672
898.07	4554
898.19	4588
898.311	4839
898.431	4649
898.552	4752
898.672	4805
898.792	4767
898.913	4748
899.033	4611
899.153	4478
899.273	4451
899.393	4512
899.513	4538
899.633	4550
899.753	4527
899.873	4538
899.993	4580
900.113	4516
900.232	4584
900.352	4558
900.472	4485
900.591	4402
900.711	4478
900.83	4421
900.95	4622
901.069	4694
901.189	4550
901.308	4318
901.427	4299
901.546	4390
901.665	4443
901.784	4535
901.904	4409
902.023	4333
902.141	4230
902.26	4196
902.379	4322
902.498	4253
902.617	4219
902.735	4383
902.854	4386
902.973	4310
903.091	4230
903.21	4276
903.328	4318
903.446	4295
903.565	4215
903.683	4348
903.801	4284
903.919	4367
904.038	4424
904.156	4325
904.274	4417
904.392	4409
904.51	4443
904.627	4481
904.745	4565
904.863	4615
904.981	4375
905.098	4280
905.216	4325
905.334	4405
905.451	4436
905.569	4436
905.686	4584
905.803	4554
905.921	4390
906.038	4542
906.155	4459
906.272	4409
906.389	4432
906.506	4348
906.623	4375
906.74	4417
906.857	4303
906.974	4375
907.091	4607
907.208	4672
907.324	4596
907.441	4485
907.557	4306
907.674	4360
907.79	4337
907.907	4402
908.023	4519
908.139	4466
908.256	4398
908.372	4470
908.488	4455
908.604	4341
908.72	4344
908.836	4348
908.952	4383
909.068	4436
909.184	4523
909.3	4466
909.415	4569
909.531	4561
909.647	4352
909.762	4402
909.878	4348
909.993	4424
910.108	4424
910.224	4341
910.339	4516
910.454	4432
910.57	4306
910.685	4322
910.8	4611
910.915	4542
911.03	4466
911.145	4367
911.259	4337
911.374	4348
911.489	4284
911.604	4280
911.718	4204
911.833	4162
911.947	4067
912.062	4051
912.176	4223
912.291	4227
912.405	4211
912.519	4504
912.633	4500
912.748	4440
912.862	4291
912.976	4181
913.09	4143
913.204	4177
913.318	4284
913.431	4383
913.545	4356
913.659	4432
913.772	4352
913.886	4306
914	4253
914.113	4337
914.226	4375
914.34	4394
914.453	4196
914.566	4390
914.68	4306
914.793	4375
914.906	4169
915.019	4124
915.132	4059
915.245	4185
915.358	4215
915.47	4219
915.583	4253
915.696	4280
915.809	4405
915.921	4436
916.034	4257
916.146	4257
916.259	4219
916.371	4379
916.483	4356
916.595	4268
916.708	4310
916.82	4306
916.932	4341
917.044	4367
917.156	4295
917.268	4249
917.38	4272
917.491	4238
917.603	4337
917.715	4394
917.826	4485
917.938	4360
918.049	4265
918.161	4367
918.272	4519
918.384	4550
918.495	4504
918.606	4291
918.717	4268
918.828	4371
918.939	4322
919.05	4276
919.161	4383
919.272	4124
919.383	4249
919.494	4440
919.604	4656
919.715	4398
919.826	4329
919.936	4421
920.047	4542
920.157	4504
920.267	4694
920.378	4561
920.488	4512
920.598	4755
920.708	4885
920.818	4752
920.928	4782
921.038	4972
921.148	4949
921.258	4611
921.368	4588
921.477	4497
921.587	4436
921.697	4402
921.806	4504
921.916	4462
922.025	4257
922.134	4268
922.244	4192
922.353	4318
922.462	4147
922.571	4139
922.68	3987
922.789	3972
922.898	4029
923.007	4013
923.116	4097
923.224	4063
923.333	4074
923.442	3998
923.55	3953
923.659	4013
923.767	4109
923.876	4017
923.984	4135
924.092	4021
924.201	4078
924.309	4120
924.417	4173
924.525	4051
924.633	4071
924.741	5045
924.849	3869
924.956	4078
925.064	3968
925.172	3903
925.279	3991
925.387	4010
925.494	4002
925.602	4238
925.709	4200
925.816	4059
925.924	4090
926.031	4219
926.138	4166
926.245	4200
926.352	4074
926.459	4265
926.566	4284
926.673	4124
926.779	4105
926.886	4090
926.993	3945
927.099	4021
927.206	3949
927.312	3949
927.419	4040
927.525	4010
927.631	4059
927.737	3994
927.843	3918
927.95	3842
928.056	4006
928.162	3998
928.267	4055
928.373	4683
928.479	4120
928.585	3915
928.69	4010
928.796	4051
928.901	3979
929.007	3823
929.112	4021
929.218	3956
929.323	3953
929.428	3915
929.533	4074
929.638	3899
929.743	3964
929.848	4017
929.953	3979
930.058	3922
930.163	3785
930.267	3850
930.372	3972
930.477	3846
930.581	4093
930.685	3956
930.79	3838
930.894	3876
930.998	3873
931.103	4055
931.207	3694
931.311	3679
931.415	3679
931.519	3519
931.623	3534
