Data from test_V78500241_1408.txt Node
Date: Fri Mar 25 16:58:47 CST 2022
User: usil
Spectrometer: V785-0024
Trigger mode: 0
Integration Time (sec): 4.000000E-1
Scans to average: 1
Nonlinearity correction enabled: false
Boxcar width: 0
Storing dark spectrum: false
XAxis mode: Wavelengths
Number of Pixels in Spectrum: 1024
>>>>>Begin Spectral Data<<<<<
801.071	8043
801.214	8031
801.356	7860
801.499	7864
801.641	7837
801.783	7795
801.926	8005
802.068	7951
802.211	8005
802.353	8008
802.496	7860
802.638	7845
802.78	7993
802.923	7955
803.065	7868
803.208	7913
803.35	8001
803.492	8058
803.635	8161
803.777	8073
803.919	8126
804.061	8457
804.204	8107
804.346	8077
804.488	8001
804.63	8039
804.773	8062
804.915	8134
805.057	8252
805.199	8206
805.341	8157
805.483	8267
805.626	8157
805.768	8115
805.91	8195
806.052	8271
806.194	8103
806.336	8221
806.478	8084
806.62	8088
806.762	8153
806.904	8309
807.046	8473
807.188	8351
807.33	8294
807.472	8237
807.614	8202
807.756	8153
807.898	8020
808.04	7925
808.182	7970
808.324	7868
808.465	7864
808.607	8168
808.749	8126
808.891	8221
809.033	8336
809.174	8259
809.316	8027
809.458	8031
809.6	7932
809.741	7982
809.883	8031
810.025	8119
810.166	8081
810.308	7974
810.45	8001
810.591	7856
810.733	7792
810.875	7696
811.016	7544
811.158	7548
811.299	7571
811.441	7750
811.582	7655
811.724	7632
811.865	7525
812.007	7540
812.148	7578
812.29	7643
812.431	7738
812.573	7921
812.714	7970
812.855	8054
812.997	8164
813.138	8377
813.279	8199
813.421	8115
813.562	7989
813.703	7875
813.845	7696
813.986	7468
814.127	7282
814.268	7255
814.41	7244
814.551	7198
814.692	7232
814.833	7110
814.974	7065
815.115	7080
815.256	7015
815.397	6932
815.539	6916
815.68	6840
815.821	6791
815.962	6859
816.103	6878
816.244	6753
816.385	6627
816.526	6585
816.666	6513
816.807	6319
816.948	6441
817.089	6494
817.23	6414
817.371	6433
817.512	6323
817.653	6365
817.793	6403
817.934	6407
818.075	6479
818.216	6410
818.356	6410
818.497	6258
818.638	6091
818.778	6121
818.919	6167
819.06	6216
819.2	6319
819.341	6308
819.481	6380
819.622	6570
819.762	6707
819.903	6677
820.043	6559
820.184	6551
820.324	6593
820.465	6722
820.605	6669
820.746	6658
820.886	6536
821.026	6646
821.167	6715
821.307	6772
821.447	6783
821.588	6662
821.728	6528
821.868	6467
822.008	6319
822.149	6388
822.289	6384
822.429	6178
822.569	6125
822.709	6041
822.849	5920
822.99	5870
823.13	5893
823.27	5904
823.41	5779
823.55	5748
823.69	5805
823.83	5733
823.97	5627
824.11	5497
824.25	5535
824.389	5558
824.529	5630
824.669	5528
824.809	5615
824.949	5630
825.089	5608
825.228	5566
825.368	5379
825.508	5299
825.648	5315
825.787	5387
825.927	5345
826.067	5326
826.206	5330
826.346	5387
826.485	5429
826.625	5444
826.765	5562
826.904	5440
827.044	5288
827.183	5204
827.323	5098
827.462	5235
827.601	5124
827.741	5201
827.88	5193
828.02	5124
828.159	5242
828.298	5231
828.437	5368
828.577	5246
828.716	5482
828.855	5296
828.994	5181
829.134	5155
829.273	5147
829.412	5124
829.551	5140
829.69	5181
829.829	5212
829.968	5357
830.107	5273
830.246	5292
830.385	5136
830.524	5117
830.663	5083
830.802	4930
830.941	4900
831.08	4881
831.219	4961
831.357	4999
831.496	5128
831.635	4938
831.774	4839
831.913	4877
832.051	4702
832.19	4675
832.329	4889
832.467	4679
832.606	4679
832.744	4733
832.883	4706
833.022	4672
833.16	4774
833.299	4858
833.437	4801
833.576	4820
833.714	4889
833.852	4889
833.991	4919
834.129	4904
834.267	4953
834.406	4908
834.544	4949
834.682	4980
834.821	4953
834.959	5147
835.097	4961
835.235	5136
835.373	5064
835.511	5105
835.65	5056
835.788	5022
835.926	4877
836.064	4831
836.202	4915
836.34	5143
836.478	5231
836.615	5151
836.753	5181
836.891	5284
837.029	5193
837.167	5201
837.305	5201
837.443	5159
837.58	5037
837.718	5280
837.856	5208
837.993	5162
838.131	5216
838.269	5181
838.406	5193
838.544	5170
838.681	5033
838.819	4999
838.956	4892
839.094	4911
839.231	4987
839.369	5075
839.506	5425
839.643	5239
839.781	5003
839.918	4999
840.055	5052
840.193	5094
840.33	5136
840.467	5178
840.604	5181
840.742	5459
840.879	5109
841.016	5079
841.153	5132
841.29	5379
841.427	5341
841.564	5345
841.701	5311
841.838	5277
841.975	5235
842.112	5284
842.249	5094
842.385	5060
842.522	5311
842.659	5185
842.796	5155
842.933	5143
843.069	5102
843.206	5136
843.343	5284
843.479	5231
843.616	5273
843.752	5014
843.889	4999
844.025	5242
844.162	5018
844.298	5197
844.435	5090
844.571	5064
844.708	5140
844.844	5337
844.98	5337
845.117	5220
845.253	5109
845.389	5056
845.525	5140
845.661	5086
845.798	5022
845.934	5094
846.07	5018
846.206	5174
846.342	5220
846.478	5151
846.614	5037
846.75	4972
846.886	4885
847.022	5124
847.158	4934
847.294	5083
847.429	5117
847.565	5029
847.701	5387
847.837	4866
847.972	4797
848.108	4938
848.244	4904
848.379	4755
848.515	4691
848.65	4710
848.786	4748
848.921	4812
849.057	4843
849.192	4892
849.328	4843
849.463	4793
849.598	4790
849.734	4767
849.869	4675
850.004	4630
850.14	4645
850.275	4668
850.41	4550
850.545	4592
850.68	4630
850.815	4611
850.95	4607
851.085	4801
851.22	4725
851.355	4660
851.49	4653
851.625	4641
851.76	4626
851.895	4538
852.03	4565
852.165	4641
852.299	4748
852.434	4812
852.569	4736
852.703	4755
852.838	4812
852.973	4949
853.107	4915
853.242	4736
853.376	4653
853.511	4531
853.645	4649
853.78	4763
853.914	4653
854.048	4653
854.183	4615
854.317	4664
854.451	4877
854.585	4641
854.72	4630
854.854	4721
854.988	4603
855.122	4675
855.256	4546
855.39	4645
855.524	4771
855.658	4672
855.792	4675
855.926	4767
856.06	4725
856.194	4778
856.327	4668
856.461	4580
856.595	4618
856.729	4599
856.862	4755
856.996	4645
857.13	4679
857.263	4710
857.397	4752
857.53	4660
857.664	4694
857.797	4790
857.931	4793
858.064	4691
858.197	4702
858.331	4618
858.464	4611
858.597	4523
858.731	4615
858.864	4649
858.997	4573
859.13	4611
859.263	4664
859.396	4675
859.529	4569
859.662	4508
859.795	4519
859.928	4580
860.061	4752
860.194	4763
860.327	4580
860.46	4546
860.592	4736
860.725	4683
860.858	4675
860.99	4527
861.123	4462
861.256	4504
861.388	4607
861.521	5360
861.653	4459
861.786	4432
861.918	4474
862.05	4500
862.183	4512
862.315	4592
862.447	4637
862.58	4523
862.712	4383
862.844	4310
862.976	4424
863.108	4459
863.24	4866
863.372	4337
863.504	4405
863.636	4421
863.768	4447
863.9	4421
864.032	4390
864.164	4440
864.296	4459
864.428	4527
864.559	4546
864.691	4565
864.823	4550
864.954	4504
865.086	4504
865.217	4398
865.349	4383
865.48	4489
865.612	4462
865.743	4649
865.875	4478
866.006	4386
866.137	4455
866.269	4421
866.4	4432
866.531	4402
866.662	4424
866.793	4352
866.924	4421
867.055	4440
867.186	4428
867.317	4409
867.448	4360
867.579	4428
867.71	4402
867.841	4363
867.972	4402
868.103	4462
868.233	4447
868.364	4432
868.495	4451
868.625	4626
868.756	4778
868.886	4550
869.017	4577
869.147	4755
869.278	4752
869.408	4622
869.539	4634
869.669	4691
869.799	4683
869.929	4752
870.06	4809
870.19	4976
870.32	4862
870.45	4923
870.58	5014
870.71	5090
870.84	5041
870.97	4900
871.1	4904
871.23	5140
871.36	5155
871.489	5003
871.619	5102
871.749	5037
871.879	5094
872.008	5220
872.138	5033
872.267	4987
872.397	4809
872.526	4805
872.656	4656
872.785	4759
872.915	4911
873.044	5041
873.173	4938
873.303	4908
873.432	4965
873.561	4953
873.69	4870
873.819	4843
873.948	4911
874.077	4782
874.206	4782
874.335	4759
874.464	4908
874.593	5090
874.722	4930
874.851	5113
874.979	4995
875.108	5022
875.237	4911
875.365	4877
875.494	4870
875.623	4915
875.751	4873
875.88	4873
876.008	4980
876.136	4987
876.265	5121
876.393	5292
876.521	5254
876.65	5242
876.778	5124
876.906	5064
877.034	5010
877.162	5045
877.29	4999
877.418	5025
877.546	5045
877.674	5014
877.802	5010
877.93	4984
878.058	4972
878.185	4881
878.313	4984
878.441	4938
878.568	4759
878.696	4881
878.824	4892
878.951	4987
879.079	5113
879.206	5258
879.333	5090
879.461	4942
879.588	5010
879.715	5105
879.842	5220
879.97	5048
880.097	4790
880.224	4744
880.351	4793
880.478	4782
880.605	4812
880.732	4755
880.859	5041
880.986	4892
881.112	4923
881.239	4820
881.366	4641
881.493	4588
881.619	4599
881.746	4596
881.872	4645
881.999	4641
882.125	4679
882.252	4759
882.378	4824
882.505	4919
882.631	4797
882.757	4687
882.883	4691
883.01	4706
883.136	4626
883.262	4615
883.388	4554
883.514	4850
883.64	4854
883.766	4790
883.892	4660
884.018	4687
884.143	4904
884.269	4968
884.395	4706
884.52	4622
884.646	4672
884.772	4580
884.897	4554
885.023	4664
885.148	4748
885.274	4866
885.399	4801
885.524	4679
885.65	4706
885.775	4740
885.9	4679
886.025	4828
886.15	4771
886.275	4656
886.4	4672
886.525	4729
886.65	4626
886.775	4679
886.9	4866
887.025	4999
887.149	4771
887.274	4603
887.399	4554
887.523	4531
887.648	4542
887.773	4611
887.897	4736
888.021	4790
888.146	4679
888.27	4816
888.395	4896
888.519	4782
888.643	4793
888.767	4839
888.891	4702
889.015	4565
889.139	4626
889.263	4588
889.387	4755
889.511	4843
889.635	4759
889.759	4660
889.883	4645
890.006	4771
890.13	4778
890.254	4607
890.377	4694
890.501	4500
890.624	4516
890.748	4634
890.871	4447
890.995	4443
891.118	4402
891.241	4516
891.364	4504
891.488	4637
891.611	4500
891.734	4535
891.857	4573
891.98	4554
892.103	4611
892.226	4592
892.349	4493
892.471	4371
892.594	4558
892.717	4599
892.839	4550
892.962	4577
893.085	4599
893.207	4577
893.33	4413
893.452	4519
893.575	4649
893.697	4565
893.819	4793
893.941	4801
894.064	4763
894.186	4599
894.308	4500
894.43	4729
894.552	4809
894.674	4755
894.796	4554
894.918	4569
895.04	4531
895.161	4710
895.283	4645
895.405	4558
895.526	4603
895.648	4672
895.769	4668
895.891	4694
896.012	4656
896.134	4717
896.255	4679
896.376	4607
896.498	4565
896.619	4672
896.74	4573
896.861	4641
896.982	4930
897.103	5056
897.224	4847
897.345	4710
897.466	4641
897.587	4675
897.708	4885
897.828	4805
897.949	4637
898.07	4569
898.19	4596
898.311	4809
898.431	4691
898.552	4675
898.672	4786
898.792	4759
898.913	4774
899.033	4584
899.153	4500
899.273	4413
899.393	4455
899.513	4538
899.633	4554
899.753	4542
899.873	4535
899.993	4607
900.113	4531
900.232	4558
900.352	4516
900.472	4542
900.591	4394
900.711	4523
900.83	4383
900.95	4573
901.069	4645
901.189	4565
901.308	4379
901.427	4344
901.546	4371
901.665	4508
901.784	4478
901.904	4436
902.023	4310
902.141	4169
902.26	4188
902.379	4268
902.498	4230
902.617	4207
902.735	4344
902.854	4379
902.973	4348
903.091	4234
903.21	4238
903.328	4265
903.446	4242
903.565	4238
903.683	4421
903.801	4219
903.919	4371
904.038	4390
904.156	4303
904.274	4394
904.392	4371
904.51	4383
904.627	4485
904.745	4527
904.863	4603
904.981	4398
905.098	4257
905.216	4428
905.334	4371
905.451	4424
905.569	4424
905.686	4516
905.803	4554
905.921	4409
906.038	4531
906.155	4443
906.272	4333
906.389	4436
906.506	4344
906.623	4333
906.74	4352
906.857	4329
906.974	4363
907.091	4531
907.208	4675
907.324	4516
907.441	4516
907.557	4348
907.674	4356
907.79	4322
907.907	4390
908.023	4436
908.139	4466
908.256	4386
908.372	4428
908.488	4504
908.604	4280
908.72	4261
908.836	4421
908.952	4379
909.068	4371
909.184	4573
909.3	4432
909.415	4542
909.531	4523
909.647	4352
909.762	4348
909.878	4280
909.993	4402
910.108	4409
910.224	4386
910.339	4436
910.454	4337
910.57	4371
910.685	4295
910.8	4599
910.915	4611
911.03	4489
911.145	4284
911.259	4329
911.374	4398
911.489	4314
911.604	4257
911.718	4162
911.833	4177
911.947	4090
912.062	3983
912.176	4219
912.291	4230
912.405	4265
912.519	4428
912.633	4474
912.748	4375
912.862	4348
912.976	4166
913.09	4093
913.204	4192
913.318	4265
913.431	4333
913.545	4398
913.659	4432
913.772	4375
913.886	4257
914	4204
914.113	4348
914.226	4455
914.34	4363
914.453	4219
914.566	4451
914.68	4299
914.793	4257
914.906	4135
915.019	4112
915.132	4090
915.245	4139
915.358	4200
915.47	4242
915.583	4230
915.696	4306
915.809	4394
915.921	4447
916.034	4215
916.146	4230
916.259	4238
916.371	4383
916.483	4421
916.595	4265
916.708	4325
916.82	4310
916.932	4352
917.044	4348
917.156	4367
917.268	4272
917.38	4303
917.491	4337
917.603	4337
917.715	4443
917.826	4497
917.938	4371
918.049	4287
918.161	4421
918.272	4584
918.384	4565
918.495	4489
918.606	4379
918.717	4249
918.828	4375
918.939	4413
919.05	4238
919.161	4341
919.272	4181
919.383	4246
919.494	4455
919.604	4649
919.715	4413
919.826	4405
919.936	4447
920.047	4550
920.157	4535
920.267	4748
920.378	4596
920.488	4569
920.598	4759
920.708	4908
920.818	4782
920.928	4790
921.038	4984
921.148	4972
921.258	4626
921.368	4542
921.477	4550
921.587	4478
921.697	4402
921.806	4554
921.916	4485
922.025	4314
922.134	4318
922.244	4265
922.353	4383
922.462	4181
922.571	4166
922.68	4040
922.789	3983
922.898	4071
923.007	4013
923.116	4143
923.224	4120
923.333	4116
923.442	4017
923.55	4032
923.659	4044
923.767	4147
923.876	4025
923.984	4169
924.092	4051
924.201	4090
924.309	4112
924.417	4158
924.525	4124
924.633	4143
924.741	5022
924.849	3956
924.956	4147
925.064	3968
925.172	3922
925.279	3994
925.387	4101
925.494	4051
925.602	4234
925.709	4227
925.816	4082
925.924	4169
926.031	4257
926.138	4188
926.245	4257
926.352	4086
926.459	4299
926.566	4322
926.673	4207
926.779	4128
926.886	4139
926.993	4032
927.099	3975
927.206	3979
927.312	3953
927.419	4044
927.525	4067
927.631	4074
927.737	3968
927.843	3968
927.95	3918
928.056	3953
928.162	4029
928.267	4071
928.373	4694
928.479	4124
928.585	3915
928.69	4105
928.796	4086
928.901	4006
929.007	3865
929.112	4074
929.218	3994
929.323	3972
929.428	3922
929.533	4097
929.638	3937
929.743	3953
929.848	4051
929.953	4036
930.058	3945
930.163	3816
930.267	3808
930.372	3983
930.477	3846
930.581	4120
930.685	3987
930.79	3819
930.894	3876
930.998	3896
931.103	4055
931.207	3713
931.311	3732
931.415	3675
931.519	3542
931.623	3610
