Data from test_V78500241_1142.txt Node
Date: Fri Mar 25 16:56:56 CST 2022
User: usil
Spectrometer: V785-0024
Trigger mode: 0
Integration Time (sec): 4.000000E-1
Scans to average: 1
Nonlinearity correction enabled: false
Boxcar width: 0
Storing dark spectrum: false
XAxis mode: Wavelengths
Number of Pixels in Spectrum: 1024
>>>>>Begin Spectral Data<<<<<
801.071	8073
801.214	8024
801.356	7864
801.499	7856
801.641	7727
801.783	7792
801.926	7967
802.068	7928
802.211	7947
802.353	7940
802.496	7818
802.638	7860
802.78	7936
802.923	7928
803.065	7849
803.208	7822
803.35	7955
803.492	8046
803.635	8210
803.777	8031
803.919	8138
804.061	8396
804.204	8111
804.346	8005
804.488	7868
804.63	8107
804.773	7970
804.915	8115
805.057	8275
805.199	8225
805.341	8130
805.483	8332
805.626	8218
805.768	8130
805.91	8199
806.052	8183
806.194	8103
806.336	8210
806.478	8123
806.62	7997
806.762	8096
806.904	8240
807.046	8419
807.188	8339
807.33	8202
807.472	8355
807.614	8172
807.756	8176
807.898	7932
808.04	7898
808.182	7883
808.324	7883
808.465	7894
808.607	8058
808.749	8130
808.891	8176
809.033	8271
809.174	8221
809.316	8024
809.458	7970
809.6	7982
809.741	8050
809.883	7951
810.025	8069
810.166	8069
810.308	7993
810.45	7986
810.591	7845
810.733	7693
810.875	7590
811.016	7540
811.158	7529
811.299	7567
811.441	7689
811.582	7700
811.724	7605
811.865	7422
812.007	7533
812.148	7594
812.29	7586
812.431	7795
812.573	7845
812.714	7928
812.855	8084
812.997	8176
813.138	8305
813.279	8096
813.421	8012
813.562	7902
813.703	7856
813.845	7788
813.986	7445
814.127	7206
814.268	7221
814.41	7202
814.551	7126
814.692	7202
814.833	7046
814.974	6989
815.115	7122
815.256	6920
815.397	6928
815.539	6939
815.68	6837
815.821	6745
815.962	6867
816.103	6818
816.244	6776
816.385	6627
816.526	6635
816.666	6483
816.807	6273
816.948	6384
817.089	6448
817.23	6460
817.371	6399
817.512	6350
817.653	6376
817.793	6388
817.934	6445
818.075	6460
818.216	6471
818.356	6338
818.497	6285
818.638	6098
818.778	6175
818.919	6144
819.06	6186
819.2	6346
819.341	6346
819.481	6353
819.622	6460
819.762	6711
819.903	6669
820.043	6604
820.184	6525
820.324	6532
820.465	6677
820.605	6658
820.746	6639
820.886	6471
821.026	6646
821.167	6745
821.307	6760
821.447	6768
821.588	6696
821.728	6639
821.868	6433
822.008	6285
822.149	6388
822.289	6361
822.429	6125
822.569	6049
822.709	6133
822.849	5920
822.99	5897
823.13	5889
823.27	5889
823.41	5733
823.55	5794
823.69	5813
823.83	5798
823.97	5661
824.11	5539
824.25	5490
824.389	5554
824.529	5532
824.669	5497
824.809	5623
824.949	5615
825.089	5657
825.228	5516
825.368	5395
825.508	5311
825.648	5353
825.787	5360
825.927	5307
826.067	5250
826.206	5318
826.346	5387
826.485	5372
826.625	5383
826.765	5573
826.904	5455
827.044	5250
827.183	5151
827.323	5124
827.462	5189
827.601	5166
827.741	5185
827.88	5269
828.02	5147
828.159	5250
828.298	5227
828.437	5311
828.577	5239
828.716	5440
828.855	5296
828.994	5162
829.134	5143
829.273	5155
829.412	5124
829.551	5113
829.69	5151
829.829	5223
829.968	5349
830.107	5258
830.246	5239
830.385	5147
830.524	5151
830.663	5022
830.802	4957
830.941	4850
831.08	4870
831.219	4980
831.357	4957
831.496	5132
831.635	4892
831.774	4866
831.913	4866
832.051	4691
832.19	4729
832.329	4835
832.467	4675
832.606	4592
832.744	4733
832.883	4706
833.022	4679
833.16	4759
833.299	4771
833.437	4809
833.576	4824
833.714	4839
833.852	4847
833.991	4862
834.129	4915
834.267	4949
834.406	4915
834.544	4908
834.682	4991
834.821	4991
834.959	5136
835.097	4991
835.235	5136
835.373	5079
835.511	5075
835.65	4968
835.788	5010
835.926	4927
836.064	4889
836.202	4873
836.34	5178
836.478	5223
836.615	5045
836.753	5197
836.891	5269
837.029	5246
837.167	5208
837.305	5155
837.443	5132
837.58	5075
837.718	5227
837.856	5166
837.993	5094
838.131	5204
838.269	5189
838.406	5204
838.544	5197
838.681	5037
838.819	5003
838.956	4870
839.094	4877
839.231	4965
839.369	5045
839.506	5353
839.643	5273
839.781	4991
839.918	5010
840.055	5113
840.193	5048
840.33	5083
840.467	5071
840.604	5159
840.742	5436
840.879	5079
841.016	5079
841.153	5162
841.29	5379
841.427	5326
841.564	5269
841.701	5315
841.838	5220
841.975	5250
842.112	5280
842.249	5083
842.385	5094
842.522	5349
842.659	5174
842.796	5185
842.933	5136
843.069	5121
843.206	5140
843.343	5201
843.479	5239
843.616	5277
843.752	5067
843.889	5064
844.025	5220
844.162	4976
844.298	5181
844.435	5029
844.571	5079
844.708	5147
844.844	5277
844.98	5311
845.117	5250
845.253	5132
845.389	4991
845.525	5155
845.661	5151
845.798	4972
845.934	5075
846.07	5014
846.206	5193
846.342	5288
846.478	5223
846.614	5003
846.75	4953
846.886	4934
847.022	5079
847.158	5022
847.294	5048
847.429	5060
847.565	5048
847.701	5277
847.837	4904
847.972	4797
848.108	4934
848.244	4900
848.379	4767
848.515	4717
848.65	4694
848.786	4694
848.921	4740
849.057	4908
849.192	4934
849.328	4774
849.463	4866
849.598	4786
849.734	4778
849.869	4683
850.004	4611
850.14	4687
850.275	4580
850.41	4527
850.545	4527
850.68	4584
850.815	4599
850.95	4611
851.085	4843
851.22	4694
851.355	4618
851.49	4577
851.625	4596
851.76	4584
851.895	4569
852.03	4497
852.165	4626
852.299	4660
852.434	4771
852.569	4736
852.703	4733
852.838	4835
852.973	4904
853.107	4889
853.242	4721
853.376	4679
853.511	4561
853.645	4634
853.78	4793
853.914	4679
854.048	4679
854.183	4622
854.317	4653
854.451	4774
854.585	4634
854.72	4611
854.854	4717
854.988	4599
855.122	4656
855.256	4500
855.39	4626
855.524	4763
855.658	4694
855.792	4649
855.926	4691
856.06	4736
856.194	4782
856.327	4660
856.461	4592
856.595	4596
856.729	4611
856.862	4752
856.996	4691
857.13	4687
857.263	4733
857.397	4812
857.53	4649
857.664	4714
857.797	4812
857.931	4759
858.064	4649
858.197	4729
858.331	4668
858.464	4622
858.597	4504
858.731	4615
858.864	4626
858.997	4603
859.13	4607
859.263	4675
859.396	4710
859.529	4538
859.662	4611
859.795	4527
859.928	4622
860.061	4752
860.194	4805
860.327	4565
860.46	4588
860.592	4698
860.725	4748
860.858	4687
860.99	4554
861.123	4497
861.256	4523
861.388	4561
861.521	5174
861.653	4497
861.786	4451
861.918	4424
862.05	4584
862.183	4542
862.315	4611
862.447	4599
862.58	4596
862.712	4428
862.844	4356
862.976	4451
863.108	4417
863.24	4824
863.372	4329
863.504	4428
863.636	4367
863.768	4474
863.9	4424
864.032	4303
864.164	4405
864.296	4447
864.428	4561
864.559	4558
864.691	4459
864.823	4504
864.954	4466
865.086	4470
865.217	4455
865.349	4432
865.48	4455
865.612	4485
865.743	4630
865.875	4402
866.006	4402
866.137	4451
866.269	4443
866.4	4417
866.531	4417
866.662	4421
866.793	4386
866.924	4405
867.055	4409
867.186	4443
867.317	4424
867.448	4341
867.579	4413
867.71	4421
867.841	4333
867.972	4421
868.103	4497
868.233	4478
868.364	4424
868.495	4485
868.625	4660
868.756	4748
868.886	4592
869.017	4599
869.147	4797
869.278	4744
869.408	4611
869.539	4611
869.669	4721
869.799	4607
869.929	4744
870.06	4698
870.19	4949
870.32	4904
870.45	4915
870.58	5033
870.71	5105
870.84	5064
870.97	4919
871.1	4911
871.23	5143
871.36	5090
871.489	5006
871.619	5067
871.749	5102
871.879	5048
872.008	5155
872.138	5056
872.267	4976
872.397	4816
872.526	4763
872.656	4668
872.785	4774
872.915	4965
873.044	5045
873.173	4923
873.303	4900
873.432	4946
873.561	4949
873.69	4900
873.819	4816
873.948	4873
874.077	4793
874.206	4759
874.335	4774
874.464	4881
874.593	5064
874.722	4934
874.851	5083
874.979	5025
875.108	5045
875.237	4889
875.365	4850
875.494	4870
875.623	4927
875.751	4923
875.88	4889
876.008	4968
876.136	5022
876.265	5147
876.393	5360
876.521	5235
876.65	5208
876.778	5098
876.906	4995
877.034	4953
877.162	5018
877.29	4953
877.418	5064
877.546	5010
877.674	5056
877.802	5052
877.93	4991
878.058	4911
878.185	4831
878.313	4961
878.441	4976
878.568	4786
878.696	4831
878.824	4961
878.951	5006
879.079	5124
879.206	5311
879.333	5075
879.461	4946
879.588	4999
879.715	5086
879.842	5223
879.97	4938
880.097	4706
880.224	4698
880.351	4782
880.478	4812
880.605	4774
880.732	4805
880.859	5018
880.986	4915
881.112	4904
881.239	4733
881.366	4649
881.493	4615
881.619	4580
881.746	4626
881.872	4611
881.999	4599
882.125	4592
882.252	4809
882.378	4809
882.505	4915
882.631	4809
882.757	4691
882.883	4744
883.01	4736
883.136	4649
883.262	4630
883.388	4577
883.514	4782
883.64	4877
883.766	4733
883.892	4710
884.018	4687
884.143	4881
884.269	5022
884.395	4653
884.52	4603
884.646	4626
884.772	4538
884.897	4588
885.023	4630
885.148	4729
885.274	4831
885.399	4782
885.524	4683
885.65	4710
885.775	4782
885.9	4683
886.025	4847
886.15	4778
886.275	4717
886.4	4626
886.525	4736
886.65	4653
886.775	4668
886.9	4858
887.025	5064
887.149	4801
887.274	4592
887.399	4546
887.523	4573
887.648	4584
887.773	4599
887.897	4786
888.021	4820
888.146	4637
888.27	4774
888.395	4896
888.519	4782
888.643	4824
888.767	4828
888.891	4653
889.015	4573
889.139	4611
889.263	4592
889.387	4729
889.511	4858
889.635	4763
889.759	4660
889.883	4641
890.006	4717
890.13	4873
890.254	4603
890.377	4668
890.501	4527
890.624	4508
890.748	4611
890.871	4489
890.995	4443
891.118	4398
891.241	4478
891.364	4527
891.488	4653
891.611	4466
891.734	4516
891.857	4618
891.98	4546
892.103	4664
892.226	4558
892.349	4478
892.471	4428
892.594	4527
892.717	4546
892.839	4561
892.962	4611
893.085	4653
893.207	4584
893.33	4447
893.452	4516
893.575	4683
893.697	4558
893.819	4763
893.941	4824
894.064	4740
894.186	4580
894.308	4561
894.43	4706
894.552	4809
894.674	4744
894.796	4538
894.918	4546
895.04	4470
895.161	4668
895.283	4721
895.405	4577
895.526	4622
895.648	4679
895.769	4698
895.891	4687
896.012	4740
896.134	4744
896.255	4649
896.376	4603
896.498	4588
896.619	4698
896.74	4565
896.861	4653
896.982	4953
897.103	5064
897.224	4824
897.345	4740
897.466	4672
897.587	4755
897.708	4797
897.828	4721
897.949	4675
898.07	4569
898.19	4687
898.311	4854
898.431	4672
898.552	4710
898.672	4786
898.792	4797
898.913	4733
899.033	4550
899.153	4523
899.273	4398
899.393	4512
899.513	4512
899.633	4516
899.753	4535
899.873	4459
899.993	4538
900.113	4489
900.232	4618
900.352	4523
900.472	4504
900.591	4405
900.711	4451
900.83	4455
900.95	4573
901.069	4668
901.189	4542
901.308	4333
901.427	4291
901.546	4348
901.665	4459
901.784	4478
901.904	4348
902.023	4287
902.141	4200
902.26	4173
902.379	4242
902.498	4242
902.617	4185
902.735	4352
902.854	4363
902.973	4325
903.091	4196
903.21	4246
903.328	4314
903.446	4272
903.565	4272
903.683	4383
903.801	4276
903.919	4337
904.038	4428
904.156	4306
904.274	4443
904.392	4428
904.51	4424
904.627	4462
904.745	4538
904.863	4637
904.981	4394
905.098	4223
905.216	4390
905.334	4440
905.451	4417
905.569	4421
905.686	4565
905.803	4615
905.921	4390
906.038	4542
906.155	4474
906.272	4424
906.389	4405
906.506	4314
906.623	4341
906.74	4352
906.857	4310
906.974	4371
907.091	4573
907.208	4675
907.324	4538
907.441	4508
907.557	4306
907.674	4314
907.79	4325
907.907	4371
908.023	4531
908.139	4451
908.256	4432
908.372	4424
908.488	4440
908.604	4303
908.72	4329
908.836	4356
908.952	4371
909.068	4371
909.184	4584
909.3	4443
909.415	4592
909.531	4512
909.647	4318
909.762	4325
909.878	4356
909.993	4386
910.108	4405
910.224	4375
910.339	4466
910.454	4394
910.57	4295
910.685	4310
910.8	4599
910.915	4599
911.03	4451
911.145	4325
911.259	4291
911.374	4360
911.489	4261
911.604	4268
911.718	4147
911.833	4177
911.947	4044
912.062	4029
912.176	4207
912.291	4265
912.405	4246
912.519	4470
912.633	4485
912.748	4386
912.862	4280
912.976	4200
913.09	4105
913.204	4147
913.318	4242
913.431	4383
913.545	4322
913.659	4432
913.772	4329
913.886	4291
914	4242
914.113	4375
914.226	4455
914.34	4421
914.453	4234
914.566	4398
914.68	4329
914.793	4314
914.906	4139
915.019	4116
915.132	4086
915.245	4173
915.358	4238
915.47	4219
915.583	4276
915.696	4333
915.809	4417
915.921	4409
916.034	4223
916.146	4181
916.259	4200
916.371	4356
916.483	4337
916.595	4280
916.708	4314
916.82	4344
916.932	4310
917.044	4329
917.156	4287
917.268	4207
917.38	4257
917.491	4238
917.603	4329
917.715	4440
917.826	4409
917.938	4356
918.049	4234
918.161	4341
918.272	4512
918.384	4489
918.495	4466
918.606	4291
918.717	4200
918.828	4356
918.939	4356
919.05	4207
919.161	4318
919.272	4158
919.383	4230
919.494	4443
919.604	4596
919.715	4440
919.826	4352
919.936	4432
920.047	4478
920.157	4474
920.267	4668
920.378	4531
920.488	4478
920.598	4694
920.708	4900
920.818	4748
920.928	4706
921.038	4976
921.148	4930
921.258	4561
921.368	4554
921.477	4428
921.587	4455
921.697	4333
921.806	4519
921.916	4443
922.025	4272
922.134	4268
922.244	4211
922.353	4310
922.462	4173
922.571	4143
922.68	3994
922.789	3968
922.898	4059
923.007	4002
923.116	4093
923.224	4059
923.333	4071
923.442	3964
923.55	3975
923.659	3979
923.767	4090
923.876	4025
923.984	4128
924.092	4010
924.201	4105
924.309	4067
924.417	4162
924.525	4055
924.633	4093
924.741	5075
924.849	3934
924.956	4112
925.064	3960
925.172	3899
925.279	3956
925.387	4017
925.494	4010
925.602	4154
925.709	4196
925.816	4017
925.924	4131
926.031	4280
926.138	4188
926.245	4200
926.352	4032
926.459	4249
926.566	4253
926.673	4181
926.779	4101
926.886	4071
926.993	3994
927.099	3945
927.206	3911
927.312	3930
927.419	4078
927.525	4044
927.631	4109
927.737	3930
927.843	3945
927.95	3857
928.056	3953
928.162	4002
928.267	4051
928.373	4675
928.479	4101
928.585	3896
928.69	4010
928.796	4090
928.901	3979
929.007	3880
929.112	3979
929.218	3972
929.323	3930
929.428	3922
929.533	4093
929.638	3873
929.743	3960
929.848	4036
929.953	3945
930.058	3941
930.163	3797
930.267	3842
930.372	3953
930.477	3808
930.581	4074
930.685	3903
930.79	3774
930.894	3873
930.998	3838
931.103	4025
931.207	3732
931.311	3656
931.415	3656
931.519	3492
931.623	3538
