Data from test_V78500241_2673.txt Node
Date: Fri Mar 25 17:07:35 CST 2022
User: usil
Spectrometer: V785-0024
Trigger mode: 0
Integration Time (sec): 4.000000E-1
Scans to average: 1
Nonlinearity correction enabled: false
Boxcar width: 0
Storing dark spectrum: false
XAxis mode: Wavelengths
Number of Pixels in Spectrum: 1024
>>>>>Begin Spectral Data<<<<<
801.071	8005
801.214	7970
801.356	7913
801.499	7830
801.641	7807
801.783	7811
801.926	7947
802.068	7906
802.211	7944
802.353	7978
802.496	7849
802.638	7906
802.78	7871
802.923	7970
803.065	7860
803.208	7879
803.35	8001
803.492	8077
803.635	8176
803.777	8046
803.919	8149
804.061	8427
804.204	8161
804.346	8012
804.488	8005
804.63	8134
804.773	7997
804.915	8084
805.057	8225
805.199	8233
805.341	8237
805.483	8256
805.626	8229
805.768	8100
805.91	8202
806.052	8248
806.194	8054
806.336	8328
806.478	8031
806.62	8096
806.762	8111
806.904	8168
807.046	8431
807.188	8320
807.33	8252
807.472	8351
807.614	8123
807.756	8111
807.898	8020
808.04	7879
808.182	7917
808.324	7898
808.465	7944
808.607	8077
808.749	8145
808.891	8229
809.033	8279
809.174	8195
809.316	8031
809.458	8149
809.6	7970
809.741	8065
809.883	8054
810.025	8126
810.166	8096
810.308	8020
810.45	8031
810.591	7887
810.733	7693
810.875	7647
811.016	7495
811.158	7495
811.299	7578
811.441	7708
811.582	7681
811.724	7544
811.865	7533
812.007	7616
812.148	7605
812.29	7666
812.431	7746
812.573	7864
812.714	7947
812.855	8088
812.997	8206
813.138	8286
813.279	8130
813.421	8096
813.562	8027
813.703	7898
813.845	7753
813.986	7521
814.127	7377
814.268	7217
814.41	7190
814.551	7145
814.692	7152
814.833	7046
814.974	7042
815.115	7103
815.256	6901
815.397	6943
815.539	6958
815.68	6844
815.821	6764
815.962	6897
816.103	6856
816.244	6684
816.385	6601
816.526	6616
816.666	6536
816.807	6308
816.948	6426
817.089	6509
817.23	6407
817.371	6369
817.512	6361
817.653	6391
817.793	6357
817.934	6452
818.075	6475
818.216	6448
818.356	6399
818.497	6216
818.638	6140
818.778	6133
818.919	6114
819.06	6182
819.2	6315
819.341	6292
819.481	6376
819.622	6559
819.762	6764
819.903	6654
820.043	6601
820.184	6578
820.324	6578
820.465	6696
820.605	6620
820.746	6604
820.886	6486
821.026	6658
821.167	6738
821.307	6776
821.447	6806
821.588	6662
821.728	6593
821.868	6528
822.008	6338
822.149	6365
822.289	6315
822.429	6197
822.569	6079
822.709	6091
822.849	5950
822.99	5897
823.13	5961
823.27	5878
823.41	5813
823.55	5809
823.69	5729
823.83	5779
823.97	5699
824.11	5543
824.25	5474
824.389	5516
824.529	5558
824.669	5474
824.809	5684
824.949	5665
825.089	5615
825.228	5532
825.368	5410
825.508	5322
825.648	5315
825.787	5368
825.927	5410
826.067	5296
826.206	5299
826.346	5357
826.485	5406
826.625	5402
826.765	5558
826.904	5482
827.044	5273
827.183	5227
827.323	5178
827.462	5265
827.601	5223
827.741	5105
827.88	5216
828.02	5124
828.159	5265
828.298	5246
828.437	5364
828.577	5330
828.716	5444
828.855	5337
828.994	5227
829.134	5151
829.273	5170
829.412	5132
829.551	5136
829.69	5143
829.829	5288
829.968	5376
830.107	5246
830.246	5299
830.385	5216
830.524	5170
830.663	5045
830.802	4915
830.941	4862
831.08	4881
831.219	4999
831.357	4942
831.496	5136
831.635	4930
831.774	4847
831.913	4892
832.051	4748
832.19	4691
832.329	4858
832.467	4710
832.606	4653
832.744	4740
832.883	4740
833.022	4714
833.16	4778
833.299	4786
833.437	4790
833.576	4850
833.714	4809
833.852	4831
833.991	4896
834.129	4946
834.267	4938
834.406	4896
834.544	4984
834.682	4984
834.821	4999
834.959	5201
835.097	4987
835.235	5128
835.373	5022
835.511	5086
835.65	5048
835.788	5022
835.926	4934
836.064	4854
836.202	4904
836.34	5201
836.478	5231
836.615	5113
836.753	5223
836.891	5288
837.029	5246
837.167	5166
837.305	5170
837.443	5117
837.58	5067
837.718	5223
837.856	5143
837.993	5155
838.131	5242
838.269	5227
838.406	5208
838.544	5189
838.681	5052
838.819	4965
838.956	4850
839.094	4919
839.231	4946
839.369	5056
839.506	5452
839.643	5258
839.781	5048
839.918	4991
840.055	5060
840.193	5113
840.33	5151
840.467	5151
840.604	5162
840.742	5414
840.879	5067
841.016	5109
841.153	5136
841.29	5368
841.427	5318
841.564	5372
841.701	5379
841.838	5265
841.975	5235
842.112	5273
842.249	5166
842.385	5132
842.522	5376
842.659	5121
842.796	5105
842.933	5220
843.069	5166
843.206	5151
843.343	5280
843.479	5273
843.616	5307
843.752	5025
843.889	5041
844.025	5181
844.162	5022
844.298	5246
844.435	5067
844.571	5079
844.708	5216
844.844	5269
844.98	5303
845.117	5296
845.253	5143
845.389	5064
845.525	5159
845.661	5132
845.798	5018
845.934	5102
846.07	5025
846.206	5197
846.342	5231
846.478	5204
846.614	4999
846.75	5029
846.886	4946
847.022	5151
847.158	5052
847.294	5079
847.429	5086
847.565	4987
847.701	5280
847.837	4843
847.972	4816
848.108	4911
848.244	4915
848.379	4763
848.515	4714
848.65	4736
848.786	4729
848.921	4755
849.057	4843
849.192	4934
849.328	4820
849.463	4820
849.598	4831
849.734	4740
849.869	4622
850.004	4611
850.14	4668
850.275	4607
850.41	4508
850.545	4558
850.68	4592
850.815	4599
850.95	4668
851.085	4771
851.22	4725
851.355	4694
851.49	4611
851.625	4634
851.76	4630
851.895	4573
852.03	4531
852.165	4668
852.299	4702
852.434	4774
852.569	4744
852.703	4862
852.838	4828
852.973	4911
853.107	4908
853.242	4729
853.376	4668
853.511	4542
853.645	4626
853.78	4847
853.914	4660
854.048	4656
854.183	4653
854.317	4626
854.451	4839
854.585	4687
854.72	4664
854.854	4774
854.988	4580
855.122	4618
855.256	4535
855.39	4687
855.524	4809
855.658	4687
855.792	4725
855.926	4702
856.06	4793
856.194	4797
856.327	4736
856.461	4634
856.595	4618
856.729	4588
856.862	4752
856.996	4725
857.13	4748
857.263	4740
857.397	4740
857.53	4634
857.664	4748
857.797	4755
857.931	4691
858.064	4630
858.197	4740
858.331	4653
858.464	4615
858.597	4535
858.731	4599
858.864	4656
858.997	4599
859.13	4634
859.263	4694
859.396	4717
859.529	4569
859.662	4535
859.795	4527
859.928	4584
860.061	4755
860.194	4801
860.327	4577
860.46	4531
860.592	4698
860.725	4725
860.858	4668
860.99	4596
861.123	4546
861.256	4565
861.388	4649
861.521	5395
861.653	4447
861.786	4443
861.918	4428
862.05	4523
862.183	4493
862.315	4592
862.447	4592
862.58	4561
862.712	4421
862.844	4318
862.976	4485
863.108	4443
863.24	4733
863.372	4333
863.504	4371
863.636	4383
863.768	4459
863.9	4459
864.032	4386
864.164	4443
864.296	4504
864.428	4554
864.559	4554
864.691	4561
864.823	4527
864.954	4523
865.086	4519
865.217	4424
865.349	4424
865.48	4394
865.612	4500
865.743	4611
865.875	4451
866.006	4360
866.137	4459
866.269	4474
866.4	4386
866.531	4409
866.662	4421
866.793	4379
866.924	4451
867.055	4432
867.186	4474
867.317	4413
867.448	4348
867.579	4344
867.71	4394
867.841	4394
867.972	4470
868.103	4474
868.233	4459
868.364	4421
868.495	4493
868.625	4615
868.756	4733
868.886	4546
869.017	4637
869.147	4736
869.278	4801
869.408	4653
869.539	4615
869.669	4706
869.799	4672
869.929	4782
870.06	4771
870.19	4927
870.32	4900
870.45	4900
870.58	4984
870.71	5098
870.84	5079
870.97	4930
871.1	4911
871.23	5155
871.36	5140
871.489	5045
871.619	5067
871.749	5025
871.879	5094
872.008	5197
872.138	5041
872.267	4957
872.397	4820
872.526	4786
872.656	4748
872.785	4854
872.915	4930
873.044	5037
873.173	4908
873.303	4984
873.432	4927
873.561	4995
873.69	4873
873.819	4885
873.948	4873
874.077	4843
874.206	4733
874.335	4805
874.464	4919
874.593	5064
874.722	4961
874.851	5113
874.979	5098
875.108	5018
875.237	4915
875.365	4900
875.494	4908
875.623	4957
875.751	4831
875.88	4908
876.008	5006
876.136	5056
876.265	5155
876.393	5345
876.521	5250
876.65	5181
876.778	5143
876.906	5132
877.034	5025
877.162	5029
877.29	4976
877.418	5041
877.546	5067
877.674	5033
877.802	5018
877.93	5022
878.058	4942
878.185	4873
878.313	5041
878.441	4965
878.568	4835
878.696	4862
878.824	4968
878.951	4980
879.079	5121
879.206	5231
879.333	5098
879.461	4999
879.588	4976
879.715	5140
879.842	5250
879.97	5010
880.097	4767
880.224	4778
880.351	4805
880.478	4816
880.605	4793
880.732	4733
880.859	5075
880.986	4873
881.112	4923
881.239	4744
881.366	4649
881.493	4611
881.619	4554
881.746	4637
881.872	4630
881.999	4660
882.125	4660
882.252	4809
882.378	4831
882.505	4938
882.631	4835
882.757	4694
882.883	4725
883.01	4721
883.136	4603
883.262	4615
883.388	4630
883.514	4797
883.64	4850
883.766	4774
883.892	4675
884.018	4748
884.143	4900
884.269	5022
884.395	4675
884.52	4599
884.646	4653
884.772	4618
884.897	4603
885.023	4683
885.148	4755
885.274	4881
885.399	4782
885.524	4698
885.65	4664
885.775	4752
885.9	4729
886.025	4877
886.15	4812
886.275	4702
886.4	4626
886.525	4679
886.65	4694
886.775	4714
886.9	4896
887.025	5033
887.149	4801
887.274	4679
887.399	4611
887.523	4611
887.648	4607
887.773	4584
887.897	4733
888.021	4782
888.146	4668
888.27	4835
888.395	4896
888.519	4816
888.643	4847
888.767	4831
888.891	4698
889.015	4577
889.139	4664
889.263	4599
889.387	4778
889.511	4854
889.635	4809
889.759	4645
889.883	4698
890.006	4714
890.13	4885
890.254	4580
890.377	4691
890.501	4561
890.624	4455
890.748	4611
890.871	4546
890.995	4424
891.118	4390
891.241	4569
891.364	4577
891.488	4634
891.611	4542
891.734	4577
891.857	4611
891.98	4542
892.103	4660
892.226	4558
892.349	4531
892.471	4443
892.594	4542
892.717	4599
892.839	4573
892.962	4550
893.085	4672
893.207	4649
893.33	4493
893.452	4504
893.575	4653
893.697	4622
893.819	4767
893.941	4835
894.064	4771
894.186	4599
894.308	4577
894.43	4725
894.552	4809
894.674	4752
894.796	4531
894.918	4573
895.04	4558
895.161	4691
895.283	4649
895.405	4558
895.526	4603
895.648	4691
895.769	4641
895.891	4767
896.012	4729
896.134	4694
896.255	4622
896.376	4641
896.498	4622
896.619	4626
896.74	4592
896.861	4664
896.982	4942
897.103	5090
897.224	4831
897.345	4740
897.466	4668
897.587	4752
897.708	4881
897.828	4759
897.949	4637
898.07	4569
898.19	4649
898.311	4850
898.431	4653
898.552	4786
898.672	4820
898.792	4767
898.913	4721
899.033	4683
899.153	4531
899.273	4394
899.393	4531
899.513	4542
899.633	4565
899.753	4550
899.873	4470
899.993	4584
900.113	4550
900.232	4592
900.352	4508
900.472	4478
900.591	4383
900.711	4497
900.83	4470
900.95	4584
901.069	4706
901.189	4546
901.308	4424
901.427	4341
901.546	4356
901.665	4504
901.784	4538
901.904	4383
902.023	4348
902.141	4230
902.26	4147
902.379	4249
902.498	4295
902.617	4234
902.735	4375
902.854	4440
902.973	4348
903.091	4223
903.21	4246
903.328	4257
903.446	4272
903.565	4272
903.683	4348
903.801	4303
903.919	4390
904.038	4451
904.156	4306
904.274	4367
904.392	4405
904.51	4432
904.627	4424
904.745	4527
904.863	4641
904.981	4424
905.098	4322
905.216	4363
905.334	4447
905.451	4360
905.569	4493
905.686	4561
905.803	4622
905.921	4375
906.038	4538
906.155	4459
906.272	4322
906.389	4459
906.506	4386
906.623	4375
906.74	4379
906.857	4257
906.974	4386
907.091	4554
907.208	4687
907.324	4649
907.441	4497
907.557	4371
907.674	4325
907.79	4299
907.907	4421
908.023	4489
908.139	4481
908.256	4398
908.372	4485
908.488	4417
908.604	4356
908.72	4318
908.836	4306
908.952	4371
909.068	4455
909.184	4554
909.3	4497
909.415	4599
909.531	4618
909.647	4356
909.762	4356
909.878	4371
909.993	4417
910.108	4386
910.224	4402
910.339	4443
910.454	4413
910.57	4409
910.685	4284
910.8	4596
910.915	4592
911.03	4455
911.145	4325
911.259	4322
911.374	4375
911.489	4306
911.604	4329
911.718	4139
911.833	4234
911.947	4090
912.062	4055
912.176	4234
912.291	4227
912.405	4280
912.519	4497
912.633	4481
912.748	4375
912.862	4322
912.976	4219
913.09	4105
913.204	4188
913.318	4215
913.431	4356
913.545	4352
913.659	4447
913.772	4352
913.886	4272
914	4230
914.113	4405
914.226	4462
914.34	4375
914.453	4276
914.566	4402
914.68	4299
914.793	4344
914.906	4185
915.019	4097
915.132	4067
915.245	4196
915.358	4219
915.47	4200
915.583	4265
915.696	4276
915.809	4421
915.921	4379
916.034	4219
916.146	4227
916.259	4249
916.371	4398
916.483	4348
916.595	4227
916.708	4337
916.82	4363
916.932	4322
917.044	4344
917.156	4322
917.268	4249
917.38	4295
917.491	4284
917.603	4341
917.715	4402
917.826	4432
917.938	4356
918.049	4227
918.161	4329
918.272	4527
918.384	4516
918.495	4478
918.606	4341
918.717	4211
918.828	4352
918.939	4299
919.05	4238
919.161	4390
919.272	4131
919.383	4223
919.494	4390
919.604	4607
919.715	4459
919.826	4344
919.936	4383
920.047	4531
920.157	4508
920.267	4710
920.378	4554
920.488	4497
920.598	4725
920.708	4873
920.818	4790
920.928	4748
921.038	4934
921.148	4904
921.258	4649
921.368	4535
921.477	4497
921.587	4440
921.697	4402
921.806	4554
921.916	4428
922.025	4268
922.134	4291
922.244	4181
922.353	4314
922.462	4135
922.571	4131
922.68	4051
922.789	4013
922.898	4078
923.007	3979
923.116	4074
923.224	4078
923.333	4059
923.442	3972
923.55	3956
923.659	4032
923.767	4135
923.876	3998
923.984	4135
924.092	3968
924.201	4078
924.309	4101
924.417	4131
924.525	4051
924.633	4120
924.741	5041
924.849	3896
924.956	4200
925.064	3953
925.172	3884
925.279	3968
925.387	4032
925.494	4051
925.602	4215
925.709	4185
925.816	4097
925.924	4173
926.031	4234
926.138	4200
926.245	4200
926.352	3983
926.459	4211
926.566	4303
926.673	4120
926.779	4090
926.886	4055
926.993	3953
927.099	3953
927.206	3934
927.312	3964
927.419	4078
927.525	4078
927.631	4071
927.737	4029
927.843	3934
927.95	3816
928.056	3911
928.162	3972
928.267	4082
928.373	4615
928.479	4124
928.585	3865
928.69	4021
928.796	4013
928.901	3918
929.007	3869
929.112	3964
929.218	3953
929.323	3907
929.428	3949
929.533	4131
929.638	3903
929.743	4040
929.848	4013
929.953	3998
930.058	3960
930.163	3755
930.267	3804
930.372	4013
930.477	3816
930.581	4036
930.685	3953
930.79	3835
930.894	3899
930.998	3896
931.103	4017
931.207	3701
931.311	3656
931.415	3652
931.519	3530
931.623	3549
