Data from test_V78500241_1054.txt Node
Date: Fri Mar 25 16:56:19 CST 2022
User: usil
Spectrometer: V785-0024
Trigger mode: 0
Integration Time (sec): 4.000000E-1
Scans to average: 1
Nonlinearity correction enabled: false
Boxcar width: 0
Storing dark spectrum: false
XAxis mode: Wavelengths
Number of Pixels in Spectrum: 1024
>>>>>Begin Spectral Data<<<<<
801.071	8043
801.214	8035
801.356	7917
801.499	7826
801.641	7792
801.783	7811
801.926	7951
802.068	7906
802.211	7997
802.353	7982
802.496	7772
802.638	7803
802.78	7852
802.923	7921
803.065	7833
803.208	7860
803.35	7974
803.492	8092
803.635	8103
803.777	7932
803.919	8088
804.061	8442
804.204	8161
804.346	8092
804.488	7963
804.63	8130
804.773	8035
804.915	8054
805.057	8301
805.199	8164
805.341	8275
805.483	8244
805.626	8199
805.768	8130
805.91	8233
806.052	8202
806.194	8077
806.336	8317
806.478	8092
806.62	7982
806.762	8172
806.904	8210
807.046	8400
807.188	8290
807.33	8301
807.472	8339
807.614	8130
807.756	8092
807.898	8043
808.04	7871
808.182	7871
808.324	7875
808.465	7883
808.607	8069
808.749	8016
808.891	8221
809.033	8347
809.174	8134
809.316	8103
809.458	7986
809.6	7936
809.741	7997
809.883	7986
810.025	8077
810.166	8096
810.308	8016
810.45	7993
810.591	7830
810.733	7731
810.875	7662
811.016	7491
811.158	7449
811.299	7552
811.441	7746
811.582	7700
811.724	7601
811.865	7472
812.007	7544
812.148	7651
812.29	7601
812.431	7704
812.573	7864
812.714	7989
812.855	8103
812.997	8126
813.138	8290
813.279	8157
813.421	8043
813.562	8020
813.703	7849
813.845	7811
813.986	7468
814.127	7297
814.268	7194
814.41	7202
814.551	7118
814.692	7168
814.833	6989
814.974	7065
815.115	7050
815.256	6905
815.397	6905
815.539	6875
815.68	6825
815.821	6764
815.962	6871
816.103	6837
816.244	6772
816.385	6700
816.526	6589
816.666	6498
816.807	6277
816.948	6429
817.089	6452
817.23	6433
817.371	6319
817.512	6376
817.653	6365
817.793	6338
817.934	6388
818.075	6437
818.216	6467
818.356	6365
818.497	6285
818.638	6079
818.778	6194
818.919	6144
819.06	6148
819.2	6334
819.341	6292
819.481	6327
819.622	6540
819.762	6665
819.903	6703
820.043	6642
820.184	6525
820.324	6589
820.465	6677
820.605	6688
820.746	6650
820.886	6407
821.026	6646
821.167	6745
821.307	6772
821.447	6741
821.588	6623
821.728	6544
821.868	6456
822.008	6304
822.149	6350
822.289	6334
822.429	6125
822.569	6095
822.709	6083
822.849	5904
822.99	5904
823.13	5916
823.27	5874
823.41	5756
823.55	5794
823.69	5760
823.83	5718
823.97	5646
824.11	5478
824.25	5436
824.389	5478
824.529	5581
824.669	5505
824.809	5623
824.949	5646
825.089	5589
825.228	5532
825.368	5376
825.508	5315
825.648	5315
825.787	5303
825.927	5398
826.067	5254
826.206	5231
826.346	5387
826.485	5368
826.625	5398
826.765	5528
826.904	5474
827.044	5201
827.183	5189
827.323	5109
827.462	5250
827.601	5174
827.741	5197
827.88	5246
828.02	5105
828.159	5174
828.298	5284
828.437	5322
828.577	5254
828.716	5467
828.855	5311
828.994	5098
829.134	5181
829.273	5181
829.412	5155
829.551	5086
829.69	5166
829.829	5178
829.968	5398
830.107	5239
830.246	5208
830.385	5136
830.524	5067
830.663	5018
830.802	4961
830.941	4835
831.08	4870
831.219	4942
831.357	4949
831.496	5143
831.635	4900
831.774	4828
831.913	4820
832.051	4698
832.19	4755
832.329	4843
832.467	4687
832.606	4637
832.744	4740
832.883	4717
833.022	4736
833.16	4740
833.299	4824
833.437	4801
833.576	4820
833.714	4850
833.852	4858
833.991	4915
834.129	4885
834.267	4908
834.406	4904
834.544	4957
834.682	4942
834.821	4949
834.959	5136
835.097	4919
835.235	5124
835.373	5105
835.511	5083
835.65	5014
835.788	5033
835.926	4892
836.064	4854
836.202	4881
836.34	5140
836.478	5136
836.615	5060
836.753	5204
836.891	5254
837.029	5250
837.167	5162
837.305	5147
837.443	5223
837.58	5079
837.718	5208
837.856	5181
837.993	5155
838.131	5246
838.269	5220
838.406	5166
838.544	5170
838.681	5003
838.819	5014
838.956	4866
839.094	4850
839.231	4972
839.369	5048
839.506	5379
839.643	5250
839.781	5018
839.918	5018
840.055	5071
840.193	5071
840.33	5075
840.467	5109
840.604	5185
840.742	5410
840.879	5045
841.016	5121
841.153	5113
841.29	5311
841.427	5299
841.564	5265
841.701	5357
841.838	5227
841.975	5223
842.112	5277
842.249	5136
842.385	5113
842.522	5299
842.659	5151
842.796	5105
842.933	5235
843.069	5124
843.206	5140
843.343	5250
843.479	5201
843.616	5254
843.752	5033
843.889	4949
844.025	5117
844.162	4984
844.298	5193
844.435	5071
844.571	4999
844.708	5170
844.844	5280
844.98	5292
845.117	5246
845.253	5105
845.389	5086
845.525	5132
845.661	5117
845.798	4976
845.934	5109
846.07	5045
846.206	5174
846.342	5254
846.478	5181
846.614	5006
846.75	4927
846.886	4987
847.022	5132
847.158	5003
847.294	5029
847.429	5071
847.565	5071
847.701	5318
847.837	4805
847.972	4790
848.108	4911
848.244	4927
848.379	4767
848.515	4759
848.65	4744
848.786	4752
848.921	4793
849.057	4915
849.192	4866
849.328	4847
849.463	4767
849.598	4790
849.734	4748
849.869	4687
850.004	4626
850.14	4683
850.275	4577
850.41	4527
850.545	4542
850.68	4592
850.815	4489
850.95	4641
851.085	4820
851.22	4714
851.355	4672
851.49	4569
851.625	4599
851.76	4592
851.895	4516
852.03	4546
852.165	4607
852.299	4683
852.434	4790
852.569	4729
852.703	4759
852.838	4805
852.973	4938
853.107	4850
853.242	4748
853.376	4645
853.511	4531
853.645	4573
853.78	4778
853.914	4679
854.048	4653
854.183	4672
854.317	4672
854.451	4904
854.585	4630
854.72	4641
854.854	4698
854.988	4565
855.122	4687
855.256	4516
855.39	4668
855.524	4782
855.658	4721
855.792	4683
855.926	4714
856.06	4725
856.194	4805
856.327	4645
856.461	4596
856.595	4622
856.729	4706
856.862	4729
856.996	4702
857.13	4755
857.263	4717
857.397	4816
857.53	4603
857.664	4653
857.797	4740
857.931	4793
858.064	4618
858.197	4698
858.331	4611
858.464	4599
858.597	4478
858.731	4618
858.864	4554
858.997	4596
859.13	4668
859.263	4607
859.396	4672
859.529	4603
859.662	4546
859.795	4519
859.928	4599
860.061	4759
860.194	4748
860.327	4577
860.46	4554
860.592	4725
860.725	4729
860.858	4672
860.99	4573
861.123	4493
861.256	4440
861.388	4596
861.521	5303
861.653	4485
861.786	4424
861.918	4447
862.05	4478
862.183	4546
862.315	4580
862.447	4645
862.58	4519
862.712	4371
862.844	4284
862.976	4474
863.108	4485
863.24	4839
863.372	4299
863.504	4394
863.636	4379
863.768	4462
863.9	4394
864.032	4356
864.164	4363
864.296	4386
864.428	4550
864.559	4516
864.691	4481
864.823	4478
864.954	4508
865.086	4493
865.217	4424
865.349	4417
865.48	4440
865.612	4443
865.743	4615
865.875	4409
866.006	4394
866.137	4424
866.269	4424
866.4	4428
866.531	4443
866.662	4363
866.793	4344
866.924	4405
867.055	4497
867.186	4440
867.317	4462
867.448	4344
867.579	4383
867.71	4379
867.841	4375
867.972	4474
868.103	4474
868.233	4421
868.364	4455
868.495	4489
868.625	4660
868.756	4759
868.886	4577
869.017	4615
869.147	4816
869.278	4805
869.408	4649
869.539	4660
869.669	4717
869.799	4607
869.929	4744
870.06	4771
870.19	4904
870.32	4930
870.45	4972
870.58	4995
870.71	5064
870.84	5094
870.97	4946
871.1	4896
871.23	5147
871.36	5147
871.489	5041
871.619	5056
871.749	5121
871.879	5140
872.008	5189
872.138	5056
872.267	4995
872.397	4915
872.526	4801
872.656	4698
872.785	4835
872.915	4999
873.044	5045
873.173	4953
873.303	4991
873.432	4965
873.561	4972
873.69	4919
873.819	4889
873.948	4957
874.077	4809
874.206	4793
874.335	4835
874.464	5006
874.593	5124
874.722	5018
874.851	5151
874.979	5090
875.108	5056
875.237	4991
875.365	4866
875.494	4942
875.623	4999
875.751	4835
875.88	4919
876.008	5037
876.136	5083
876.265	5212
876.393	5379
876.521	5273
876.65	5288
876.778	5151
876.906	5086
877.034	5048
877.162	5083
877.29	5010
877.418	5052
877.546	5025
877.674	5079
877.802	4999
877.93	5098
878.058	4999
878.185	4904
878.313	4946
878.441	4987
878.568	4809
878.696	4873
878.824	5018
878.951	5025
879.079	5086
879.206	5315
879.333	5124
879.461	4942
879.588	5037
879.715	5121
879.842	5254
879.97	5014
880.097	4782
880.224	4759
880.351	4835
880.478	4839
880.605	4797
880.732	4843
880.859	5143
880.986	4870
881.112	4957
881.239	4774
881.366	4694
881.493	4634
881.619	4615
881.746	4653
881.872	4656
881.999	4668
882.125	4683
882.252	4835
882.378	4786
882.505	4961
882.631	4816
882.757	4729
882.883	4767
883.01	4744
883.136	4714
883.262	4577
883.388	4645
883.514	4847
883.64	4862
883.766	4786
883.892	4660
884.018	4744
884.143	4942
884.269	5033
884.395	4721
884.52	4645
884.646	4630
884.772	4615
884.897	4592
885.023	4694
885.148	4824
885.274	4896
885.399	4824
885.524	4759
885.65	4687
885.775	4755
885.9	4714
886.025	4866
886.15	4767
886.275	4752
886.4	4634
886.525	4752
886.65	4691
886.775	4721
886.9	4923
887.025	5045
887.149	4824
887.274	4675
887.399	4584
887.523	4580
887.648	4596
887.773	4653
887.897	4733
888.021	4786
888.146	4683
888.27	4797
888.395	4900
888.519	4835
888.643	4790
888.767	4805
888.891	4622
889.015	4664
889.139	4637
889.263	4649
889.387	4801
889.511	4881
889.635	4839
889.759	4626
889.883	4653
890.006	4752
890.13	4835
890.254	4675
890.377	4694
890.501	4592
890.624	4542
890.748	4653
890.871	4481
890.995	4474
891.118	4409
891.241	4535
891.364	4519
891.488	4653
891.611	4504
891.734	4561
891.857	4637
891.98	4577
892.103	4702
892.226	4641
892.349	4550
892.471	4447
892.594	4538
892.717	4573
892.839	4611
892.962	4649
893.085	4679
893.207	4641
893.33	4504
893.452	4584
893.575	4664
893.697	4622
893.819	4854
893.941	4820
894.064	4816
894.186	4580
894.308	4569
894.43	4694
894.552	4839
894.674	4733
894.796	4603
894.918	4634
895.04	4596
895.161	4706
895.283	4679
895.405	4573
895.526	4664
895.648	4706
895.769	4755
895.891	4763
896.012	4744
896.134	4714
896.255	4664
896.376	4645
896.498	4679
896.619	4687
896.74	4622
896.861	4660
896.982	4919
897.103	5102
897.224	4835
897.345	4771
897.466	4653
897.587	4740
897.708	4854
897.828	4812
897.949	4618
898.07	4565
898.19	4645
898.311	4831
898.431	4668
898.552	4763
898.672	4812
898.792	4831
898.913	4778
899.033	4649
899.153	4546
899.273	4398
899.393	4542
899.513	4519
899.633	4550
899.753	4531
899.873	4561
899.993	4611
900.113	4573
900.232	4584
900.352	4519
900.472	4508
900.591	4417
900.711	4504
900.83	4447
900.95	4607
901.069	4702
901.189	4561
901.308	4375
901.427	4363
901.546	4440
901.665	4485
901.784	4531
901.904	4394
902.023	4371
902.141	4223
902.26	4181
902.379	4291
902.498	4299
902.617	4227
902.735	4398
902.854	4443
902.973	4352
903.091	4268
903.21	4253
903.328	4280
903.446	4257
903.565	4363
903.683	4405
903.801	4287
903.919	4398
904.038	4462
904.156	4344
904.274	4474
904.392	4417
904.51	4432
904.627	4481
904.745	4603
904.863	4637
904.981	4360
905.098	4348
905.216	4341
905.334	4451
905.451	4455
905.569	4504
905.686	4546
905.803	4584
905.921	4451
906.038	4573
906.155	4497
906.272	4436
906.389	4432
906.506	4367
906.623	4405
906.74	4443
906.857	4303
906.974	4424
907.091	4565
907.208	4668
907.324	4577
907.441	4519
907.557	4398
907.674	4379
907.79	4363
907.907	4386
908.023	4481
908.139	4504
908.256	4428
908.372	4470
908.488	4489
908.604	4344
908.72	4325
908.836	4405
908.952	4356
909.068	4466
909.184	4558
909.3	4519
909.415	4569
909.531	4554
909.647	4417
909.762	4383
909.878	4344
909.993	4455
910.108	4489
910.224	4432
910.339	4493
910.454	4436
910.57	4375
910.685	4310
910.8	4683
910.915	4607
911.03	4481
911.145	4318
911.259	4356
911.374	4390
911.489	4325
911.604	4291
911.718	4162
911.833	4257
911.947	4097
912.062	4067
912.176	4169
912.291	4242
912.405	4303
912.519	4470
912.633	4527
912.748	4360
912.862	4318
912.976	4227
913.09	4139
913.204	4181
913.318	4257
913.431	4394
913.545	4322
913.659	4443
913.772	4383
913.886	4257
914	4249
914.113	4360
914.226	4432
914.34	4379
914.453	4284
914.566	4455
914.68	4360
914.793	4333
914.906	4158
915.019	4135
915.132	4074
915.245	4162
915.358	4238
915.47	4287
915.583	4295
915.696	4310
915.809	4398
915.921	4428
916.034	4261
916.146	4303
916.259	4196
916.371	4390
916.483	4356
916.595	4291
916.708	4341
916.82	4333
916.932	4287
917.044	4322
917.156	4325
917.268	4295
917.38	4257
917.491	4265
917.603	4325
917.715	4428
917.826	4466
917.938	4363
918.049	4246
918.161	4443
918.272	4500
918.384	4554
918.495	4455
918.606	4333
918.717	4265
918.828	4371
918.939	4310
919.05	4284
919.161	4314
919.272	4135
919.383	4284
919.494	4440
919.604	4611
919.715	4413
919.826	4371
919.936	4386
920.047	4535
920.157	4497
920.267	4691
920.378	4577
920.488	4542
920.598	4721
920.708	4885
920.818	4748
920.928	4755
921.038	4923
921.148	4953
921.258	4641
921.368	4554
921.477	4504
921.587	4474
921.697	4417
921.806	4577
921.916	4447
922.025	4291
922.134	4325
922.244	4265
922.353	4325
922.462	4154
922.571	4139
922.68	4029
922.789	3983
922.898	4002
923.007	3975
923.116	4139
923.224	4078
923.333	4017
923.442	3998
923.55	3960
923.659	4032
923.767	4120
923.876	4036
923.984	4109
924.092	3994
924.201	4044
924.309	4086
924.417	4116
924.525	4074
924.633	4097
924.741	5067
924.849	3956
924.956	4131
925.064	4013
925.172	3937
925.279	3968
925.387	4055
925.494	4093
925.602	4257
925.709	4188
925.816	4036
925.924	4154
926.031	4253
926.138	4204
926.245	4192
926.352	4105
926.459	4219
926.566	4322
926.673	4143
926.779	4109
926.886	4051
926.993	4006
927.099	3915
927.206	3937
927.312	3922
927.419	4078
927.525	4044
927.631	4101
927.737	3972
927.843	3949
927.95	3819
928.056	3949
928.162	3983
928.267	4017
928.373	4683
928.479	4128
928.585	3846
928.69	4036
928.796	4067
928.901	3937
929.007	3896
929.112	4025
929.218	3972
929.323	3915
929.428	3918
929.533	4128
929.638	3930
929.743	3918
929.848	4032
929.953	4013
930.058	3964
930.163	3819
930.267	3785
930.372	3998
930.477	3800
930.581	4086
930.685	3911
930.79	3827
930.894	3880
930.998	3857
931.103	4002
931.207	3751
931.311	3724
931.415	3648
931.519	3545
931.623	3557
