Data from test_V78500241_1455.txt Node
Date: Fri Mar 25 16:59:07 CST 2022
User: usil
Spectrometer: V785-0024
Trigger mode: 0
Integration Time (sec): 4.000000E-1
Scans to average: 1
Nonlinearity correction enabled: false
Boxcar width: 0
Storing dark spectrum: false
XAxis mode: Wavelengths
Number of Pixels in Spectrum: 1024
>>>>>Begin Spectral Data<<<<<
801.071	8016
801.214	8058
801.356	7841
801.499	7921
801.641	7841
801.783	7841
801.926	8001
802.068	7970
802.211	8027
802.353	8001
802.496	7883
802.638	7860
802.78	7974
802.923	7917
803.065	7913
803.208	7894
803.35	7967
803.492	8016
803.635	8134
803.777	8103
803.919	8138
804.061	8434
804.204	8168
804.346	8020
804.488	7997
804.63	8084
804.773	8024
804.915	8138
805.057	8275
805.199	8183
805.341	8244
805.483	8286
805.626	8221
805.768	8176
805.91	8199
806.052	8256
806.194	8103
806.336	8263
806.478	8077
806.62	8069
806.762	8138
806.904	8309
807.046	8469
807.188	8358
807.33	8294
807.472	8309
807.614	8195
807.756	8183
807.898	7982
808.04	7875
808.182	7852
808.324	7883
808.465	7997
808.607	8119
808.749	8084
808.891	8199
809.033	8294
809.174	8161
809.316	8073
809.458	8077
809.6	7974
809.741	8012
809.883	7997
810.025	8081
810.166	8077
810.308	8073
810.45	7936
810.591	7887
810.733	7731
810.875	7681
811.016	7499
811.158	7491
811.299	7658
811.441	7765
811.582	7700
811.724	7567
811.865	7575
812.007	7506
812.148	7563
812.29	7571
812.431	7738
812.573	7944
812.714	7955
812.855	8111
812.997	8187
813.138	8366
813.279	8138
813.421	8100
813.562	7997
813.703	7833
813.845	7712
813.986	7384
814.127	7251
814.268	7266
814.41	7179
814.551	7099
814.692	7255
814.833	7095
814.974	7122
815.115	7050
815.256	6951
815.397	6935
815.539	6958
815.68	6867
815.821	6802
815.962	6844
816.103	6833
816.244	6703
816.385	6559
816.526	6593
816.666	6448
816.807	6361
816.948	6448
817.089	6479
817.23	6418
817.371	6391
817.512	6391
817.653	6369
817.793	6372
817.934	6441
818.075	6407
818.216	6399
818.356	6410
818.497	6273
818.638	6133
818.778	6133
818.919	6102
819.06	6140
819.2	6331
819.341	6353
819.481	6338
819.622	6566
819.762	6772
819.903	6753
820.043	6654
820.184	6604
820.324	6578
820.465	6700
820.605	6688
820.746	6627
820.886	6506
821.026	6635
821.167	6677
821.307	6741
821.447	6791
821.588	6658
821.728	6589
821.868	6456
822.008	6262
822.149	6391
822.289	6319
822.429	6159
822.569	6091
822.709	6155
822.849	5980
822.99	5866
823.13	5859
823.27	5931
823.41	5805
823.55	5805
823.69	5752
823.83	5798
823.97	5691
824.11	5505
824.25	5501
824.389	5524
824.529	5592
824.669	5509
824.809	5634
824.949	5653
825.089	5634
825.228	5539
825.368	5341
825.508	5254
825.648	5387
825.787	5349
825.927	5357
826.067	5334
826.206	5269
826.346	5326
826.485	5364
826.625	5368
826.765	5532
826.904	5452
827.044	5151
827.183	5220
827.323	5121
827.462	5242
827.601	5204
827.741	5143
827.88	5235
828.02	5132
828.159	5208
828.298	5318
828.437	5315
828.577	5296
828.716	5448
828.855	5315
828.994	5170
829.134	5124
829.273	5258
829.412	5121
829.551	5143
829.69	5178
829.829	5235
829.968	5379
830.107	5258
830.246	5288
830.385	5117
830.524	5136
830.663	5052
830.802	4942
830.941	4908
831.08	4862
831.219	4961
831.357	4987
831.496	5181
831.635	4896
831.774	4873
831.913	4824
832.051	4691
832.19	4729
832.329	4873
832.467	4710
832.606	4637
832.744	4714
832.883	4672
833.022	4721
833.16	4797
833.299	4828
833.437	4793
833.576	4809
833.714	4847
833.852	4900
833.991	4870
834.129	4934
834.267	5033
834.406	4953
834.544	4980
834.682	4915
834.821	5025
834.959	5136
835.097	5025
835.235	5143
835.373	5094
835.511	5109
835.65	5071
835.788	4995
835.926	4862
836.064	4847
836.202	4957
836.34	5181
836.478	5204
836.615	5105
836.753	5239
836.891	5292
837.029	5261
837.167	5208
837.305	5223
837.443	5132
837.58	5094
837.718	5288
837.856	5159
837.993	5170
838.131	5193
838.269	5216
838.406	5227
838.544	5170
838.681	5025
838.819	4991
838.956	4915
839.094	4930
839.231	4987
839.369	5064
839.506	5391
839.643	5292
839.781	5071
839.918	5006
840.055	5075
840.193	5033
840.33	5151
840.467	5121
840.604	5166
840.742	5406
840.879	5033
841.016	5083
841.153	5159
841.29	5372
841.427	5353
841.564	5284
841.701	5330
841.838	5280
841.975	5261
842.112	5246
842.249	5090
842.385	5124
842.522	5288
842.659	5181
842.796	5155
842.933	5208
843.069	5102
843.206	5124
843.343	5318
843.479	5250
843.616	5315
843.752	4999
843.889	4995
844.025	5258
844.162	5041
844.298	5212
844.435	5090
844.571	5067
844.708	5235
844.844	5246
844.98	5280
845.117	5303
845.253	5155
845.389	5094
845.525	5155
845.661	5109
845.798	5033
845.934	5162
846.07	5052
846.206	5204
846.342	5288
846.478	5178
846.614	5048
846.75	4934
846.886	4881
847.022	5132
847.158	5025
847.294	5064
847.429	5105
847.565	5056
847.701	5322
847.837	4847
847.972	4854
848.108	5006
848.244	5010
848.379	4763
848.515	4733
848.65	4668
848.786	4687
848.921	4717
849.057	4831
849.192	4934
849.328	4824
849.463	4870
849.598	4854
849.734	4752
849.869	4660
850.004	4656
850.14	4630
850.275	4618
850.41	4508
850.545	4538
850.68	4626
850.815	4588
850.95	4664
851.085	4805
851.22	4733
851.355	4691
851.49	4577
851.625	4649
851.76	4634
851.895	4500
852.03	4508
852.165	4637
852.299	4729
852.434	4820
852.569	4736
852.703	4733
852.838	4790
852.973	4919
853.107	4892
853.242	4717
853.376	4649
853.511	4561
853.645	4599
853.78	4828
853.914	4717
854.048	4668
854.183	4634
854.317	4672
854.451	4797
854.585	4679
854.72	4656
854.854	4740
854.988	4615
855.122	4611
855.256	4497
855.39	4626
855.524	4816
855.658	4736
855.792	4672
855.926	4714
856.06	4721
856.194	4820
856.327	4656
856.461	4565
856.595	4641
856.729	4656
856.862	4736
856.996	4725
857.13	4710
857.263	4755
857.397	4801
857.53	4672
857.664	4714
857.797	4729
857.931	4763
858.064	4710
858.197	4748
858.331	4634
858.464	4588
858.597	4542
858.731	4660
858.864	4645
858.997	4615
859.13	4702
859.263	4656
859.396	4664
859.529	4504
859.662	4622
859.795	4512
859.928	4615
860.061	4694
860.194	4755
860.327	4561
860.46	4577
860.592	4694
860.725	4668
860.858	4714
860.99	4569
861.123	4535
861.256	4497
861.388	4580
861.521	5410
861.653	4478
861.786	4424
861.918	4485
862.05	4516
862.183	4565
862.315	4580
862.447	4656
862.58	4580
862.712	4421
862.844	4306
862.976	4497
863.108	4447
863.24	4782
863.372	4325
863.504	4375
863.636	4375
863.768	4474
863.9	4421
864.032	4360
864.164	4413
864.296	4462
864.428	4554
864.559	4580
864.691	4527
864.823	4485
864.954	4462
865.086	4413
865.217	4432
865.349	4390
865.48	4455
865.612	4478
865.743	4672
865.875	4497
866.006	4440
866.137	4459
866.269	4390
866.4	4409
866.531	4386
866.662	4428
866.793	4386
866.924	4386
867.055	4489
867.186	4459
867.317	4421
867.448	4352
867.579	4386
867.71	4417
867.841	4398
867.972	4470
868.103	4424
868.233	4417
868.364	4402
868.495	4523
868.625	4675
868.756	4774
868.886	4519
869.017	4653
869.147	4812
869.278	4729
869.408	4683
869.539	4649
869.669	4717
869.799	4664
869.929	4740
870.06	4778
870.19	4968
870.32	4904
870.45	4919
870.58	5025
870.71	5109
870.84	5052
870.97	4919
871.1	4892
871.23	5185
871.36	5147
871.489	4980
871.619	5033
871.749	5105
871.879	5098
872.008	5140
872.138	5022
872.267	4957
872.397	4873
872.526	4847
872.656	4698
872.785	4805
872.915	4965
873.044	5033
873.173	4946
873.303	4980
873.432	4934
873.561	4961
873.69	4892
873.819	4843
873.948	4870
874.077	4828
874.206	4733
874.335	4820
874.464	4930
874.593	5033
874.722	4938
874.851	5064
874.979	5060
875.108	5029
875.237	4900
875.365	4889
875.494	4881
875.623	4927
875.751	4820
875.88	4877
876.008	4995
876.136	5014
876.265	5178
876.393	5383
876.521	5250
876.65	5239
876.778	5121
876.906	5052
877.034	5025
877.162	5025
877.29	4965
877.418	5037
877.546	5048
877.674	5037
877.802	5025
877.93	5006
878.058	4919
878.185	4873
878.313	4904
878.441	4896
878.568	4778
878.696	4900
878.824	4949
878.951	4957
879.079	5113
879.206	5261
879.333	5136
879.461	4976
879.588	4976
879.715	5105
879.842	5216
879.97	5010
880.097	4755
880.224	4710
880.351	4786
880.478	4809
880.605	4790
880.732	4774
880.859	5045
880.986	4866
881.112	4866
881.239	4812
881.366	4687
881.493	4596
881.619	4603
881.746	4653
881.872	4603
881.999	4626
882.125	4675
882.252	4729
882.378	4847
882.505	4938
882.631	4782
882.757	4653
882.883	4706
883.01	4698
883.136	4683
883.262	4546
883.388	4611
883.514	4820
883.64	4854
883.766	4702
883.892	4656
884.018	4733
884.143	4870
884.269	5003
884.395	4698
884.52	4656
884.646	4634
884.772	4542
884.897	4569
885.023	4656
885.148	4763
885.274	4866
885.399	4786
885.524	4710
885.65	4736
885.775	4748
885.9	4725
886.025	4854
886.15	4816
886.275	4733
886.4	4656
886.525	4744
886.65	4664
886.775	4664
886.9	4873
887.025	5056
887.149	4793
887.274	4710
887.399	4569
887.523	4588
887.648	4588
887.773	4577
887.897	4786
888.021	4744
888.146	4618
888.27	4774
888.395	4889
888.519	4786
888.643	4797
888.767	4812
888.891	4626
889.015	4561
889.139	4649
889.263	4626
889.387	4755
889.511	4850
889.635	4778
889.759	4615
889.883	4622
890.006	4733
890.13	4793
890.254	4596
890.377	4672
890.501	4535
890.624	4527
890.748	4634
890.871	4523
890.995	4474
891.118	4367
891.241	4531
891.364	4508
891.488	4607
891.611	4497
891.734	4542
891.857	4618
891.98	4542
892.103	4630
892.226	4546
892.349	4508
892.471	4424
892.594	4523
892.717	4611
892.839	4599
892.962	4577
893.085	4626
893.207	4535
893.33	4421
893.452	4550
893.575	4645
893.697	4588
893.819	4786
893.941	4862
894.064	4736
894.186	4523
894.308	4573
894.43	4740
894.552	4774
894.674	4748
894.796	4523
894.918	4668
895.04	4603
895.161	4736
895.283	4679
895.405	4542
895.526	4634
895.648	4679
895.769	4634
895.891	4691
896.012	4733
896.134	4717
896.255	4660
896.376	4611
896.498	4607
896.619	4645
896.74	4615
896.861	4683
896.982	4896
897.103	5098
897.224	4805
897.345	4755
897.466	4687
897.587	4687
897.708	4839
897.828	4733
897.949	4714
898.07	4573
898.19	4660
898.311	4790
898.431	4660
898.552	4744
898.672	4805
898.792	4839
898.913	4714
899.033	4577
899.153	4485
899.273	4402
899.393	4481
899.513	4527
899.633	4512
899.753	4550
899.873	4504
899.993	4523
900.113	4535
900.232	4599
900.352	4535
900.472	4443
900.591	4383
900.711	4466
900.83	4424
900.95	4611
901.069	4664
901.189	4531
901.308	4386
901.427	4318
901.546	4341
901.665	4451
901.784	4478
901.904	4409
902.023	4310
902.141	4188
902.26	4128
902.379	4306
902.498	4230
902.617	4204
902.735	4379
902.854	4405
902.973	4318
903.091	4215
903.21	4215
903.328	4295
903.446	4268
903.565	4284
903.683	4383
903.801	4253
903.919	4390
904.038	4436
904.156	4303
904.274	4470
904.392	4341
904.51	4462
904.627	4481
904.745	4580
904.863	4641
904.981	4394
905.098	4322
905.216	4356
905.334	4386
905.451	4474
905.569	4462
905.686	4538
905.803	4546
905.921	4398
906.038	4497
906.155	4462
906.272	4417
906.389	4478
906.506	4371
906.623	4360
906.74	4398
906.857	4333
906.974	4356
907.091	4489
907.208	4672
907.324	4573
907.441	4527
907.557	4337
907.674	4363
907.79	4303
907.907	4356
908.023	4440
908.139	4508
908.256	4398
908.372	4436
908.488	4485
908.604	4371
908.72	4310
908.836	4375
908.952	4337
909.068	4413
909.184	4561
909.3	4436
909.415	4596
909.531	4569
909.647	4356
909.762	4383
909.878	4375
909.993	4402
910.108	4417
910.224	4428
910.339	4417
910.454	4371
910.57	4379
910.685	4322
910.8	4637
910.915	4588
911.03	4455
911.145	4310
911.259	4303
911.374	4348
911.489	4265
911.604	4295
911.718	4162
911.833	4192
911.947	4090
912.062	3979
912.176	4211
912.291	4242
912.405	4246
912.519	4428
912.633	4481
912.748	4329
912.862	4363
912.976	4234
913.09	4109
913.204	4173
913.318	4227
913.431	4363
913.545	4405
913.659	4432
913.772	4341
913.886	4242
914	4219
914.113	4405
914.226	4436
914.34	4375
914.453	4227
914.566	4455
914.68	4299
914.793	4284
914.906	4177
915.019	4128
915.132	4021
915.245	4154
915.358	4169
915.47	4177
915.583	4234
915.696	4291
915.809	4356
915.921	4466
916.034	4257
916.146	4234
916.259	4200
916.371	4386
916.483	4318
916.595	4219
916.708	4303
916.82	4333
916.932	4352
917.044	4280
917.156	4363
917.268	4223
917.38	4314
917.491	4238
917.603	4386
917.715	4409
917.826	4455
917.938	4337
918.049	4211
918.161	4402
918.272	4542
918.384	4523
918.495	4478
918.606	4272
918.717	4223
918.828	4272
918.939	4337
919.05	4242
919.161	4322
919.272	4101
919.383	4246
919.494	4424
919.604	4653
919.715	4447
919.826	4352
919.936	4379
920.047	4523
920.157	4504
920.267	4687
920.378	4561
920.488	4489
920.598	4706
920.708	4850
920.818	4679
920.928	4744
921.038	4957
921.148	4870
921.258	4653
921.368	4542
921.477	4512
921.587	4409
921.697	4402
921.806	4500
921.916	4470
922.025	4246
922.134	4280
922.244	4223
922.353	4341
922.462	4173
922.571	4101
922.68	4082
922.789	3994
922.898	4021
923.007	3964
923.116	4116
923.224	4063
923.333	4051
923.442	4010
923.55	3930
923.659	4013
923.767	4097
923.876	4002
923.984	4128
924.092	4002
924.201	4082
924.309	4101
924.417	4158
924.525	4063
924.633	4116
924.741	5014
924.849	3945
924.956	4150
925.064	3968
925.172	3899
925.279	3953
925.387	3987
925.494	4063
925.602	4253
925.709	4154
925.816	4044
925.924	4101
926.031	4185
926.138	4150
926.245	4169
926.352	4078
926.459	4219
926.566	4284
926.673	4173
926.779	4082
926.886	4025
926.993	3949
927.099	3945
927.206	3941
927.312	3945
927.419	4032
927.525	4067
927.631	4051
927.737	3975
927.843	3968
927.95	3827
928.056	3888
928.162	3998
928.267	4036
928.373	4580
928.479	4131
928.585	3907
928.69	4017
928.796	4021
928.901	3975
929.007	3869
929.112	4029
929.218	3968
929.323	3918
929.428	3968
929.533	4071
929.638	3892
929.743	3922
929.848	4029
929.953	4032
930.058	3907
930.163	3770
930.267	3838
930.372	4006
930.477	3827
930.581	4055
930.685	3865
930.79	3785
930.894	3903
930.998	3857
931.103	4051
931.207	3663
931.311	3694
931.415	3671
931.519	3526
931.623	3511
