Data from test_V78500241_1592.txt Node
Date: Fri Mar 25 17:00:04 CST 2022
User: usil
Spectrometer: V785-0024
Trigger mode: 0
Integration Time (sec): 4.000000E-1
Scans to average: 1
Nonlinearity correction enabled: false
Boxcar width: 0
Storing dark spectrum: false
XAxis mode: Wavelengths
Number of Pixels in Spectrum: 1024
>>>>>Begin Spectral Data<<<<<
801.071	8012
801.214	7974
801.356	7894
801.499	7856
801.641	7761
801.783	7826
801.926	7989
802.068	7936
802.211	8001
802.353	7947
802.496	7868
802.638	7871
802.78	7887
802.923	7989
803.065	7932
803.208	7909
803.35	8005
803.492	8031
803.635	8100
803.777	7970
803.919	8161
804.061	8419
804.204	8176
804.346	7986
804.488	7997
804.63	8054
804.773	7989
804.915	8119
805.057	8240
805.199	8161
805.341	8286
805.483	8183
805.626	8149
805.768	8077
805.91	8229
806.052	8275
806.194	8119
806.336	8256
806.478	8103
806.62	8039
806.762	8046
806.904	8199
807.046	8541
807.188	8320
807.33	8351
807.472	8355
807.614	8149
807.756	8142
807.898	7959
808.04	7898
808.182	7913
808.324	7925
808.465	7909
808.607	8039
808.749	8164
808.891	8161
809.033	8267
809.174	8157
809.316	8008
809.458	7993
809.6	7997
809.741	8035
809.883	8024
810.025	8092
810.166	8035
810.308	8012
810.45	7898
810.591	7780
810.733	7746
810.875	7658
811.016	7491
811.158	7483
811.299	7594
811.441	7734
811.582	7674
811.724	7556
811.865	7559
812.007	7529
812.148	7472
812.29	7578
812.431	7780
812.573	7925
812.714	8005
812.855	8123
812.997	8210
813.138	8343
813.279	8142
813.421	8027
813.562	7928
813.703	7887
813.845	7712
813.986	7381
814.127	7202
814.268	7099
814.41	7187
814.551	7137
814.692	7164
814.833	7110
814.974	7091
815.115	7095
815.256	6905
815.397	6916
815.539	6856
815.68	6764
815.821	6798
815.962	6867
816.103	6852
816.244	6711
816.385	6642
816.526	6646
816.666	6483
816.807	6338
816.948	6414
817.089	6410
817.23	6483
817.371	6414
817.512	6346
817.653	6414
817.793	6388
817.934	6399
818.075	6433
818.216	6414
818.356	6445
818.497	6270
818.638	6129
818.778	6155
818.919	6136
819.06	6102
819.2	6300
819.341	6384
819.481	6384
819.622	6525
819.762	6703
819.903	6681
820.043	6597
820.184	6555
820.324	6521
820.465	6730
820.605	6662
820.746	6623
820.886	6498
821.026	6654
821.167	6684
821.307	6783
821.447	6821
821.588	6684
821.728	6601
821.868	6483
822.008	6315
822.149	6311
822.289	6323
822.429	6140
822.569	6049
822.709	6121
822.849	5908
822.99	5942
823.13	5916
823.27	5916
823.41	5821
823.55	5767
823.69	5714
823.83	5714
823.97	5684
824.11	5558
824.25	5501
824.389	5535
824.529	5585
824.669	5512
824.809	5600
824.949	5634
825.089	5589
825.228	5562
825.368	5360
825.508	5341
825.648	5315
825.787	5410
825.927	5315
826.067	5258
826.206	5265
826.346	5383
826.485	5345
826.625	5376
826.765	5524
826.904	5455
827.044	5223
827.183	5204
827.323	5117
827.462	5261
827.601	5140
827.741	5140
827.88	5201
828.02	5098
828.159	5193
828.298	5277
828.437	5341
828.577	5208
828.716	5444
828.855	5261
828.994	5174
829.134	5140
829.273	5178
829.412	5185
829.551	5113
829.69	5136
829.829	5231
829.968	5368
830.107	5280
830.246	5284
830.385	5170
830.524	5143
830.663	5075
830.802	4976
830.941	4896
831.08	4843
831.219	4934
831.357	5006
831.496	5132
831.635	4881
831.774	4850
831.913	4805
832.051	4748
832.19	4736
832.329	4771
832.467	4710
832.606	4630
832.744	4714
832.883	4664
833.022	4744
833.16	4752
833.299	4786
833.437	4771
833.576	4786
833.714	4835
833.852	4881
833.991	4839
834.129	4934
834.267	4930
834.406	4889
834.544	4942
834.682	4908
834.821	4911
834.959	5121
835.097	4991
835.235	5128
835.373	5045
835.511	5045
835.65	5052
835.788	4957
835.926	4915
836.064	4881
836.202	4930
836.34	5136
836.478	5174
836.615	5079
836.753	5185
836.891	5307
837.029	5185
837.167	5166
837.305	5151
837.443	5113
837.58	5033
837.718	5220
837.856	5159
837.993	5159
838.131	5273
838.269	5193
838.406	5220
838.544	5128
838.681	5041
838.819	5003
838.956	4866
839.094	4915
839.231	4987
839.369	5079
839.506	5398
839.643	5258
839.781	5086
839.918	4999
840.055	5025
840.193	5071
840.33	5075
840.467	5140
840.604	5155
840.742	5391
840.879	5075
841.016	5113
841.153	5132
841.29	5337
841.427	5334
841.564	5280
841.701	5406
841.838	5284
841.975	5227
842.112	5235
842.249	5155
842.385	5067
842.522	5284
842.659	5151
842.796	5098
842.933	5185
843.069	5102
843.206	5136
843.343	5258
843.479	5201
843.616	5326
843.752	5056
843.889	4968
844.025	5261
844.162	5029
844.298	5178
844.435	5094
844.571	5041
844.708	5170
844.844	5269
844.98	5303
845.117	5265
845.253	5151
845.389	5064
845.525	5178
845.661	5113
845.798	5029
845.934	5105
846.07	5037
846.206	5109
846.342	5258
846.478	5124
846.614	5006
846.75	4946
846.886	4961
847.022	5056
847.158	4999
847.294	5079
847.429	5098
847.565	5071
847.701	5292
847.837	4835
847.972	4801
848.108	4965
848.244	4919
848.379	4767
848.515	4672
848.65	4706
848.786	4706
848.921	4786
849.057	4877
849.192	4934
849.328	4820
849.463	4831
849.598	4729
849.734	4755
849.869	4683
850.004	4607
850.14	4660
850.275	4565
850.41	4561
850.545	4546
850.68	4637
850.815	4580
850.95	4637
851.085	4793
851.22	4725
851.355	4630
851.49	4599
851.625	4615
851.76	4577
851.895	4523
852.03	4512
852.165	4588
852.299	4694
852.434	4835
852.569	4744
852.703	4740
852.838	4839
852.973	4930
853.107	4957
853.242	4710
853.376	4714
853.511	4527
853.645	4603
853.78	4801
853.914	4710
854.048	4637
854.183	4660
854.317	4687
854.451	4812
854.585	4634
854.72	4603
854.854	4710
854.988	4592
855.122	4637
855.256	4565
855.39	4672
855.524	4721
855.658	4672
855.792	4714
855.926	4729
856.06	4748
856.194	4752
856.327	4679
856.461	4645
856.595	4584
856.729	4561
856.862	4733
856.996	4717
857.13	4744
857.263	4733
857.397	4774
857.53	4637
857.664	4698
857.797	4733
857.931	4755
858.064	4660
858.197	4660
858.331	4645
858.464	4588
858.597	4531
858.731	4634
858.864	4611
858.997	4588
859.13	4622
859.263	4656
859.396	4691
859.529	4577
859.662	4550
859.795	4493
859.928	4622
860.061	4744
860.194	4759
860.327	4584
860.46	4554
860.592	4672
860.725	4687
860.858	4710
860.99	4561
861.123	4481
861.256	4531
861.388	4569
861.521	5208
861.653	4443
861.786	4440
861.918	4462
862.05	4542
862.183	4569
862.315	4596
862.447	4668
862.58	4527
862.712	4402
862.844	4291
862.976	4421
863.108	4424
863.24	4748
863.372	4310
863.504	4356
863.636	4344
863.768	4478
863.9	4371
864.032	4390
864.164	4405
864.296	4428
864.428	4527
864.559	4546
864.691	4508
864.823	4500
864.954	4481
865.086	4519
865.217	4428
865.349	4459
865.48	4447
865.612	4500
865.743	4622
865.875	4516
866.006	4440
866.137	4500
866.269	4455
866.4	4451
866.531	4371
866.662	4398
866.793	4436
866.924	4440
867.055	4535
867.186	4462
867.317	4413
867.448	4428
867.579	4371
867.71	4443
867.841	4447
867.972	4455
868.103	4474
868.233	4470
868.364	4447
868.495	4478
868.625	4675
868.756	4782
868.886	4580
869.017	4660
869.147	4812
869.278	4824
869.408	4691
869.539	4683
869.669	4752
869.799	4710
869.929	4790
870.06	4786
870.19	5025
870.32	4953
870.45	4999
870.58	5037
870.71	5079
870.84	5147
870.97	4930
871.1	4930
871.23	5147
871.36	5185
871.489	5014
871.619	5113
871.749	5132
871.879	5124
872.008	5166
872.138	5105
872.267	5029
872.397	4881
872.526	4850
872.656	4755
872.785	4843
872.915	4995
873.044	5060
873.173	4968
873.303	4991
873.432	5014
873.561	4999
873.69	4908
873.819	4866
873.948	4900
874.077	4866
874.206	4797
874.335	4866
874.464	4984
874.593	5102
874.722	5014
874.851	5124
874.979	5086
875.108	5006
875.237	4968
875.365	4946
875.494	4885
875.623	5022
875.751	4900
875.88	4896
876.008	5029
876.136	5048
876.265	5201
876.393	5391
876.521	5242
876.65	5280
876.778	5197
876.906	5109
877.034	5102
877.162	5090
877.29	5052
877.418	5037
877.546	5117
877.674	5121
877.802	5048
877.93	5014
878.058	4946
878.185	4870
878.313	4927
878.441	4980
878.568	4862
878.696	4923
878.824	5003
878.951	5045
879.079	5235
879.206	5326
879.333	5090
879.461	4972
879.588	5029
879.715	5151
879.842	5189
879.97	5033
880.097	4786
880.224	4759
880.351	4816
880.478	4866
880.605	4828
880.732	4782
880.859	5124
880.986	4919
881.112	4927
881.239	4839
881.366	4679
881.493	4622
881.619	4592
881.746	4603
881.872	4660
881.999	4725
882.125	4683
882.252	4831
882.378	4854
882.505	5006
882.631	4801
882.757	4706
882.883	4755
883.01	4805
883.136	4637
883.262	4592
883.388	4565
883.514	4816
883.64	4847
883.766	4850
883.892	4664
884.018	4782
884.143	4923
884.269	5022
884.395	4717
884.52	4641
884.646	4626
884.772	4588
884.897	4542
885.023	4645
885.148	4812
885.274	4873
885.399	4820
885.524	4740
885.65	4698
885.775	4710
885.9	4767
886.025	4831
886.15	4824
886.275	4744
886.4	4656
886.525	4748
886.65	4691
886.775	4687
886.9	4946
887.025	5079
887.149	4835
887.274	4668
887.399	4618
887.523	4577
887.648	4588
887.773	4615
887.897	4797
888.021	4816
888.146	4717
888.27	4828
888.395	4972
888.519	4790
888.643	4839
888.767	4847
888.891	4725
889.015	4653
889.139	4660
889.263	4649
889.387	4805
889.511	4919
889.635	4805
889.759	4637
889.883	4668
890.006	4774
890.13	4904
890.254	4626
890.377	4725
890.501	4599
890.624	4519
890.748	4630
890.871	4493
890.995	4459
891.118	4413
891.241	4542
891.364	4504
891.488	4706
891.611	4546
891.734	4538
891.857	4630
891.98	4649
892.103	4645
892.226	4618
892.349	4527
892.471	4409
892.594	4618
892.717	4672
892.839	4611
892.962	4630
893.085	4691
893.207	4622
893.33	4451
893.452	4561
893.575	4702
893.697	4558
893.819	4805
893.941	4854
894.064	4782
894.186	4569
894.308	4577
894.43	4717
894.552	4835
894.674	4786
894.796	4550
894.918	4622
895.04	4558
895.161	4725
895.283	4698
895.405	4634
895.526	4649
895.648	4744
895.769	4721
895.891	4710
896.012	4782
896.134	4672
896.255	4702
896.376	4653
896.498	4626
896.619	4706
896.74	4596
896.861	4664
896.982	4904
897.103	5083
897.224	4858
897.345	4790
897.466	4740
897.587	4782
897.708	4877
897.828	4820
897.949	4710
898.07	4569
898.19	4679
898.311	4904
898.431	4694
898.552	4778
898.672	4858
898.792	4797
898.913	4771
899.033	4634
899.153	4516
899.273	4432
899.393	4519
899.513	4523
899.633	4596
899.753	4546
899.873	4550
899.993	4596
900.113	4596
900.232	4630
900.352	4542
900.472	4527
900.591	4390
900.711	4569
900.83	4497
900.95	4584
901.069	4702
901.189	4550
901.308	4371
901.427	4329
901.546	4394
901.665	4497
901.784	4542
901.904	4409
902.023	4322
902.141	4242
902.26	4124
902.379	4333
902.498	4299
902.617	4257
902.735	4363
902.854	4455
902.973	4394
903.091	4230
903.21	4246
903.328	4325
903.446	4280
903.565	4287
903.683	4352
903.801	4291
903.919	4470
904.038	4485
904.156	4318
904.274	4459
904.392	4375
904.51	4466
904.627	4508
904.745	4577
904.863	4656
904.981	4417
905.098	4329
905.216	4390
905.334	4462
905.451	4447
905.569	4459
905.686	4573
905.803	4599
905.921	4394
906.038	4569
906.155	4542
906.272	4478
906.389	4466
906.506	4356
906.623	4371
906.74	4390
906.857	4325
906.974	4421
907.091	4615
907.208	4717
907.324	4641
907.441	4504
907.557	4386
907.674	4344
907.79	4314
907.907	4402
908.023	4531
908.139	4470
908.256	4443
908.372	4554
908.488	4466
908.604	4390
908.72	4344
908.836	4428
908.952	4379
909.068	4459
909.184	4599
909.3	4531
909.415	4599
909.531	4573
909.647	4360
909.762	4428
909.878	4348
909.993	4455
910.108	4379
910.224	4424
910.339	4500
910.454	4424
910.57	4386
910.685	4344
910.8	4714
910.915	4603
911.03	4466
911.145	4310
911.259	4306
911.374	4363
911.489	4363
911.604	4280
911.718	4211
911.833	4200
911.947	4086
912.062	4063
912.176	4265
912.291	4242
912.405	4276
912.519	4466
912.633	4516
912.748	4329
912.862	4295
912.976	4219
913.09	4090
913.204	4200
913.318	4284
913.431	4371
913.545	4341
913.659	4455
913.772	4375
913.886	4329
914	4276
914.113	4379
914.226	4405
914.34	4390
914.453	4230
914.566	4447
914.68	4360
914.793	4363
914.906	4154
915.019	4097
915.132	4078
915.245	4139
915.358	4223
915.47	4238
915.583	4341
915.696	4291
915.809	4462
915.921	4459
916.034	4284
916.146	4257
916.259	4211
916.371	4402
916.483	4337
916.595	4257
916.708	4360
916.82	4314
916.932	4337
917.044	4360
917.156	4360
917.268	4227
917.38	4253
917.491	4287
917.603	4367
917.715	4443
917.826	4424
917.938	4356
918.049	4234
918.161	4386
918.272	4588
918.384	4569
918.495	4512
918.606	4325
918.717	4257
918.828	4398
918.939	4352
919.05	4253
919.161	4379
919.272	4112
919.383	4265
919.494	4497
919.604	4599
919.715	4432
919.826	4379
919.936	4383
920.047	4538
920.157	4493
920.267	4717
920.378	4519
920.488	4508
920.598	4694
920.708	4873
920.818	4767
920.928	4801
921.038	4953
921.148	4927
921.258	4645
921.368	4538
921.477	4519
921.587	4504
921.697	4402
921.806	4523
921.916	4474
922.025	4242
922.134	4325
922.244	4238
922.353	4379
922.462	4204
922.571	4147
922.68	4029
922.789	4010
922.898	4036
923.007	3991
923.116	4097
923.224	4078
923.333	4063
923.442	4044
923.55	4002
923.659	4067
923.767	4090
923.876	4029
923.984	4150
924.092	3998
924.201	4082
924.309	4128
924.417	4131
924.525	4036
924.633	4109
924.741	4892
924.849	3918
924.956	4124
925.064	3953
925.172	3953
925.279	3991
925.387	4082
925.494	4071
925.602	4230
925.709	4207
925.816	4032
925.924	4131
926.031	4215
926.138	4169
926.245	4238
926.352	4078
926.459	4249
926.566	4291
926.673	4143
926.779	4116
926.886	4090
926.993	3987
927.099	3949
927.206	3918
927.312	3941
927.419	4044
927.525	4036
927.631	4090
927.737	3945
927.843	3937
927.95	3850
928.056	4006
928.162	3964
928.267	4090
928.373	4599
928.479	4124
928.585	3861
928.69	4040
928.796	4051
928.901	3975
929.007	3808
929.112	4040
929.218	4006
929.323	3930
929.428	3979
929.533	4128
929.638	3960
929.743	3926
929.848	4021
929.953	4006
930.058	3968
930.163	3762
930.267	3835
930.372	3960
930.477	3838
930.581	4029
930.685	3968
930.79	3854
930.894	3884
930.998	3850
931.103	4017
931.207	3728
931.311	3690
931.415	3671
931.519	3568
931.623	3523
