Data from test_V78500241_241.txt Node
Date: Fri Mar 25 16:50:40 CST 2022
User: usil
Spectrometer: V785-0024
Trigger mode: 0
Integration Time (sec): 4.000000E-1
Scans to average: 1
Nonlinearity correction enabled: false
Boxcar width: 0
Storing dark spectrum: false
XAxis mode: Wavelengths
Number of Pixels in Spectrum: 1024
>>>>>Begin Spectral Data<<<<<
801.071	8100
801.214	8046
801.356	7871
801.499	7811
801.641	7792
801.783	7906
801.926	8035
802.068	7974
802.211	8043
802.353	8020
802.496	7887
802.638	7940
802.78	7940
802.923	8012
803.065	7944
803.208	7902
803.35	7879
803.492	8126
803.635	8176
803.777	7993
803.919	8142
804.061	8473
804.204	8168
804.346	8020
804.488	7944
804.63	8153
804.773	7978
804.915	8058
805.057	8229
805.199	8210
805.341	8240
805.483	8320
805.626	8233
805.768	8062
805.91	8206
806.052	8218
806.194	8126
806.336	8298
806.478	8153
806.62	8088
806.762	8081
806.904	8256
807.046	8412
807.188	8328
807.33	8336
807.472	8279
807.614	8138
807.756	8062
807.898	8024
808.04	7890
808.182	7932
808.324	7974
808.465	7940
808.607	8058
808.749	8077
808.891	8187
809.033	8366
809.174	8183
809.316	7993
809.458	8043
809.6	8035
809.741	8084
809.883	7978
810.025	8172
810.166	8088
810.308	7993
810.45	8054
810.591	7909
810.733	7753
810.875	7674
811.016	7594
811.158	7518
811.299	7639
811.441	7753
811.582	7670
811.724	7556
811.865	7556
812.007	7651
812.148	7590
812.29	7651
812.431	7833
812.573	7883
812.714	7978
812.855	8134
812.997	8290
813.138	8347
813.279	8286
813.421	8142
813.562	8008
813.703	7769
813.845	7769
813.986	7422
814.127	7270
814.268	7335
814.41	7209
814.551	7149
814.692	7171
814.833	7114
814.974	7118
815.115	7095
815.256	6939
815.397	6981
815.539	7027
815.68	6859
815.821	6768
815.962	6894
816.103	6833
816.244	6703
816.385	6646
816.526	6642
816.666	6513
816.807	6342
816.948	6467
817.089	6418
817.23	6441
817.371	6384
817.512	6346
817.653	6426
817.793	6391
817.934	6437
818.075	6471
818.216	6418
818.356	6384
818.497	6266
818.638	6129
818.778	6148
818.919	6152
819.06	6182
819.2	6350
819.341	6254
819.481	6338
819.622	6582
819.762	6726
819.903	6722
820.043	6547
820.184	6608
820.324	6582
820.465	6688
820.605	6654
820.746	6639
820.886	6494
821.026	6635
821.167	6753
821.307	6806
821.447	6806
821.588	6681
821.728	6540
821.868	6498
822.008	6315
822.149	6448
822.289	6376
822.429	6186
822.569	6125
822.709	6121
822.849	5939
822.99	5904
823.13	5961
823.27	5980
823.41	5790
823.55	5870
823.69	5817
823.83	5783
823.97	5672
824.11	5558
824.25	5524
824.389	5566
824.529	5604
824.669	5539
824.809	5611
824.949	5608
825.089	5649
825.228	5604
825.368	5467
825.508	5368
825.648	5353
825.787	5379
825.927	5421
826.067	5357
826.206	5318
826.346	5414
826.485	5391
826.625	5463
826.765	5520
826.904	5512
827.044	5261
827.183	5246
827.323	5201
827.462	5261
827.601	5143
827.741	5201
827.88	5212
828.02	5086
828.159	5284
828.298	5322
828.437	5345
828.577	5292
828.716	5490
828.855	5383
828.994	5185
829.134	5143
829.273	5227
829.412	5143
829.551	5067
829.69	5208
829.829	5239
829.968	5391
830.107	5273
830.246	5265
830.385	5136
830.524	5124
830.663	5109
830.802	4995
830.941	4930
831.08	4866
831.219	4976
831.357	4991
831.496	5162
831.635	4934
831.774	4908
831.913	4835
832.051	4744
832.19	4744
832.329	4900
832.467	4706
832.606	4660
832.744	4736
832.883	4729
833.022	4706
833.16	4816
833.299	4820
833.437	4862
833.576	4816
833.714	4877
833.852	4866
833.991	4881
834.129	4938
834.267	4995
834.406	4911
834.544	4972
834.682	4965
834.821	4968
834.959	5204
835.097	4999
835.235	5181
835.373	5102
835.511	5113
835.65	5033
835.788	5060
835.926	4923
836.064	4885
836.202	4961
836.34	5166
836.478	5261
836.615	5113
836.753	5250
836.891	5273
837.029	5258
837.167	5197
837.305	5208
837.443	5174
837.58	5067
837.718	5254
837.856	5197
837.993	5227
838.131	5246
838.269	5223
838.406	5216
838.544	5239
838.681	5071
838.819	5052
838.956	4923
839.094	4873
839.231	5003
839.369	5098
839.506	5459
839.643	5307
839.781	5143
839.918	5090
840.055	5041
840.193	5102
840.33	5174
840.467	5159
840.604	5231
840.742	5444
840.879	5090
841.016	5121
841.153	5170
841.29	5379
841.427	5318
841.564	5318
841.701	5330
841.838	5280
841.975	5216
842.112	5299
842.249	5143
842.385	5117
842.522	5334
842.659	5208
842.796	5208
842.933	5204
843.069	5147
843.206	5220
843.343	5326
843.479	5250
843.616	5315
843.752	5045
843.889	5025
844.025	5231
844.162	5060
844.298	5208
844.435	5079
844.571	5045
844.708	5258
844.844	5322
844.98	5322
845.117	5315
845.253	5151
845.389	5132
845.525	5143
845.661	5151
845.798	5052
845.934	5162
846.07	5041
846.206	5246
846.342	5315
846.478	5239
846.614	4995
846.75	4980
846.886	4976
847.022	5109
847.158	5045
847.294	5090
847.429	5121
847.565	5086
847.701	5330
847.837	4843
847.972	4820
848.108	5003
848.244	4961
848.379	4816
848.515	4816
848.65	4721
848.786	4740
848.921	4782
849.057	4839
849.192	4923
849.328	4820
849.463	4839
849.598	4835
849.734	4790
849.869	4740
850.004	4645
850.14	4630
850.275	4626
850.41	4558
850.545	4527
850.68	4584
850.815	4660
850.95	4694
851.085	4870
851.22	4729
851.355	4618
851.49	4580
851.625	4622
851.76	4634
851.895	4573
852.03	4577
852.165	4721
852.299	4679
852.434	4771
852.569	4744
852.703	4839
852.838	4896
852.973	4938
853.107	4858
853.242	4691
853.376	4687
853.511	4554
853.645	4622
853.78	4850
853.914	4736
854.048	4691
854.183	4645
854.317	4729
854.451	4892
854.585	4706
854.72	4668
854.854	4755
854.988	4641
855.122	4668
855.256	4538
855.39	4691
855.524	4797
855.658	4736
855.792	4721
855.926	4763
856.06	4744
856.194	4812
856.327	4683
856.461	4649
856.595	4698
856.729	4683
856.862	4744
856.996	4733
857.13	4744
857.263	4782
857.397	4820
857.53	4664
857.664	4710
857.797	4748
857.931	4816
858.064	4664
858.197	4744
858.331	4641
858.464	4641
858.597	4519
858.731	4653
858.864	4679
858.997	4618
859.13	4660
859.263	4725
859.396	4710
859.529	4599
859.662	4618
859.795	4546
859.928	4615
860.061	4786
860.194	4767
860.327	4656
860.46	4618
860.592	4733
860.725	4721
860.858	4744
860.99	4588
861.123	4512
861.256	4565
861.388	4577
861.521	5452
861.653	4535
861.786	4417
861.918	4500
862.05	4512
862.183	4558
862.315	4637
862.447	4645
862.58	4577
862.712	4379
862.844	4352
862.976	4493
863.108	4481
863.24	4877
863.372	4394
863.504	4413
863.636	4440
863.768	4459
863.9	4402
864.032	4390
864.164	4447
864.296	4493
864.428	4538
864.559	4615
864.691	4550
864.823	4523
864.954	4493
865.086	4493
865.217	4459
865.349	4394
865.48	4466
865.612	4500
865.743	4653
865.875	4485
866.006	4459
866.137	4500
866.269	4470
866.4	4402
866.531	4436
866.662	4421
866.793	4424
866.924	4432
867.055	4478
867.186	4466
867.317	4432
867.448	4356
867.579	4402
867.71	4405
867.841	4394
867.972	4478
868.103	4478
868.233	4466
868.364	4447
868.495	4497
868.625	4679
868.756	4755
868.886	4588
869.017	4630
869.147	4740
869.278	4740
869.408	4706
869.539	4660
869.669	4702
869.799	4679
869.929	4748
870.06	4706
870.19	4972
870.32	4915
870.45	4976
870.58	5029
870.71	5155
870.84	5105
870.97	4942
871.1	4942
871.23	5170
871.36	5113
871.489	5056
871.619	5079
871.749	5109
871.879	5121
872.008	5197
872.138	5102
872.267	5010
872.397	4892
872.526	4866
872.656	4774
872.785	4763
872.915	4953
873.044	5052
873.173	4961
873.303	4927
873.432	4968
873.561	4991
873.69	4915
873.819	4850
873.948	4923
874.077	4816
874.206	4736
874.335	4885
874.464	4934
874.593	5071
874.722	4953
874.851	5113
874.979	5075
875.108	5056
875.237	4942
875.365	4866
875.494	4919
875.623	4942
875.751	4824
875.88	4862
876.008	4984
876.136	5083
876.265	5197
876.393	5353
876.521	5303
876.65	5216
876.778	5178
876.906	5079
877.034	5048
877.162	5037
877.29	5018
877.418	5086
877.546	5094
877.674	5056
877.802	5041
877.93	5006
878.058	4934
878.185	4892
878.313	4991
878.441	4949
878.568	4786
878.696	4854
878.824	4961
878.951	4976
879.079	5121
879.206	5353
879.333	5105
879.461	4942
879.588	5018
879.715	5113
879.842	5193
879.97	4991
880.097	4835
880.224	4729
880.351	4850
880.478	4824
880.605	4778
880.732	4812
880.859	5105
880.986	4904
881.112	4953
881.239	4812
881.366	4691
881.493	4580
881.619	4599
881.746	4653
881.872	4687
881.999	4656
882.125	4694
882.252	4793
882.378	4824
882.505	4938
882.631	4793
882.757	4656
882.883	4729
883.01	4744
883.136	4698
883.262	4599
883.388	4599
883.514	4843
883.64	4850
883.766	4854
883.892	4679
884.018	4691
884.143	4900
884.269	5010
884.395	4691
884.52	4626
884.646	4660
884.772	4603
884.897	4569
885.023	4656
885.148	4805
885.274	4877
885.399	4755
885.524	4729
885.65	4675
885.775	4771
885.9	4725
886.025	4835
886.15	4793
886.275	4725
886.4	4664
886.525	4706
886.65	4733
886.775	4717
886.9	4927
887.025	5048
887.149	4816
887.274	4626
887.399	4573
887.523	4622
887.648	4531
887.773	4618
887.897	4782
888.021	4774
888.146	4664
888.27	4835
888.395	4927
888.519	4843
888.643	4847
888.767	4828
888.891	4672
889.015	4634
889.139	4637
889.263	4603
889.387	4759
889.511	4881
889.635	4835
889.759	4634
889.883	4656
890.006	4698
890.13	4847
890.254	4618
890.377	4668
890.501	4550
890.624	4565
890.748	4596
890.871	4523
890.995	4451
891.118	4432
891.241	4508
891.364	4558
891.488	4634
891.611	4485
891.734	4561
891.857	4645
891.98	4527
892.103	4634
892.226	4622
892.349	4516
892.471	4424
892.594	4542
892.717	4634
892.839	4588
892.962	4641
893.085	4683
893.207	4588
893.33	4493
893.452	4474
893.575	4615
893.697	4573
893.819	4835
893.941	4820
894.064	4793
894.186	4603
894.308	4577
894.43	4782
894.552	4824
894.674	4740
894.796	4550
894.918	4561
895.04	4580
895.161	4698
895.283	4668
895.405	4592
895.526	4653
895.648	4725
895.769	4725
895.891	4744
896.012	4767
896.134	4679
896.255	4641
896.376	4653
896.498	4588
896.619	4691
896.74	4622
896.861	4656
896.982	4961
897.103	5128
897.224	4877
897.345	4771
897.466	4649
897.587	4702
897.708	4900
897.828	4748
897.949	4694
898.07	4558
898.19	4611
898.311	4835
898.431	4683
898.552	4752
898.672	4858
898.792	4786
898.913	4771
899.033	4645
899.153	4489
899.273	4455
899.393	4451
899.513	4538
899.633	4558
899.753	4588
899.873	4550
899.993	4596
900.113	4554
900.232	4592
900.352	4538
900.472	4512
900.591	4398
900.711	4500
900.83	4428
900.95	4599
901.069	4752
901.189	4569
901.308	4417
901.427	4322
901.546	4394
901.665	4527
901.784	4550
901.904	4379
902.023	4322
902.141	4196
902.26	4211
902.379	4318
902.498	4242
902.617	4181
902.735	4390
902.854	4386
902.973	4360
903.091	4295
903.21	4223
903.328	4306
903.446	4284
903.565	4287
903.683	4367
903.801	4333
903.919	4367
904.038	4455
904.156	4371
904.274	4405
904.392	4356
904.51	4443
904.627	4478
904.745	4588
904.863	4592
904.981	4421
905.098	4265
905.216	4383
905.334	4428
905.451	4474
905.569	4474
905.686	4561
905.803	4577
905.921	4451
906.038	4584
906.155	4535
906.272	4409
906.389	4466
906.506	4352
906.623	4337
906.74	4402
906.857	4291
906.974	4375
907.091	4546
907.208	4637
907.324	4603
907.441	4531
907.557	4367
907.674	4344
907.79	4295
907.907	4428
908.023	4474
908.139	4459
908.256	4443
908.372	4474
908.488	4466
908.604	4363
908.72	4386
908.836	4409
908.952	4344
909.068	4421
909.184	4596
909.3	4493
909.415	4546
909.531	4554
909.647	4367
909.762	4432
909.878	4398
909.993	4466
910.108	4428
910.224	4451
910.339	4489
910.454	4398
910.57	4344
910.685	4314
910.8	4672
910.915	4615
911.03	4546
911.145	4329
911.259	4352
911.374	4394
911.489	4344
911.604	4268
911.718	4158
911.833	4200
911.947	4093
912.062	4040
912.176	4211
912.291	4227
912.405	4276
912.519	4485
912.633	4527
912.748	4379
912.862	4348
912.976	4246
913.09	4169
913.204	4166
913.318	4257
913.431	4371
913.545	4348
913.659	4447
913.772	4363
913.886	4268
914	4246
914.113	4367
914.226	4481
914.34	4417
914.453	4211
914.566	4432
914.68	4306
914.793	4329
914.906	4150
915.019	4169
915.132	4086
915.245	4204
915.358	4215
915.47	4276
915.583	4303
915.696	4280
915.809	4440
915.921	4421
916.034	4280
916.146	4284
916.259	4207
916.371	4394
916.483	4348
916.595	4303
916.708	4348
916.82	4367
916.932	4276
917.044	4341
917.156	4310
917.268	4272
917.38	4272
917.491	4272
917.603	4390
917.715	4474
917.826	4466
917.938	4405
918.049	4272
918.161	4421
918.272	4561
918.384	4512
918.495	4470
918.606	4356
918.717	4261
918.828	4341
918.939	4386
919.05	4287
919.161	4329
919.272	4154
919.383	4219
919.494	4455
919.604	4664
919.715	4459
919.826	4344
919.936	4386
920.047	4542
920.157	4527
920.267	4706
920.378	4546
920.488	4577
920.598	4725
920.708	4858
920.818	4790
920.928	4752
921.038	4942
921.148	4900
921.258	4637
921.368	4599
921.477	4516
921.587	4428
921.697	4375
921.806	4531
921.916	4459
922.025	4249
922.134	4329
922.244	4230
922.353	4383
922.462	4211
922.571	4143
922.68	4025
922.789	3937
922.898	4082
923.007	4044
923.116	4086
923.224	4074
923.333	4082
923.442	3941
923.55	3930
923.659	4013
923.767	4112
923.876	3998
923.984	4166
924.092	4017
924.201	4044
924.309	4109
924.417	4143
924.525	4048
924.633	4124
924.741	5033
924.849	3922
924.956	4173
925.064	4006
925.172	3892
925.279	3979
925.387	4021
925.494	4082
925.602	4207
925.709	4188
925.816	4097
925.924	4135
926.031	4227
926.138	4207
926.245	4257
926.352	4120
926.459	4257
926.566	4352
926.673	4169
926.779	4097
926.886	4093
926.993	4002
927.099	3979
927.206	3979
927.312	3922
927.419	4097
927.525	4025
927.631	4097
927.737	3960
927.843	3979
927.95	3846
928.056	3956
928.162	3987
928.267	4040
928.373	4607
928.479	4093
928.585	3857
928.69	4017
928.796	4093
928.901	4013
929.007	3892
929.112	4032
929.218	4048
929.323	3922
929.428	3934
929.533	4090
929.638	3926
929.743	3979
929.848	4040
929.953	3968
930.058	3922
930.163	3816
930.267	3842
930.372	4036
930.477	3831
930.581	4090
930.685	3926
930.79	3823
930.894	3892
930.998	3854
931.103	4032
931.207	3720
931.311	3713
931.415	3637
931.519	3507
931.623	3587
