Data from test_V78500241_1727.txt Node
Date: Fri Mar 25 17:01:00 CST 2022
User: usil
Spectrometer: V785-0024
Trigger mode: 0
Integration Time (sec): 4.000000E-1
Scans to average: 1
Nonlinearity correction enabled: false
Boxcar width: 0
Storing dark spectrum: false
XAxis mode: Wavelengths
Number of Pixels in Spectrum: 1024
>>>>>Begin Spectral Data<<<<<
801.071	7967
801.214	7978
801.356	7845
801.499	7909
801.641	7757
801.783	7864
801.926	7932
802.068	7894
802.211	7944
802.353	7947
802.496	7822
802.638	7849
802.78	7871
802.923	7925
803.065	7940
803.208	7887
803.35	7997
803.492	8058
803.635	8161
803.777	8005
803.919	8142
804.061	8454
804.204	8221
804.346	8050
804.488	7906
804.63	8062
804.773	8062
804.915	8096
805.057	8252
805.199	8221
805.341	8263
805.483	8210
805.626	8199
805.768	8126
805.91	8191
806.052	8279
806.194	8111
806.336	8313
806.478	8100
806.62	8050
806.762	8191
806.904	8286
807.046	8545
807.188	8438
807.33	8324
807.472	8351
807.614	8103
807.756	8176
807.898	7997
808.04	7871
808.182	7875
808.324	7883
808.465	7986
808.607	8081
808.749	8172
808.891	8142
809.033	8275
809.174	8225
809.316	8081
809.458	8027
809.6	7974
809.741	8065
809.883	8050
810.025	8115
810.166	7993
810.308	7940
810.45	7894
810.591	7883
810.733	7696
810.875	7632
811.016	7491
811.158	7495
811.299	7613
811.441	7704
811.582	7677
811.724	7594
811.865	7578
812.007	7597
812.148	7590
812.29	7601
812.431	7799
812.573	7883
812.714	7974
812.855	8123
812.997	8202
813.138	8298
813.279	8225
813.421	8134
813.562	7959
813.703	7734
813.845	7685
813.986	7457
814.127	7293
814.268	7202
814.41	7183
814.551	7175
814.692	7240
814.833	7072
814.974	7133
815.115	7114
815.256	6951
815.397	6958
815.539	6928
815.68	6833
815.821	6760
815.962	6837
816.103	6768
816.244	6700
816.385	6593
816.526	6612
816.666	6517
816.807	6327
816.948	6437
817.089	6521
817.23	6433
817.371	6380
817.512	6376
817.653	6399
817.793	6365
817.934	6414
818.075	6483
818.216	6407
818.356	6414
818.497	6266
818.638	6076
818.778	6167
818.919	6129
819.06	6152
819.2	6292
819.341	6304
819.481	6334
819.622	6612
819.762	6711
819.903	6749
820.043	6650
820.184	6563
820.324	6574
820.465	6707
820.605	6673
820.746	6669
820.886	6563
821.026	6669
821.167	6719
821.307	6810
821.447	6764
821.588	6688
821.728	6559
821.868	6566
822.008	6372
822.149	6376
822.289	6369
822.429	6148
822.569	6155
822.709	6144
822.849	5893
822.99	5874
823.13	5874
823.27	5916
823.41	5855
823.55	5851
823.69	5760
823.83	5786
823.97	5668
824.11	5600
824.25	5547
824.389	5653
824.529	5600
824.669	5524
824.809	5680
824.949	5668
825.089	5642
825.228	5524
825.368	5440
825.508	5395
825.648	5353
825.787	5452
825.927	5395
826.067	5353
826.206	5383
826.346	5417
826.485	5467
826.625	5444
826.765	5562
826.904	5482
827.044	5273
827.183	5204
827.323	5147
827.462	5284
827.601	5231
827.741	5208
827.88	5246
828.02	5181
828.159	5337
828.298	5364
828.437	5421
828.577	5318
828.716	5463
828.855	5318
828.994	5216
829.134	5159
829.273	5254
829.412	5193
829.551	5193
829.69	5239
829.829	5307
829.968	5360
830.107	5265
830.246	5322
830.385	5235
830.524	5189
830.663	5109
830.802	5048
830.941	4915
831.08	4889
831.219	5014
831.357	5041
831.496	5166
831.635	4930
831.774	4908
831.913	4858
832.051	4778
832.19	4767
832.329	4870
832.467	4748
832.606	4767
832.744	4755
832.883	4694
833.022	4767
833.16	4797
833.299	4877
833.437	4919
833.576	4847
833.714	4892
833.852	4877
833.991	4908
834.129	5010
834.267	4957
834.406	4930
834.544	5006
834.682	4972
834.821	5010
834.959	5174
835.097	5022
835.235	5170
835.373	5064
835.511	5121
835.65	5048
835.788	5075
835.926	4873
836.064	4889
836.202	4930
836.34	5216
836.478	5261
836.615	5170
836.753	5261
836.891	5280
837.029	5254
837.167	5239
837.305	5204
837.443	5227
837.58	5098
837.718	5273
837.856	5223
837.993	5235
838.131	5239
838.269	5223
838.406	5220
838.544	5227
838.681	5041
838.819	5056
838.956	4984
839.094	4968
839.231	4957
839.369	5067
839.506	5448
839.643	5296
839.781	5056
839.918	4999
840.055	5147
840.193	5094
840.33	5155
840.467	5121
840.604	5250
840.742	5467
840.879	5166
841.016	5056
841.153	5151
841.29	5357
841.427	5341
841.564	5330
841.701	5353
841.838	5269
841.975	5284
842.112	5296
842.249	5166
842.385	5102
842.522	5364
842.659	5201
842.796	5189
842.933	5204
843.069	5159
843.206	5204
843.343	5345
843.479	5246
843.616	5254
843.752	4995
843.889	5041
844.025	5235
844.162	5071
844.298	5280
844.435	5174
844.571	5090
844.708	5231
844.844	5284
844.98	5372
845.117	5337
845.253	5151
845.389	5113
845.525	5185
845.661	5185
845.798	5098
845.934	5151
846.07	5041
846.206	5235
846.342	5284
846.478	5170
846.614	4999
846.75	4980
846.886	4987
847.022	5140
847.158	5025
847.294	5105
847.429	5147
847.565	5075
847.701	5349
847.837	4896
847.972	4847
848.108	4999
848.244	4965
848.379	4797
848.515	4786
848.65	4752
848.786	4774
848.921	4805
849.057	4927
849.192	4938
849.328	4843
849.463	4835
849.598	4805
849.734	4797
849.869	4702
850.004	4660
850.14	4675
850.275	4645
850.41	4565
850.545	4599
850.68	4603
850.815	4622
850.95	4668
851.085	4877
851.22	4790
851.355	4725
851.49	4603
851.625	4660
851.76	4649
851.895	4615
852.03	4580
852.165	4653
852.299	4740
852.434	4782
852.569	4805
852.703	4778
852.838	4839
852.973	4961
853.107	4911
853.242	4786
853.376	4675
853.511	4580
853.645	4599
853.78	4809
853.914	4717
854.048	4679
854.183	4714
854.317	4702
854.451	4881
854.585	4687
854.72	4694
854.854	4767
854.988	4634
855.122	4611
855.256	4599
855.39	4694
855.524	4790
855.658	4687
855.792	4679
855.926	4782
856.06	4759
856.194	4816
856.327	4702
856.461	4641
856.595	4664
856.729	4675
856.862	4744
856.996	4710
857.13	4782
857.263	4778
857.397	4801
857.53	4664
857.664	4733
857.797	4786
857.931	4816
858.064	4698
858.197	4752
858.331	4660
858.464	4626
858.597	4577
858.731	4622
858.864	4656
858.997	4611
859.13	4691
859.263	4714
859.396	4694
859.529	4588
859.662	4641
859.795	4565
859.928	4577
860.061	4786
860.194	4793
860.327	4656
860.46	4584
860.592	4729
860.725	4729
860.858	4759
860.99	4592
861.123	4504
861.256	4535
861.388	4660
861.521	5223
861.653	4516
861.786	4474
861.918	4455
862.05	4538
862.183	4531
862.315	4637
862.447	4687
862.58	4550
862.712	4436
862.844	4348
862.976	4493
863.108	4459
863.24	4900
863.372	4360
863.504	4432
863.636	4379
863.768	4519
863.9	4466
864.032	4417
864.164	4405
864.296	4489
864.428	4546
864.559	4558
864.691	4519
864.823	4519
864.954	4512
865.086	4531
865.217	4447
865.349	4470
865.48	4504
865.612	4504
865.743	4672
865.875	4497
866.006	4390
866.137	4493
866.269	4455
866.4	4466
866.531	4447
866.662	4421
866.793	4466
866.924	4428
867.055	4516
867.186	4500
867.317	4504
867.448	4432
867.579	4443
867.71	4356
867.841	4383
867.972	4497
868.103	4489
868.233	4451
868.364	4470
868.495	4462
868.625	4672
868.756	4755
868.886	4580
869.017	4660
869.147	4805
869.278	4854
869.408	4660
869.539	4653
869.669	4717
869.799	4634
869.929	4786
870.06	4790
870.19	4953
870.32	4877
870.45	4961
870.58	5029
870.71	5102
870.84	5105
870.97	4938
871.1	4930
871.23	5151
871.36	5079
871.489	4991
871.619	5090
871.749	5098
871.879	5140
872.008	5166
872.138	5052
872.267	4961
872.397	4911
872.526	4793
872.656	4767
872.785	4858
872.915	5045
873.044	5071
873.173	4957
873.303	4980
873.432	4942
873.561	5003
873.69	4885
873.819	4877
873.948	4957
874.077	4854
874.206	4767
874.335	4801
874.464	4938
874.593	5102
874.722	4965
874.851	5048
874.979	5083
875.108	5090
875.237	4919
875.365	4896
875.494	4900
875.623	4980
875.751	4885
875.88	4889
876.008	4965
876.136	5018
876.265	5208
876.393	5421
876.521	5231
876.65	5246
876.778	5162
876.906	5067
877.034	5045
877.162	5067
877.29	5029
877.418	5056
877.546	5083
877.674	5090
877.802	5052
877.93	5052
878.058	4919
878.185	4866
878.313	4972
878.441	4919
878.568	4793
878.696	4870
878.824	4961
878.951	4968
879.079	5181
879.206	5292
879.333	5151
879.461	5029
879.588	5067
879.715	5147
879.842	5311
879.97	5033
880.097	4733
880.224	4744
880.351	4839
880.478	4767
880.605	4797
880.732	4847
880.859	5083
880.986	4896
881.112	4953
881.239	4771
881.366	4626
881.493	4653
881.619	4611
881.746	4679
881.872	4630
881.999	4626
882.125	4702
882.252	4771
882.378	4839
882.505	4946
882.631	4801
882.757	4679
882.883	4790
883.01	4740
883.136	4664
883.262	4656
883.388	4596
883.514	4801
883.64	4900
883.766	4767
883.892	4733
884.018	4698
884.143	4923
884.269	5033
884.395	4664
884.52	4618
884.646	4641
884.772	4607
884.897	4573
885.023	4679
885.148	4835
885.274	4858
885.399	4790
885.524	4694
885.65	4733
885.775	4748
885.9	4706
886.025	4862
886.15	4809
886.275	4752
886.4	4637
886.525	4710
886.65	4729
886.775	4694
886.9	4889
887.025	5045
887.149	4847
887.274	4660
887.399	4569
887.523	4649
887.648	4607
887.773	4596
887.897	4755
888.021	4824
888.146	4710
888.27	4767
888.395	4934
888.519	4824
888.643	4824
888.767	4866
888.891	4717
889.015	4592
889.139	4596
889.263	4599
889.387	4790
889.511	4915
889.635	4809
889.759	4622
889.883	4637
890.006	4748
890.13	4847
890.254	4649
890.377	4664
890.501	4588
890.624	4523
890.748	4653
890.871	4485
890.995	4462
891.118	4390
891.241	4527
891.364	4546
891.488	4668
891.611	4516
891.734	4592
891.857	4607
891.98	4554
892.103	4675
892.226	4622
892.349	4527
892.471	4440
892.594	4611
892.717	4668
892.839	4569
892.962	4656
893.085	4683
893.207	4577
893.33	4493
893.452	4516
893.575	4679
893.697	4554
893.819	4744
893.941	4809
894.064	4759
894.186	4592
894.308	4550
894.43	4752
894.552	4801
894.674	4755
894.796	4580
894.918	4622
895.04	4554
895.161	4763
895.283	4748
895.405	4611
895.526	4687
895.648	4710
895.769	4721
895.891	4691
896.012	4767
896.134	4752
896.255	4672
896.376	4577
896.498	4649
896.619	4664
896.74	4622
896.861	4626
896.982	4938
897.103	5067
897.224	4816
897.345	4812
897.466	4687
897.587	4748
897.708	4828
897.828	4767
897.949	4691
898.07	4535
898.19	4702
898.311	4847
898.431	4656
898.552	4752
898.672	4820
898.792	4831
898.913	4729
899.033	4622
899.153	4516
899.273	4440
899.393	4485
899.513	4519
899.633	4508
899.753	4558
899.873	4508
899.993	4573
900.113	4535
900.232	4580
900.352	4565
900.472	4523
900.591	4405
900.711	4462
900.83	4440
900.95	4675
901.069	4717
901.189	4554
901.308	4379
901.427	4253
901.546	4405
901.665	4466
901.784	4523
901.904	4402
902.023	4375
902.141	4242
902.26	4188
902.379	4318
902.498	4265
902.617	4249
902.735	4386
902.854	4394
902.973	4375
903.091	4234
903.21	4207
903.328	4310
903.446	4337
903.565	4287
903.683	4352
903.801	4284
903.919	4390
904.038	4390
904.156	4348
904.274	4409
904.392	4394
904.51	4451
904.627	4478
904.745	4508
904.863	4668
904.981	4394
905.098	4299
905.216	4352
905.334	4443
905.451	4443
905.569	4466
905.686	4519
905.803	4558
905.921	4402
906.038	4497
906.155	4508
906.272	4405
906.389	4428
906.506	4360
906.623	4386
906.74	4394
906.857	4348
906.974	4363
907.091	4592
907.208	4702
907.324	4622
907.441	4519
907.557	4360
907.674	4299
907.79	4348
907.907	4402
908.023	4447
908.139	4500
908.256	4413
908.372	4538
908.488	4447
908.604	4363
908.72	4352
908.836	4363
908.952	4390
909.068	4421
909.184	4531
909.3	4470
909.415	4596
909.531	4561
909.647	4383
909.762	4352
909.878	4360
909.993	4432
910.108	4436
910.224	4390
910.339	4512
910.454	4375
910.57	4352
910.685	4329
910.8	4615
910.915	4588
911.03	4500
911.145	4325
911.259	4287
911.374	4375
911.489	4280
911.604	4268
911.718	4200
911.833	4242
911.947	4078
912.062	4040
912.176	4207
912.291	4246
912.405	4253
912.519	4500
912.633	4489
912.748	4432
912.862	4329
912.976	4238
913.09	4071
913.204	4173
913.318	4242
913.431	4390
913.545	4390
913.659	4440
913.772	4367
913.886	4272
914	4265
914.113	4383
914.226	4394
914.34	4417
914.453	4253
914.566	4428
914.68	4341
914.793	4348
914.906	4177
915.019	4147
915.132	4055
915.245	4158
915.358	4200
915.47	4249
915.583	4268
915.696	4322
915.809	4447
915.921	4375
916.034	4253
916.146	4253
916.259	4257
916.371	4402
916.483	4352
916.595	4246
916.708	4356
916.82	4299
916.932	4375
917.044	4310
917.156	4341
917.268	4215
917.38	4284
917.491	4310
917.603	4443
917.715	4405
917.826	4455
917.938	4344
918.049	4246
918.161	4371
918.272	4516
918.384	4561
918.495	4470
918.606	4318
918.717	4207
918.828	4341
918.939	4356
919.05	4249
919.161	4352
919.272	4158
919.383	4223
919.494	4413
919.604	4615
919.715	4390
919.826	4352
919.936	4413
920.047	4500
920.157	4470
920.267	4698
920.378	4542
920.488	4523
920.598	4759
920.708	4900
920.818	4786
920.928	4778
921.038	4908
921.148	4957
921.258	4618
921.368	4550
921.477	4546
921.587	4466
921.697	4409
921.806	4538
921.916	4459
922.025	4242
922.134	4227
922.244	4192
922.353	4363
922.462	4150
922.571	4105
922.68	4040
922.789	4002
922.898	4063
923.007	3975
923.116	4120
923.224	4071
923.333	4105
923.442	3991
923.55	3994
923.659	4059
923.767	4071
923.876	3998
923.984	4112
924.092	4010
924.201	4051
924.309	4051
924.417	4139
924.525	4063
924.633	4071
924.741	4839
924.849	3945
924.956	4139
925.064	3960
925.172	3907
925.279	3960
925.387	4059
925.494	4040
925.602	4192
925.709	4147
925.816	4029
925.924	4128
926.031	4158
926.138	4200
926.245	4200
926.352	4071
926.459	4227
926.566	4325
926.673	4154
926.779	4135
926.886	4071
926.993	4006
927.099	3953
927.206	3934
927.312	3945
927.419	4032
927.525	4013
927.631	4086
927.737	3930
927.843	3945
927.95	3816
928.056	3937
928.162	3998
928.267	4032
928.373	4672
928.479	4074
928.585	3880
928.69	3998
928.796	4071
928.901	3949
929.007	3835
929.112	3979
929.218	3930
929.323	3934
929.428	3964
929.533	4109
929.638	3911
929.743	3949
929.848	4029
929.953	3987
930.058	3907
930.163	3789
930.267	3797
930.372	3956
930.477	3846
930.581	4044
930.685	3926
930.79	3865
930.894	3892
930.998	3831
931.103	4044
931.207	3698
931.311	3679
931.415	3656
931.519	3542
931.623	3564
