Data from test_V78500241_730.txt Node
Date: Fri Mar 25 16:54:04 CST 2022
User: usil
Spectrometer: V785-0024
Trigger mode: 0
Integration Time (sec): 4.000000E-1
Scans to average: 1
Nonlinearity correction enabled: false
Boxcar width: 0
Storing dark spectrum: false
XAxis mode: Wavelengths
Number of Pixels in Spectrum: 1024
>>>>>Begin Spectral Data<<<<<
801.071	7986
801.214	8031
801.356	7875
801.499	7811
801.641	7803
801.783	7837
801.926	7963
802.068	7974
802.211	7967
802.353	7955
802.496	7830
802.638	7856
802.78	7887
802.923	7967
803.065	7811
803.208	7887
803.35	7944
803.492	8161
803.635	8138
803.777	7989
803.919	8107
804.061	8332
804.204	8084
804.346	8001
804.488	7947
804.63	8058
804.773	8024
804.915	8081
805.057	8298
805.199	8088
805.341	8214
805.483	8233
805.626	8191
805.768	8123
805.91	8149
806.052	8206
806.194	8084
806.336	8271
806.478	7997
806.62	8054
806.762	8130
806.904	8282
807.046	8457
807.188	8351
807.33	8347
807.472	8343
807.614	8130
807.756	8035
807.898	7959
808.04	7818
808.182	7894
808.324	7837
808.465	7906
808.607	8039
808.749	8035
808.891	8183
809.033	8259
809.174	8164
809.316	8073
809.458	8062
809.6	8016
809.741	7986
809.883	8012
810.025	8084
810.166	8103
810.308	8027
810.45	7951
810.591	7841
810.733	7719
810.875	7658
811.016	7510
811.158	7491
811.299	7499
811.441	7696
811.582	7677
811.724	7548
811.865	7533
812.007	7548
812.148	7586
812.29	7544
812.431	7757
812.573	7818
812.714	7982
812.855	8103
812.997	8214
813.138	8237
813.279	8153
813.421	8069
813.562	8016
813.703	7814
813.845	7742
813.986	7453
814.127	7251
814.268	7217
814.41	7209
814.551	7107
814.692	7126
814.833	6970
814.974	7107
815.115	7065
815.256	6947
815.397	6966
815.539	6909
815.68	6795
815.821	6757
815.962	6848
816.103	6738
816.244	6692
816.385	6642
816.526	6631
816.666	6498
816.807	6251
816.948	6372
817.089	6460
817.23	6433
817.371	6323
817.512	6353
817.653	6361
817.793	6311
817.934	6418
818.075	6445
818.216	6399
818.356	6376
818.497	6178
818.638	6057
818.778	6064
818.919	6110
819.06	6114
819.2	6304
819.341	6285
819.481	6391
819.622	6563
819.762	6745
819.903	6646
820.043	6547
820.184	6521
820.324	6547
820.465	6616
820.605	6597
820.746	6513
820.886	6452
821.026	6566
821.167	6715
821.307	6829
821.447	6730
821.588	6616
821.728	6517
821.868	6441
822.008	6300
822.149	6380
822.289	6369
822.429	6091
822.569	6102
822.709	6117
822.849	5855
822.99	5866
823.13	5901
823.27	5893
823.41	5779
823.55	5813
823.69	5688
823.83	5752
823.97	5627
824.11	5570
824.25	5486
824.389	5566
824.529	5543
824.669	5539
824.809	5630
824.949	5668
825.089	5558
825.228	5505
825.368	5406
825.508	5296
825.648	5296
825.787	5349
825.927	5376
826.067	5258
826.206	5258
826.346	5368
826.485	5421
826.625	5398
826.765	5554
826.904	5478
827.044	5216
827.183	5204
827.323	5098
827.462	5235
827.601	5166
827.741	5174
827.88	5105
828.02	5105
828.159	5254
828.298	5273
828.437	5357
828.577	5216
828.716	5459
828.855	5296
828.994	5113
829.134	5151
829.273	5174
829.412	5109
829.551	5185
829.69	5117
829.829	5235
829.968	5360
830.107	5307
830.246	5258
830.385	5189
830.524	5086
830.663	5075
830.802	4984
830.941	4892
831.08	4892
831.219	4984
831.357	4949
831.496	5151
831.635	4900
831.774	4812
831.913	4774
832.051	4759
832.19	4702
832.329	4824
832.467	4721
832.606	4630
832.744	4729
832.883	4725
833.022	4702
833.16	4782
833.299	4786
833.437	4816
833.576	4843
833.714	4862
833.852	4835
833.991	4881
834.129	4919
834.267	4961
834.406	4892
834.544	4957
834.682	4965
834.821	4938
834.959	5037
835.097	4987
835.235	5178
835.373	5071
835.511	5056
835.65	5010
835.788	5018
835.926	4877
836.064	4854
836.202	4911
836.34	5151
836.478	5193
836.615	5147
836.753	5147
836.891	5269
837.029	5204
837.167	5170
837.305	5124
837.443	5159
837.58	5079
837.718	5231
837.856	5178
837.993	5124
838.131	5216
838.269	5181
838.406	5181
838.544	5155
838.681	5037
838.819	5010
838.956	4862
839.094	4957
839.231	5037
839.369	5086
839.506	5395
839.643	5292
839.781	5029
839.918	5022
840.055	5071
840.193	5109
840.33	5117
840.467	5132
840.604	5185
840.742	5436
840.879	5064
841.016	5090
841.153	5147
841.29	5318
841.427	5292
841.564	5307
841.701	5307
841.838	5220
841.975	5235
842.112	5208
842.249	5140
842.385	5098
842.522	5330
842.659	5143
842.796	5201
842.933	5166
843.069	5132
843.206	5105
843.343	5337
843.479	5242
843.616	5204
843.752	5003
843.889	5022
844.025	5201
844.162	5022
844.298	5227
844.435	5071
844.571	5029
844.708	5162
844.844	5280
844.98	5307
845.117	5246
845.253	5140
845.389	5060
845.525	5140
845.661	5094
845.798	4972
845.934	5117
846.07	4972
846.206	5162
846.342	5250
846.478	5170
846.614	4968
846.75	4995
846.886	4942
847.022	5105
847.158	4976
847.294	5060
847.429	5075
847.565	5025
847.701	5318
847.837	4801
847.972	4809
848.108	4946
848.244	4919
848.379	4778
848.515	4694
848.65	4698
848.786	4736
848.921	4774
849.057	4824
849.192	4938
849.328	4778
849.463	4820
849.598	4778
849.734	4752
849.869	4691
850.004	4599
850.14	4694
850.275	4558
850.41	4516
850.545	4550
850.68	4611
850.815	4626
850.95	4630
851.085	4797
851.22	4744
851.355	4622
851.49	4630
851.625	4649
851.76	4637
851.895	4580
852.03	4516
852.165	4603
852.299	4694
852.434	4736
852.569	4694
852.703	4793
852.838	4820
852.973	4866
853.107	4896
853.242	4774
853.376	4653
853.511	4577
853.645	4554
853.78	4782
853.914	4668
854.048	4653
854.183	4607
854.317	4679
854.451	4831
854.585	4649
854.72	4615
854.854	4740
854.988	4584
855.122	4592
855.256	4497
855.39	4698
855.524	4759
855.658	4748
855.792	4660
855.926	4672
856.06	4721
856.194	4797
856.327	4679
856.461	4603
856.595	4611
856.729	4607
856.862	4706
856.996	4694
857.13	4717
857.263	4755
857.397	4790
857.53	4641
857.664	4687
857.797	4744
857.931	4736
858.064	4683
858.197	4774
858.331	4653
858.464	4580
858.597	4531
858.731	4569
858.864	4634
858.997	4542
859.13	4611
859.263	4656
859.396	4694
859.529	4565
859.662	4512
859.795	4451
859.928	4615
860.061	4683
860.194	4702
860.327	4622
860.46	4527
860.592	4668
860.725	4721
860.858	4679
860.99	4592
861.123	4485
861.256	4500
861.388	4561
861.521	5402
861.653	4474
861.786	4421
861.918	4455
862.05	4466
862.183	4550
862.315	4607
862.447	4596
862.58	4546
862.712	4413
862.844	4344
862.976	4504
863.108	4481
863.24	4816
863.372	4379
863.504	4417
863.636	4405
863.768	4489
863.9	4443
864.032	4348
864.164	4386
864.296	4447
864.428	4519
864.559	4592
864.691	4512
864.823	4558
864.954	4527
865.086	4546
865.217	4504
865.349	4440
865.48	4516
865.612	4512
865.743	4706
865.875	4489
866.006	4436
866.137	4512
866.269	4440
866.4	4470
866.531	4455
866.662	4394
866.793	4455
866.924	4451
867.055	4500
867.186	4538
867.317	4485
867.448	4402
867.579	4421
867.71	4443
867.841	4375
867.972	4535
868.103	4512
868.233	4462
868.364	4470
868.495	4527
868.625	4698
868.756	4786
868.886	4626
869.017	4675
869.147	4801
869.278	4828
869.408	4698
869.539	4687
869.669	4714
869.799	4721
869.929	4748
870.06	4790
870.19	4946
870.32	4972
870.45	4961
870.58	5018
870.71	5117
870.84	5143
870.97	4961
871.1	4938
871.23	5117
871.36	5170
871.489	5025
871.619	5094
871.749	5121
871.879	5197
872.008	5208
872.138	5045
872.267	5014
872.397	4915
872.526	4854
872.656	4740
872.785	4881
872.915	4957
873.044	5060
873.173	4984
873.303	4965
873.432	4934
873.561	4999
873.69	4892
873.819	4873
873.948	4968
874.077	4862
874.206	4744
874.335	4866
874.464	4953
874.593	5045
874.722	4999
874.851	5181
874.979	5094
875.108	5048
875.237	4938
875.365	4892
875.494	4889
875.623	4957
875.751	4862
875.88	4953
876.008	4980
876.136	5071
876.265	5223
876.393	5349
876.521	5273
876.65	5242
876.778	5204
876.906	5083
877.034	5045
877.162	5128
877.29	5056
877.418	5060
877.546	5022
877.674	5083
877.802	5048
877.93	5071
878.058	4957
878.185	4923
878.313	4949
878.441	5037
878.568	4831
878.696	4881
878.824	5003
878.951	5086
879.079	5136
879.206	5303
879.333	5105
879.461	5003
879.588	5014
879.715	5151
879.842	5227
879.97	5060
880.097	4828
880.224	4755
880.351	4873
880.478	4824
880.605	4824
880.732	4771
880.859	5155
880.986	4919
881.112	4968
881.239	4809
881.366	4721
881.493	4641
881.619	4584
881.746	4637
881.872	4668
881.999	4645
882.125	4687
882.252	4805
882.378	4820
882.505	5003
882.631	4820
882.757	4656
882.883	4763
883.01	4675
883.136	4698
883.262	4637
883.388	4637
883.514	4824
883.64	4919
883.766	4786
883.892	4656
884.018	4736
884.143	4873
884.269	4995
884.395	4687
884.52	4687
884.646	4710
884.772	4618
884.897	4618
885.023	4733
885.148	4801
885.274	4835
885.399	4812
885.524	4729
885.65	4714
885.775	4809
885.9	4729
886.025	4850
886.15	4809
886.275	4725
886.4	4710
886.525	4721
886.65	4714
886.775	4725
886.9	4953
887.025	5094
887.149	4870
887.274	4683
887.399	4592
887.523	4603
887.648	4641
887.773	4618
887.897	4820
888.021	4850
888.146	4714
888.27	4831
888.395	4908
888.519	4793
888.643	4870
888.767	4828
888.891	4672
889.015	4668
889.139	4672
889.263	4615
889.387	4774
889.511	4873
889.635	4858
889.759	4668
889.883	4691
890.006	4736
890.13	4847
890.254	4694
890.377	4729
890.501	4573
890.624	4580
890.748	4656
890.871	4508
890.995	4462
891.118	4485
891.241	4535
891.364	4561
891.488	4637
891.611	4592
891.734	4573
891.857	4622
891.98	4546
892.103	4675
892.226	4630
892.349	4554
892.471	4436
892.594	4599
892.717	4611
892.839	4588
892.962	4622
893.085	4717
893.207	4641
893.33	4519
893.452	4523
893.575	4698
893.697	4603
893.819	4782
893.941	4858
894.064	4824
894.186	4580
894.308	4573
894.43	4717
894.552	4816
894.674	4759
894.796	4550
894.918	4622
895.04	4603
895.161	4714
895.283	4710
895.405	4580
895.526	4622
895.648	4721
895.769	4736
895.891	4744
896.012	4714
896.134	4740
896.255	4721
896.376	4675
896.498	4687
896.619	4668
896.74	4596
896.861	4710
896.982	4930
897.103	5117
897.224	4870
897.345	4782
897.466	4706
897.587	4694
897.708	4896
897.828	4839
897.949	4714
898.07	4584
898.19	4656
898.311	4850
898.431	4733
898.552	4721
898.672	4835
898.792	4809
898.913	4801
899.033	4660
899.153	4508
899.273	4459
899.393	4508
899.513	4516
899.633	4535
899.753	4554
899.873	4512
899.993	4611
900.113	4546
900.232	4626
900.352	4577
900.472	4546
900.591	4432
900.711	4470
900.83	4466
900.95	4611
901.069	4660
901.189	4573
901.308	4409
901.427	4383
901.546	4367
901.665	4493
901.784	4523
901.904	4390
902.023	4360
902.141	4192
902.26	4227
902.379	4303
902.498	4299
902.617	4223
902.735	4398
902.854	4394
902.973	4375
903.091	4268
903.21	4227
903.328	4363
903.446	4268
903.565	4272
903.683	4383
903.801	4306
903.919	4390
904.038	4440
904.156	4383
904.274	4478
904.392	4386
904.51	4440
904.627	4504
904.745	4577
904.863	4611
904.981	4363
905.098	4322
905.216	4367
905.334	4489
905.451	4428
905.569	4447
905.686	4546
905.803	4592
905.921	4421
906.038	4584
906.155	4470
906.272	4405
906.389	4497
906.506	4367
906.623	4344
906.74	4443
906.857	4291
906.974	4398
907.091	4588
907.208	4733
907.324	4634
907.441	4527
907.557	4360
907.674	4375
907.79	4341
907.907	4356
908.023	4516
908.139	4504
908.256	4474
908.372	4466
908.488	4485
908.604	4295
908.72	4348
908.836	4451
908.952	4409
909.068	4424
909.184	4558
909.3	4497
909.415	4599
909.531	4599
909.647	4379
909.762	4413
909.878	4363
909.993	4447
910.108	4455
910.224	4451
910.339	4489
910.454	4402
910.57	4379
910.685	4306
910.8	4675
910.915	4588
911.03	4542
911.145	4390
911.259	4348
911.374	4341
911.489	4291
911.604	4291
911.718	4227
911.833	4192
911.947	4120
912.062	4048
912.176	4177
912.291	4272
912.405	4280
912.519	4508
912.633	4554
912.748	4390
912.862	4299
912.976	4192
913.09	4093
913.204	4147
913.318	4310
913.431	4394
913.545	4383
913.659	4428
913.772	4360
913.886	4291
914	4188
914.113	4367
914.226	4421
914.34	4417
914.453	4242
914.566	4462
914.68	4322
914.793	4329
914.906	4177
915.019	4139
915.132	4105
915.245	4227
915.358	4268
915.47	4215
915.583	4284
915.696	4303
915.809	4386
915.921	4447
916.034	4261
916.146	4246
916.259	4227
916.371	4371
916.483	4352
916.595	4234
916.708	4348
916.82	4356
916.932	4344
917.044	4329
917.156	4398
917.268	4268
917.38	4333
917.491	4295
917.603	4367
917.715	4428
917.826	4405
917.938	4375
918.049	4257
918.161	4417
918.272	4546
918.384	4500
918.495	4455
918.606	4348
918.717	4265
918.828	4386
918.939	4344
919.05	4242
919.161	4360
919.272	4154
919.383	4268
919.494	4481
919.604	4599
919.715	4436
919.826	4363
919.936	4398
920.047	4523
920.157	4519
920.267	4698
920.378	4573
920.488	4542
920.598	4717
920.708	4915
920.818	4771
920.928	4801
921.038	4968
921.148	4946
921.258	4668
921.368	4558
921.477	4508
921.587	4466
921.697	4379
921.806	4580
921.916	4409
922.025	4261
922.134	4265
922.244	4276
922.353	4344
922.462	4162
922.571	4150
922.68	3972
922.789	3968
922.898	4044
923.007	3994
923.116	4105
923.224	4109
923.333	4093
923.442	4006
923.55	3937
923.659	4021
923.767	4131
923.876	3991
923.984	4150
924.092	4002
924.201	4109
924.309	4074
924.417	4143
924.525	4082
924.633	4078
924.741	4858
924.849	3930
924.956	4120
925.064	3956
925.172	3911
925.279	4010
925.387	4063
925.494	4082
925.602	4242
925.709	4131
925.816	4071
925.924	4109
926.031	4177
926.138	4154
926.245	4227
926.352	4074
926.459	4268
926.566	4295
926.673	4162
926.779	4120
926.886	4071
926.993	4051
927.099	3964
927.206	3964
927.312	3926
927.419	4067
927.525	4036
927.631	4067
927.737	3991
927.843	3903
927.95	3876
928.056	3949
928.162	4002
928.267	4021
928.373	4679
928.479	4135
928.585	3896
928.69	4029
928.796	4074
928.901	3956
929.007	3857
929.112	3960
929.218	3994
929.323	3979
929.428	3945
929.533	4112
929.638	3907
929.743	3979
929.848	4055
929.953	4006
930.058	3930
930.163	3800
930.267	3842
930.372	4029
930.477	3827
930.581	4109
930.685	3975
930.79	3827
930.894	3861
930.998	3861
931.103	4044
931.207	3759
931.311	3701
931.415	3747
931.519	3599
931.623	3561
