Data from test_V78500241_311.txt Node
Date: Fri Mar 25 16:51:09 CST 2022
User: usil
Spectrometer: V785-0024
Trigger mode: 0
Integration Time (sec): 4.000000E-1
Scans to average: 1
Nonlinearity correction enabled: false
Boxcar width: 0
Storing dark spectrum: false
XAxis mode: Wavelengths
Number of Pixels in Spectrum: 1024
>>>>>Begin Spectral Data<<<<<
801.071	8157
801.214	7989
801.356	7932
801.499	7925
801.641	7928
801.783	7925
801.926	8065
802.068	8005
802.211	8046
802.353	8100
802.496	7944
802.638	7997
802.78	7947
802.923	8008
803.065	7913
803.208	7921
803.35	7967
803.492	8126
803.635	8153
803.777	7997
803.919	8115
804.061	8499
804.204	8157
804.346	8084
804.488	7913
804.63	8123
804.773	8031
804.915	8084
805.057	8313
805.199	8199
805.341	8195
805.483	8324
805.626	8176
805.768	8142
805.91	8210
806.052	8248
806.194	8119
806.336	8351
806.478	8240
806.62	8153
806.762	8176
806.904	8317
807.046	8556
807.188	8366
807.33	8298
807.472	8366
807.614	8168
807.756	8161
807.898	7989
808.04	8016
808.182	7936
808.324	7970
808.465	7913
808.607	8088
808.749	8062
808.891	8313
809.033	8332
809.174	8199
809.316	8119
809.458	8069
809.6	8012
809.741	8065
809.883	8062
810.025	8077
810.166	8107
810.308	8073
810.45	8027
810.591	7902
810.733	7776
810.875	7632
811.016	7533
811.158	7567
811.299	7670
811.441	7830
811.582	7818
811.724	7578
811.865	7575
812.007	7586
812.148	7594
812.29	7632
812.431	7772
812.573	7875
812.714	8054
812.855	8168
812.997	8191
813.138	8263
813.279	8100
813.421	8111
813.562	8050
813.703	7906
813.845	7761
813.986	7514
814.127	7327
814.268	7240
814.41	7206
814.551	7156
814.692	7168
814.833	7057
814.974	7137
815.115	7198
815.256	6924
815.397	6981
815.539	6947
815.68	6833
815.821	6753
815.962	6863
816.103	6844
816.244	6726
816.385	6673
816.526	6677
816.666	6544
816.807	6338
816.948	6407
817.089	6464
817.23	6483
817.371	6407
817.512	6448
817.653	6395
817.793	6414
817.934	6494
818.075	6494
818.216	6460
818.356	6445
818.497	6292
818.638	6129
818.778	6159
818.919	6216
819.06	6171
819.2	6327
819.341	6365
819.481	6407
819.622	6585
819.762	6757
819.903	6730
820.043	6627
820.184	6574
820.324	6658
820.465	6673
820.605	6650
820.746	6570
820.886	6479
821.026	6688
821.167	6715
821.307	6848
821.447	6772
821.588	6711
821.728	6601
821.868	6551
822.008	6315
822.149	6384
822.289	6441
822.429	6167
822.569	6114
822.709	6140
822.849	5992
822.99	5973
823.13	5969
823.27	5908
823.41	5832
823.55	5821
823.69	5748
823.83	5821
823.97	5710
824.11	5577
824.25	5535
824.389	5619
824.529	5543
824.669	5493
824.809	5596
824.949	5672
825.089	5657
825.228	5589
825.368	5421
825.508	5349
825.648	5387
825.787	5398
825.927	5398
826.067	5315
826.206	5303
826.346	5395
826.485	5402
826.625	5467
826.765	5566
826.904	5478
827.044	5280
827.183	5216
827.323	5117
827.462	5231
827.601	5189
827.741	5231
827.88	5181
828.02	5151
828.159	5189
828.298	5292
828.437	5318
828.577	5284
828.716	5505
828.855	5337
828.994	5174
829.134	5170
829.273	5185
829.412	5140
829.551	5170
829.69	5151
829.829	5265
829.968	5421
830.107	5318
830.246	5307
830.385	5208
830.524	5098
830.663	5041
830.802	4995
830.941	4927
831.08	4942
831.219	4987
831.357	5045
831.496	5117
831.635	4934
831.774	4881
831.913	4847
832.051	4744
832.19	4748
832.329	4858
832.467	4717
832.606	4664
832.744	4714
832.883	4717
833.022	4790
833.16	4786
833.299	4850
833.437	4843
833.576	4831
833.714	4850
833.852	4858
833.991	4866
834.129	4987
834.267	4987
834.406	4927
834.544	4995
834.682	4949
834.821	5014
834.959	5174
835.097	5010
835.235	5136
835.373	5105
835.511	5121
835.65	5083
835.788	5060
835.926	4915
836.064	4923
836.202	4972
836.34	5235
836.478	5250
836.615	5162
836.753	5223
836.891	5265
837.029	5242
837.167	5212
837.305	5201
837.443	5140
837.58	5094
837.718	5280
837.856	5208
837.993	5151
838.131	5250
838.269	5250
838.406	5246
838.544	5212
838.681	5022
838.819	5052
838.956	4968
839.094	4980
839.231	4961
839.369	5143
839.506	5455
839.643	5307
839.781	5048
839.918	5022
840.055	5064
840.193	5109
840.33	5128
840.467	5170
840.604	5212
840.742	5509
840.879	5075
841.016	5102
841.153	5170
841.29	5406
841.427	5284
841.564	5299
841.701	5379
841.838	5231
841.975	5292
842.112	5299
842.249	5170
842.385	5140
842.522	5307
842.659	5185
842.796	5197
842.933	5208
843.069	5147
843.206	5136
843.343	5273
843.479	5223
843.616	5284
843.752	5121
843.889	5010
844.025	5261
844.162	5067
844.298	5208
844.435	5094
844.571	5094
844.708	5231
844.844	5292
844.98	5364
845.117	5387
845.253	5166
845.389	5071
845.525	5159
845.661	5147
845.798	5060
845.934	5094
846.07	5037
846.206	5239
846.342	5284
846.478	5204
846.614	5022
846.75	4968
846.886	4934
847.022	5166
847.158	5018
847.294	5140
847.429	5124
847.565	5090
847.701	5341
847.837	4858
847.972	4847
848.108	5010
848.244	5010
848.379	4774
848.515	4714
848.65	4714
848.786	4778
848.921	4786
849.057	4892
849.192	4919
849.328	4809
849.463	4892
849.598	4755
849.734	4767
849.869	4752
850.004	4645
850.14	4672
850.275	4656
850.41	4565
850.545	4618
850.68	4641
850.815	4626
850.95	4615
851.085	4843
851.22	4793
851.355	4679
851.49	4641
851.625	4637
851.76	4630
851.895	4607
852.03	4561
852.165	4649
852.299	4683
852.434	4771
852.569	4763
852.703	4759
852.838	4771
852.973	4934
853.107	4904
853.242	4763
853.376	4691
853.511	4573
853.645	4641
853.78	4805
853.914	4721
854.048	4694
854.183	4618
854.317	4714
854.451	4831
854.585	4637
854.72	4645
854.854	4717
854.988	4641
855.122	4626
855.256	4500
855.39	4656
855.524	4790
855.658	4702
855.792	4668
855.926	4748
856.06	4744
856.194	4809
856.327	4698
856.461	4584
856.595	4622
856.729	4615
856.862	4790
856.996	4714
857.13	4748
857.263	4805
857.397	4816
857.53	4649
857.664	4736
857.797	4793
857.931	4824
858.064	4744
858.197	4793
858.331	4698
858.464	4611
858.597	4538
858.731	4630
858.864	4634
858.997	4645
859.13	4687
859.263	4687
859.396	4714
859.529	4554
859.662	4516
859.795	4588
859.928	4637
860.061	4729
860.194	4797
860.327	4634
860.46	4573
860.592	4729
860.725	4710
860.858	4793
860.99	4561
861.123	4535
861.256	4554
861.388	4641
861.521	5337
861.653	4462
861.786	4455
861.918	4466
862.05	4550
862.183	4580
862.315	4626
862.447	4675
862.58	4512
862.712	4421
862.844	4337
862.976	4447
863.108	4508
863.24	4900
863.372	4348
863.504	4489
863.636	4432
863.768	4519
863.9	4436
864.032	4352
864.164	4413
864.296	4481
864.428	4542
864.559	4538
864.691	4527
864.823	4546
864.954	4516
865.086	4474
865.217	4485
865.349	4428
865.48	4451
865.612	4527
865.743	4630
865.875	4512
866.006	4432
866.137	4440
866.269	4474
866.4	4508
866.531	4421
866.662	4424
866.793	4424
866.924	4470
867.055	4535
867.186	4459
867.317	4421
867.448	4417
867.579	4421
867.71	4402
867.841	4375
867.972	4504
868.103	4481
868.233	4447
868.364	4459
868.495	4542
868.625	4702
868.756	4759
868.886	4538
869.017	4603
869.147	4778
869.278	4774
869.408	4683
869.539	4637
869.669	4714
869.799	4694
869.929	4782
870.06	4774
870.19	4938
870.32	4896
870.45	4995
870.58	5014
870.71	5094
870.84	5155
870.97	4953
871.1	4923
871.23	5124
871.36	5102
871.489	5056
871.619	5037
871.749	5090
871.879	5132
872.008	5178
872.138	5105
872.267	4984
872.397	4889
872.526	4809
872.656	4702
872.785	4816
872.915	4946
873.044	5010
873.173	4987
873.303	4942
873.432	4938
873.561	5018
873.69	4915
873.819	4866
873.948	4919
874.077	4801
874.206	4774
874.335	4805
874.464	4984
874.593	5052
874.722	4984
874.851	5143
874.979	5102
875.108	5056
875.237	4900
875.365	4850
875.494	4896
875.623	4999
875.751	4873
875.88	4847
876.008	4934
876.136	5033
876.265	5185
876.393	5353
876.521	5193
876.65	5296
876.778	5155
876.906	5064
877.034	5041
877.162	5006
877.29	5025
877.418	5041
877.546	5045
877.674	5003
877.802	5010
877.93	5006
878.058	4968
878.185	4862
878.313	4961
878.441	4942
878.568	4759
878.696	4862
878.824	4976
878.951	4942
879.079	5159
879.206	5311
879.333	5045
879.461	4968
879.588	5003
879.715	5132
879.842	5227
879.97	5006
880.097	4850
880.224	4801
880.351	4824
880.478	4816
880.605	4816
880.732	4812
880.859	5083
880.986	4892
881.112	4980
881.239	4736
881.366	4725
881.493	4641
881.619	4573
881.746	4687
881.872	4672
881.999	4634
882.125	4649
882.252	4774
882.378	4839
882.505	4976
882.631	4805
882.757	4687
882.883	4729
883.01	4702
883.136	4706
883.262	4607
883.388	4641
883.514	4847
883.64	4896
883.766	4816
883.892	4679
884.018	4706
884.143	4900
884.269	5041
884.395	4698
884.52	4615
884.646	4683
884.772	4561
884.897	4588
885.023	4668
885.148	4774
885.274	4858
885.399	4759
885.524	4733
885.65	4740
885.775	4714
885.9	4752
886.025	4828
886.15	4793
886.275	4771
886.4	4672
886.525	4664
886.65	4691
886.775	4698
886.9	4927
887.025	5090
887.149	4824
887.274	4687
887.399	4641
887.523	4603
887.648	4573
887.773	4577
887.897	4778
888.021	4744
888.146	4679
888.27	4835
888.395	4900
888.519	4774
888.643	4843
888.767	4847
888.891	4645
889.015	4584
889.139	4691
889.263	4558
889.387	4774
889.511	4866
889.635	4812
889.759	4645
889.883	4679
890.006	4721
890.13	4805
890.254	4622
890.377	4694
890.501	4512
890.624	4535
890.748	4641
890.871	4535
890.995	4455
891.118	4379
891.241	4519
891.364	4531
891.488	4668
891.611	4546
891.734	4550
891.857	4588
891.98	4546
892.103	4641
892.226	4588
892.349	4500
892.471	4443
892.594	4569
892.717	4622
892.839	4607
892.962	4615
893.085	4653
893.207	4577
893.33	4500
893.452	4519
893.575	4611
893.697	4558
893.819	4816
893.941	4835
894.064	4790
894.186	4599
894.308	4615
894.43	4733
894.552	4828
894.674	4771
894.796	4535
894.918	4577
895.04	4607
895.161	4717
895.283	4653
895.405	4603
895.526	4645
895.648	4679
895.769	4668
895.891	4755
896.012	4694
896.134	4729
896.255	4637
896.376	4641
896.498	4622
896.619	4687
896.74	4607
896.861	4622
896.982	4900
897.103	5052
897.224	4835
897.345	4793
897.466	4687
897.587	4729
897.708	4877
897.828	4790
897.949	4672
898.07	4573
898.19	4622
898.311	4805
898.431	4675
898.552	4729
898.672	4866
898.792	4831
898.913	4740
899.033	4615
899.153	4516
899.273	4451
899.393	4455
899.513	4554
899.633	4577
899.753	4512
899.873	4584
899.993	4558
900.113	4531
900.232	4573
900.352	4546
900.472	4546
900.591	4348
900.711	4500
900.83	4459
900.95	4569
901.069	4672
901.189	4573
901.308	4398
901.427	4314
901.546	4386
901.665	4474
901.784	4504
901.904	4360
902.023	4329
902.141	4200
902.26	4169
902.379	4253
902.498	4242
902.617	4200
902.735	4379
902.854	4421
902.973	4337
903.091	4192
903.21	4261
903.328	4272
903.446	4265
903.565	4303
903.683	4360
903.801	4253
903.919	4398
904.038	4455
904.156	4284
904.274	4428
904.392	4409
904.51	4379
904.627	4436
904.745	4577
904.863	4615
904.981	4360
905.098	4306
905.216	4383
905.334	4497
905.451	4443
905.569	4417
905.686	4569
905.803	4554
905.921	4371
906.038	4565
906.155	4508
906.272	4428
906.389	4478
906.506	4383
906.623	4356
906.74	4383
906.857	4299
906.974	4432
907.091	4588
907.208	4714
907.324	4550
907.441	4489
907.557	4333
907.674	4329
907.79	4299
907.907	4409
908.023	4421
908.139	4440
908.256	4390
908.372	4440
908.488	4470
908.604	4329
908.72	4325
908.836	4409
908.952	4398
909.068	4436
909.184	4607
909.3	4497
909.415	4580
909.531	4603
909.647	4360
909.762	4356
909.878	4344
909.993	4432
910.108	4398
910.224	4428
910.339	4500
910.454	4443
910.57	4375
910.685	4314
910.8	4660
910.915	4599
911.03	4497
911.145	4268
911.259	4314
911.374	4375
911.489	4306
911.604	4303
911.718	4207
911.833	4169
911.947	4071
912.062	4048
912.176	4181
912.291	4230
912.405	4265
912.519	4519
912.633	4447
912.748	4383
912.862	4303
912.976	4253
913.09	4090
913.204	4207
913.318	4280
913.431	4417
913.545	4375
913.659	4474
913.772	4360
913.886	4303
914	4287
914.113	4367
914.226	4405
914.34	4398
914.453	4249
914.566	4443
914.68	4367
914.793	4352
914.906	4139
915.019	4093
915.132	4082
915.245	4188
915.358	4192
915.47	4215
915.583	4257
915.696	4268
915.809	4402
915.921	4440
916.034	4295
916.146	4249
916.259	4238
916.371	4363
916.483	4379
916.595	4268
916.708	4337
916.82	4303
916.932	4325
917.044	4333
917.156	4333
917.268	4211
917.38	4314
917.491	4291
917.603	4386
917.715	4455
917.826	4402
917.938	4363
918.049	4207
918.161	4379
918.272	4512
918.384	4542
918.495	4451
918.606	4337
918.717	4314
918.828	4375
918.939	4352
919.05	4246
919.161	4306
919.272	4173
919.383	4276
919.494	4478
919.604	4622
919.715	4459
919.826	4424
919.936	4402
920.047	4569
920.157	4504
920.267	4733
920.378	4588
920.488	4531
920.598	4706
920.708	4889
920.818	4790
920.928	4752
921.038	4972
921.148	4972
921.258	4622
921.368	4561
921.477	4535
921.587	4485
921.697	4402
921.806	4584
921.916	4443
922.025	4280
922.134	4257
922.244	4253
922.353	4352
922.462	4215
922.571	4135
922.68	4013
922.789	4010
922.898	4044
923.007	3968
923.116	4086
923.224	4048
923.333	4090
923.442	3983
923.55	3987
923.659	4025
923.767	4101
923.876	4010
923.984	4158
924.092	3956
924.201	4078
924.309	4071
924.417	4131
924.525	4101
924.633	4116
924.741	4866
924.849	3960
924.956	4139
925.064	3987
925.172	3937
925.279	3979
925.387	4055
925.494	4048
925.602	4215
925.709	4177
925.816	4051
925.924	4143
926.031	4272
926.138	4215
926.245	4230
926.352	4040
926.459	4272
926.566	4341
926.673	4162
926.779	4071
926.886	4067
926.993	3937
927.099	3987
927.206	3941
927.312	3926
927.419	4036
927.525	3991
927.631	4059
927.737	3953
927.843	3953
927.95	3857
928.056	3960
928.162	3987
928.267	4040
928.373	4691
928.479	4128
928.585	3918
928.69	4006
928.796	4029
928.901	3983
929.007	3873
929.112	4021
929.218	3934
929.323	3983
929.428	3964
929.533	4120
929.638	3903
929.743	3941
929.848	4059
929.953	4048
930.058	3941
930.163	3740
930.267	3884
930.372	3956
930.477	3800
930.581	4097
930.685	4029
930.79	3816
930.894	3884
930.998	3838
931.103	4048
931.207	3728
931.311	3759
931.415	3648
931.519	3557
931.623	3561
