Data from test_V78500241_1629.txt Node
Date: Fri Mar 25 17:00:19 CST 2022
User: usil
Spectrometer: V785-0024
Trigger mode: 0
Integration Time (sec): 4.000000E-1
Scans to average: 1
Nonlinearity correction enabled: false
Boxcar width: 0
Storing dark spectrum: false
XAxis mode: Wavelengths
Number of Pixels in Spectrum: 1024
>>>>>Begin Spectral Data<<<<<
801.071	8027
801.214	7967
801.356	7898
801.499	7795
801.641	7841
801.783	7795
801.926	7982
802.068	7887
802.211	7997
802.353	7993
802.496	7795
802.638	7879
802.78	7951
802.923	7898
803.065	7830
803.208	7833
803.35	7978
803.492	8123
803.635	8202
803.777	7986
803.919	8084
804.061	8400
804.204	8164
804.346	8062
804.488	7974
804.63	8123
804.773	8027
804.915	8065
805.057	8324
805.199	8153
805.341	8206
805.483	8263
805.626	8157
805.768	8138
805.91	8183
806.052	8180
806.194	8100
806.336	8267
806.478	8103
806.62	8035
806.762	8107
806.904	8275
807.046	8465
807.188	8282
807.33	8328
807.472	8358
807.614	8164
807.756	8210
807.898	7989
808.04	7864
808.182	7913
808.324	7887
808.465	7940
808.607	8012
808.749	8084
808.891	8153
809.033	8301
809.174	8180
809.316	8058
809.458	8031
809.6	8005
809.741	8008
809.883	8039
810.025	8073
810.166	7970
810.308	8039
810.45	8062
810.591	7830
810.733	7712
810.875	7666
811.016	7495
811.158	7445
811.299	7556
811.441	7674
811.582	7689
811.724	7620
811.865	7552
812.007	7567
812.148	7616
812.29	7624
812.431	7780
812.573	7921
812.714	7913
812.855	8069
812.997	8180
813.138	8256
813.279	8225
813.421	8100
813.562	7928
813.703	7776
813.845	7750
813.986	7381
814.127	7247
814.268	7217
814.41	7202
814.551	7190
814.692	7122
814.833	7069
814.974	7133
815.115	7145
815.256	7008
815.397	6932
815.539	6901
815.68	6829
815.821	6802
815.962	6920
816.103	6772
816.244	6703
816.385	6642
816.526	6578
816.666	6452
816.807	6323
816.948	6448
817.089	6395
817.23	6426
817.371	6395
817.512	6357
817.653	6437
817.793	6331
817.934	6471
818.075	6433
818.216	6384
818.356	6384
818.497	6262
818.638	6098
818.778	6114
818.919	6140
819.06	6175
819.2	6346
819.341	6327
819.481	6346
819.622	6570
819.762	6802
819.903	6734
820.043	6559
820.184	6563
820.324	6620
820.465	6700
820.605	6696
820.746	6654
820.886	6509
821.026	6601
821.167	6665
821.307	6818
821.447	6741
821.588	6738
821.728	6547
821.868	6494
822.008	6361
822.149	6308
822.289	6331
822.429	6152
822.569	6091
822.709	6057
822.849	5882
822.99	5927
823.13	5874
823.27	5893
823.41	5824
823.55	5794
823.69	5767
823.83	5767
823.97	5649
824.11	5505
824.25	5524
824.389	5592
824.529	5608
824.669	5558
824.809	5665
824.949	5615
825.089	5688
825.228	5543
825.368	5387
825.508	5322
825.648	5330
825.787	5334
825.927	5364
826.067	5265
826.206	5299
826.346	5417
826.485	5391
826.625	5372
826.765	5478
826.904	5444
827.044	5201
827.183	5197
827.323	5155
827.462	5223
827.601	5185
827.741	5216
827.88	5273
828.02	5102
828.159	5273
828.298	5239
828.437	5330
828.577	5277
828.716	5535
828.855	5326
828.994	5178
829.134	5159
829.273	5143
829.412	5128
829.551	5159
829.69	5124
829.829	5227
829.968	5425
830.107	5258
830.246	5212
830.385	5155
830.524	5109
830.663	5037
830.802	4942
830.941	4904
831.08	4919
831.219	4957
831.357	5010
831.496	5155
831.635	4930
831.774	4847
831.913	4862
832.051	4752
832.19	4752
832.329	4805
832.467	4698
832.606	4611
832.744	4736
832.883	4717
833.022	4721
833.16	4801
833.299	4786
833.437	4824
833.576	4801
833.714	4877
833.852	4911
833.991	4831
834.129	4984
834.267	4942
834.406	4881
834.544	4961
834.682	4976
834.821	4972
834.959	5132
835.097	4934
835.235	5098
835.373	5060
835.511	5117
835.65	4980
835.788	5033
835.926	4946
836.064	4889
836.202	4911
836.34	5105
836.478	5185
836.615	5132
836.753	5193
836.891	5246
837.029	5246
837.167	5185
837.305	5151
837.443	5083
837.58	5094
837.718	5208
837.856	5223
837.993	5083
838.131	5258
838.269	5250
838.406	5181
838.544	5227
838.681	5048
838.819	5037
838.956	4927
839.094	4885
839.231	5025
839.369	5037
839.506	5459
839.643	5258
839.781	5045
839.918	4930
840.055	5121
840.193	5128
840.33	5071
840.467	5140
840.604	5151
840.742	5455
840.879	5048
841.016	5094
841.153	5162
841.29	5360
841.427	5307
841.564	5345
841.701	5357
841.838	5254
841.975	5189
842.112	5250
842.249	5159
842.385	5060
842.522	5280
842.659	5136
842.796	5159
842.933	5185
843.069	5143
843.206	5124
843.343	5250
843.479	5212
843.616	5273
843.752	5033
843.889	4980
844.025	5204
844.162	4987
844.298	5181
844.435	5045
844.571	5083
844.708	5151
844.844	5322
844.98	5334
845.117	5292
845.253	5143
845.389	5045
845.525	5124
845.661	5136
845.798	5045
845.934	5105
846.07	5025
846.206	5185
846.342	5254
846.478	5174
846.614	5014
846.75	4965
846.886	4915
847.022	5113
847.158	5071
847.294	5071
847.429	5090
847.565	5067
847.701	5284
847.837	4877
847.972	4835
848.108	4889
848.244	4968
848.379	4752
848.515	4683
848.65	4729
848.786	4759
848.921	4759
849.057	4892
849.192	4858
849.328	4786
849.463	4885
849.598	4820
849.734	4755
849.869	4664
850.004	4611
850.14	4694
850.275	4626
850.41	4535
850.545	4550
850.68	4618
850.815	4584
850.95	4656
851.085	4820
851.22	4774
851.355	4660
851.49	4641
851.625	4649
851.76	4634
851.895	4615
852.03	4508
852.165	4649
852.299	4706
852.434	4767
852.569	4714
852.703	4778
852.838	4839
852.973	4885
853.107	4847
853.242	4687
853.376	4691
853.511	4538
853.645	4645
853.78	4828
853.914	4637
854.048	4630
854.183	4626
854.317	4698
854.451	4812
854.585	4607
854.72	4607
854.854	4683
854.988	4599
855.122	4683
855.256	4508
855.39	4660
855.524	4771
855.658	4729
855.792	4706
855.926	4721
856.06	4763
856.194	4759
856.327	4672
856.461	4577
856.595	4599
856.729	4607
856.862	4717
856.996	4649
857.13	4660
857.263	4702
857.397	4793
857.53	4607
857.664	4752
857.797	4759
857.931	4744
858.064	4675
858.197	4763
858.331	4645
858.464	4641
858.597	4569
858.731	4607
858.864	4630
858.997	4569
859.13	4660
859.263	4683
859.396	4706
859.529	4565
859.662	4554
859.795	4535
859.928	4607
860.061	4755
860.194	4767
860.327	4618
860.46	4546
860.592	4714
860.725	4687
860.858	4710
860.99	4561
861.123	4523
861.256	4535
861.388	4668
861.521	5140
861.653	4478
861.786	4424
861.918	4405
862.05	4554
862.183	4508
862.315	4577
862.447	4691
862.58	4535
862.712	4405
862.844	4356
862.976	4462
863.108	4466
863.24	4710
863.372	4333
863.504	4417
863.636	4432
863.768	4481
863.9	4436
864.032	4363
864.164	4443
864.296	4470
864.428	4523
864.559	4558
864.691	4550
864.823	4519
864.954	4504
865.086	4493
865.217	4409
865.349	4440
865.48	4470
865.612	4493
865.743	4599
865.875	4478
866.006	4470
866.137	4443
866.269	4474
866.4	4398
866.531	4409
866.662	4383
866.793	4428
866.924	4405
867.055	4432
867.186	4432
867.317	4394
867.448	4360
867.579	4398
867.71	4367
867.841	4398
867.972	4451
868.103	4451
868.233	4466
868.364	4512
868.495	4489
868.625	4672
868.756	4793
868.886	4577
869.017	4622
869.147	4736
869.278	4710
869.408	4653
869.539	4653
869.669	4691
869.799	4675
869.929	4786
870.06	4740
870.19	4908
870.32	4873
870.45	4900
870.58	4930
870.71	5105
870.84	5102
870.97	4953
871.1	4934
871.23	5113
871.36	5086
871.489	4968
871.619	5086
871.749	5083
871.879	5140
872.008	5197
872.138	5048
872.267	4946
872.397	4885
872.526	4843
872.656	4748
872.785	4805
872.915	4965
873.044	5052
873.173	4961
873.303	4930
873.432	4927
873.561	4923
873.69	4877
873.819	4870
873.948	4908
874.077	4866
874.206	4733
874.335	4763
874.464	4885
874.593	5037
874.722	4968
874.851	5067
874.979	5094
875.108	5056
875.237	4927
875.365	4866
875.494	4908
875.623	4972
875.751	4850
875.88	4908
876.008	4968
876.136	5083
876.265	5174
876.393	5349
876.521	5185
876.65	5227
876.778	5151
876.906	5086
877.034	5052
877.162	5029
877.29	4942
877.418	5071
877.546	5029
877.674	5018
877.802	5048
877.93	5029
878.058	4919
878.185	4881
878.313	4968
878.441	4957
878.568	4767
878.696	4877
878.824	4927
878.951	4961
879.079	5178
879.206	5296
879.333	5071
879.461	4938
879.588	5003
879.715	5159
879.842	5216
879.97	4984
880.097	4805
880.224	4714
880.351	4797
880.478	4858
880.605	4774
880.732	4793
880.859	5060
880.986	4862
881.112	4911
881.239	4774
881.366	4656
881.493	4588
881.619	4569
881.746	4645
881.872	4656
881.999	4626
882.125	4679
882.252	4748
882.378	4858
882.505	4946
882.631	4748
882.757	4698
882.883	4744
883.01	4717
883.136	4672
883.262	4577
883.388	4626
883.514	4839
883.64	4839
883.766	4793
883.892	4660
884.018	4740
884.143	4896
884.269	5003
884.395	4687
884.52	4637
884.646	4630
884.772	4584
884.897	4542
885.023	4622
885.148	4839
885.274	4862
885.399	4824
885.524	4744
885.65	4675
885.775	4660
885.9	4683
886.025	4839
886.15	4774
886.275	4702
886.4	4630
886.525	4702
886.65	4725
886.775	4721
886.9	4881
887.025	4980
887.149	4767
887.274	4596
887.399	4618
887.523	4618
887.648	4573
887.773	4558
887.897	4740
888.021	4755
888.146	4637
888.27	4801
888.395	4919
888.519	4816
888.643	4816
888.767	4786
888.891	4622
889.015	4599
889.139	4637
889.263	4580
889.387	4660
889.511	4824
889.635	4828
889.759	4702
889.883	4637
890.006	4687
890.13	4812
890.254	4615
890.377	4664
890.501	4550
890.624	4474
890.748	4641
890.871	4504
890.995	4443
891.118	4375
891.241	4474
891.364	4478
891.488	4653
891.611	4485
891.734	4561
891.857	4558
891.98	4554
892.103	4653
892.226	4596
892.349	4535
892.471	4424
892.594	4577
892.717	4596
892.839	4573
892.962	4592
893.085	4660
893.207	4584
893.33	4489
893.452	4466
893.575	4645
893.697	4573
893.819	4774
893.941	4801
894.064	4744
894.186	4546
894.308	4550
894.43	4721
894.552	4812
894.674	4782
894.796	4531
894.918	4561
895.04	4565
895.161	4694
895.283	4656
895.405	4558
895.526	4626
895.648	4641
895.769	4702
895.891	4736
896.012	4729
896.134	4706
896.255	4683
896.376	4603
896.498	4603
896.619	4683
896.74	4653
896.861	4672
896.982	4919
897.103	5124
897.224	4828
897.345	4694
897.466	4725
897.587	4660
897.708	4812
897.828	4793
897.949	4649
898.07	4531
898.19	4622
898.311	4824
898.431	4675
898.552	4736
898.672	4850
898.792	4816
898.913	4767
899.033	4622
899.153	4497
899.273	4421
899.393	4497
899.513	4500
899.633	4554
899.753	4531
899.873	4470
899.993	4603
900.113	4466
900.232	4599
900.352	4569
900.472	4405
900.591	4417
900.711	4500
900.83	4440
900.95	4634
901.069	4683
901.189	4531
901.308	4371
901.427	4265
901.546	4314
901.665	4493
901.784	4493
901.904	4383
902.023	4303
902.141	4166
902.26	4169
902.379	4276
902.498	4261
902.617	4207
902.735	4390
902.854	4386
902.973	4371
903.091	4169
903.21	4196
903.328	4276
903.446	4261
903.565	4261
903.683	4337
903.801	4295
903.919	4413
904.038	4478
904.156	4341
904.274	4379
904.392	4371
904.51	4459
904.627	4447
904.745	4527
904.863	4603
904.981	4394
905.098	4344
905.216	4344
905.334	4417
905.451	4421
905.569	4394
905.686	4527
905.803	4558
905.921	4398
906.038	4569
906.155	4512
906.272	4390
906.389	4443
906.506	4341
906.623	4356
906.74	4386
906.857	4272
906.974	4383
907.091	4603
907.208	4683
907.324	4592
907.441	4500
907.557	4386
907.674	4356
907.79	4306
907.907	4398
908.023	4497
908.139	4398
908.256	4424
908.372	4474
908.488	4447
908.604	4348
908.72	4295
908.836	4352
908.952	4413
909.068	4394
909.184	4527
909.3	4478
909.415	4592
909.531	4603
909.647	4325
909.762	4379
909.878	4299
909.993	4428
910.108	4402
910.224	4432
910.339	4432
910.454	4409
910.57	4356
910.685	4333
910.8	4626
910.915	4554
911.03	4504
911.145	4303
911.259	4325
911.374	4409
911.489	4329
911.604	4272
911.718	4173
911.833	4204
911.947	4078
912.062	3979
912.176	4173
912.291	4272
912.405	4265
912.519	4470
912.633	4497
912.748	4405
912.862	4284
912.976	4196
913.09	4116
913.204	4196
913.318	4261
913.431	4322
913.545	4322
913.659	4436
913.772	4409
913.886	4268
914	4223
914.113	4371
914.226	4459
914.34	4386
914.453	4268
914.566	4462
914.68	4291
914.793	4363
914.906	4158
915.019	4120
915.132	4116
915.245	4188
915.358	4219
915.47	4238
915.583	4314
915.696	4306
915.809	4405
915.921	4421
916.034	4306
916.146	4234
916.259	4196
916.371	4352
916.483	4329
916.595	4280
916.708	4344
916.82	4306
916.932	4341
917.044	4314
917.156	4329
917.268	4196
917.38	4303
917.491	4257
917.603	4344
917.715	4428
917.826	4447
917.938	4360
918.049	4261
918.161	4409
918.272	4485
918.384	4527
918.495	4451
918.606	4284
918.717	4215
918.828	4367
918.939	4360
919.05	4230
919.161	4310
919.272	4071
919.383	4227
919.494	4432
919.604	4634
919.715	4436
919.826	4409
919.936	4360
920.047	4535
920.157	4455
920.267	4721
920.378	4542
920.488	4535
920.598	4729
920.708	4847
920.818	4755
920.928	4755
921.038	4934
921.148	4896
921.258	4626
921.368	4512
921.477	4523
921.587	4443
921.697	4337
921.806	4542
921.916	4443
922.025	4268
922.134	4284
922.244	4211
922.353	4295
922.462	4154
922.571	4166
922.68	3994
922.789	3972
922.898	4013
923.007	3991
923.116	4131
923.224	4071
923.333	4139
923.442	3975
923.55	3937
923.659	4029
923.767	4093
923.876	4010
923.984	4086
924.092	3945
924.201	4036
924.309	4112
924.417	4105
924.525	4025
924.633	4131
924.741	4896
924.849	3911
924.956	4109
925.064	3934
925.172	3888
925.279	3991
925.387	4021
925.494	4032
925.602	4219
925.709	4158
925.816	4029
925.924	4139
926.031	4230
926.138	4166
926.245	4166
926.352	4109
926.459	4215
926.566	4341
926.673	4154
926.779	4074
926.886	4021
926.993	3975
927.099	3937
927.206	3903
927.312	3960
927.419	4055
927.525	4025
927.631	4063
927.737	3945
927.843	3956
927.95	3770
928.056	3972
928.162	4010
928.267	4044
928.373	4565
928.479	4120
928.585	3896
928.69	4025
928.796	4074
928.901	3998
929.007	3846
929.112	3964
929.218	3979
929.323	3922
929.428	3934
929.533	4135
929.638	3903
929.743	3968
929.848	4017
929.953	3968
930.058	3907
930.163	3800
930.267	3785
930.372	3960
930.477	3800
930.581	4093
930.685	3953
930.79	3838
930.894	3873
930.998	3873
931.103	4032
931.207	3652
931.311	3717
931.415	3713
931.519	3526
931.623	3538
