Data from test_V78500241_185.txt Node
Date: Fri Mar 25 16:50:17 CST 2022
User: usil
Spectrometer: V785-0024
Trigger mode: 0
Integration Time (sec): 4.000000E-1
Scans to average: 1
Nonlinearity correction enabled: false
Boxcar width: 0
Storing dark spectrum: false
XAxis mode: Wavelengths
Number of Pixels in Spectrum: 1024
>>>>>Begin Spectral Data<<<<<
801.071	7982
801.214	7970
801.356	7822
801.499	7864
801.641	7818
801.783	7963
801.926	8050
802.068	8054
802.211	8054
802.353	8035
802.496	7936
802.638	7879
802.78	7989
802.923	7894
803.065	7849
803.208	7940
803.35	7997
803.492	8111
803.635	8164
803.777	7986
803.919	8130
804.061	8492
804.204	8126
804.346	8119
804.488	7951
804.63	8058
804.773	8062
804.915	8084
805.057	8320
805.199	8161
805.341	8153
805.483	8267
805.626	8206
805.768	8016
805.91	8145
806.052	8164
806.194	8107
806.336	8305
806.478	8161
806.62	8012
806.762	8176
806.904	8240
807.046	8404
807.188	8343
807.33	8279
807.472	8286
807.614	8142
807.756	8092
807.898	7978
808.04	7974
808.182	7875
808.324	7951
808.465	8001
808.607	8012
808.749	8126
808.891	8233
809.033	8339
809.174	8225
809.316	8054
809.458	8088
809.6	8001
809.741	8100
809.883	8065
810.025	8149
810.166	8100
810.308	7986
810.45	8020
810.591	7890
810.733	7833
810.875	7643
811.016	7529
811.158	7521
811.299	7597
811.441	7784
811.582	7715
811.724	7571
811.865	7582
812.007	7734
812.148	7647
812.29	7734
812.431	7822
812.573	7955
812.714	8046
812.855	8161
812.997	8305
813.138	8313
813.279	8168
813.421	8119
813.562	8008
813.703	7909
813.845	7799
813.986	7464
814.127	7327
814.268	7308
814.41	7225
814.551	7255
814.692	7149
814.833	7190
814.974	7190
815.115	7149
815.256	7004
815.397	6913
815.539	6962
815.68	6840
815.821	6810
815.962	6875
816.103	6825
816.244	6745
816.385	6757
816.526	6696
816.666	6570
816.807	6350
816.948	6467
817.089	6502
817.23	6395
817.371	6426
817.512	6403
817.653	6426
817.793	6331
817.934	6433
818.075	6452
818.216	6441
818.356	6399
818.497	6292
818.638	6152
818.778	6243
818.919	6144
819.06	6140
819.2	6315
819.341	6304
819.481	6357
819.622	6563
819.762	6749
819.903	6677
820.043	6601
820.184	6540
820.324	6593
820.465	6631
820.605	6688
820.746	6650
820.886	6513
821.026	6681
821.167	6684
821.307	6814
821.447	6818
821.588	6692
821.728	6555
821.868	6513
822.008	6327
822.149	6376
822.289	6372
822.429	6201
822.569	6064
822.709	6102
822.849	5942
822.99	5973
823.13	5935
823.27	6003
823.41	5851
823.55	5805
823.69	5741
823.83	5866
823.97	5718
824.11	5596
824.25	5543
824.389	5570
824.529	5585
824.669	5551
824.809	5646
824.949	5668
825.089	5627
825.228	5585
825.368	5433
825.508	5357
825.648	5383
825.787	5379
825.927	5383
826.067	5292
826.206	5364
826.346	5368
826.485	5436
826.625	5482
826.765	5516
826.904	5532
827.044	5254
827.183	5235
827.323	5140
827.462	5273
827.601	5181
827.741	5166
827.88	5246
828.02	5128
828.159	5277
828.298	5292
828.437	5372
828.577	5277
828.716	5493
828.855	5318
828.994	5235
829.134	5204
829.273	5212
829.412	5201
829.551	5136
829.69	5223
829.829	5201
829.968	5391
830.107	5307
830.246	5330
830.385	5178
830.524	5174
830.663	5094
830.802	5018
830.941	4968
831.08	4938
831.219	5037
831.357	4961
831.496	5155
831.635	4984
831.774	4938
831.913	4843
832.051	4740
832.19	4752
832.329	4797
832.467	4698
832.606	4668
832.744	4759
832.883	4736
833.022	4725
833.16	4831
833.299	4824
833.437	4809
833.576	4843
833.714	4847
833.852	4877
833.991	4927
834.129	4965
834.267	4923
834.406	4908
834.544	5014
834.682	4976
834.821	5003
834.959	5231
835.097	5014
835.235	5178
835.373	5105
835.511	5113
835.65	5098
835.788	5018
835.926	4942
836.064	4900
836.202	4957
836.34	5223
836.478	5181
836.615	5151
836.753	5235
836.891	5299
837.029	5220
837.167	5208
837.305	5220
837.443	5185
837.58	5041
837.718	5242
837.856	5193
837.993	5140
838.131	5235
838.269	5220
838.406	5201
838.544	5201
838.681	5067
838.819	4999
838.956	4938
839.094	4946
839.231	4984
839.369	5075
839.506	5444
839.643	5261
839.781	5071
839.918	5025
840.055	5075
840.193	5117
840.33	5094
840.467	5178
840.604	5132
840.742	5414
840.879	5086
841.016	5098
841.153	5132
841.29	5372
841.427	5326
841.564	5292
841.701	5364
841.838	5311
841.975	5258
842.112	5292
842.249	5128
842.385	5102
842.522	5341
842.659	5212
842.796	5170
842.933	5242
843.069	5174
843.206	5208
843.343	5326
843.479	5227
843.616	5277
843.752	5041
843.889	5033
844.025	5208
844.162	4976
844.298	5254
844.435	5105
844.571	5060
844.708	5178
844.844	5360
844.98	5372
845.117	5330
845.253	5140
845.389	5083
845.525	5223
845.661	5170
845.798	5071
845.934	5155
846.07	5090
846.206	5185
846.342	5288
846.478	5204
846.614	4991
846.75	4976
846.886	4987
847.022	5124
847.158	4987
847.294	5071
847.429	5113
847.565	5056
847.701	5288
847.837	4843
847.972	4801
848.108	4995
848.244	4938
848.379	4812
848.515	4759
848.65	4759
848.786	4778
848.921	4778
849.057	4904
849.192	4892
849.328	4839
849.463	4881
849.598	4816
849.734	4816
849.869	4698
850.004	4653
850.14	4675
850.275	4622
850.41	4542
850.545	4611
850.68	4607
850.815	4618
850.95	4675
851.085	4850
851.22	4797
851.355	4698
851.49	4683
851.625	4694
851.76	4656
851.895	4561
852.03	4558
852.165	4664
852.299	4748
852.434	4782
852.569	4767
852.703	4793
852.838	4828
852.973	4965
853.107	4934
853.242	4706
853.376	4687
853.511	4596
853.645	4653
853.78	4835
853.914	4729
854.048	4637
854.183	4641
854.317	4725
854.451	4885
854.585	4702
854.72	4679
854.854	4771
854.988	4637
855.122	4618
855.256	4558
855.39	4691
855.524	4748
855.658	4763
855.792	4714
855.926	4763
856.06	4782
856.194	4793
856.327	4698
856.461	4615
856.595	4691
856.729	4630
856.862	4782
856.996	4664
857.13	4733
857.263	4797
857.397	4805
857.53	4653
857.664	4736
857.797	4790
857.931	4801
858.064	4706
858.197	4752
858.331	4672
858.464	4615
858.597	4535
858.731	4649
858.864	4611
858.997	4607
859.13	4687
859.263	4691
859.396	4782
859.529	4637
859.662	4588
859.795	4542
859.928	4664
860.061	4771
860.194	4805
860.327	4634
860.46	4599
860.592	4767
860.725	4717
860.858	4725
860.99	4626
861.123	4531
861.256	4569
861.388	4603
861.521	5353
861.653	4497
861.786	4470
861.918	4447
862.05	4546
862.183	4626
862.315	4596
862.447	4660
862.58	4554
862.712	4375
862.844	4325
862.976	4451
863.108	4497
863.24	4831
863.372	4394
863.504	4413
863.636	4375
863.768	4470
863.9	4481
864.032	4348
864.164	4421
864.296	4478
864.428	4577
864.559	4577
864.691	4512
864.823	4519
864.954	4508
865.086	4481
865.217	4432
865.349	4432
865.48	4462
865.612	4500
865.743	4675
865.875	4497
866.006	4440
866.137	4512
866.269	4478
866.4	4432
866.531	4432
866.662	4394
866.793	4440
866.924	4455
867.055	4523
867.186	4440
867.317	4436
867.448	4394
867.579	4386
867.71	4409
867.841	4375
867.972	4474
868.103	4497
868.233	4466
868.364	4466
868.495	4519
868.625	4664
868.756	4774
868.886	4611
869.017	4618
869.147	4774
869.278	4733
869.408	4645
869.539	4641
869.669	4736
869.799	4729
869.929	4801
870.06	4782
870.19	4961
870.32	4919
870.45	4934
870.58	5006
870.71	5136
870.84	5094
870.97	4957
871.1	4904
871.23	5189
871.36	5105
871.489	5045
871.619	5094
871.749	5159
871.879	5162
872.008	5231
872.138	5079
872.267	4984
872.397	4858
872.526	4839
872.656	4729
872.785	4755
872.915	4965
873.044	5037
873.173	4984
873.303	4995
873.432	4999
873.561	4984
873.69	4896
873.819	4866
873.948	4953
874.077	4847
874.206	4831
874.335	4752
874.464	4892
874.593	5045
874.722	4980
874.851	5094
874.979	5090
875.108	5071
875.237	4953
875.365	4900
875.494	4934
875.623	4972
875.751	4824
875.88	4908
876.008	5022
876.136	5075
876.265	5227
876.393	5429
876.521	5265
876.65	5227
876.778	5197
876.906	5098
877.034	5041
877.162	5083
877.29	5003
877.418	5071
877.546	5052
877.674	4991
877.802	5037
877.93	5006
878.058	4949
878.185	4946
878.313	4976
878.441	4953
878.568	4778
878.696	4919
878.824	4965
878.951	5003
879.079	5128
879.206	5303
879.333	5132
879.461	5025
879.588	5014
879.715	5105
879.842	5254
879.97	4991
880.097	4797
880.224	4771
880.351	4801
880.478	4797
880.605	4812
880.732	4778
880.859	5140
880.986	4934
881.112	4927
881.239	4820
881.366	4698
881.493	4641
881.619	4622
881.746	4649
881.872	4683
881.999	4664
882.125	4706
882.252	4824
882.378	4862
882.505	4934
882.631	4786
882.757	4664
882.883	4710
883.01	4752
883.136	4687
883.262	4607
883.388	4634
883.514	4812
883.64	4843
883.766	4786
883.892	4675
884.018	4687
884.143	4915
884.269	5003
884.395	4679
884.52	4637
884.646	4637
884.772	4637
884.897	4630
885.023	4675
885.148	4805
885.274	4843
885.399	4801
885.524	4744
885.65	4740
885.775	4805
885.9	4706
886.025	4862
886.15	4752
886.275	4725
886.4	4618
886.525	4771
886.65	4714
886.775	4706
886.9	4877
887.025	5071
887.149	4816
887.274	4626
887.399	4546
887.523	4630
887.648	4550
887.773	4588
887.897	4778
888.021	4797
888.146	4702
888.27	4759
888.395	4930
888.519	4843
888.643	4793
888.767	4828
888.891	4687
889.015	4664
889.139	4660
889.263	4592
889.387	4748
889.511	4850
889.635	4771
889.759	4660
889.883	4645
890.006	4710
890.13	4854
890.254	4634
890.377	4717
890.501	4565
890.624	4516
890.748	4679
890.871	4538
890.995	4451
891.118	4390
891.241	4550
891.364	4519
891.488	4679
891.611	4561
891.734	4508
891.857	4607
891.98	4561
892.103	4660
892.226	4664
892.349	4546
892.471	4478
892.594	4561
892.717	4615
892.839	4542
892.962	4615
893.085	4672
893.207	4626
893.33	4500
893.452	4489
893.575	4607
893.697	4596
893.819	4736
893.941	4828
894.064	4725
894.186	4580
894.308	4588
894.43	4744
894.552	4831
894.674	4831
894.796	4573
894.918	4596
895.04	4580
895.161	4706
895.283	4645
895.405	4611
895.526	4694
895.648	4664
895.769	4752
895.891	4736
896.012	4755
896.134	4714
896.255	4694
896.376	4626
896.498	4649
896.619	4668
896.74	4592
896.861	4683
896.982	4923
897.103	5102
897.224	4824
897.345	4759
897.466	4668
897.587	4759
897.708	4839
897.828	4771
897.949	4706
898.07	4542
898.19	4641
898.311	4847
898.431	4687
898.552	4702
898.672	4850
898.792	4816
898.913	4809
899.033	4637
899.153	4546
899.273	4405
899.393	4497
899.513	4538
899.633	4538
899.753	4531
899.873	4466
899.993	4561
900.113	4504
900.232	4611
900.352	4554
900.472	4493
900.591	4428
900.711	4478
900.83	4402
900.95	4580
901.069	4710
901.189	4573
901.308	4383
901.427	4390
901.546	4394
901.665	4440
901.784	4500
901.904	4390
902.023	4314
902.141	4169
902.26	4192
902.379	4306
902.498	4265
902.617	4230
902.735	4367
902.854	4421
902.973	4367
903.091	4223
903.21	4219
903.328	4352
903.446	4257
903.565	4246
903.683	4360
903.801	4322
903.919	4409
904.038	4432
904.156	4299
904.274	4432
904.392	4455
904.51	4451
904.627	4508
904.745	4584
904.863	4645
904.981	4402
905.098	4280
905.216	4413
905.334	4432
905.451	4432
905.569	4417
905.686	4584
905.803	4554
905.921	4432
906.038	4558
906.155	4508
906.272	4413
906.389	4527
906.506	4348
906.623	4386
906.74	4462
906.857	4318
906.974	4383
907.091	4592
907.208	4710
907.324	4584
907.441	4565
907.557	4379
907.674	4417
907.79	4299
907.907	4405
908.023	4489
908.139	4531
908.256	4413
908.372	4451
908.488	4466
908.604	4348
908.72	4367
908.836	4402
908.952	4371
909.068	4478
909.184	4538
909.3	4489
909.415	4615
909.531	4588
909.647	4360
909.762	4352
909.878	4356
909.993	4451
910.108	4432
910.224	4428
910.339	4485
910.454	4417
910.57	4325
910.685	4348
910.8	4603
910.915	4622
911.03	4527
911.145	4303
911.259	4356
911.374	4398
911.489	4363
911.604	4268
911.718	4204
911.833	4230
911.947	4063
912.062	4048
912.176	4242
912.291	4261
912.405	4261
912.519	4508
912.633	4519
912.748	4398
912.862	4265
912.976	4230
913.09	4143
913.204	4181
913.318	4265
913.431	4421
913.545	4367
913.659	4417
913.772	4348
913.886	4230
914	4242
914.113	4363
914.226	4436
914.34	4356
914.453	4287
914.566	4478
914.68	4291
914.793	4310
914.906	4185
915.019	4109
915.132	4097
915.245	4227
915.358	4249
915.47	4249
915.583	4276
915.696	4295
915.809	4432
915.921	4409
916.034	4249
916.146	4276
916.259	4253
916.371	4379
916.483	4383
916.595	4325
916.708	4333
916.82	4325
916.932	4299
917.044	4390
917.156	4375
917.268	4242
917.38	4287
917.491	4318
917.603	4360
917.715	4443
917.826	4455
917.938	4390
918.049	4265
918.161	4386
918.272	4535
918.384	4592
918.495	4455
918.606	4284
918.717	4284
918.828	4325
918.939	4367
919.05	4268
919.161	4341
919.272	4162
919.383	4227
919.494	4451
919.604	4694
919.715	4447
919.826	4367
919.936	4428
920.047	4516
920.157	4527
920.267	4698
920.378	4577
920.488	4504
920.598	4683
920.708	4904
920.818	4809
920.928	4759
921.038	4965
921.148	4930
921.258	4649
921.368	4554
921.477	4523
921.587	4447
921.697	4402
921.806	4546
921.916	4485
922.025	4219
922.134	4325
922.244	4246
922.353	4360
922.462	4185
922.571	4158
922.68	4021
922.789	4017
922.898	4120
923.007	4051
923.116	4059
923.224	4078
923.333	4097
923.442	4002
923.55	3945
923.659	4002
923.767	4128
923.876	4044
923.984	4177
924.092	3968
924.201	4067
924.309	4097
924.417	4128
924.525	4059
924.633	4071
924.741	4923
924.849	3899
924.956	4128
925.064	3953
925.172	3953
925.279	3960
925.387	4101
925.494	4063
925.602	4238
925.709	4215
925.816	4051
925.924	4169
926.031	4246
926.138	4188
926.245	4196
926.352	4048
926.459	4291
926.566	4325
926.673	4162
926.779	4112
926.886	4135
926.993	4029
927.099	3983
927.206	3983
927.312	3972
927.419	4082
927.525	4074
927.631	4124
927.737	4032
927.843	3953
927.95	3857
928.056	3941
928.162	4032
928.267	4090
928.373	4740
928.479	4116
928.585	3876
928.69	4040
928.796	4147
928.901	3972
929.007	3861
929.112	4051
929.218	3983
929.323	3949
929.428	3956
929.533	4120
929.638	3926
929.743	3998
929.848	4074
929.953	4013
930.058	3934
930.163	3800
930.267	3823
930.372	4002
930.477	3812
930.581	4105
930.685	3953
930.79	3819
930.894	3941
930.998	3804
931.103	4040
931.207	3709
931.311	3736
931.415	3679
931.519	3557
931.623	3584
