Data from test_V78500241_679.txt Node
Date: Fri Mar 25 16:53:43 CST 2022
User: usil
Spectrometer: V785-0024
Trigger mode: 0
Integration Time (sec): 4.000000E-1
Scans to average: 1
Nonlinearity correction enabled: false
Boxcar width: 0
Storing dark spectrum: false
XAxis mode: Wavelengths
Number of Pixels in Spectrum: 1024
>>>>>Begin Spectral Data<<<<<
801.071	8001
801.214	8035
801.356	7906
801.499	7940
801.641	7769
801.783	7784
801.926	7959
802.068	7909
802.211	7936
802.353	7997
802.496	7864
802.638	7932
802.78	7864
802.923	7936
803.065	7807
803.208	7871
803.35	7989
803.492	8031
803.635	8187
803.777	8001
803.919	8088
804.061	8408
804.204	8119
804.346	8035
804.488	7936
804.63	8054
804.773	8077
804.915	8103
805.057	8301
805.199	8123
805.341	8275
805.483	8210
805.626	8248
805.768	8107
805.91	8263
806.052	8199
806.194	8092
806.336	8214
806.478	8035
806.62	8065
806.762	8149
806.904	8237
807.046	8396
807.188	8431
807.33	8358
807.472	8317
807.614	8183
807.756	8134
807.898	7993
808.04	7845
808.182	7883
808.324	7902
808.465	7879
808.607	8062
808.749	8062
808.891	8164
809.033	8263
809.174	8233
809.316	8058
809.458	8103
809.6	8016
809.741	7974
809.883	8031
810.025	8031
810.166	8069
810.308	8062
810.45	8039
810.591	7917
810.733	7753
810.875	7670
811.016	7529
811.158	7472
811.299	7556
811.441	7742
811.582	7662
811.724	7514
811.865	7502
812.007	7525
812.148	7552
812.29	7636
812.431	7719
812.573	7814
812.714	8001
812.855	8088
812.997	8176
813.138	8313
813.279	8210
813.421	8115
813.562	8096
813.703	7826
813.845	7807
813.986	7468
814.127	7308
814.268	7247
814.41	7198
814.551	7107
814.692	7213
814.833	7080
814.974	7095
815.115	7110
815.256	6981
815.397	6996
815.539	6951
815.68	6795
815.821	6768
815.962	6909
816.103	6837
816.244	6707
816.385	6627
816.526	6616
816.666	6467
816.807	6289
816.948	6407
817.089	6471
817.23	6448
817.371	6350
817.512	6376
817.653	6380
817.793	6338
817.934	6441
818.075	6433
818.216	6456
818.356	6365
818.497	6213
818.638	6140
818.778	6213
818.919	6159
819.06	6182
819.2	6277
819.341	6338
819.481	6338
819.622	6532
819.762	6719
819.903	6677
820.043	6604
820.184	6502
820.324	6475
820.465	6650
820.605	6582
820.746	6642
820.886	6460
821.026	6650
821.167	6650
821.307	6741
821.447	6677
821.588	6639
821.728	6566
821.868	6490
822.008	6380
822.149	6311
822.289	6357
822.429	6167
822.569	6060
822.709	6125
822.849	5935
822.99	5859
823.13	5912
823.27	5916
823.41	5745
823.55	5786
823.69	5764
823.83	5714
823.97	5707
824.11	5516
824.25	5482
824.389	5535
824.529	5558
824.669	5528
824.809	5672
824.949	5653
825.089	5649
825.228	5566
825.368	5357
825.508	5296
825.648	5376
825.787	5376
825.927	5421
826.067	5330
826.206	5284
826.346	5368
826.485	5395
826.625	5391
826.765	5535
826.904	5459
827.044	5269
827.183	5201
827.323	5083
827.462	5269
827.601	5193
827.741	5178
827.88	5124
828.02	5121
828.159	5254
828.298	5273
828.437	5334
828.577	5261
828.716	5501
828.855	5315
828.994	5121
829.134	5121
829.273	5258
829.412	5124
829.551	5136
829.69	5201
829.829	5307
829.968	5360
830.107	5280
830.246	5273
830.385	5147
830.524	5102
830.663	5006
830.802	4968
830.941	4870
831.08	4831
831.219	5006
831.357	4927
831.496	5162
831.635	4908
831.774	4831
831.913	4824
832.051	4706
832.19	4778
832.329	4816
832.467	4672
832.606	4622
832.744	4725
832.883	4714
833.022	4729
833.16	4744
833.299	4763
833.437	4812
833.576	4835
833.714	4816
833.852	4820
833.991	4831
834.129	4934
834.267	4976
834.406	4889
834.544	4961
834.682	4961
834.821	4965
834.959	5132
835.097	4976
835.235	5162
835.373	5064
835.511	5079
835.65	5071
835.788	5018
835.926	4934
836.064	4885
836.202	4949
836.34	5140
836.478	5246
836.615	5155
836.753	5223
836.891	5227
837.029	5216
837.167	5212
837.305	5185
837.443	5159
837.58	5060
837.718	5201
837.856	5181
837.993	5189
838.131	5174
838.269	5178
838.406	5170
838.544	5136
838.681	5037
838.819	4984
838.956	4915
839.094	4934
839.231	4972
839.369	5109
839.506	5398
839.643	5254
839.781	5083
839.918	5056
840.055	5037
840.193	5098
840.33	5079
840.467	5121
840.604	5212
840.742	5410
840.879	5098
841.016	5060
841.153	5117
841.29	5436
841.427	5315
841.564	5315
841.701	5288
841.838	5212
841.975	5223
842.112	5223
842.249	5094
842.385	5083
842.522	5353
842.659	5189
842.796	5132
842.933	5174
843.069	5140
843.206	5147
843.343	5337
843.479	5170
843.616	5246
843.752	5071
843.889	5052
844.025	5189
844.162	5010
844.298	5223
844.435	5083
844.571	5083
844.708	5128
844.844	5280
844.98	5326
845.117	5341
845.253	5105
845.389	5094
845.525	5162
845.661	5143
845.798	5041
845.934	5143
846.07	5025
846.206	5193
846.342	5246
846.478	5143
846.614	5052
846.75	4938
846.886	4965
847.022	5162
847.158	4984
847.294	5037
847.429	5140
847.565	4995
847.701	5299
847.837	4812
847.972	4767
848.108	4934
848.244	4927
848.379	4774
848.515	4729
848.65	4706
848.786	4736
848.921	4755
849.057	4885
849.192	4908
849.328	4774
849.463	4870
849.598	4801
849.734	4736
849.869	4721
850.004	4558
850.14	4630
850.275	4577
850.41	4527
850.545	4618
850.68	4596
850.815	4626
850.95	4615
851.085	4831
851.22	4729
851.355	4637
851.49	4573
851.625	4626
851.76	4630
851.895	4542
852.03	4516
852.165	4645
852.299	4714
852.434	4778
852.569	4736
852.703	4714
852.838	4793
852.973	4930
853.107	4858
853.242	4698
853.376	4668
853.511	4550
853.645	4573
853.78	4828
853.914	4672
854.048	4649
854.183	4607
854.317	4702
854.451	4809
854.585	4656
854.72	4603
854.854	4714
854.988	4618
855.122	4592
855.256	4542
855.39	4634
855.524	4778
855.658	4721
855.792	4698
855.926	4736
856.06	4721
856.194	4812
856.327	4675
856.461	4611
856.595	4630
856.729	4653
856.862	4759
856.996	4683
857.13	4717
857.263	4771
857.397	4801
857.53	4630
857.664	4744
857.797	4748
857.931	4790
858.064	4683
858.197	4771
858.331	4634
858.464	4641
858.597	4489
858.731	4603
858.864	4645
858.997	4569
859.13	4660
859.263	4694
859.396	4714
859.529	4542
859.662	4569
859.795	4474
859.928	4580
860.061	4744
860.194	4797
860.327	4592
860.46	4558
860.592	4675
860.725	4675
860.858	4721
860.99	4550
861.123	4538
861.256	4527
861.388	4592
861.521	5227
861.653	4451
861.786	4417
861.918	4508
862.05	4462
862.183	4512
862.315	4554
862.447	4668
862.58	4561
862.712	4386
862.844	4299
862.976	4489
863.108	4470
863.24	4873
863.372	4379
863.504	4447
863.636	4375
863.768	4470
863.9	4386
864.032	4337
864.164	4440
864.296	4489
864.428	4569
864.559	4577
864.691	4546
864.823	4504
864.954	4493
865.086	4447
865.217	4459
865.349	4417
865.48	4375
865.612	4489
865.743	4622
865.875	4485
866.006	4493
866.137	4451
866.269	4481
866.4	4451
866.531	4413
866.662	4398
866.793	4398
866.924	4405
867.055	4546
867.186	4470
867.317	4417
867.448	4413
867.579	4402
867.71	4383
867.841	4367
867.972	4402
868.103	4455
868.233	4440
868.364	4478
868.495	4462
868.625	4740
868.756	4736
868.886	4561
869.017	4603
869.147	4801
869.278	4812
869.408	4618
869.539	4611
869.669	4694
869.799	4653
869.929	4782
870.06	4702
870.19	4892
870.32	4915
870.45	4949
870.58	4980
870.71	5090
870.84	5067
870.97	4946
871.1	4873
871.23	5155
871.36	5136
871.489	5071
871.619	5060
871.749	5060
871.879	5113
872.008	5113
872.138	5033
872.267	4949
872.397	4828
872.526	4820
872.656	4717
872.785	4786
872.915	4972
873.044	4999
873.173	4919
873.303	4957
873.432	4984
873.561	4965
873.69	4885
873.819	4866
873.948	4892
874.077	4835
874.206	4771
874.335	4793
874.464	4911
874.593	5014
874.722	4934
874.851	5033
874.979	5037
875.108	4995
875.237	4881
875.365	4866
875.494	4904
875.623	4923
875.751	4805
875.88	4828
876.008	4961
876.136	5048
876.265	5242
876.393	5326
876.521	5223
876.65	5246
876.778	5155
876.906	5102
877.034	5010
877.162	5071
877.29	4991
877.418	5045
877.546	5056
877.674	5083
877.802	5029
877.93	5006
878.058	4923
878.185	4812
878.313	4927
878.441	4919
878.568	4805
878.696	4900
878.824	4991
878.951	4927
879.079	5109
879.206	5299
879.333	5102
879.461	5033
879.588	5025
879.715	5128
879.842	5204
879.97	4999
880.097	4790
880.224	4752
880.351	4793
880.478	4843
880.605	4771
880.732	4793
880.859	5105
880.986	4847
881.112	4877
881.239	4797
881.366	4615
881.493	4588
881.619	4588
881.746	4637
881.872	4649
881.999	4653
882.125	4691
882.252	4729
882.378	4831
882.505	4984
882.631	4748
882.757	4717
882.883	4755
883.01	4706
883.136	4706
883.262	4611
883.388	4618
883.514	4790
883.64	4896
883.766	4767
883.892	4649
884.018	4733
884.143	4896
884.269	4987
884.395	4653
884.52	4626
884.646	4660
884.772	4645
884.897	4519
885.023	4675
885.148	4812
885.274	4790
885.399	4831
885.524	4706
885.65	4698
885.775	4748
885.9	4672
886.025	4820
886.15	4847
886.275	4755
886.4	4637
886.525	4706
886.65	4656
886.775	4698
886.9	4870
887.025	5086
887.149	4835
887.274	4683
887.399	4580
887.523	4607
887.648	4569
887.773	4592
887.897	4786
888.021	4790
888.146	4653
888.27	4839
888.395	4896
888.519	4763
888.643	4805
888.767	4835
888.891	4683
889.015	4569
889.139	4630
889.263	4592
889.387	4755
889.511	4843
889.635	4740
889.759	4630
889.883	4634
890.006	4733
890.13	4858
890.254	4656
890.377	4694
890.501	4569
890.624	4542
890.748	4580
890.871	4447
890.995	4413
891.118	4375
891.241	4519
891.364	4481
891.488	4634
891.611	4497
891.734	4519
891.857	4622
891.98	4527
892.103	4653
892.226	4607
892.349	4516
892.471	4398
892.594	4542
892.717	4611
892.839	4535
892.962	4630
893.085	4641
893.207	4615
893.33	4455
893.452	4538
893.575	4660
893.697	4588
893.819	4790
893.941	4843
894.064	4793
894.186	4603
894.308	4565
894.43	4752
894.552	4778
894.674	4736
894.796	4558
894.918	4630
895.04	4561
895.161	4736
895.283	4592
895.405	4558
895.526	4645
895.648	4714
895.769	4706
895.891	4725
896.012	4710
896.134	4725
896.255	4672
896.376	4603
896.498	4630
896.619	4664
896.74	4569
896.861	4641
896.982	4930
897.103	5075
897.224	4790
897.345	4729
897.466	4630
897.587	4717
897.708	4919
897.828	4782
897.949	4668
898.07	4580
898.19	4645
898.311	4816
898.431	4637
898.552	4706
898.672	4824
898.792	4820
898.913	4755
899.033	4626
899.153	4531
899.273	4417
899.393	4493
899.513	4508
899.633	4516
899.753	4561
899.873	4546
899.993	4527
900.113	4527
900.232	4599
900.352	4538
900.472	4512
900.591	4383
900.711	4493
900.83	4455
900.95	4603
901.069	4725
901.189	4516
901.308	4341
901.427	4318
901.546	4390
901.665	4455
901.784	4565
901.904	4363
902.023	4344
902.141	4181
902.26	4154
902.379	4280
902.498	4284
902.617	4246
902.735	4379
902.854	4417
902.973	4379
903.091	4188
903.21	4246
903.328	4344
903.446	4280
903.565	4272
903.683	4325
903.801	4280
903.919	4455
904.038	4432
904.156	4318
904.274	4424
904.392	4379
904.51	4455
904.627	4500
904.745	4611
904.863	4668
904.981	4405
905.098	4261
905.216	4379
905.334	4455
905.451	4443
905.569	4466
905.686	4561
905.803	4538
905.921	4371
906.038	4493
906.155	4500
906.272	4356
906.389	4402
906.506	4371
906.623	4383
906.74	4386
906.857	4322
906.974	4367
907.091	4546
907.208	4729
907.324	4542
907.441	4478
907.557	4367
907.674	4322
907.79	4306
907.907	4360
908.023	4516
908.139	4455
908.256	4443
908.372	4489
908.488	4379
908.604	4386
908.72	4322
908.836	4371
908.952	4352
909.068	4375
909.184	4569
909.3	4432
909.415	4622
909.531	4516
909.647	4375
909.762	4352
909.878	4329
909.993	4459
910.108	4443
910.224	4402
910.339	4485
910.454	4413
910.57	4344
910.685	4310
910.8	4645
910.915	4607
911.03	4497
911.145	4306
911.259	4344
911.374	4383
911.489	4291
911.604	4291
911.718	4166
911.833	4227
911.947	4078
912.062	4032
912.176	4177
912.291	4246
912.405	4242
912.519	4440
912.633	4478
912.748	4360
912.862	4295
912.976	4242
913.09	4097
913.204	4166
913.318	4238
913.431	4337
913.545	4352
913.659	4421
913.772	4383
913.886	4234
914	4261
914.113	4360
914.226	4455
914.34	4367
914.453	4276
914.566	4413
914.68	4310
914.793	4291
914.906	4135
915.019	4116
915.132	4040
915.245	4177
915.358	4238
915.47	4257
915.583	4280
915.696	4310
915.809	4428
915.921	4440
916.034	4257
916.146	4215
916.259	4249
916.371	4390
916.483	4329
916.595	4253
916.708	4394
916.82	4322
916.932	4310
917.044	4337
917.156	4333
917.268	4234
917.38	4265
917.491	4291
917.603	4341
917.715	4413
917.826	4470
917.938	4390
918.049	4322
918.161	4386
918.272	4618
918.384	4550
918.495	4421
918.606	4249
918.717	4215
918.828	4363
918.939	4413
919.05	4230
919.161	4284
919.272	4158
919.383	4249
919.494	4447
919.604	4649
919.715	4440
919.826	4333
919.936	4405
920.047	4531
920.157	4497
920.267	4717
920.378	4546
920.488	4481
920.598	4721
920.708	4892
920.818	4736
920.928	4691
921.038	4972
921.148	4885
921.258	4641
921.368	4580
921.477	4500
921.587	4443
921.697	4356
921.806	4538
921.916	4470
922.025	4234
922.134	4291
922.244	4234
922.353	4325
922.462	4166
922.571	4143
922.68	3972
922.789	4006
922.898	4051
923.007	4006
923.116	4128
923.224	4067
923.333	4013
923.442	3930
923.55	3968
923.659	4044
923.767	4124
923.876	3960
923.984	4112
924.092	3987
924.201	4082
924.309	4109
924.417	4154
924.525	4044
924.633	4120
924.741	5079
924.849	3896
924.956	4063
925.064	3972
925.172	3918
925.279	3968
925.387	4086
925.494	4059
925.602	4188
925.709	4211
925.816	4048
925.924	4135
926.031	4238
926.138	4158
926.245	4166
926.352	4078
926.459	4322
926.566	4295
926.673	4150
926.779	4067
926.886	4063
926.993	3941
927.099	3941
927.206	3937
927.312	3926
927.419	4055
927.525	3991
927.631	4055
927.737	3983
927.843	3956
927.95	3819
928.056	3930
928.162	3991
928.267	4086
928.373	4649
928.479	4169
928.585	3865
928.69	4002
928.796	4055
928.901	3968
929.007	3842
929.112	4025
929.218	3968
929.323	3949
929.428	3956
929.533	4086
929.638	3937
929.743	3949
929.848	4063
929.953	3956
930.058	3926
930.163	3774
930.267	3804
930.372	3960
930.477	3827
930.581	4086
930.685	3964
930.79	3816
930.894	3903
930.998	3823
931.103	4078
931.207	3705
931.311	3686
931.415	3652
931.519	3519
931.623	3542
