Data from test_V78500241_1997.txt Node
Date: Fri Mar 25 17:02:53 CST 2022
User: usil
Spectrometer: V785-0024
Trigger mode: 0
Integration Time (sec): 4.000000E-1
Scans to average: 1
Nonlinearity correction enabled: false
Boxcar width: 0
Storing dark spectrum: false
XAxis mode: Wavelengths
Number of Pixels in Spectrum: 1024
>>>>>Begin Spectral Data<<<<<
801.071	8012
801.214	7997
801.356	7860
801.499	7898
801.641	7860
801.783	7837
801.926	8035
802.068	7940
802.211	7944
802.353	7970
802.496	7879
802.638	7837
802.78	7826
802.923	7875
803.065	7906
803.208	7860
803.35	7967
803.492	8016
803.635	8161
803.777	8031
803.919	8161
804.061	8507
804.204	8172
804.346	8043
804.488	7963
804.63	8046
804.773	8005
804.915	8084
805.057	8187
805.199	8206
805.341	8187
805.483	8286
805.626	8282
805.768	8161
805.91	8240
806.052	8256
806.194	8107
806.336	8336
806.478	8062
806.62	8024
806.762	8199
806.904	8271
807.046	8488
807.188	8320
807.33	8309
807.472	8332
807.614	8176
807.756	8134
807.898	8046
808.04	7913
808.182	7898
808.324	7864
808.465	7898
808.607	7982
808.749	8092
808.891	8233
809.033	8320
809.174	8199
809.316	8092
809.458	8100
809.6	8027
809.741	8001
809.883	8027
810.025	8058
810.166	8062
810.308	7978
810.45	8031
810.591	7898
810.733	7723
810.875	7719
811.016	7544
811.158	7521
811.299	7590
811.441	7719
811.582	7731
811.724	7609
811.865	7571
812.007	7658
812.148	7613
812.29	7609
812.431	7757
812.573	7830
812.714	7978
812.855	8161
812.997	8237
813.138	8301
813.279	8149
813.421	8103
813.562	7932
813.703	7871
813.845	7616
813.986	7400
814.127	7225
814.268	7206
814.41	7194
814.551	7251
814.692	7217
814.833	7156
814.974	7137
815.115	7076
815.256	7004
815.397	6954
815.539	6985
815.68	6856
815.821	6738
815.962	6852
816.103	6837
816.244	6711
816.385	6604
816.526	6620
816.666	6540
816.807	6384
816.948	6429
817.089	6483
817.23	6509
817.371	6399
817.512	6384
817.653	6445
817.793	6350
817.934	6452
818.075	6479
818.216	6441
818.356	6399
818.497	6247
818.638	6110
818.778	6163
818.919	6155
819.06	6163
819.2	6319
819.341	6338
819.481	6376
819.622	6551
819.762	6719
819.903	6620
820.043	6623
820.184	6627
820.324	6601
820.465	6707
820.605	6654
820.746	6627
820.886	6506
821.026	6730
821.167	6715
821.307	6806
821.447	6795
821.588	6696
821.728	6536
821.868	6506
822.008	6361
822.149	6369
822.289	6357
822.429	6148
822.569	6121
822.709	6121
822.849	5961
822.99	5920
823.13	5984
823.27	5927
823.41	5786
823.55	5805
823.69	5790
823.83	5760
823.97	5676
824.11	5551
824.25	5554
824.389	5611
824.529	5649
824.669	5551
824.809	5657
824.949	5714
825.089	5634
825.228	5630
825.368	5448
825.508	5383
825.648	5337
825.787	5395
825.927	5398
826.067	5315
826.206	5277
826.346	5368
826.485	5383
826.625	5417
826.765	5585
826.904	5467
827.044	5227
827.183	5197
827.323	5170
827.462	5246
827.601	5181
827.741	5201
827.88	5235
828.02	5155
828.159	5223
828.298	5231
828.437	5398
828.577	5307
828.716	5493
828.855	5330
828.994	5174
829.134	5155
829.273	5086
829.412	5140
829.551	5136
829.69	5155
829.829	5231
829.968	5417
830.107	5318
830.246	5269
830.385	5185
830.524	5204
830.663	5117
830.802	4976
830.941	4908
831.08	4904
831.219	5018
831.357	5003
831.496	5178
831.635	4949
831.774	4889
831.913	4839
832.051	4725
832.19	4740
832.329	4862
832.467	4729
832.606	4637
832.744	4691
832.883	4748
833.022	4714
833.16	4812
833.299	4873
833.437	4812
833.576	4763
833.714	4881
833.852	4866
833.991	4904
834.129	4965
834.267	4942
834.406	4892
834.544	5014
834.682	4999
834.821	4965
834.959	5170
835.097	4976
835.235	5109
835.373	5029
835.511	5128
835.65	5064
835.788	5022
835.926	4835
836.064	4881
836.202	4923
836.34	5174
836.478	5193
836.615	5083
836.753	5201
836.891	5258
837.029	5250
837.167	5216
837.305	5208
837.443	5098
837.58	5060
837.718	5303
837.856	5166
837.993	5159
838.131	5246
838.269	5197
838.406	5212
838.544	5197
838.681	5086
838.819	5052
838.956	4889
839.094	4953
839.231	5022
839.369	5060
839.506	5474
839.643	5223
839.781	5056
839.918	5029
840.055	5105
840.193	5075
840.33	5102
840.467	5136
840.604	5170
840.742	5459
840.879	5102
841.016	5109
841.153	5113
841.29	5372
841.427	5334
841.564	5288
841.701	5444
841.838	5277
841.975	5223
842.112	5277
842.249	5162
842.385	5079
842.522	5398
842.659	5254
842.796	5094
842.933	5181
843.069	5151
843.206	5132
843.343	5254
843.479	5170
843.616	5239
843.752	5056
843.889	4987
844.025	5242
844.162	4965
844.298	5189
844.435	5128
844.571	5064
844.708	5193
844.844	5383
844.98	5307
845.117	5322
845.253	5105
845.389	5090
845.525	5174
845.661	5170
845.798	5018
845.934	5124
846.07	5083
846.206	5185
846.342	5261
846.478	5128
846.614	5048
846.75	4972
846.886	4938
847.022	5151
847.158	5067
847.294	5079
847.429	5071
847.565	5075
847.701	5330
847.837	4896
847.972	4843
848.108	4927
848.244	4968
848.379	4748
848.515	4759
848.65	4759
848.786	4763
848.921	4797
849.057	4850
849.192	4938
849.328	4809
849.463	4778
849.598	4767
849.734	4752
849.869	4691
850.004	4615
850.14	4698
850.275	4622
850.41	4546
850.545	4573
850.68	4599
850.815	4641
850.95	4607
851.085	4812
851.22	4763
851.355	4717
851.49	4649
851.625	4618
851.76	4622
851.895	4580
852.03	4561
852.165	4664
852.299	4733
852.434	4839
852.569	4805
852.703	4717
852.838	4847
852.973	4976
853.107	4904
853.242	4755
853.376	4706
853.511	4561
853.645	4668
853.78	4793
853.914	4714
854.048	4672
854.183	4664
854.317	4683
854.451	4854
854.585	4672
854.72	4656
854.854	4767
854.988	4584
855.122	4618
855.256	4546
855.39	4637
855.524	4763
855.658	4790
855.792	4714
855.926	4763
856.06	4752
856.194	4797
856.327	4668
856.461	4618
856.595	4611
856.729	4615
856.862	4736
856.996	4653
857.13	4725
857.263	4748
857.397	4801
857.53	4622
857.664	4729
857.797	4752
857.931	4790
858.064	4702
858.197	4744
858.331	4660
858.464	4645
858.597	4481
858.731	4580
858.864	4691
858.997	4588
859.13	4656
859.263	4691
859.396	4694
859.529	4584
859.662	4596
859.795	4527
859.928	4603
860.061	4733
860.194	4771
860.327	4607
860.46	4542
860.592	4733
860.725	4714
860.858	4714
860.99	4584
861.123	4519
861.256	4508
861.388	4607
861.521	5181
861.653	4500
861.786	4474
861.918	4459
862.05	4519
862.183	4516
862.315	4599
862.447	4645
862.58	4550
862.712	4436
862.844	4268
862.976	4493
863.108	4443
863.24	4759
863.372	4329
863.504	4413
863.636	4436
863.768	4489
863.9	4409
864.032	4352
864.164	4371
864.296	4466
864.428	4554
864.559	4535
864.691	4497
864.823	4531
864.954	4523
865.086	4451
865.217	4485
865.349	4443
865.48	4447
865.612	4504
865.743	4615
865.875	4455
866.006	4428
866.137	4428
866.269	4432
866.4	4428
866.531	4402
866.662	4371
866.793	4421
866.924	4424
867.055	4508
867.186	4481
867.317	4386
867.448	4379
867.579	4402
867.71	4390
867.841	4394
867.972	4493
868.103	4402
868.233	4436
868.364	4451
868.495	4478
868.625	4668
868.756	4710
868.886	4569
869.017	4675
869.147	4790
869.278	4790
869.408	4664
869.539	4672
869.669	4759
869.799	4622
869.929	4733
870.06	4710
870.19	4923
870.32	4927
870.45	4896
870.58	5045
870.71	5162
870.84	5105
870.97	4942
871.1	4847
871.23	5086
871.36	5094
871.489	5064
871.619	5037
871.749	5094
871.879	5109
872.008	5143
872.138	5071
872.267	4987
872.397	4873
872.526	4801
872.656	4725
872.785	4763
872.915	4949
873.044	5022
873.173	4946
873.303	4965
873.432	4984
873.561	4942
873.69	4896
873.819	4900
873.948	4908
874.077	4805
874.206	4763
874.335	4790
874.464	4900
874.593	5056
874.722	4953
874.851	5086
874.979	5109
875.108	4991
875.237	4923
875.365	4862
875.494	4934
875.623	5022
875.751	4767
875.88	4942
876.008	4946
876.136	5075
876.265	5155
876.393	5360
876.521	5258
876.65	5220
876.778	5151
876.906	5105
877.034	5006
877.162	5075
877.29	4961
877.418	5071
877.546	5045
877.674	5052
877.802	5075
877.93	4972
878.058	4972
878.185	4927
878.313	4938
878.441	4923
878.568	4858
878.696	4862
878.824	4991
878.951	4995
879.079	5121
879.206	5292
879.333	5121
879.461	4972
879.588	4980
879.715	5113
879.842	5193
879.97	5018
880.097	4828
880.224	4774
880.351	4843
880.478	4805
880.605	4778
880.732	4809
880.859	5090
880.986	4904
881.112	4908
881.239	4736
881.366	4660
881.493	4580
881.619	4596
881.746	4630
881.872	4660
881.999	4641
882.125	4733
882.252	4805
882.378	4828
882.505	4942
882.631	4755
882.757	4721
882.883	4698
883.01	4717
883.136	4656
883.262	4596
883.388	4603
883.514	4828
883.64	4873
883.766	4782
883.892	4656
884.018	4736
884.143	4877
884.269	4968
884.395	4694
884.52	4592
884.646	4672
884.772	4500
884.897	4542
885.023	4672
885.148	4755
885.274	4892
885.399	4820
885.524	4687
885.65	4664
885.775	4786
885.9	4698
886.025	4870
886.15	4767
886.275	4714
886.4	4660
886.525	4710
886.65	4656
886.775	4675
886.9	4904
887.025	5079
887.149	4782
887.274	4637
887.399	4569
887.523	4580
887.648	4584
887.773	4577
887.897	4774
888.021	4771
888.146	4725
888.27	4850
888.395	4968
888.519	4866
888.643	4831
888.767	4835
888.891	4694
889.015	4607
889.139	4691
889.263	4626
889.387	4809
889.511	4824
889.635	4809
889.759	4630
889.883	4645
890.006	4763
890.13	4824
890.254	4634
890.377	4717
890.501	4573
890.624	4497
890.748	4603
890.871	4478
890.995	4352
891.118	4390
891.241	4497
891.364	4519
891.488	4615
891.611	4527
891.734	4561
891.857	4630
891.98	4577
892.103	4599
892.226	4569
892.349	4542
892.471	4443
892.594	4535
892.717	4569
892.839	4535
892.962	4622
893.085	4649
893.207	4592
893.33	4459
893.452	4497
893.575	4622
893.697	4558
893.819	4774
893.941	4831
894.064	4755
894.186	4615
894.308	4546
894.43	4702
894.552	4824
894.674	4786
894.796	4550
894.918	4588
895.04	4550
895.161	4706
895.283	4653
895.405	4584
895.526	4626
895.648	4698
895.769	4710
895.891	4691
896.012	4717
896.134	4714
896.255	4668
896.376	4683
896.498	4584
896.619	4660
896.74	4618
896.861	4622
896.982	4911
897.103	5075
897.224	4790
897.345	4755
897.466	4675
897.587	4733
897.708	4858
897.828	4805
897.949	4637
898.07	4569
898.19	4641
898.311	4858
898.431	4637
898.552	4725
898.672	4793
898.792	4793
898.913	4740
899.033	4573
899.153	4432
899.273	4443
899.393	4478
899.513	4561
899.633	4546
899.753	4558
899.873	4542
899.993	4645
900.113	4523
900.232	4519
900.352	4519
900.472	4455
900.591	4367
900.711	4459
900.83	4440
900.95	4580
901.069	4679
901.189	4538
901.308	4341
901.427	4337
901.546	4337
901.665	4436
901.784	4478
901.904	4409
902.023	4261
902.141	4246
902.26	4177
902.379	4287
902.498	4230
902.617	4227
902.735	4371
902.854	4413
902.973	4344
903.091	4215
903.21	4223
903.328	4310
903.446	4257
903.565	4242
903.683	4303
903.801	4276
903.919	4402
904.038	4424
904.156	4306
904.274	4447
904.392	4402
904.51	4432
904.627	4462
904.745	4550
904.863	4687
904.981	4371
905.098	4299
905.216	4379
905.334	4432
905.451	4443
905.569	4436
905.686	4542
905.803	4504
905.921	4394
906.038	4554
906.155	4459
906.272	4417
906.389	4478
906.506	4306
906.623	4398
906.74	4371
906.857	4306
906.974	4356
907.091	4558
907.208	4641
907.324	4550
907.441	4489
907.557	4367
907.674	4295
907.79	4299
907.907	4409
908.023	4459
908.139	4451
908.256	4421
908.372	4443
908.488	4402
908.604	4325
908.72	4363
908.836	4398
908.952	4329
909.068	4398
909.184	4554
909.3	4470
909.415	4584
909.531	4573
909.647	4356
909.762	4405
909.878	4352
909.993	4432
910.108	4394
910.224	4443
910.339	4523
910.454	4421
910.57	4360
910.685	4310
910.8	4664
910.915	4573
911.03	4516
911.145	4284
911.259	4295
911.374	4383
911.489	4265
911.604	4242
911.718	4166
911.833	4185
911.947	4032
912.062	4040
912.176	4169
912.291	4181
912.405	4230
912.519	4485
912.633	4516
912.748	4318
912.862	4337
912.976	4196
913.09	4097
913.204	4185
913.318	4322
913.431	4375
913.545	4363
913.659	4390
913.772	4325
913.886	4238
914	4211
914.113	4371
914.226	4417
914.34	4352
914.453	4211
914.566	4428
914.68	4329
914.793	4344
914.906	4192
915.019	4090
915.132	4116
915.245	4162
915.358	4196
915.47	4227
915.583	4234
915.696	4306
915.809	4398
915.921	4409
916.034	4261
916.146	4242
916.259	4238
916.371	4386
916.483	4371
916.595	4230
916.708	4363
916.82	4333
916.932	4314
917.044	4318
917.156	4363
917.268	4211
917.38	4242
917.491	4341
917.603	4348
917.715	4402
917.826	4428
917.938	4344
918.049	4227
918.161	4386
918.272	4550
918.384	4535
918.495	4417
918.606	4291
918.717	4234
918.828	4344
918.939	4390
919.05	4276
919.161	4303
919.272	4097
919.383	4230
919.494	4478
919.604	4649
919.715	4409
919.826	4348
919.936	4390
920.047	4554
920.157	4481
920.267	4748
920.378	4489
920.488	4462
920.598	4714
920.708	4889
920.818	4778
920.928	4702
921.038	4968
921.148	4881
921.258	4607
921.368	4573
921.477	4493
921.587	4428
921.697	4398
921.806	4561
921.916	4386
922.025	4265
922.134	4265
922.244	4265
922.353	4325
922.462	4150
922.571	4082
922.68	3991
922.789	3964
922.898	4021
923.007	3968
923.116	4059
923.224	4044
923.333	4044
923.442	4006
923.55	3998
923.659	4029
923.767	4082
923.876	4002
923.984	4074
924.092	3960
924.201	4059
924.309	4078
924.417	4109
924.525	4086
924.633	4078
924.741	5022
924.849	3930
924.956	4116
925.064	3918
925.172	3892
925.279	3960
925.387	4059
925.494	4071
925.602	4265
925.709	4143
925.816	4006
925.924	4139
926.031	4242
926.138	4131
926.245	4188
926.352	4120
926.459	4276
926.566	4257
926.673	4131
926.779	4124
926.886	4105
926.993	3987
927.099	3979
927.206	3941
927.312	3968
927.419	4055
927.525	4044
927.631	4078
927.737	3987
927.843	3983
927.95	3846
928.056	3934
928.162	3964
928.267	4055
928.373	4664
928.479	4128
928.585	3850
928.69	4013
928.796	4090
928.901	3960
929.007	3846
929.112	4002
929.218	3953
929.323	3918
929.428	3926
929.533	4150
929.638	3918
929.743	3953
929.848	4036
929.953	4013
930.058	3903
930.163	3751
930.267	3827
930.372	4029
930.477	3785
930.581	4093
930.685	3953
930.79	3797
930.894	3850
930.998	3873
931.103	3994
931.207	3717
931.311	3679
931.415	3679
931.519	3549
931.623	3542
