Data from test_V78500241_482.txt Node
Date: Fri Mar 25 16:52:21 CST 2022
User: usil
Spectrometer: V785-0024
Trigger mode: 0
Integration Time (sec): 4.000000E-1
Scans to average: 1
Nonlinearity correction enabled: false
Boxcar width: 0
Storing dark spectrum: false
XAxis mode: Wavelengths
Number of Pixels in Spectrum: 1024
>>>>>Begin Spectral Data<<<<<
801.071	8008
801.214	8008
801.356	7879
801.499	7845
801.641	7807
801.783	7803
801.926	7982
802.068	8088
802.211	8027
802.353	8043
802.496	7894
802.638	7887
802.78	7947
802.923	7951
803.065	7833
803.208	7879
803.35	7955
803.492	8065
803.635	8115
803.777	8008
803.919	8130
804.061	8385
804.204	8115
804.346	7989
804.488	7944
804.63	8039
804.773	7982
804.915	8145
805.057	8214
805.199	8157
805.341	8237
805.483	8244
805.626	8161
805.768	8081
805.91	8138
806.052	8183
806.194	8153
806.336	8286
806.478	8149
806.62	8103
806.762	8123
806.904	8256
807.046	8419
807.188	8279
807.33	8221
807.472	8256
807.614	8100
807.756	8161
807.898	7955
808.04	7913
808.182	7959
808.324	7936
808.465	7959
808.607	8069
808.749	8027
808.891	8218
809.033	8244
809.174	8145
809.316	8084
809.458	7989
809.6	8081
809.741	8020
809.883	8020
810.025	8065
810.166	8054
810.308	8005
810.45	7925
810.591	7890
810.733	7738
810.875	7632
811.016	7537
811.158	7495
811.299	7571
811.441	7769
811.582	7647
811.724	7575
811.865	7567
812.007	7666
812.148	7586
812.29	7624
812.431	7727
812.573	7898
812.714	8001
812.855	8180
812.997	8225
813.138	8412
813.279	8206
813.421	8126
813.562	8081
813.703	7841
813.845	7792
813.986	7472
814.127	7320
814.268	7289
814.41	7251
814.551	7232
814.692	7190
814.833	7076
814.974	7156
815.115	7179
815.256	6932
815.397	6863
815.539	6954
815.68	6829
815.821	6776
815.962	6886
816.103	6795
816.244	6741
816.385	6635
816.526	6665
816.666	6532
816.807	6365
816.948	6429
817.089	6437
817.23	6414
817.371	6407
817.512	6369
817.653	6418
817.793	6391
817.934	6441
818.075	6414
818.216	6441
818.356	6448
818.497	6277
818.638	6095
818.778	6136
818.919	6076
819.06	6148
819.2	6334
819.341	6292
819.481	6315
819.622	6456
819.762	6734
819.903	6673
820.043	6597
820.184	6582
820.324	6620
820.465	6722
820.605	6658
820.746	6639
820.886	6498
821.026	6635
821.167	6707
821.307	6768
821.447	6745
821.588	6623
821.728	6563
821.868	6426
822.008	6296
822.149	6346
822.289	6350
822.429	6079
822.569	6095
822.709	6102
822.849	5942
822.99	5878
823.13	5889
823.27	5908
823.41	5790
823.55	5733
823.69	5737
823.83	5764
823.97	5748
824.11	5528
824.25	5539
824.389	5524
824.529	5512
824.669	5497
824.809	5604
824.949	5649
825.089	5661
825.228	5577
825.368	5406
825.508	5315
825.648	5299
825.787	5391
825.927	5349
826.067	5322
826.206	5330
826.346	5379
826.485	5467
826.625	5440
826.765	5551
826.904	5463
827.044	5246
827.183	5201
827.323	5117
827.462	5235
827.601	5193
827.741	5242
827.88	5208
828.02	5094
828.159	5296
828.298	5292
828.437	5353
828.577	5303
828.716	5490
828.855	5330
828.994	5162
829.134	5193
829.273	5162
829.412	5159
829.551	5090
829.69	5155
829.829	5227
829.968	5345
830.107	5284
830.246	5273
830.385	5147
830.524	5197
830.663	5105
830.802	5060
830.941	4938
831.08	4904
831.219	5052
831.357	4984
831.496	5201
831.635	4938
831.774	4885
831.913	4892
832.051	4744
832.19	4839
832.329	4908
832.467	4748
832.606	4675
832.744	4778
832.883	4782
833.022	4809
833.16	4801
833.299	4805
833.437	4847
833.576	4866
833.714	4927
833.852	4938
833.991	4877
834.129	5022
834.267	5010
834.406	4953
834.544	4995
834.682	4995
834.821	5045
834.959	5261
835.097	5010
835.235	5170
835.373	5124
835.511	5105
835.65	5014
835.788	5037
835.926	4908
836.064	4915
836.202	4953
836.34	5189
836.478	5345
836.615	5166
836.753	5273
836.891	5318
837.029	5288
837.167	5216
837.305	5242
837.443	5185
837.58	5117
837.718	5330
837.856	5212
837.993	5174
838.131	5242
838.269	5288
838.406	5258
838.544	5277
838.681	5018
838.819	5060
838.956	4938
839.094	4904
839.231	5018
839.369	5136
839.506	5459
839.643	5277
839.781	5109
839.918	5018
840.055	5090
840.193	5132
840.33	5162
840.467	5151
840.604	5193
840.742	5490
840.879	5105
841.016	5121
841.153	5174
841.29	5433
841.427	5345
841.564	5353
841.701	5360
841.838	5299
841.975	5220
842.112	5357
842.249	5193
842.385	5109
842.522	5360
842.659	5231
842.796	5136
842.933	5303
843.069	5216
843.206	5227
843.343	5337
843.479	5311
843.616	5311
843.752	5094
843.889	5109
844.025	5269
844.162	5022
844.298	5220
844.435	5117
844.571	5052
844.708	5258
844.844	5303
844.98	5364
845.117	5322
845.253	5117
845.389	5113
845.525	5220
845.661	5109
845.798	5086
845.934	5136
846.07	5014
846.206	5277
846.342	5322
846.478	5162
846.614	5094
846.75	4999
846.886	5010
847.022	5166
847.158	5006
847.294	5128
847.429	5102
847.565	5105
847.701	5345
847.837	4866
847.972	4793
848.108	4957
848.244	4953
848.379	4831
848.515	4752
848.65	4698
848.786	4809
848.921	4816
849.057	4885
849.192	4957
849.328	4847
849.463	4877
849.598	4831
849.734	4790
849.869	4736
850.004	4672
850.14	4721
850.275	4622
850.41	4535
850.545	4599
850.68	4607
850.815	4634
850.95	4675
851.085	4889
851.22	4790
851.355	4714
851.49	4672
851.625	4641
851.76	4649
851.895	4588
852.03	4558
852.165	4649
852.299	4748
852.434	4790
852.569	4790
852.703	4812
852.838	4873
852.973	4965
853.107	4991
853.242	4778
853.376	4778
853.511	4565
853.645	4634
853.78	4824
853.914	4706
854.048	4649
854.183	4672
854.317	4782
854.451	4889
854.585	4687
854.72	4725
854.854	4816
854.988	4592
855.122	4637
855.256	4546
855.39	4679
855.524	4831
855.658	4714
855.792	4729
855.926	4805
856.06	4805
856.194	4828
856.327	4706
856.461	4649
856.595	4641
856.729	4706
856.862	4790
856.996	4733
857.13	4763
857.263	4771
857.397	4847
857.53	4714
857.664	4729
857.797	4778
857.931	4824
858.064	4744
858.197	4759
858.331	4656
858.464	4687
858.597	4607
858.731	4668
858.864	4679
858.997	4596
859.13	4702
859.263	4759
859.396	4736
859.529	4641
859.662	4626
859.795	4558
859.928	4672
860.061	4755
860.194	4790
860.327	4675
860.46	4588
860.592	4729
860.725	4786
860.858	4782
860.99	4577
861.123	4538
861.256	4596
861.388	4634
861.521	5383
861.653	4504
861.786	4523
861.918	4508
862.05	4554
862.183	4577
862.315	4679
862.447	4637
862.58	4580
862.712	4451
862.844	4398
862.976	4504
863.108	4470
863.24	4797
863.372	4329
863.504	4455
863.636	4470
863.768	4535
863.9	4405
864.032	4405
864.164	4485
864.296	4497
864.428	4561
864.559	4615
864.691	4573
864.823	4523
864.954	4493
865.086	4565
865.217	4508
865.349	4497
865.48	4478
865.612	4500
865.743	4668
865.875	4523
866.006	4459
866.137	4485
866.269	4447
866.4	4459
866.531	4470
866.662	4443
866.793	4470
866.924	4428
867.055	4516
867.186	4504
867.317	4451
867.448	4417
867.579	4459
867.71	4443
867.841	4432
867.972	4546
868.103	4485
868.233	4485
868.364	4432
868.495	4538
868.625	4748
868.756	4755
868.886	4615
869.017	4683
869.147	4812
869.278	4801
869.408	4694
869.539	4687
869.669	4771
869.799	4679
869.929	4786
870.06	4748
870.19	4972
870.32	4957
870.45	4987
870.58	5041
870.71	5117
870.84	5109
870.97	5025
871.1	4896
871.23	5159
871.36	5181
871.489	5037
871.619	5117
871.749	5124
871.879	5166
872.008	5254
872.138	5136
872.267	5029
872.397	4904
872.526	4892
872.656	4763
872.785	4843
872.915	5018
873.044	5067
873.173	4965
873.303	4991
873.432	4961
873.561	4991
873.69	4927
873.819	4911
873.948	4942
874.077	4889
874.206	4790
874.335	4862
874.464	4919
874.593	5086
874.722	4976
874.851	5132
874.979	5140
875.108	5056
875.237	4911
875.365	4908
875.494	4976
875.623	5041
875.751	4847
875.88	4896
876.008	5014
876.136	5075
876.265	5178
876.393	5387
876.521	5273
876.65	5216
876.778	5235
876.906	5102
877.034	5060
877.162	5079
877.29	5056
877.418	5083
877.546	5079
877.674	5045
877.802	5060
877.93	5067
878.058	4961
878.185	4911
878.313	4991
878.441	4999
878.568	4816
878.696	4946
878.824	5037
878.951	5109
879.079	5197
879.206	5334
879.333	5102
879.461	5056
879.588	4972
879.715	5121
879.842	5284
879.97	5045
880.097	4771
880.224	4767
880.351	4850
880.478	4904
880.605	4797
880.732	4850
880.859	5140
880.986	4911
881.112	4930
881.239	4801
881.366	4683
881.493	4577
881.619	4630
881.746	4645
881.872	4668
881.999	4717
882.125	4729
882.252	4759
882.378	4866
882.505	4995
882.631	4843
882.757	4664
882.883	4786
883.01	4755
883.136	4706
883.262	4584
883.388	4664
883.514	4847
883.64	4885
883.766	4801
883.892	4668
884.018	4759
884.143	4934
884.269	5014
884.395	4683
884.52	4645
884.646	4710
884.772	4588
884.897	4592
885.023	4675
885.148	4820
885.274	4873
885.399	4786
885.524	4736
885.65	4736
885.775	4793
885.9	4721
886.025	4896
886.15	4736
886.275	4752
886.4	4664
886.525	4790
886.65	4679
886.775	4683
886.9	4885
887.025	5075
887.149	4816
887.274	4698
887.399	4630
887.523	4626
887.648	4596
887.773	4603
887.897	4744
888.021	4843
888.146	4714
888.27	4771
888.395	4927
888.519	4824
888.643	4850
888.767	4839
888.891	4736
889.015	4618
889.139	4683
889.263	4649
889.387	4744
889.511	4900
889.635	4763
889.759	4721
889.883	4694
890.006	4752
890.13	4881
890.254	4649
890.377	4687
890.501	4523
890.624	4504
890.748	4668
890.871	4531
890.995	4466
891.118	4409
891.241	4519
891.364	4542
891.488	4683
891.611	4527
891.734	4561
891.857	4554
891.98	4542
892.103	4656
892.226	4615
892.349	4531
892.471	4512
892.594	4535
892.717	4626
892.839	4580
892.962	4580
893.085	4672
893.207	4607
893.33	4523
893.452	4519
893.575	4656
893.697	4565
893.819	4824
893.941	4885
894.064	4793
894.186	4622
894.308	4577
894.43	4729
894.552	4801
894.674	4778
894.796	4580
894.918	4630
895.04	4596
895.161	4748
895.283	4725
895.405	4592
895.526	4714
895.648	4725
895.769	4714
895.891	4755
896.012	4759
896.134	4748
896.255	4645
896.376	4683
896.498	4630
896.619	4706
896.74	4679
896.861	4706
896.982	4987
897.103	5109
897.224	4843
897.345	4755
897.466	4687
897.587	4763
897.708	4881
897.828	4831
897.949	4687
898.07	4580
898.19	4653
898.311	4881
898.431	4653
898.552	4782
898.672	4778
898.792	4816
898.913	4717
899.033	4660
899.153	4519
899.273	4470
899.393	4474
899.513	4554
899.633	4558
899.753	4592
899.873	4531
899.993	4641
900.113	4561
900.232	4626
900.352	4554
900.472	4523
900.591	4379
900.711	4474
900.83	4440
900.95	4630
901.069	4721
901.189	4580
901.308	4375
901.427	4371
901.546	4421
901.665	4470
901.784	4497
901.904	4424
902.023	4329
902.141	4211
902.26	4185
902.379	4348
902.498	4219
902.617	4207
902.735	4398
902.854	4413
902.973	4356
903.091	4265
903.21	4242
903.328	4325
903.446	4306
903.565	4249
903.683	4363
903.801	4280
903.919	4360
904.038	4432
904.156	4303
904.274	4462
904.392	4424
904.51	4409
904.627	4523
904.745	4634
904.863	4668
904.981	4443
905.098	4352
905.216	4390
905.334	4447
905.451	4485
905.569	4478
905.686	4569
905.803	4538
905.921	4383
906.038	4649
906.155	4500
906.272	4413
906.389	4493
906.506	4356
906.623	4405
906.74	4383
906.857	4341
906.974	4424
907.091	4565
907.208	4710
907.324	4649
907.441	4535
907.557	4371
907.674	4383
907.79	4360
907.907	4383
908.023	4519
908.139	4519
908.256	4459
908.372	4485
908.488	4489
908.604	4394
908.72	4356
908.836	4379
908.952	4386
909.068	4451
909.184	4573
909.3	4481
909.415	4626
909.531	4561
909.647	4386
909.762	4405
909.878	4333
909.993	4459
910.108	4481
910.224	4470
910.339	4493
910.454	4432
910.57	4348
910.685	4310
910.8	4641
910.915	4592
911.03	4538
911.145	4325
911.259	4341
911.374	4417
911.489	4325
911.604	4299
911.718	4230
911.833	4192
911.947	4082
912.062	4048
912.176	4211
912.291	4284
912.405	4291
912.519	4447
912.633	4527
912.748	4424
912.862	4329
912.976	4253
913.09	4120
913.204	4204
913.318	4246
913.431	4337
913.545	4405
913.659	4466
913.772	4379
913.886	4268
914	4185
914.113	4390
914.226	4474
914.34	4405
914.453	4284
914.566	4413
914.68	4306
914.793	4363
914.906	4150
915.019	4143
915.132	4128
915.245	4169
915.358	4166
915.47	4253
915.583	4287
915.696	4299
915.809	4409
915.921	4424
916.034	4280
916.146	4261
916.259	4242
916.371	4371
916.483	4337
916.595	4265
916.708	4314
916.82	4337
916.932	4318
917.044	4329
917.156	4371
917.268	4223
917.38	4291
917.491	4306
917.603	4337
917.715	4443
917.826	4455
917.938	4322
918.049	4272
918.161	4421
918.272	4554
918.384	4546
918.495	4500
918.606	4306
918.717	4265
918.828	4398
918.939	4383
919.05	4276
919.161	4291
919.272	4166
919.383	4238
919.494	4485
919.604	4618
919.715	4451
919.826	4333
919.936	4386
920.047	4554
920.157	4428
920.267	4702
920.378	4565
920.488	4512
920.598	4774
920.708	4927
920.818	4797
920.928	4809
921.038	4938
921.148	4949
921.258	4592
921.368	4580
921.477	4508
921.587	4504
921.697	4337
921.806	4542
921.916	4421
922.025	4287
922.134	4299
922.244	4219
922.353	4341
922.462	4196
922.571	4150
922.68	3994
922.789	4013
922.898	4055
923.007	3987
923.116	4116
923.224	4051
923.333	4120
923.442	3983
923.55	3975
923.659	4029
923.767	4128
923.876	3972
923.984	4093
924.092	4002
924.201	4086
924.309	4109
924.417	4154
924.525	4105
924.633	4135
924.741	5090
924.849	3903
924.956	4131
925.064	3949
925.172	3953
925.279	3998
925.387	4093
925.494	4074
925.602	4207
925.709	4200
925.816	3987
925.924	4162
926.031	4219
926.138	4154
926.245	4181
926.352	4071
926.459	4272
926.566	4310
926.673	4188
926.779	4139
926.886	4086
926.993	4017
927.099	3968
927.206	3956
927.312	3953
927.419	4074
927.525	3991
927.631	4128
927.737	3934
927.843	3941
927.95	3850
928.056	3918
928.162	3979
928.267	4074
928.373	4717
928.479	4150
928.585	3869
928.69	4013
928.796	4093
928.901	4010
929.007	3835
929.112	4021
929.218	4006
929.323	3960
929.428	3937
929.533	4120
929.638	3884
929.743	3983
929.848	4071
929.953	4010
930.058	3964
930.163	3778
930.267	3854
930.372	3975
930.477	3751
930.581	4090
930.685	3945
930.79	3835
930.894	3880
930.998	3915
931.103	4048
931.207	3743
931.311	3717
931.415	3671
931.519	3549
931.623	3549
