Data from test_V78500241_1791.txt Node
Date: Fri Mar 25 17:01:27 CST 2022
User: usil
Spectrometer: V785-0024
Trigger mode: 0
Integration Time (sec): 4.000000E-1
Scans to average: 1
Nonlinearity correction enabled: false
Boxcar width: 0
Storing dark spectrum: false
XAxis mode: Wavelengths
Number of Pixels in Spectrum: 1024
>>>>>Begin Spectral Data<<<<<
801.071	8035
801.214	8008
801.356	7856
801.499	7917
801.641	7776
801.783	7807
801.926	7947
802.068	7932
802.211	7959
802.353	8058
802.496	7837
802.638	7887
802.78	7856
802.923	7868
803.065	7894
803.208	7833
803.35	7947
803.492	8065
803.635	8088
803.777	7955
803.919	8119
804.061	8518
804.204	8092
804.346	8027
804.488	7959
804.63	8084
804.773	8043
804.915	8130
805.057	8305
805.199	8210
805.341	8130
805.483	8191
805.626	8218
805.768	8119
805.91	8252
806.052	8225
806.194	8103
806.336	8317
806.478	8103
806.62	8039
806.762	8111
806.904	8279
807.046	8526
807.188	8393
807.33	8309
807.472	8355
807.614	8138
807.756	8134
807.898	8043
808.04	7925
808.182	7894
808.324	7856
808.465	7887
808.607	8081
808.749	8050
808.891	8199
809.033	8267
809.174	8244
809.316	8039
809.458	8084
809.6	8016
809.741	8054
809.883	8088
810.025	8081
810.166	8069
810.308	8016
810.45	7970
810.591	7837
810.733	7780
810.875	7624
811.016	7518
811.158	7449
811.299	7567
811.441	7723
811.582	7639
811.724	7525
811.865	7525
812.007	7559
812.148	7567
812.29	7636
812.431	7776
812.573	7879
812.714	8001
812.855	8111
812.997	8164
813.138	8263
813.279	8183
813.421	8123
813.562	7871
813.703	7830
813.845	7742
813.986	7419
814.127	7240
814.268	7263
814.41	7168
814.551	7247
814.692	7183
814.833	7084
814.974	7095
815.115	7084
815.256	6966
815.397	7004
815.539	6977
815.68	6795
815.821	6719
815.962	6798
816.103	6825
816.244	6711
816.385	6578
816.526	6582
816.666	6521
816.807	6292
816.948	6410
817.089	6441
817.23	6471
817.371	6399
817.512	6407
817.653	6395
817.793	6365
817.934	6410
818.075	6471
818.216	6418
818.356	6441
818.497	6232
818.638	6133
818.778	6163
818.919	6136
819.06	6175
819.2	6289
819.341	6323
819.481	6350
819.622	6521
819.762	6749
819.903	6677
820.043	6574
820.184	6608
820.324	6620
820.465	6722
820.605	6662
820.746	6673
820.886	6521
821.026	6681
821.167	6741
821.307	6783
821.447	6757
821.588	6741
821.728	6544
821.868	6525
822.008	6319
822.149	6319
822.289	6346
822.429	6155
822.569	6064
822.709	6041
822.849	5920
822.99	5901
823.13	5954
823.27	5920
823.41	5813
823.55	5817
823.69	5786
823.83	5767
823.97	5657
824.11	5520
824.25	5478
824.389	5604
824.529	5554
824.669	5482
824.809	5611
824.949	5653
825.089	5604
825.228	5547
825.368	5353
825.508	5299
825.648	5368
825.787	5387
825.927	5349
826.067	5277
826.206	5261
826.346	5307
826.485	5410
826.625	5425
826.765	5554
826.904	5501
827.044	5269
827.183	5189
827.323	5075
827.462	5250
827.601	5109
827.741	5223
827.88	5162
828.02	5056
828.159	5242
828.298	5235
828.437	5303
828.577	5353
828.716	5486
828.855	5334
828.994	5140
829.134	5162
829.273	5193
829.412	5102
829.551	5086
829.69	5140
829.829	5280
829.968	5360
830.107	5269
830.246	5246
830.385	5155
830.524	5121
830.663	5064
830.802	5006
830.941	4858
831.08	4889
831.219	4953
831.357	4949
831.496	5124
831.635	4930
831.774	4828
831.913	4858
832.051	4691
832.19	4721
832.329	4805
832.467	4664
832.606	4630
832.744	4729
832.883	4714
833.022	4668
833.16	4774
833.299	4820
833.437	4831
833.576	4816
833.714	4828
833.852	4809
833.991	4873
834.129	4953
834.267	4930
834.406	4904
834.544	4968
834.682	4930
834.821	4987
834.959	5201
835.097	4987
835.235	5083
835.373	5113
835.511	5132
835.65	5022
835.788	5041
835.926	4915
836.064	4881
836.202	4896
836.34	5159
836.478	5235
836.615	5128
836.753	5178
836.891	5235
837.029	5254
837.167	5193
837.305	5155
837.443	5113
837.58	5094
837.718	5208
837.856	5174
837.993	5159
838.131	5220
838.269	5220
838.406	5189
838.544	5159
838.681	5029
838.819	5003
838.956	4858
839.094	4938
839.231	4961
839.369	5045
839.506	5414
839.643	5231
839.781	5083
839.918	4995
840.055	5128
840.193	5102
840.33	5128
840.467	5124
840.604	5162
840.742	5463
840.879	5006
841.016	5098
841.153	5159
841.29	5398
841.427	5330
841.564	5258
841.701	5334
841.838	5204
841.975	5220
842.112	5250
842.249	5136
842.385	5086
842.522	5303
842.659	5162
842.796	5155
842.933	5162
843.069	5151
843.206	5166
843.343	5299
843.479	5242
843.616	5239
843.752	4999
843.889	4976
844.025	5201
844.162	5056
844.298	5220
844.435	5022
844.571	5064
844.708	5181
844.844	5288
844.98	5330
845.117	5303
845.253	5162
845.389	5140
845.525	5155
845.661	5162
845.798	5071
845.934	5128
846.07	5056
846.206	5159
846.342	5364
846.478	5159
846.614	4953
846.75	4972
846.886	4984
847.022	5117
847.158	5014
847.294	5014
847.429	5067
847.565	5003
847.701	5269
847.837	4854
847.972	4801
848.108	4949
848.244	4923
848.379	4752
848.515	4736
848.65	4706
848.786	4752
848.921	4786
849.057	4889
849.192	4820
849.328	4790
849.463	4797
849.598	4809
849.734	4725
849.869	4664
850.004	4573
850.14	4622
850.275	4580
850.41	4481
850.545	4565
850.68	4573
850.815	4588
850.95	4584
851.085	4858
851.22	4714
851.355	4664
851.49	4618
851.625	4615
851.76	4656
851.895	4577
852.03	4527
852.165	4645
852.299	4710
852.434	4759
852.569	4725
852.703	4797
852.838	4809
852.973	4900
853.107	4885
853.242	4725
853.376	4584
853.511	4535
853.645	4645
853.78	4790
853.914	4660
854.048	4603
854.183	4622
854.317	4656
854.451	4820
854.585	4649
854.72	4615
854.854	4748
854.988	4626
855.122	4599
855.256	4508
855.39	4607
855.524	4736
855.658	4683
855.792	4687
855.926	4714
856.06	4683
856.194	4797
856.327	4706
856.461	4584
856.595	4618
856.729	4599
856.862	4763
856.996	4672
857.13	4748
857.263	4729
857.397	4790
857.53	4641
857.664	4729
857.797	4752
857.931	4748
858.064	4679
858.197	4736
858.331	4641
858.464	4630
858.597	4538
858.731	4653
858.864	4645
858.997	4641
859.13	4706
859.263	4691
859.396	4675
859.529	4592
859.662	4550
859.795	4519
859.928	4672
860.061	4771
860.194	4839
860.327	4580
860.46	4630
860.592	4679
860.725	4733
860.858	4778
860.99	4607
861.123	4531
861.256	4573
861.388	4641
861.521	5292
861.653	4500
861.786	4500
861.918	4440
862.05	4527
862.183	4626
862.315	4645
862.447	4660
862.58	4603
862.712	4432
862.844	4409
862.976	4493
863.108	4481
863.24	4938
863.372	4344
863.504	4466
863.636	4455
863.768	4508
863.9	4485
864.032	4371
864.164	4443
864.296	4512
864.428	4580
864.559	4645
864.691	4550
864.823	4565
864.954	4531
865.086	4558
865.217	4466
865.349	4489
865.48	4500
865.612	4519
865.743	4733
865.875	4478
866.006	4436
866.137	4474
866.269	4485
866.4	4440
866.531	4409
866.662	4443
866.793	4432
866.924	4459
867.055	4508
867.186	4478
867.317	4428
867.448	4428
867.579	4424
867.71	4432
867.841	4375
867.972	4527
868.103	4447
868.233	4523
868.364	4455
868.495	4489
868.625	4714
868.756	4729
868.886	4641
869.017	4641
869.147	4782
869.278	4790
869.408	4687
869.539	4664
869.669	4755
869.799	4687
869.929	4797
870.06	4771
870.19	4968
870.32	4961
870.45	4968
870.58	5029
870.71	5132
870.84	5121
870.97	4984
871.1	4991
871.23	5174
871.36	5147
871.489	5037
871.619	5083
871.749	5124
871.879	5147
872.008	5181
872.138	5079
872.267	5045
872.397	4915
872.526	4831
872.656	4801
872.785	4885
872.915	4938
873.044	5067
873.173	5010
873.303	5033
873.432	5022
873.561	4949
873.69	4919
873.819	4881
873.948	4961
874.077	4904
874.206	4809
874.335	4828
874.464	4934
874.593	5075
874.722	4911
874.851	5067
874.979	5060
875.108	5048
875.237	4961
875.365	4930
875.494	4881
875.623	4995
875.751	4889
875.88	4870
876.008	5029
876.136	5083
876.265	5212
876.393	5341
876.521	5337
876.65	5242
876.778	5178
876.906	5094
877.034	5083
877.162	5014
877.29	5033
877.418	5079
877.546	5071
877.674	5083
877.802	5045
877.93	5086
878.058	4953
878.185	4923
878.313	5003
878.441	4991
878.568	4816
878.696	4934
878.824	5003
878.951	5033
879.079	5143
879.206	5311
879.333	5094
879.461	5018
879.588	5052
879.715	5178
879.842	5269
879.97	5033
880.097	4767
880.224	4755
880.351	4790
880.478	4843
880.605	4809
880.732	4793
880.859	5109
880.986	4938
881.112	4942
881.239	4816
881.366	4725
881.493	4679
881.619	4649
881.746	4725
881.872	4698
881.999	4717
882.125	4721
882.252	4801
882.378	4904
882.505	5060
882.631	4812
882.757	4656
882.883	4717
883.01	4744
883.136	4691
883.262	4653
883.388	4698
883.514	4892
883.64	4892
883.766	4820
883.892	4702
884.018	4752
884.143	4938
884.269	5037
884.395	4740
884.52	4675
884.646	4698
884.772	4656
884.897	4569
885.023	4653
885.148	4793
885.274	4934
885.399	4797
885.524	4782
885.65	4721
885.775	4717
885.9	4717
886.025	4953
886.15	4839
886.275	4797
886.4	4683
886.525	4736
886.65	4656
886.775	4683
886.9	4892
887.025	5060
887.149	4805
887.274	4656
887.399	4596
887.523	4599
887.648	4596
887.773	4649
887.897	4782
888.021	4744
888.146	4736
888.27	4820
888.395	4908
888.519	4816
888.643	4812
888.767	4892
888.891	4694
889.015	4626
889.139	4656
889.263	4622
889.387	4767
889.511	4896
889.635	4812
889.759	4645
889.883	4596
890.006	4790
890.13	4809
890.254	4611
890.377	4653
890.501	4550
890.624	4538
890.748	4664
890.871	4535
890.995	4478
891.118	4421
891.241	4550
891.364	4611
891.488	4630
891.611	4554
891.734	4538
891.857	4603
891.98	4615
892.103	4653
892.226	4588
892.349	4599
892.471	4504
892.594	4504
892.717	4565
892.839	4538
892.962	4634
893.085	4702
893.207	4641
893.33	4512
893.452	4516
893.575	4675
893.697	4618
893.819	4786
893.941	4885
894.064	4767
894.186	4588
894.308	4573
894.43	4736
894.552	4809
894.674	4767
894.796	4565
894.918	4641
895.04	4603
895.161	4721
895.283	4691
895.405	4649
895.526	4672
895.648	4706
895.769	4717
895.891	4752
896.012	4755
896.134	4755
896.255	4702
896.376	4683
896.498	4679
896.619	4714
896.74	4607
896.861	4649
896.982	4930
897.103	5067
897.224	4892
897.345	4763
897.466	4717
897.587	4694
897.708	4885
897.828	4812
897.949	4679
898.07	4588
898.19	4687
898.311	4797
898.431	4721
898.552	4767
898.672	4778
898.792	4771
898.913	4748
899.033	4656
899.153	4512
899.273	4443
899.393	4565
899.513	4516
899.633	4558
899.753	4523
899.873	4516
899.993	4603
900.113	4596
900.232	4630
900.352	4569
900.472	4512
900.591	4455
900.711	4516
900.83	4470
900.95	4607
901.069	4748
901.189	4603
901.308	4409
901.427	4375
901.546	4333
901.665	4500
901.784	4519
901.904	4424
902.023	4379
902.141	4188
902.26	4211
902.379	4322
902.498	4261
902.617	4249
902.735	4421
902.854	4394
902.973	4375
903.091	4188
903.21	4257
903.328	4314
903.446	4257
903.565	4284
903.683	4348
903.801	4249
903.919	4394
904.038	4459
904.156	4303
904.274	4436
904.392	4402
904.51	4497
904.627	4474
904.745	4565
904.863	4653
904.981	4379
905.098	4322
905.216	4356
905.334	4436
905.451	4508
905.569	4455
905.686	4558
905.803	4592
905.921	4455
906.038	4584
906.155	4489
906.272	4386
906.389	4470
906.506	4341
906.623	4398
906.74	4436
906.857	4341
906.974	4379
907.091	4603
907.208	4683
907.324	4603
907.441	4561
907.557	4367
907.674	4341
907.79	4337
907.907	4405
908.023	4489
908.139	4519
908.256	4478
908.372	4538
908.488	4459
908.604	4352
908.72	4344
908.836	4409
908.952	4348
909.068	4440
909.184	4569
909.3	4527
909.415	4592
909.531	4569
909.647	4367
909.762	4394
909.878	4402
909.993	4466
910.108	4383
910.224	4443
910.339	4512
910.454	4443
910.57	4352
910.685	4299
910.8	4656
910.915	4622
911.03	4493
911.145	4341
911.259	4363
911.374	4379
911.489	4295
911.604	4265
911.718	4196
911.833	4211
911.947	4109
912.062	4067
912.176	4230
912.291	4257
912.405	4261
912.519	4485
912.633	4531
912.748	4398
912.862	4322
912.976	4249
913.09	4051
913.204	4188
913.318	4246
913.431	4367
913.545	4341
913.659	4424
913.772	4367
913.886	4306
914	4211
914.113	4386
914.226	4443
914.34	4402
914.453	4246
914.566	4462
914.68	4329
914.793	4314
914.906	4185
915.019	4131
915.132	4139
915.245	4204
915.358	4219
915.47	4310
915.583	4280
915.696	4276
915.809	4405
915.921	4470
916.034	4306
916.146	4268
916.259	4272
916.371	4443
916.483	4348
916.595	4322
916.708	4352
916.82	4333
916.932	4314
917.044	4306
917.156	4310
917.268	4268
917.38	4322
917.491	4295
917.603	4325
917.715	4443
917.826	4432
917.938	4367
918.049	4284
918.161	4413
918.272	4550
918.384	4550
918.495	4451
918.606	4322
918.717	4265
918.828	4363
918.939	4363
919.05	4272
919.161	4333
919.272	4112
919.383	4257
919.494	4409
919.604	4565
919.715	4466
919.826	4383
919.936	4417
920.047	4538
920.157	4493
920.267	4675
920.378	4558
920.488	4512
920.598	4736
920.708	4854
920.818	4759
920.928	4759
921.038	4915
921.148	4896
921.258	4656
921.368	4550
921.477	4535
921.587	4440
921.697	4375
921.806	4584
921.916	4443
922.025	4299
922.134	4223
922.244	4242
922.353	4379
922.462	4166
922.571	4150
922.68	3998
922.789	3979
922.898	4040
923.007	4055
923.116	4128
923.224	4059
923.333	4032
923.442	3998
923.55	3975
923.659	4044
923.767	4105
923.876	4040
923.984	4112
924.092	3968
924.201	4051
924.309	4082
924.417	4158
924.525	4120
924.633	4105
924.741	5105
924.849	3911
924.956	4135
925.064	4002
925.172	3892
925.279	3991
925.387	4055
925.494	4063
925.602	4249
925.709	4219
925.816	4051
925.924	4162
926.031	4268
926.138	4200
926.245	4227
926.352	4097
926.459	4276
926.566	4329
926.673	4185
926.779	4074
926.886	4109
926.993	4017
927.099	3994
927.206	3937
927.312	3983
927.419	4090
927.525	4090
927.631	4128
927.737	4010
927.843	4010
927.95	3880
928.056	3998
928.162	4048
928.267	4101
928.373	4660
928.479	4166
928.585	3922
928.69	4036
928.796	4082
928.901	4013
929.007	3892
929.112	4032
929.218	4032
929.323	3968
929.428	3945
929.533	4158
929.638	3941
929.743	3994
929.848	4063
929.953	4032
930.058	3953
930.163	3823
930.267	3888
930.372	4010
930.477	3819
930.581	4124
930.685	4017
930.79	3880
930.894	3934
930.998	3903
931.103	4078
931.207	3698
931.311	3766
931.415	3728
931.519	3553
931.623	3595
