Data from test_V78500241_2129.txt Node
Date: Fri Mar 25 17:03:48 CST 2022
User: usil
Spectrometer: V785-0024
Trigger mode: 0
Integration Time (sec): 4.000000E-1
Scans to average: 1
Nonlinearity correction enabled: false
Boxcar width: 0
Storing dark spectrum: false
XAxis mode: Wavelengths
Number of Pixels in Spectrum: 1024
>>>>>Begin Spectral Data<<<<<
801.071	8020
801.214	7974
801.356	7864
801.499	7753
801.641	7830
801.783	7887
801.926	7986
802.068	7871
802.211	7940
802.353	7986
802.496	7776
802.638	7837
802.78	7803
802.923	7909
803.065	7871
803.208	7830
803.35	7944
803.492	8123
803.635	8221
803.777	8024
803.919	8138
804.061	8381
804.204	8157
804.346	8016
804.488	7959
804.63	8035
804.773	7947
804.915	8096
805.057	8256
805.199	8130
805.341	8191
805.483	8202
805.626	8183
805.768	8123
805.91	8191
806.052	8294
806.194	8123
806.336	8214
806.478	8111
806.62	8100
806.762	8164
806.904	8275
807.046	8389
807.188	8370
807.33	8240
807.472	8290
807.614	8107
807.756	8134
807.898	8054
808.04	7883
808.182	7837
808.324	7875
808.465	7909
808.607	8092
808.749	8103
808.891	8149
809.033	8259
809.174	8237
809.316	8126
809.458	8073
809.6	8035
809.741	8039
809.883	8005
810.025	8123
810.166	7982
810.308	7955
810.45	8005
810.591	7898
810.733	7769
810.875	7605
811.016	7476
811.158	7468
811.299	7544
811.441	7704
811.582	7666
811.724	7578
811.865	7567
812.007	7609
812.148	7647
812.29	7556
812.431	7795
812.573	7852
812.714	7944
812.855	8157
812.997	8191
813.138	8256
813.279	8111
813.421	7997
813.562	7928
813.703	7780
813.845	7689
813.986	7434
814.127	7266
814.268	7206
814.41	7187
814.551	7190
814.692	7198
814.833	7076
814.974	7133
815.115	7084
815.256	6943
815.397	6932
815.539	6920
815.68	6814
815.821	6802
815.962	6829
816.103	6753
816.244	6662
816.385	6566
816.526	6585
816.666	6456
816.807	6361
816.948	6452
817.089	6445
817.23	6410
817.371	6323
817.512	6346
817.653	6350
817.793	6353
817.934	6380
818.075	6391
818.216	6422
818.356	6395
818.497	6281
818.638	6102
818.778	6201
818.919	6155
819.06	6106
819.2	6384
819.341	6323
819.481	6365
819.622	6502
819.762	6703
819.903	6639
820.043	6563
820.184	6604
820.324	6555
820.465	6650
820.605	6700
820.746	6650
820.886	6502
821.026	6673
821.167	6658
821.307	6741
821.447	6760
821.588	6665
821.728	6544
821.868	6525
822.008	6281
822.149	6372
822.289	6376
822.429	6159
822.569	6117
822.709	6144
822.849	6007
822.99	5901
823.13	5889
823.27	5912
823.41	5760
823.55	5779
823.69	5756
823.83	5764
823.97	5634
824.11	5551
824.25	5505
824.389	5528
824.529	5566
824.669	5543
824.809	5642
824.949	5649
825.089	5615
825.228	5501
825.368	5387
825.508	5341
825.648	5383
825.787	5368
825.927	5315
826.067	5254
826.206	5311
826.346	5383
826.485	5357
826.625	5360
826.765	5509
826.904	5478
827.044	5254
827.183	5208
827.323	5105
827.462	5258
827.601	5185
827.741	5189
827.88	5303
828.02	5075
828.159	5227
828.298	5315
828.437	5414
828.577	5269
828.716	5490
828.855	5334
828.994	5170
829.134	5143
829.273	5185
829.412	5079
829.551	5132
829.69	5197
829.829	5258
829.968	5330
830.107	5246
830.246	5239
830.385	5136
830.524	5098
830.663	5064
830.802	5003
830.941	4862
831.08	4847
831.219	4942
831.357	4946
831.496	5159
831.635	4870
831.774	4786
831.913	4805
832.051	4721
832.19	4763
832.329	4774
832.467	4645
832.606	4634
832.744	4702
832.883	4687
833.022	4698
833.16	4778
833.299	4828
833.437	4812
833.576	4824
833.714	4843
833.852	4839
833.991	4866
834.129	4965
834.267	4919
834.406	4850
834.544	4995
834.682	4946
834.821	4923
834.959	5124
835.097	5010
835.235	5132
835.373	5064
835.511	5162
835.65	5064
835.788	4991
835.926	4911
836.064	4892
836.202	4923
836.34	5159
836.478	5212
836.615	5117
836.753	5170
836.891	5277
837.029	5223
837.167	5151
837.305	5151
837.443	5143
837.58	5048
837.718	5277
837.856	5178
837.993	5143
838.131	5246
838.269	5181
838.406	5170
838.544	5147
838.681	5033
838.819	5003
838.956	4862
839.094	4911
839.231	4984
839.369	5102
839.506	5410
839.643	5288
839.781	4987
839.918	5022
840.055	5075
840.193	5117
840.33	5102
840.467	5109
840.604	5147
840.742	5379
840.879	5022
841.016	5098
841.153	5174
841.29	5376
841.427	5277
841.564	5315
841.701	5383
841.838	5273
841.975	5231
842.112	5258
842.249	5166
842.385	5098
842.522	5395
842.659	5189
842.796	5155
842.933	5162
843.069	5121
843.206	5151
843.343	5315
843.479	5242
843.616	5261
843.752	5037
843.889	5029
844.025	5216
844.162	5003
844.298	5242
844.435	5094
844.571	5014
844.708	5155
844.844	5307
844.98	5376
845.117	5265
845.253	5143
845.389	5048
845.525	5178
845.661	5155
845.798	5029
845.934	5166
846.07	4999
846.206	5250
846.342	5322
846.478	5197
846.614	4976
846.75	4972
846.886	4934
847.022	5174
847.158	5029
847.294	5052
847.429	5132
847.565	5109
847.701	5311
847.837	4858
847.972	4854
848.108	4961
848.244	4949
848.379	4797
848.515	4744
848.65	4767
848.786	4763
848.921	4752
849.057	4900
849.192	4938
849.328	4843
849.463	4889
849.598	4870
849.734	4843
849.869	4717
850.004	4637
850.14	4733
850.275	4664
850.41	4546
850.545	4607
850.68	4672
850.815	4656
850.95	4729
851.085	4877
851.22	4740
851.355	4729
851.49	4656
851.625	4649
851.76	4641
851.895	4611
852.03	4599
852.165	4687
852.299	4736
852.434	4828
852.569	4767
852.703	4782
852.838	4862
852.973	4953
853.107	4942
853.242	4782
853.376	4694
853.511	4527
853.645	4653
853.78	4828
853.914	4710
854.048	4702
854.183	4706
854.317	4733
854.451	4919
854.585	4733
854.72	4702
854.854	4771
854.988	4618
855.122	4679
855.256	4535
855.39	4672
855.524	4809
855.658	4786
855.792	4755
855.926	4763
856.06	4801
856.194	4892
856.327	4679
856.461	4611
856.595	4645
856.729	4660
856.862	4797
856.996	4679
857.13	4748
857.263	4805
857.397	4820
857.53	4675
857.664	4793
857.797	4771
857.931	4809
858.064	4752
858.197	4831
858.331	4649
858.464	4637
858.597	4481
858.731	4645
858.864	4710
858.997	4615
859.13	4694
859.263	4710
859.396	4691
859.529	4611
859.662	4577
859.795	4497
859.928	4683
860.061	4801
860.194	4858
860.327	4622
860.46	4618
860.592	4733
860.725	4752
860.858	4778
860.99	4607
861.123	4512
861.256	4599
861.388	4649
861.521	5471
861.653	4546
861.786	4462
861.918	4512
862.05	4550
862.183	4596
862.315	4660
862.447	4683
862.58	4611
862.712	4451
862.844	4417
862.976	4508
863.108	4512
863.24	4763
863.372	4367
863.504	4459
863.636	4489
863.768	4538
863.9	4459
864.032	4348
864.164	4440
864.296	4508
864.428	4538
864.559	4626
864.691	4527
864.823	4519
864.954	4523
865.086	4523
865.217	4474
865.349	4421
865.48	4493
865.612	4523
865.743	4641
865.875	4474
866.006	4443
866.137	4489
866.269	4523
866.4	4489
866.531	4470
866.662	4413
866.793	4470
866.924	4451
867.055	4535
867.186	4459
867.317	4409
867.448	4402
867.579	4478
867.71	4462
867.841	4447
867.972	4478
868.103	4535
868.233	4497
868.364	4470
868.495	4527
868.625	4672
868.756	4786
868.886	4580
869.017	4656
869.147	4774
869.278	4778
869.408	4710
869.539	4683
869.669	4717
869.799	4752
869.929	4767
870.06	4767
870.19	4949
870.32	4938
870.45	4946
870.58	5041
870.71	5143
870.84	5151
870.97	4976
871.1	4942
871.23	5113
871.36	5136
871.489	5067
871.619	5090
871.749	5124
871.879	5162
872.008	5204
872.138	5105
872.267	5029
872.397	4911
872.526	4877
872.656	4771
872.785	4866
872.915	4984
873.044	5014
873.173	4961
873.303	5045
873.432	4980
873.561	5041
873.69	4919
873.819	4930
873.948	4911
874.077	4862
874.206	4797
874.335	4831
874.464	4965
874.593	5086
874.722	4972
874.851	5128
874.979	5029
875.108	5056
875.237	4934
875.365	4911
875.494	4900
875.623	5014
875.751	4790
875.88	4873
876.008	5041
876.136	5045
876.265	5288
876.393	5330
876.521	5288
876.65	5216
876.778	5166
876.906	5090
877.034	5041
877.162	5064
877.29	5041
877.418	5105
877.546	5064
877.674	5064
877.802	5010
877.93	5029
878.058	4919
878.185	4900
878.313	5022
878.441	4949
878.568	4809
878.696	4927
878.824	5022
878.951	5060
879.079	5121
879.206	5337
879.333	5136
879.461	5006
879.588	5060
879.715	5143
879.842	5220
879.97	5067
880.097	4843
880.224	4740
880.351	4843
880.478	4793
880.605	4812
880.732	4759
880.859	5124
880.986	4908
881.112	4942
881.239	4752
881.366	4740
881.493	4645
881.619	4596
881.746	4675
881.872	4721
881.999	4641
882.125	4714
882.252	4828
882.378	4850
882.505	5048
882.631	4904
882.757	4714
882.883	4744
883.01	4763
883.136	4653
883.262	4641
883.388	4584
883.514	4828
883.64	4839
883.766	4790
883.892	4717
884.018	4698
884.143	4961
884.269	5037
884.395	4683
884.52	4679
884.646	4691
884.772	4611
884.897	4596
885.023	4717
885.148	4885
885.274	4904
885.399	4801
885.524	4717
885.65	4733
885.775	4759
885.9	4721
886.025	4927
886.15	4831
886.275	4759
886.4	4687
886.525	4755
886.65	4706
886.775	4763
886.9	4908
887.025	5056
887.149	4771
887.274	4653
887.399	4584
887.523	4618
887.648	4588
887.773	4603
887.897	4812
888.021	4774
888.146	4668
888.27	4824
888.395	4976
888.519	4790
888.643	4801
888.767	4812
888.891	4630
889.015	4630
889.139	4664
889.263	4641
889.387	4767
889.511	4900
889.635	4812
889.759	4774
889.883	4698
890.006	4740
890.13	4843
890.254	4611
890.377	4729
890.501	4592
890.624	4546
890.748	4596
890.871	4493
890.995	4447
891.118	4424
891.241	4500
891.364	4550
891.488	4596
891.611	4523
891.734	4573
891.857	4653
891.98	4577
892.103	4687
892.226	4630
892.349	4565
892.471	4481
892.594	4615
892.717	4622
892.839	4599
892.962	4615
893.085	4664
893.207	4641
893.33	4493
893.452	4519
893.575	4748
893.697	4588
893.819	4721
893.941	4805
894.064	4801
894.186	4603
894.308	4637
894.43	4736
894.552	4824
894.674	4774
894.796	4588
894.918	4622
895.04	4561
895.161	4740
895.283	4698
895.405	4565
895.526	4675
895.648	4702
895.769	4668
895.891	4736
896.012	4748
896.134	4714
896.255	4683
896.376	4660
896.498	4694
896.619	4653
896.74	4649
896.861	4645
896.982	4908
897.103	5086
897.224	4870
897.345	4778
897.466	4683
897.587	4733
897.708	4889
897.828	4786
897.949	4656
898.07	4542
898.19	4653
898.311	4847
898.431	4660
898.552	4771
898.672	4854
898.792	4828
898.913	4790
899.033	4679
899.153	4565
899.273	4478
899.393	4565
899.513	4554
899.633	4504
899.753	4577
899.873	4546
899.993	4656
900.113	4531
900.232	4660
900.352	4554
900.472	4535
900.591	4348
900.711	4447
900.83	4421
900.95	4611
901.069	4698
901.189	4546
901.308	4394
901.427	4352
901.546	4386
901.665	4466
901.784	4474
901.904	4436
902.023	4318
902.141	4200
902.26	4181
902.379	4291
902.498	4253
902.617	4276
902.735	4344
902.854	4379
902.973	4367
903.091	4223
903.21	4257
903.328	4284
903.446	4276
903.565	4230
903.683	4363
903.801	4280
903.919	4478
904.038	4478
904.156	4310
904.274	4451
904.392	4413
904.51	4424
904.627	4493
904.745	4550
904.863	4618
904.981	4386
905.098	4333
905.216	4402
905.334	4466
905.451	4459
905.569	4466
905.686	4565
905.803	4580
905.921	4443
906.038	4527
906.155	4519
906.272	4451
906.389	4489
906.506	4383
906.623	4386
906.74	4421
906.857	4341
906.974	4386
907.091	4561
907.208	4660
907.324	4580
907.441	4512
907.557	4398
907.674	4394
907.79	4306
907.907	4363
908.023	4531
908.139	4459
908.256	4421
908.372	4466
908.488	4478
908.604	4352
908.72	4367
908.836	4379
908.952	4394
909.068	4428
909.184	4584
909.3	4493
909.415	4569
909.531	4558
909.647	4398
909.762	4398
909.878	4337
909.993	4443
910.108	4459
910.224	4360
910.339	4485
910.454	4402
910.57	4344
910.685	4341
910.8	4679
910.915	4599
911.03	4500
911.145	4344
911.259	4299
911.374	4386
911.489	4310
911.604	4299
911.718	4207
911.833	4223
911.947	4112
912.062	4086
912.176	4227
912.291	4230
912.405	4276
912.519	4424
912.633	4455
912.748	4409
912.862	4325
912.976	4223
913.09	4128
913.204	4143
913.318	4230
913.431	4402
913.545	4363
913.659	4455
913.772	4375
913.886	4246
914	4207
914.113	4443
914.226	4424
914.34	4405
914.453	4242
914.566	4474
914.68	4329
914.793	4322
914.906	4200
915.019	4147
915.132	4074
915.245	4192
915.358	4242
915.47	4230
915.583	4287
915.696	4314
915.809	4443
915.921	4447
916.034	4348
916.146	4265
916.259	4261
916.371	4436
916.483	4356
916.595	4272
916.708	4363
916.82	4379
916.932	4348
917.044	4352
917.156	4318
917.268	4253
917.38	4318
917.491	4287
917.603	4363
917.715	4451
917.826	4481
917.938	4375
918.049	4310
918.161	4394
918.272	4603
918.384	4554
918.495	4489
918.606	4318
918.717	4257
918.828	4379
918.939	4428
919.05	4287
919.161	4375
919.272	4188
919.383	4261
919.494	4478
919.604	4702
919.715	4489
919.826	4398
919.936	4390
920.047	4584
920.157	4573
920.267	4790
920.378	4580
920.488	4577
920.598	4744
920.708	4923
920.818	4790
920.928	4790
921.038	4991
921.148	4942
921.258	4694
921.368	4615
921.477	4512
921.587	4531
921.697	4451
921.806	4577
921.916	4516
922.025	4303
922.134	4291
922.244	4265
922.353	4352
922.462	4246
922.571	4211
922.68	4040
922.789	4048
922.898	4093
923.007	4029
923.116	4128
923.224	4124
923.333	4093
923.442	4074
923.55	3975
923.659	4055
923.767	4131
923.876	4010
923.984	4192
924.092	4036
924.201	4131
924.309	4082
924.417	4188
924.525	4093
924.633	4124
924.741	5102
924.849	3930
924.956	4135
925.064	3983
925.172	3930
925.279	4013
925.387	4116
925.494	4093
925.602	4272
925.709	4219
925.816	4082
925.924	4158
926.031	4287
926.138	4219
926.245	4230
926.352	4150
926.459	4253
926.566	4363
926.673	4192
926.779	4143
926.886	4120
926.993	4040
927.099	4010
927.206	3972
927.312	4025
927.419	4124
927.525	4097
927.631	4071
927.737	4025
927.843	3972
927.95	3892
928.056	3953
928.162	4025
928.267	4071
928.373	4607
928.479	4169
928.585	3918
928.69	4029
928.796	4147
928.901	3994
929.007	3827
929.112	4040
929.218	4025
929.323	3972
929.428	3945
929.533	4169
929.638	4006
929.743	4017
929.848	4109
929.953	4021
930.058	3983
930.163	3804
930.267	3865
930.372	4013
930.477	3823
930.581	4135
930.685	3979
930.79	3869
930.894	3975
930.998	3892
931.103	4101
931.207	3778
931.311	3762
931.415	3701
931.519	3534
931.623	3595
