Data from test_V78500241_1012.txt Node
Date: Fri Mar 25 16:56:02 CST 2022
User: usil
Spectrometer: V785-0024
Trigger mode: 0
Integration Time (sec): 4.000000E-1
Scans to average: 1
Nonlinearity correction enabled: false
Boxcar width: 0
Storing dark spectrum: false
XAxis mode: Wavelengths
Number of Pixels in Spectrum: 1024
>>>>>Begin Spectral Data<<<<<
801.071	8035
801.214	7989
801.356	7852
801.499	7811
801.641	7723
801.783	7788
801.926	7917
802.068	7890
802.211	7906
802.353	7989
802.496	7837
802.638	7879
802.78	7917
802.923	7860
803.065	7841
803.208	7890
803.35	7963
803.492	8096
803.635	8157
803.777	7989
803.919	8138
804.061	8415
804.204	8153
804.346	8084
804.488	8005
804.63	8145
804.773	8020
804.915	8073
805.057	8259
805.199	8164
805.341	8210
805.483	8210
805.626	8180
805.768	8092
805.91	8218
806.052	8214
806.194	8073
806.336	8286
806.478	8103
806.62	8092
806.762	8164
806.904	8301
807.046	8408
807.188	8286
807.33	8317
807.472	8279
807.614	8145
807.756	8214
807.898	7974
808.04	7898
808.182	7890
808.324	7928
808.465	7913
808.607	8046
808.749	8103
808.891	8142
809.033	8248
809.174	8210
809.316	8012
809.458	8065
809.6	7997
809.741	8077
809.883	8035
810.025	8115
810.166	8065
810.308	8088
810.45	7944
810.591	7917
810.733	7624
810.875	7647
811.016	7510
811.158	7480
811.299	7559
811.441	7704
811.582	7639
811.724	7597
811.865	7506
812.007	7578
812.148	7609
812.29	7658
812.431	7738
812.573	7868
812.714	7951
812.855	8126
812.997	8214
813.138	8317
813.279	8195
813.421	8088
813.562	8016
813.703	7887
813.845	7788
813.986	7422
814.127	7266
814.268	7221
814.41	7175
814.551	7088
814.692	7095
814.833	7038
814.974	7061
815.115	7129
815.256	6924
815.397	6875
815.539	6951
815.68	6833
815.821	6776
815.962	6875
816.103	6825
816.244	6669
816.385	6616
816.526	6650
816.666	6513
816.807	6285
816.948	6426
817.089	6452
817.23	6441
817.371	6380
817.512	6384
817.653	6380
817.793	6369
817.934	6384
818.075	6414
818.216	6372
818.356	6391
818.497	6220
818.638	6095
818.778	6213
818.919	6136
819.06	6182
819.2	6315
819.341	6254
819.481	6380
819.622	6490
819.762	6681
819.903	6673
820.043	6604
820.184	6597
820.324	6574
820.465	6631
820.605	6646
820.746	6620
820.886	6441
821.026	6635
821.167	6703
821.307	6810
821.447	6760
821.588	6665
821.728	6509
821.868	6460
822.008	6292
822.149	6346
822.289	6365
822.429	6140
822.569	6121
822.709	6106
822.849	5942
822.99	5878
823.13	5904
823.27	5923
823.41	5737
823.55	5745
823.69	5726
823.83	5790
823.97	5646
824.11	5528
824.25	5524
824.389	5520
824.529	5524
824.669	5490
824.809	5611
824.949	5653
825.089	5558
825.228	5524
825.368	5311
825.508	5307
825.648	5337
825.787	5383
825.927	5334
826.067	5269
826.206	5250
826.346	5383
826.485	5379
826.625	5391
826.765	5520
826.904	5497
827.044	5246
827.183	5197
827.323	5109
827.462	5250
827.601	5193
827.741	5193
827.88	5212
828.02	5143
828.159	5269
828.298	5299
828.437	5341
828.577	5284
828.716	5471
828.855	5292
828.994	5166
829.134	5193
829.273	5201
829.412	5140
829.551	5151
829.69	5159
829.829	5261
829.968	5387
830.107	5277
830.246	5330
830.385	5174
830.524	5212
830.663	5105
830.802	4987
830.941	4900
831.08	4915
831.219	5052
831.357	4991
831.496	5136
831.635	4968
831.774	4793
831.913	4881
832.051	4786
832.19	4774
832.329	4870
832.467	4752
832.606	4683
832.744	4733
832.883	4740
833.022	4748
833.16	4771
833.299	4839
833.437	4885
833.576	4877
833.714	4877
833.852	4927
833.991	4911
834.129	4991
834.267	4972
834.406	4904
834.544	4949
834.682	5003
834.821	4934
834.959	5170
835.097	5010
835.235	5212
835.373	5121
835.511	5109
835.65	5094
835.788	5033
835.926	4896
836.064	4900
836.202	4904
836.34	5189
836.478	5242
836.615	5124
836.753	5284
836.891	5269
837.029	5258
837.167	5136
837.305	5178
837.443	5128
837.58	5102
837.718	5307
837.856	5185
837.993	5193
838.131	5258
838.269	5265
838.406	5208
838.544	5239
838.681	5056
838.819	4984
838.956	4847
839.094	4949
839.231	5037
839.369	5121
839.506	5448
839.643	5303
839.781	5079
839.918	5037
840.055	5140
840.193	5109
840.33	5155
840.467	5151
840.604	5220
840.742	5433
840.879	5064
841.016	5124
841.153	5147
841.29	5398
841.427	5349
841.564	5368
841.701	5410
841.838	5265
841.975	5223
842.112	5357
842.249	5185
842.385	5121
842.522	5345
842.659	5204
842.796	5140
842.933	5212
843.069	5124
843.206	5170
843.343	5318
843.479	5273
843.616	5322
843.752	5045
843.889	5003
844.025	5284
844.162	5041
844.298	5201
844.435	5121
844.571	5006
844.708	5227
844.844	5326
844.98	5368
845.117	5273
845.253	5185
845.389	5098
845.525	5174
845.661	5181
845.798	5056
845.934	5121
846.07	5075
846.206	5197
846.342	5326
846.478	5204
846.614	5010
846.75	4968
846.886	4972
847.022	5193
847.158	5071
847.294	5105
847.429	5060
847.565	5102
847.701	5330
847.837	4873
847.972	4820
848.108	4927
848.244	4999
848.379	4801
848.515	4793
848.65	4698
848.786	4820
848.921	4790
849.057	4847
849.192	4900
849.328	4805
849.463	4896
849.598	4774
849.734	4763
849.869	4687
850.004	4615
850.14	4645
850.275	4611
850.41	4508
850.545	4607
850.68	4592
850.815	4664
850.95	4611
851.085	4831
851.22	4755
851.355	4683
851.49	4618
851.625	4668
851.76	4645
851.895	4577
852.03	4584
852.165	4649
852.299	4744
852.434	4824
852.569	4755
852.703	4805
852.838	4816
852.973	4908
853.107	4949
853.242	4736
853.376	4683
853.511	4550
853.645	4641
853.78	4824
853.914	4683
854.048	4679
854.183	4675
854.317	4706
854.451	4801
854.585	4672
854.72	4691
854.854	4790
854.988	4622
855.122	4656
855.256	4592
855.39	4706
855.524	4801
855.658	4755
855.792	4733
855.926	4733
856.06	4793
856.194	4824
856.327	4752
856.461	4637
856.595	4668
856.729	4653
856.862	4714
856.996	4675
857.13	4752
857.263	4748
857.397	4820
857.53	4630
857.664	4771
857.797	4812
857.931	4797
858.064	4649
858.197	4729
858.331	4691
858.464	4672
858.597	4516
858.731	4626
858.864	4687
858.997	4649
859.13	4675
859.263	4664
859.396	4698
859.529	4607
859.662	4596
859.795	4546
859.928	4660
860.061	4797
860.194	4805
860.327	4668
860.46	4546
860.592	4729
860.725	4736
860.858	4714
860.99	4645
861.123	4542
861.256	4538
861.388	4599
861.521	5269
861.653	4497
861.786	4398
861.918	4451
862.05	4481
862.183	4554
862.315	4615
862.447	4653
862.58	4580
862.712	4474
862.844	4299
862.976	4485
863.108	4455
863.24	4900
863.372	4356
863.504	4462
863.636	4417
863.768	4535
863.9	4478
864.032	4390
864.164	4409
864.296	4485
864.428	4542
864.559	4561
864.691	4558
864.823	4592
864.954	4561
865.086	4531
865.217	4440
865.349	4436
865.48	4459
865.612	4519
865.743	4630
865.875	4466
866.006	4462
866.137	4455
866.269	4436
866.4	4462
866.531	4451
866.662	4409
866.793	4443
866.924	4489
867.055	4504
867.186	4481
867.317	4421
867.448	4409
867.579	4417
867.71	4443
867.841	4394
867.972	4455
868.103	4474
868.233	4462
868.364	4413
868.495	4542
868.625	4683
868.756	4778
868.886	4554
869.017	4672
869.147	4767
869.278	4843
869.408	4626
869.539	4698
869.669	4755
869.799	4687
869.929	4763
870.06	4778
870.19	4965
870.32	4904
870.45	4934
870.58	5037
870.71	5067
870.84	5102
870.97	4965
871.1	4896
871.23	5143
871.36	5132
871.489	4991
871.619	5037
871.749	5083
871.879	5102
872.008	5197
872.138	5079
872.267	5003
872.397	4828
872.526	4839
872.656	4721
872.785	4790
872.915	4946
873.044	4995
873.173	4934
873.303	5014
873.432	4976
873.561	4927
873.69	4938
873.819	4850
873.948	4949
874.077	4812
874.206	4805
874.335	4885
874.464	4923
874.593	5052
874.722	4987
874.851	5128
874.979	5064
875.108	5067
875.237	4923
875.365	4877
875.494	4896
875.623	4980
875.751	4820
875.88	4900
876.008	5018
876.136	5041
876.265	5254
876.393	5402
876.521	5242
876.65	5220
876.778	5197
876.906	5075
877.034	5037
877.162	5052
877.29	4976
877.418	5083
877.546	5037
877.674	5014
877.802	5067
877.93	5006
878.058	4930
878.185	4908
878.313	5025
878.441	4927
878.568	4824
878.696	4889
878.824	4968
878.951	4942
879.079	5105
879.206	5311
879.333	5109
879.461	4946
879.588	4961
879.715	5048
879.842	5231
879.97	5010
880.097	4805
880.224	4771
880.351	4790
880.478	4892
880.605	4828
880.732	4755
880.859	5052
880.986	4900
881.112	4892
881.239	4812
881.366	4664
881.493	4573
881.619	4580
881.746	4660
881.872	4641
881.999	4679
882.125	4710
882.252	4763
882.378	4801
882.505	4995
882.631	4793
882.757	4660
882.883	4740
883.01	4691
883.136	4637
883.262	4592
883.388	4596
883.514	4793
883.64	4843
883.766	4759
883.892	4710
884.018	4725
884.143	4915
884.269	5022
884.395	4679
884.52	4664
884.646	4660
884.772	4607
884.897	4611
885.023	4683
885.148	4774
885.274	4870
885.399	4828
885.524	4714
885.65	4710
885.775	4748
885.9	4767
886.025	4873
886.15	4774
886.275	4729
886.4	4660
886.525	4793
886.65	4744
886.775	4653
886.9	4904
887.025	5018
887.149	4782
887.274	4645
887.399	4611
887.523	4634
887.648	4569
887.773	4626
887.897	4744
888.021	4774
888.146	4672
888.27	4793
888.395	4911
888.519	4801
888.643	4816
888.767	4812
888.891	4714
889.015	4599
889.139	4672
889.263	4626
889.387	4744
889.511	4877
889.635	4839
889.759	4622
889.883	4672
890.006	4714
890.13	4805
890.254	4611
890.377	4687
890.501	4546
890.624	4489
890.748	4630
890.871	4519
890.995	4481
891.118	4390
891.241	4558
891.364	4546
891.488	4653
891.611	4516
891.734	4531
891.857	4569
891.98	4554
892.103	4645
892.226	4588
892.349	4508
892.471	4409
892.594	4558
892.717	4577
892.839	4611
892.962	4656
893.085	4675
893.207	4645
893.33	4466
893.452	4554
893.575	4653
893.697	4573
893.819	4774
893.941	4858
894.064	4763
894.186	4599
894.308	4611
894.43	4702
894.552	4824
894.674	4710
894.796	4588
894.918	4584
895.04	4622
895.161	4725
895.283	4675
895.405	4554
895.526	4626
895.648	4679
895.769	4694
895.891	4702
896.012	4759
896.134	4702
896.255	4725
896.376	4626
896.498	4622
896.619	4710
896.74	4649
896.861	4679
896.982	4942
897.103	5075
897.224	4820
897.345	4744
897.466	4706
897.587	4721
897.708	4881
897.828	4797
897.949	4706
898.07	4569
898.19	4675
898.311	4828
898.431	4645
898.552	4763
898.672	4904
898.792	4755
898.913	4721
899.033	4615
899.153	4504
899.273	4451
899.393	4546
899.513	4558
899.633	4527
899.753	4546
899.873	4542
899.993	4580
900.113	4500
900.232	4584
900.352	4580
900.472	4485
900.591	4424
900.711	4535
900.83	4462
900.95	4615
901.069	4702
901.189	4554
901.308	4405
901.427	4352
901.546	4383
901.665	4485
901.784	4531
901.904	4424
902.023	4375
902.141	4177
902.26	4173
902.379	4306
902.498	4276
902.617	4192
902.735	4371
902.854	4409
902.973	4363
903.091	4192
903.21	4230
903.328	4314
903.446	4314
903.565	4265
903.683	4375
903.801	4287
903.919	4398
904.038	4424
904.156	4333
904.274	4455
904.392	4405
904.51	4417
904.627	4478
904.745	4538
904.863	4649
904.981	4409
905.098	4280
905.216	4375
905.334	4402
905.451	4424
905.569	4428
905.686	4531
905.803	4542
905.921	4363
906.038	4584
906.155	4466
906.272	4443
906.389	4455
906.506	4363
906.623	4409
906.74	4398
906.857	4272
906.974	4375
907.091	4538
907.208	4656
907.324	4603
907.441	4474
907.557	4356
907.674	4390
907.79	4352
907.907	4390
908.023	4504
908.139	4478
908.256	4402
908.372	4466
908.488	4455
908.604	4356
908.72	4337
908.836	4371
908.952	4394
909.068	4436
909.184	4577
909.3	4512
909.415	4645
909.531	4615
909.647	4344
909.762	4318
909.878	4383
909.993	4443
910.108	4413
910.224	4447
910.339	4455
910.454	4447
910.57	4367
910.685	4291
910.8	4618
910.915	4554
911.03	4478
911.145	4291
911.259	4329
911.374	4394
911.489	4287
911.604	4280
911.718	4200
911.833	4211
911.947	4090
912.062	4051
912.176	4185
912.291	4211
912.405	4242
912.519	4428
912.633	4493
912.748	4363
912.862	4287
912.976	4238
913.09	4116
913.204	4131
913.318	4272
913.431	4383
913.545	4325
913.659	4409
913.772	4356
913.886	4246
914	4207
914.113	4337
914.226	4436
914.34	4390
914.453	4215
914.566	4398
914.68	4303
914.793	4337
914.906	4128
915.019	4131
915.132	4063
915.245	4181
915.358	4200
915.47	4234
915.583	4284
915.696	4318
915.809	4379
915.921	4409
916.034	4227
916.146	4246
916.259	4207
916.371	4375
916.483	4341
916.595	4257
916.708	4360
916.82	4344
916.932	4325
917.044	4303
917.156	4337
917.268	4242
917.38	4291
917.491	4276
917.603	4329
917.715	4428
917.826	4432
917.938	4291
918.049	4242
918.161	4363
918.272	4550
918.384	4508
918.495	4436
918.606	4310
918.717	4246
918.828	4322
918.939	4322
919.05	4257
919.161	4318
919.272	4147
919.383	4242
919.494	4432
919.604	4607
919.715	4440
919.826	4299
919.936	4344
920.047	4489
920.157	4497
920.267	4694
920.378	4584
920.488	4516
920.598	4664
920.708	4877
920.818	4725
920.928	4736
921.038	4999
921.148	4957
921.258	4634
921.368	4569
921.477	4497
921.587	4440
921.697	4333
921.806	4580
921.916	4489
922.025	4303
922.134	4299
922.244	4219
922.353	4303
922.462	4196
922.571	4154
922.68	4029
922.789	3968
922.898	4071
923.007	4002
923.116	4116
923.224	4051
923.333	4082
923.442	3979
923.55	3994
923.659	4044
923.767	4128
923.876	3979
923.984	4131
924.092	4051
924.201	4059
924.309	4071
924.417	4090
924.525	4044
924.633	4086
924.741	5094
924.849	3907
924.956	4158
925.064	3956
925.172	3884
925.279	3945
925.387	4078
925.494	4055
925.602	4242
925.709	4211
925.816	4006
925.924	4116
926.031	4234
926.138	4185
926.245	4200
926.352	4097
926.459	4287
926.566	4329
926.673	4150
926.779	4109
926.886	4086
926.993	4021
927.099	3975
927.206	3945
927.312	3956
927.419	4010
927.525	4021
927.631	4063
927.737	4013
927.843	3960
927.95	3880
928.056	3941
928.162	3945
928.267	4090
928.373	4668
928.479	4109
928.585	3850
928.69	3998
928.796	4055
928.901	3960
929.007	3842
929.112	4021
929.218	3960
929.323	3934
929.428	3918
929.533	4105
929.638	3888
929.743	3915
929.848	4063
929.953	4010
930.058	3922
930.163	3793
930.267	3846
930.372	4010
930.477	3812
930.581	4055
930.685	3956
930.79	3793
930.894	3865
930.998	3869
931.103	4044
931.207	3705
931.311	3713
931.415	3663
931.519	3515
931.623	3549
