Data from test_V78500241_1583.txt Node
Date: Fri Mar 25 17:00:00 CST 2022
User: usil
Spectrometer: V785-0024
Trigger mode: 0
Integration Time (sec): 4.000000E-1
Scans to average: 1
Nonlinearity correction enabled: false
Boxcar width: 0
Storing dark spectrum: false
XAxis mode: Wavelengths
Number of Pixels in Spectrum: 1024
>>>>>Begin Spectral Data<<<<<
801.071	7978
801.214	7955
801.356	7837
801.499	7852
801.641	7746
801.783	7822
801.926	7906
802.068	7921
802.211	8024
802.353	7932
802.496	7814
802.638	7849
802.78	7856
802.923	7921
803.065	7784
803.208	7852
803.35	8020
803.492	8073
803.635	8168
803.777	8008
803.919	8153
804.061	8431
804.204	8134
804.346	8012
804.488	7978
804.63	8172
804.773	8039
804.915	8134
805.057	8328
805.199	8176
805.341	8195
805.483	8229
805.626	8138
805.768	8107
805.91	8138
806.052	8145
806.194	8183
806.336	8225
806.478	8145
806.62	8020
806.762	8153
806.904	8271
807.046	8480
807.188	8377
807.33	8313
807.472	8309
807.614	8168
807.756	8202
807.898	7936
808.04	7894
808.182	7826
808.324	7875
808.465	7951
808.607	8054
808.749	8149
808.891	8149
809.033	8336
809.174	8229
809.316	8088
809.458	8035
809.6	7978
809.741	8054
809.883	7993
810.025	8027
810.166	8081
810.308	8020
810.45	8024
810.591	7837
810.733	7753
810.875	7666
811.016	7510
811.158	7491
811.299	7544
811.441	7715
811.582	7632
811.724	7578
811.865	7491
812.007	7624
812.148	7586
812.29	7636
812.431	7746
812.573	7883
812.714	7989
812.855	8088
812.997	8210
813.138	8309
813.279	8202
813.421	8069
813.562	7913
813.703	7837
813.845	7776
813.986	7449
814.127	7217
814.268	7209
814.41	7255
814.551	7145
814.692	7171
814.833	7076
814.974	7183
815.115	7042
815.256	6966
815.397	6943
815.539	6973
815.68	6795
815.821	6776
815.962	6825
816.103	6810
816.244	6684
816.385	6589
816.526	6585
816.666	6467
816.807	6327
816.948	6475
817.089	6479
817.23	6422
817.371	6323
817.512	6380
817.653	6376
817.793	6323
817.934	6418
818.075	6448
818.216	6467
818.356	6433
818.497	6243
818.638	6133
818.778	6129
818.919	6140
819.06	6140
819.2	6319
819.341	6365
819.481	6372
819.622	6498
819.762	6760
819.903	6707
820.043	6620
820.184	6582
820.324	6620
820.465	6620
820.605	6593
820.746	6593
820.886	6479
821.026	6703
821.167	6662
821.307	6783
821.447	6749
821.588	6642
821.728	6513
821.868	6502
822.008	6323
822.149	6353
822.289	6350
822.429	6182
822.569	6053
822.709	6057
822.849	5958
822.99	5904
823.13	5904
823.27	5901
823.41	5722
823.55	5828
823.69	5733
823.83	5748
823.97	5638
824.11	5482
824.25	5490
824.389	5535
824.529	5554
824.669	5558
824.809	5573
824.949	5646
825.089	5535
825.228	5570
825.368	5387
825.508	5349
825.648	5284
825.787	5353
825.927	5372
826.067	5254
826.206	5288
826.346	5326
826.485	5360
826.625	5429
826.765	5520
826.904	5459
827.044	5216
827.183	5124
827.323	5109
827.462	5250
827.601	5151
827.741	5162
827.88	5269
828.02	5155
828.159	5220
828.298	5277
828.437	5398
828.577	5269
828.716	5467
828.855	5280
828.994	5132
829.134	5113
829.273	5212
829.412	5132
829.551	5090
829.69	5117
829.829	5227
829.968	5395
830.107	5273
830.246	5337
830.385	5155
830.524	5162
830.663	5067
830.802	4942
830.941	4885
831.08	4835
831.219	4972
831.357	4991
831.496	5140
831.635	4930
831.774	4809
831.913	4835
832.051	4793
832.19	4714
832.329	4782
832.467	4714
832.606	4607
832.744	4683
832.883	4687
833.022	4683
833.16	4748
833.299	4820
833.437	4767
833.576	4793
833.714	4778
833.852	4858
833.991	4858
834.129	4934
834.267	4946
834.406	4877
834.544	4949
834.682	4915
834.821	4984
834.959	5143
835.097	5003
835.235	5151
835.373	5045
835.511	5102
835.65	4995
835.788	5033
835.926	4923
836.064	4847
836.202	4889
836.34	5124
836.478	5216
836.615	5105
836.753	5162
836.891	5265
837.029	5265
837.167	5197
837.305	5105
837.443	5121
837.58	5102
837.718	5227
837.856	5128
837.993	5105
838.131	5246
838.269	5197
838.406	5212
838.544	5216
838.681	4980
838.819	5003
838.956	4824
839.094	4915
839.231	4980
839.369	5083
839.506	5425
839.643	5201
839.781	5060
839.918	4961
840.055	5140
840.193	5105
840.33	5132
840.467	5147
840.604	5155
840.742	5425
840.879	5079
841.016	5121
841.153	5147
841.29	5337
841.427	5307
841.564	5318
841.701	5322
841.838	5246
841.975	5201
842.112	5280
842.249	5117
842.385	5124
842.522	5315
842.659	5143
842.796	5113
842.933	5147
843.069	5132
843.206	5083
843.343	5261
843.479	5231
843.616	5254
843.752	5018
843.889	4984
844.025	5193
844.162	4987
844.298	5178
844.435	5067
844.571	5033
844.708	5140
844.844	5235
844.98	5284
845.117	5280
845.253	5147
845.389	5064
845.525	5143
845.661	5166
845.798	4984
845.934	5109
846.07	5117
846.206	5193
846.342	5250
846.478	5162
846.614	4976
846.75	4949
846.886	4911
847.022	5136
847.158	4980
847.294	4999
847.429	5067
847.565	5029
847.701	5273
847.837	4835
847.972	4755
848.108	4923
848.244	4930
848.379	4725
848.515	4706
848.65	4702
848.786	4691
848.921	4748
849.057	4835
849.192	4858
849.328	4812
849.463	4755
849.598	4809
849.734	4793
849.869	4679
850.004	4603
850.14	4675
850.275	4592
850.41	4565
850.545	4554
850.68	4554
850.815	4630
850.95	4588
851.085	4850
851.22	4740
851.355	4691
851.49	4630
851.625	4641
851.76	4626
851.895	4504
852.03	4542
852.165	4618
852.299	4668
852.434	4782
852.569	4744
852.703	4767
852.838	4786
852.973	4930
853.107	4930
853.242	4744
853.376	4672
853.511	4573
853.645	4603
853.78	4782
853.914	4653
854.048	4664
854.183	4634
854.317	4687
854.451	4904
854.585	4645
854.72	4634
854.854	4714
854.988	4588
855.122	4641
855.256	4500
855.39	4656
855.524	4763
855.658	4698
855.792	4675
855.926	4729
856.06	4740
856.194	4771
856.327	4725
856.461	4580
856.595	4580
856.729	4645
856.862	4752
856.996	4694
857.13	4744
857.263	4725
857.397	4786
857.53	4641
857.664	4721
857.797	4752
857.931	4736
858.064	4687
858.197	4687
858.331	4634
858.464	4618
858.597	4538
858.731	4580
858.864	4634
858.997	4584
859.13	4668
859.263	4691
859.396	4706
859.529	4573
859.662	4569
859.795	4523
859.928	4626
860.061	4736
860.194	4721
860.327	4599
860.46	4554
860.592	4733
860.725	4733
860.858	4679
860.99	4672
861.123	4516
861.256	4508
861.388	4649
861.521	5220
861.653	4516
861.786	4447
861.918	4455
862.05	4500
862.183	4538
862.315	4554
862.447	4626
862.58	4538
862.712	4443
862.844	4337
862.976	4466
863.108	4436
863.24	4740
863.372	4322
863.504	4424
863.636	4352
863.768	4478
863.9	4424
864.032	4303
864.164	4405
864.296	4436
864.428	4542
864.559	4558
864.691	4493
864.823	4500
864.954	4527
865.086	4508
865.217	4421
865.349	4451
865.48	4459
865.612	4489
865.743	4599
865.875	4500
866.006	4417
866.137	4478
866.269	4428
866.4	4402
866.531	4424
866.662	4367
866.793	4405
866.924	4371
867.055	4497
867.186	4409
867.317	4398
867.448	4394
867.579	4398
867.71	4409
867.841	4371
867.972	4470
868.103	4440
868.233	4451
868.364	4451
868.495	4470
868.625	4656
868.756	4809
868.886	4550
869.017	4637
869.147	4725
869.278	4801
869.408	4630
869.539	4584
869.669	4740
869.799	4645
869.929	4706
870.06	4790
870.19	4915
870.32	4900
870.45	4953
870.58	5033
870.71	5079
870.84	5033
870.97	4946
871.1	4877
871.23	5109
871.36	5109
871.489	5018
871.619	5128
871.749	5140
871.879	5136
872.008	5136
872.138	5086
872.267	4942
872.397	4870
872.526	4774
872.656	4729
872.785	4782
872.915	4930
873.044	5052
873.173	4923
873.303	4953
873.432	4972
873.561	4927
873.69	4885
873.819	4839
873.948	4915
874.077	4797
874.206	4721
874.335	4812
874.464	4930
874.593	5029
874.722	4984
874.851	5105
874.979	5048
875.108	4991
875.237	4896
875.365	4847
875.494	4843
875.623	4953
875.751	4824
875.88	4885
876.008	5010
876.136	4999
876.265	5239
876.393	5311
876.521	5227
876.65	5193
876.778	5098
876.906	5086
877.034	4980
877.162	4995
877.29	4949
877.418	5041
877.546	5029
877.674	5018
877.802	5022
877.93	5071
878.058	4904
878.185	4881
878.313	4965
878.441	4896
878.568	4786
878.696	4828
878.824	4938
878.951	4984
879.079	5140
879.206	5239
879.333	5128
879.461	4965
879.588	4995
879.715	5102
879.842	5204
879.97	4980
880.097	4752
880.224	4778
880.351	4820
880.478	4812
880.605	4812
880.732	4809
880.859	5037
880.986	4892
881.112	4881
881.239	4782
881.366	4653
881.493	4649
881.619	4622
881.746	4641
881.872	4683
881.999	4653
882.125	4679
882.252	4740
882.378	4790
882.505	4946
882.631	4774
882.757	4664
882.883	4710
883.01	4698
883.136	4672
883.262	4516
883.388	4538
883.514	4839
883.64	4889
883.766	4797
883.892	4687
884.018	4611
884.143	4873
884.269	5018
884.395	4698
884.52	4634
884.646	4637
884.772	4584
884.897	4565
885.023	4645
885.148	4778
885.274	4858
885.399	4782
885.524	4702
885.65	4660
885.775	4759
885.9	4687
886.025	4858
886.15	4816
886.275	4714
886.4	4660
886.525	4675
886.65	4649
886.775	4706
886.9	4885
887.025	5003
887.149	4774
887.274	4637
887.399	4569
887.523	4596
887.648	4588
887.773	4546
887.897	4771
888.021	4847
888.146	4649
888.27	4774
888.395	4942
888.519	4812
888.643	4782
888.767	4786
888.891	4691
889.015	4554
889.139	4618
889.263	4626
889.387	4706
889.511	4870
889.635	4801
889.759	4660
889.883	4653
890.006	4702
890.13	4828
890.254	4664
890.377	4694
890.501	4550
890.624	4481
890.748	4649
890.871	4527
890.995	4398
891.118	4379
891.241	4489
891.364	4561
891.488	4622
891.611	4512
891.734	4565
891.857	4611
891.98	4550
892.103	4645
892.226	4611
892.349	4523
892.471	4352
892.594	4500
892.717	4592
892.839	4558
892.962	4565
893.085	4645
893.207	4634
893.33	4455
893.452	4538
893.575	4637
893.697	4588
893.819	4790
893.941	4812
894.064	4797
894.186	4535
894.308	4592
894.43	4790
894.552	4828
894.674	4759
894.796	4531
894.918	4584
895.04	4523
895.161	4725
895.283	4622
895.405	4596
895.526	4637
895.648	4748
895.769	4653
895.891	4672
896.012	4740
896.134	4736
896.255	4660
896.376	4656
896.498	4618
896.619	4694
896.74	4580
896.861	4626
896.982	4911
897.103	5060
897.224	4816
897.345	4759
897.466	4630
897.587	4740
897.708	4843
897.828	4767
897.949	4615
898.07	4550
898.19	4634
898.311	4843
898.431	4641
898.552	4706
898.672	4816
898.792	4797
898.913	4752
899.033	4637
899.153	4519
899.273	4417
899.393	4504
899.513	4538
899.633	4489
899.753	4542
899.873	4519
899.993	4561
900.113	4535
900.232	4554
900.352	4550
900.472	4504
900.591	4386
900.711	4516
900.83	4455
900.95	4565
901.069	4691
901.189	4523
901.308	4371
901.427	4299
901.546	4360
901.665	4459
901.784	4485
901.904	4371
902.023	4333
902.141	4196
902.26	4154
902.379	4314
902.498	4219
902.617	4215
902.735	4348
902.854	4352
902.973	4310
903.091	4215
903.21	4219
903.328	4280
903.446	4272
903.565	4265
903.683	4310
903.801	4272
903.919	4394
904.038	4409
904.156	4291
904.274	4413
904.392	4402
904.51	4428
904.627	4474
904.745	4554
904.863	4607
904.981	4405
905.098	4310
905.216	4341
905.334	4455
905.451	4413
905.569	4432
905.686	4538
905.803	4558
905.921	4417
906.038	4527
906.155	4424
906.272	4356
906.389	4489
906.506	4352
906.623	4322
906.74	4413
906.857	4325
906.974	4348
907.091	4535
907.208	4714
907.324	4569
907.441	4474
907.557	4333
907.674	4383
907.79	4265
907.907	4398
908.023	4462
908.139	4493
908.256	4421
908.372	4462
908.488	4447
908.604	4348
908.72	4322
908.836	4348
908.952	4371
909.068	4402
909.184	4531
909.3	4531
909.415	4550
909.531	4569
909.647	4341
909.762	4413
909.878	4371
909.993	4398
910.108	4394
910.224	4375
910.339	4462
910.454	4371
910.57	4337
910.685	4310
910.8	4679
910.915	4561
911.03	4508
911.145	4325
911.259	4329
911.374	4371
911.489	4249
911.604	4272
911.718	4124
911.833	4181
911.947	4090
912.062	4105
912.176	4223
912.291	4284
912.405	4265
912.519	4500
912.633	4523
912.748	4360
912.862	4303
912.976	4223
913.09	4135
913.204	4158
913.318	4238
913.431	4322
913.545	4367
913.659	4375
913.772	4318
913.886	4223
914	4261
914.113	4352
914.226	4383
914.34	4394
914.453	4230
914.566	4371
914.68	4329
914.793	4341
914.906	4135
915.019	4109
915.132	4036
915.245	4181
915.358	4200
915.47	4242
915.583	4272
915.696	4284
915.809	4352
915.921	4417
916.034	4223
916.146	4204
916.259	4249
916.371	4386
916.483	4371
916.595	4261
916.708	4284
916.82	4306
916.932	4306
917.044	4325
917.156	4318
917.268	4268
917.38	4276
917.491	4276
917.603	4337
917.715	4402
917.826	4432
917.938	4371
918.049	4257
918.161	4386
918.272	4493
918.384	4440
918.495	4405
918.606	4299
918.717	4196
918.828	4352
918.939	4360
919.05	4249
919.161	4344
919.272	4162
919.383	4242
919.494	4409
919.604	4622
919.715	4413
919.826	4329
919.936	4360
920.047	4554
920.157	4481
920.267	4691
920.378	4592
920.488	4481
920.598	4710
920.708	4930
920.818	4740
920.928	4729
921.038	4938
921.148	4938
921.258	4634
921.368	4558
921.477	4519
921.587	4436
921.697	4348
921.806	4508
921.916	4405
922.025	4272
922.134	4207
922.244	4211
922.353	4303
922.462	4154
922.571	4090
922.68	3979
922.789	3998
922.898	4036
923.007	3960
923.116	4116
923.224	4093
923.333	4048
923.442	3994
923.55	3949
923.659	4025
923.767	4105
923.876	3994
923.984	4166
924.092	3994
924.201	4063
924.309	4101
924.417	4154
924.525	4006
924.633	4116
924.741	4881
924.849	3857
924.956	4128
925.064	3953
925.172	3888
925.279	3949
925.387	4048
925.494	4040
925.602	4227
925.709	4154
925.816	4036
925.924	4116
926.031	4223
926.138	4128
926.245	4234
926.352	4059
926.459	4181
926.566	4284
926.673	4158
926.779	4036
926.886	4059
926.993	3979
927.099	3968
927.206	3934
927.312	3934
927.419	4013
927.525	4017
927.631	4051
927.737	3968
927.843	3953
927.95	3827
928.056	3926
928.162	3964
928.267	4071
928.373	4573
928.479	4158
928.585	3903
928.69	4013
928.796	4059
928.901	3956
929.007	3827
929.112	4010
929.218	3983
929.323	3937
929.428	3964
929.533	4063
929.638	3876
929.743	3964
929.848	4025
929.953	3983
930.058	3918
930.163	3781
930.267	3812
930.372	3983
930.477	3838
930.581	4086
930.685	3945
930.79	3838
930.894	3903
930.998	3842
931.103	4025
931.207	3675
931.311	3686
931.415	3637
931.519	3511
931.623	3557
