Data from test_V78500241_56.txt Node
Date: Fri Mar 25 16:49:23 CST 2022
User: usil
Spectrometer: V785-0024
Trigger mode: 0
Integration Time (sec): 4.000000E-1
Scans to average: 1
Nonlinearity correction enabled: false
Boxcar width: 0
Storing dark spectrum: false
XAxis mode: Wavelengths
Number of Pixels in Spectrum: 1024
>>>>>Begin Spectral Data<<<<<
801.071	8088
801.214	8065
801.356	7940
801.499	7947
801.641	7841
801.783	7894
801.926	8024
802.068	7982
802.211	8008
802.353	8043
802.496	7959
802.638	7997
802.78	8001
802.923	7997
803.065	7898
803.208	7852
803.35	7993
803.492	8123
803.635	8149
803.777	8016
803.919	8046
804.061	8492
804.204	8142
804.346	8035
804.488	8001
804.63	8111
804.773	8016
804.915	8115
805.057	8290
805.199	8183
805.341	8252
805.483	8309
805.626	8206
805.768	8145
805.91	8199
806.052	8233
806.194	8149
806.336	8294
806.478	8218
806.62	8161
806.762	8229
806.904	8286
807.046	8484
807.188	8427
807.33	8317
807.472	8301
807.614	8206
807.756	8218
807.898	7989
808.04	7944
808.182	7955
808.324	7913
808.465	7944
808.607	8054
808.749	8214
808.891	8218
809.033	8252
809.174	8252
809.316	8115
809.458	8073
809.6	8031
809.741	7967
809.883	8107
810.025	8103
810.166	8092
810.308	8065
810.45	8043
810.591	7879
810.733	7738
810.875	7712
811.016	7525
811.158	7499
811.299	7639
811.441	7750
811.582	7753
811.724	7636
811.865	7616
812.007	7708
812.148	7647
812.29	7643
812.431	7807
812.573	7887
812.714	8035
812.855	8191
812.997	8282
813.138	8377
813.279	8229
813.421	8149
813.562	7989
813.703	7887
813.845	7738
813.986	7552
814.127	7350
814.268	7236
814.41	7236
814.551	7217
814.692	7232
814.833	7133
814.974	7152
815.115	7118
815.256	6970
815.397	6928
815.539	6913
815.68	6757
815.821	6787
815.962	6863
816.103	6837
816.244	6772
816.385	6601
816.526	6707
816.666	6525
816.807	6353
816.948	6502
817.089	6467
817.23	6441
817.371	6464
817.512	6414
817.653	6388
817.793	6372
817.934	6410
818.075	6456
818.216	6464
818.356	6479
818.497	6300
818.638	6152
818.778	6213
818.919	6194
819.06	6213
819.2	6323
819.341	6334
819.481	6365
819.622	6536
819.762	6741
819.903	6703
820.043	6684
820.184	6642
820.324	6612
820.465	6688
820.605	6684
820.746	6662
820.886	6559
821.026	6642
821.167	6696
821.307	6848
821.447	6783
821.588	6692
821.728	6623
821.868	6525
822.008	6391
822.149	6460
822.289	6403
822.429	6273
822.569	6060
822.709	6186
822.849	6019
822.99	5908
823.13	5942
823.27	5942
823.41	5874
823.55	5813
823.69	5824
823.83	5870
823.97	5733
824.11	5592
824.25	5532
824.389	5589
824.529	5653
824.669	5600
824.809	5653
824.949	5691
825.089	5649
825.228	5619
825.368	5463
825.508	5417
825.648	5330
825.787	5395
825.927	5406
826.067	5360
826.206	5330
826.346	5444
826.485	5459
826.625	5425
826.765	5539
826.904	5532
827.044	5299
827.183	5250
827.323	5181
827.462	5330
827.601	5239
827.741	5254
827.88	5284
828.02	5155
828.159	5299
828.298	5315
828.437	5368
828.577	5330
828.716	5528
828.855	5379
828.994	5231
829.134	5170
829.273	5246
829.412	5197
829.551	5140
829.69	5220
829.829	5288
829.968	5414
830.107	5322
830.246	5292
830.385	5250
830.524	5178
830.663	5113
830.802	5056
830.941	4961
831.08	4987
831.219	5018
831.357	5029
831.496	5208
831.635	5060
831.774	4889
831.913	4923
832.051	4839
832.19	4850
832.329	4892
832.467	4763
832.606	4721
832.744	4820
832.883	4828
833.022	4774
833.16	4858
833.299	4972
833.437	4900
833.576	4930
833.714	4953
833.852	4915
833.991	4991
834.129	5071
834.267	5003
834.406	4984
834.544	5071
834.682	5071
834.821	5010
834.959	5242
835.097	5060
835.235	5220
835.373	5121
835.511	5159
835.65	5151
835.788	5090
835.926	4961
836.064	4976
836.202	4968
836.34	5216
836.478	5303
836.615	5170
836.753	5292
836.891	5357
837.029	5341
837.167	5284
837.305	5197
837.443	5216
837.58	5178
837.718	5307
837.856	5265
837.993	5231
838.131	5315
838.269	5269
838.406	5269
838.544	5250
838.681	5109
838.819	5132
838.956	4991
839.094	4949
839.231	5090
839.369	5159
839.506	5520
839.643	5273
839.781	5117
839.918	5086
840.055	5132
840.193	5102
840.33	5170
840.467	5208
840.604	5322
840.742	5501
840.879	5189
841.016	5178
841.153	5246
841.29	5425
841.427	5383
841.564	5455
841.701	5459
841.838	5368
841.975	5284
842.112	5372
842.249	5258
842.385	5166
842.522	5402
842.659	5239
842.796	5307
842.933	5269
843.069	5212
843.206	5204
843.343	5372
843.479	5315
843.616	5337
843.752	5071
843.889	5060
844.025	5303
844.162	5086
844.298	5284
844.435	5132
844.571	5121
844.708	5242
844.844	5376
844.98	5436
845.117	5398
845.253	5239
845.389	5132
845.525	5208
845.661	5239
845.798	5159
845.934	5208
846.07	5121
846.206	5258
846.342	5368
846.478	5273
846.614	5102
846.75	5025
846.886	5014
847.022	5242
847.158	5105
847.294	5128
847.429	5166
847.565	5140
847.701	5406
847.837	4987
847.972	4889
848.108	5037
848.244	5018
848.379	4847
848.515	4793
848.65	4767
848.786	4835
848.921	4843
849.057	4896
849.192	4972
849.328	4892
849.463	4896
849.598	4877
849.734	4850
849.869	4786
850.004	4687
850.14	4729
850.275	4683
850.41	4573
850.545	4702
850.68	4683
850.815	4664
850.95	4664
851.085	4927
851.22	4771
851.355	4717
851.49	4725
851.625	4649
851.76	4706
851.895	4618
852.03	4573
852.165	4702
852.299	4729
852.434	4809
852.569	4790
852.703	4805
852.838	4900
852.973	4987
853.107	4991
853.242	4748
853.376	4725
853.511	4611
853.645	4698
853.78	4809
853.914	4809
854.048	4740
854.183	4675
854.317	4774
854.451	4930
854.585	4706
854.72	4687
854.854	4858
854.988	4656
855.122	4710
855.256	4569
855.39	4740
855.524	4858
855.658	4881
855.792	4755
855.926	4786
856.06	4839
856.194	4850
856.327	4721
856.461	4668
856.595	4672
856.729	4717
856.862	4831
856.996	4812
857.13	4786
857.263	4835
857.397	4873
857.53	4698
857.664	4858
857.797	4809
857.931	4850
858.064	4801
858.197	4824
858.331	4733
858.464	4683
858.597	4577
858.731	4687
858.864	4698
858.997	4664
859.13	4672
859.263	4740
859.396	4805
859.529	4656
859.662	4618
859.795	4607
859.928	4679
860.061	4778
860.194	4889
860.327	4603
860.46	4687
860.592	4752
860.725	4786
860.858	4763
860.99	4653
861.123	4584
861.256	4554
861.388	4710
861.521	5364
861.653	4538
861.786	4478
861.918	4512
862.05	4622
862.183	4592
862.315	4668
862.447	4717
862.58	4580
862.712	4470
862.844	4371
862.976	4504
863.108	4523
863.24	4908
863.372	4409
863.504	4489
863.636	4470
863.768	4554
863.9	4485
864.032	4428
864.164	4481
864.296	4497
864.428	4637
864.559	4645
864.691	4588
864.823	4596
864.954	4542
865.086	4554
865.217	4527
865.349	4478
865.48	4523
865.612	4535
865.743	4691
865.875	4531
866.006	4504
866.137	4580
866.269	4512
866.4	4485
866.531	4500
866.662	4462
866.793	4462
866.924	4443
867.055	4535
867.186	4542
867.317	4459
867.448	4424
867.579	4474
867.71	4421
867.841	4462
867.972	4497
868.103	4489
868.233	4531
868.364	4489
868.495	4554
868.625	4759
868.756	4843
868.886	4641
869.017	4691
869.147	4839
869.278	4858
869.408	4729
869.539	4721
869.669	4774
869.799	4714
869.929	4801
870.06	4793
870.19	5048
870.32	4991
870.45	4953
870.58	5048
870.71	5197
870.84	5189
870.97	5037
871.1	4946
871.23	5185
871.36	5193
871.489	5067
871.619	5162
871.749	5174
871.879	5201
872.008	5204
872.138	5178
872.267	5018
872.397	4911
872.526	4885
872.656	4786
872.785	4862
872.915	5041
873.044	5109
873.173	4980
873.303	5052
873.432	4984
873.561	5075
873.69	4946
873.819	4930
873.948	4984
874.077	4873
874.206	4873
874.335	4881
874.464	4991
874.593	5113
874.722	5041
874.851	5147
874.979	5121
875.108	5094
875.237	4949
875.365	4949
875.494	4930
875.623	4999
875.751	4858
875.88	4965
876.008	5064
876.136	5102
876.265	5284
876.393	5372
876.521	5280
876.65	5254
876.778	5201
876.906	5170
877.034	5090
877.162	5124
877.29	5003
877.418	5128
877.546	5102
877.674	5037
877.802	5022
877.93	5071
878.058	4972
878.185	4938
878.313	5029
878.441	4976
878.568	4866
878.696	4900
878.824	5037
878.951	5075
879.079	5170
879.206	5345
879.333	5170
879.461	5041
879.588	5052
879.715	5140
879.842	5311
879.97	5037
880.097	4839
880.224	4820
880.351	4870
880.478	4885
880.605	4847
880.732	4858
880.859	5181
880.986	4946
881.112	4961
881.239	4824
881.366	4725
881.493	4675
881.619	4637
881.746	4710
881.872	4702
881.999	4679
882.125	4790
882.252	4847
882.378	4877
882.505	5048
882.631	4896
882.757	4717
882.883	4824
883.01	4816
883.136	4744
883.262	4615
883.388	4637
883.514	4900
883.64	4942
883.766	4839
883.892	4767
884.018	4736
884.143	4972
884.269	5083
884.395	4717
884.52	4733
884.646	4721
884.772	4630
884.897	4637
885.023	4744
885.148	4839
885.274	4908
885.399	4877
885.524	4782
885.65	4771
885.775	4828
885.9	4759
886.025	4961
886.15	4828
886.275	4759
886.4	4702
886.525	4809
886.65	4725
886.775	4721
886.9	4987
887.025	5083
887.149	4843
887.274	4729
887.399	4622
887.523	4634
887.648	4599
887.773	4580
887.897	4820
888.021	4889
888.146	4725
888.27	4870
888.395	4930
888.519	4862
888.643	4854
888.767	4900
888.891	4702
889.015	4672
889.139	4721
889.263	4645
889.387	4763
889.511	4930
889.635	4877
889.759	4721
889.883	4721
890.006	4790
890.13	4870
890.254	4683
890.377	4710
890.501	4615
890.624	4573
890.748	4622
890.871	4538
890.995	4504
891.118	4443
891.241	4516
891.364	4596
891.488	4691
891.611	4493
891.734	4592
891.857	4653
891.98	4656
892.103	4702
892.226	4664
892.349	4603
892.471	4478
892.594	4538
892.717	4687
892.839	4577
892.962	4653
893.085	4710
893.207	4645
893.33	4508
893.452	4546
893.575	4721
893.697	4649
893.819	4835
893.941	4885
894.064	4816
894.186	4675
894.308	4542
894.43	4797
894.552	4877
894.674	4793
894.796	4596
894.918	4672
895.04	4611
895.161	4744
895.283	4706
895.405	4653
895.526	4698
895.648	4710
895.769	4729
895.891	4801
896.012	4797
896.134	4767
896.255	4744
896.376	4664
896.498	4668
896.619	4736
896.74	4637
896.861	4698
896.982	4987
897.103	5113
897.224	4881
897.345	4801
897.466	4714
897.587	4767
897.708	4870
897.828	4805
897.949	4733
898.07	4588
898.19	4729
898.311	4873
898.431	4706
898.552	4759
898.672	4896
898.792	4850
898.913	4778
899.033	4694
899.153	4580
899.273	4459
899.393	4596
899.513	4596
899.633	4573
899.753	4561
899.873	4565
899.993	4577
900.113	4577
900.232	4622
900.352	4599
900.472	4523
900.591	4459
900.711	4550
900.83	4474
900.95	4645
901.069	4748
901.189	4580
901.308	4447
901.427	4344
901.546	4424
901.665	4508
901.784	4561
901.904	4474
902.023	4375
902.141	4215
902.26	4196
902.379	4386
902.498	4265
902.617	4261
902.735	4459
902.854	4421
902.973	4428
903.091	4249
903.21	4287
903.328	4363
903.446	4295
903.565	4322
903.683	4402
903.801	4360
903.919	4474
904.038	4428
904.156	4325
904.274	4500
904.392	4443
904.51	4443
904.627	4558
904.745	4656
904.863	4744
904.981	4451
905.098	4352
905.216	4398
905.334	4440
905.451	4485
905.569	4470
905.686	4622
905.803	4618
905.921	4500
906.038	4535
906.155	4546
906.272	4440
906.389	4504
906.506	4383
906.623	4409
906.74	4466
906.857	4375
906.974	4451
907.091	4588
907.208	4736
907.324	4679
907.441	4535
907.557	4386
907.674	4390
907.79	4333
907.907	4474
908.023	4535
908.139	4527
908.256	4470
908.372	4497
908.488	4478
908.604	4398
908.72	4352
908.836	4443
908.952	4440
909.068	4447
909.184	4634
909.3	4538
909.415	4599
909.531	4622
909.647	4436
909.762	4443
909.878	4367
909.993	4459
910.108	4470
910.224	4440
910.339	4577
910.454	4451
910.57	4386
910.685	4356
910.8	4698
910.915	4630
911.03	4535
911.145	4379
911.259	4363
911.374	4375
911.489	4299
911.604	4310
911.718	4192
911.833	4234
911.947	4116
912.062	4071
912.176	4238
912.291	4284
912.405	4322
912.519	4561
912.633	4512
912.748	4417
912.862	4390
912.976	4227
913.09	4154
913.204	4181
913.318	4329
913.431	4424
913.545	4447
913.659	4447
913.772	4402
913.886	4314
914	4265
914.113	4402
914.226	4504
914.34	4436
914.453	4325
914.566	4447
914.68	4383
914.793	4303
914.906	4242
915.019	4177
915.132	4124
915.245	4238
915.358	4261
915.47	4246
915.583	4341
915.696	4337
915.809	4440
915.921	4443
916.034	4314
916.146	4230
916.259	4276
916.371	4394
916.483	4428
916.595	4325
916.708	4360
916.82	4421
916.932	4383
917.044	4352
917.156	4424
917.268	4310
917.38	4291
917.491	4287
917.603	4371
917.715	4451
917.826	4493
917.938	4421
918.049	4329
918.161	4451
918.272	4550
918.384	4607
918.495	4500
918.606	4314
918.717	4299
918.828	4367
918.939	4390
919.05	4303
919.161	4367
919.272	4192
919.383	4306
919.494	4489
919.604	4706
919.715	4470
919.826	4405
919.936	4428
920.047	4607
920.157	4500
920.267	4733
920.378	4592
920.488	4592
920.598	4797
920.708	4927
920.818	4797
920.928	4782
921.038	5033
921.148	4908
921.258	4641
921.368	4611
921.477	4546
921.587	4519
921.697	4383
921.806	4611
921.916	4440
922.025	4318
922.134	4291
922.244	4238
922.353	4390
922.462	4272
922.571	4166
922.68	4040
922.789	4013
922.898	4097
923.007	4044
923.116	4131
923.224	4093
923.333	4124
923.442	4055
923.55	4036
923.659	4105
923.767	4116
923.876	4036
923.984	4169
924.092	4036
924.201	4059
924.309	4162
924.417	4166
924.525	4120
924.633	4135
924.741	5071
924.849	3960
924.956	4124
925.064	3998
925.172	3930
925.279	4055
925.387	4097
925.494	4082
925.602	4261
925.709	4295
925.816	4059
925.924	4177
926.031	4284
926.138	4219
926.245	4219
926.352	4207
926.459	4291
926.566	4341
926.673	4204
926.779	4162
926.886	4143
926.993	3998
927.099	3987
927.206	3953
927.312	3930
927.419	4097
927.525	4021
927.631	4147
927.737	4013
927.843	3983
927.95	3857
928.056	3979
928.162	3983
928.267	4131
928.373	4717
928.479	4192
928.585	3880
928.69	4090
928.796	4124
928.901	3987
929.007	3918
929.112	4013
929.218	3972
929.323	3930
929.428	4036
929.533	4158
929.638	3964
929.743	3972
929.848	4055
929.953	4063
930.058	3945
930.163	3819
930.267	3888
930.372	4021
930.477	3884
930.581	4143
930.685	3983
930.79	3857
930.894	3915
930.998	3888
931.103	4082
931.207	3751
931.311	3686
931.415	3694
931.519	3549
931.623	3564
