Data from test_V78500241_296.txt Node
Date: Fri Mar 25 16:51:03 CST 2022
User: usil
Spectrometer: V785-0024
Trigger mode: 0
Integration Time (sec): 4.000000E-1
Scans to average: 1
Nonlinearity correction enabled: false
Boxcar width: 0
Storing dark spectrum: false
XAxis mode: Wavelengths
Number of Pixels in Spectrum: 1024
>>>>>Begin Spectral Data<<<<<
801.071	8092
801.214	8062
801.356	7890
801.499	7898
801.641	7799
801.783	7811
801.926	7967
802.068	7982
802.211	7967
802.353	7982
802.496	7868
802.638	8001
802.78	7997
802.923	7978
803.065	7883
803.208	7837
803.35	7932
803.492	8073
803.635	8142
803.777	7894
803.919	8077
804.061	8476
804.204	8145
804.346	8103
804.488	7986
804.63	8123
804.773	7978
804.915	8107
805.057	8263
805.199	8138
805.341	8138
805.483	8305
805.626	8145
805.768	8161
805.91	8164
806.052	8119
806.194	8103
806.336	8339
806.478	8142
806.62	8092
806.762	8168
806.904	8202
807.046	8427
807.188	8301
807.33	8282
807.472	8256
807.614	8187
807.756	8138
807.898	7974
808.04	7879
808.182	7890
808.324	7864
808.465	7928
808.607	8092
808.749	8126
808.891	8259
809.033	8214
809.174	8218
809.316	8050
809.458	8012
809.6	8020
809.741	8035
809.883	7970
810.025	8073
810.166	8058
810.308	8043
810.45	8058
810.591	7928
810.733	7723
810.875	7639
811.016	7480
811.158	7495
811.299	7647
811.441	7753
811.582	7670
811.724	7636
811.865	7590
812.007	7674
812.148	7605
812.29	7628
812.431	7811
812.573	7875
812.714	7936
812.855	8111
812.997	8252
813.138	8290
813.279	8142
813.421	8077
813.562	8031
813.703	7906
813.845	7734
813.986	7487
814.127	7221
814.268	7225
814.41	7232
814.551	7141
814.692	7156
814.833	7072
814.974	7107
815.115	7133
815.256	6943
815.397	6905
815.539	6916
815.68	6818
815.821	6783
815.962	6852
816.103	6821
816.244	6734
816.385	6612
816.526	6669
816.666	6517
816.807	6369
816.948	6433
817.089	6479
817.23	6422
817.371	6361
817.512	6369
817.653	6426
817.793	6410
817.934	6422
818.075	6486
818.216	6445
818.356	6437
818.497	6228
818.638	6148
818.778	6175
818.919	6106
819.06	6129
819.2	6304
819.341	6331
819.481	6331
819.622	6517
819.762	6662
819.903	6681
820.043	6616
820.184	6551
820.324	6616
820.465	6703
820.605	6593
820.746	6608
820.886	6483
821.026	6707
821.167	6696
821.307	6833
821.447	6726
821.588	6662
821.728	6540
821.868	6502
822.008	6350
822.149	6319
822.289	6350
822.429	6194
822.569	6098
822.709	6102
822.849	5931
822.99	5870
823.13	5961
823.27	5950
823.41	5729
823.55	5802
823.69	5764
823.83	5771
823.97	5653
824.11	5611
824.25	5516
824.389	5592
824.529	5577
824.669	5493
824.809	5623
824.949	5657
825.089	5600
825.228	5562
825.368	5360
825.508	5360
825.648	5334
825.787	5360
825.927	5391
826.067	5357
826.206	5307
826.346	5391
826.485	5372
826.625	5410
826.765	5547
826.904	5497
827.044	5197
827.183	5250
827.323	5102
827.462	5292
827.601	5212
827.741	5170
827.88	5204
828.02	5143
828.159	5265
828.298	5303
828.437	5353
828.577	5318
828.716	5482
828.855	5235
828.994	5109
829.134	5124
829.273	5193
829.412	5109
829.551	5174
829.69	5178
829.829	5242
829.968	5360
830.107	5318
830.246	5235
830.385	5181
830.524	5155
830.663	5064
830.802	4995
830.941	4885
831.08	4896
831.219	4934
831.357	5014
831.496	5193
831.635	4911
831.774	4877
831.913	4889
832.051	4725
832.19	4736
832.329	4824
832.467	4687
832.606	4710
832.744	4717
832.883	4675
833.022	4729
833.16	4831
833.299	4782
833.437	4797
833.576	4809
833.714	4839
833.852	4862
833.991	4877
834.129	4957
834.267	4957
834.406	4873
834.544	4961
834.682	4972
834.821	4968
834.959	5193
835.097	4995
835.235	5193
835.373	5075
835.511	5140
835.65	5022
835.788	4957
835.926	4915
836.064	4862
836.202	4957
836.34	5162
836.478	5250
836.615	5128
836.753	5235
836.891	5296
837.029	5231
837.167	5220
837.305	5136
837.443	5124
837.58	5075
837.718	5254
837.856	5208
837.993	5174
838.131	5292
838.269	5239
838.406	5197
838.544	5193
838.681	5048
838.819	5003
838.956	4908
839.094	4908
839.231	5037
839.369	5143
839.506	5402
839.643	5292
839.781	5071
839.918	5006
840.055	5083
840.193	5136
840.33	5102
840.467	5170
840.604	5185
840.742	5425
840.879	5098
841.016	5098
841.153	5185
841.29	5318
841.427	5337
841.564	5334
841.701	5353
841.838	5307
841.975	5220
842.112	5246
842.249	5166
842.385	5067
842.522	5258
842.659	5159
842.796	5151
842.933	5223
843.069	5170
843.206	5140
843.343	5307
843.479	5254
843.616	5296
843.752	5109
843.889	5022
844.025	5227
844.162	5025
844.298	5265
844.435	5117
844.571	5109
844.708	5227
844.844	5292
844.98	5261
845.117	5334
845.253	5151
845.389	5064
845.525	5166
845.661	5136
845.798	5022
845.934	5105
846.07	5048
846.206	5155
846.342	5254
846.478	5197
846.614	4987
846.75	4957
846.886	4927
847.022	5132
847.158	5003
847.294	5075
847.429	5121
847.565	5071
847.701	5307
847.837	4889
847.972	4809
848.108	4949
848.244	4946
848.379	4816
848.515	4717
848.65	4729
848.786	4778
848.921	4790
849.057	4896
849.192	4892
849.328	4812
849.463	4911
849.598	4763
849.734	4763
849.869	4687
850.004	4645
850.14	4664
850.275	4615
850.41	4573
850.545	4550
850.68	4588
850.815	4588
850.95	4660
851.085	4881
851.22	4721
851.355	4679
851.49	4615
851.625	4637
851.76	4664
851.895	4538
852.03	4542
852.165	4679
852.299	4740
852.434	4771
852.569	4740
852.703	4790
852.838	4889
852.973	4934
853.107	4881
853.242	4702
853.376	4691
853.511	4538
853.645	4645
853.78	4820
853.914	4717
854.048	4641
854.183	4706
854.317	4706
854.451	4870
854.585	4656
854.72	4645
854.854	4736
854.988	4569
855.122	4698
855.256	4523
855.39	4649
855.524	4816
855.658	4790
855.792	4694
855.926	4736
856.06	4725
856.194	4793
856.327	4698
856.461	4527
856.595	4603
856.729	4645
856.862	4748
856.996	4664
857.13	4710
857.263	4797
857.397	4797
857.53	4645
857.664	4717
857.797	4790
857.931	4797
858.064	4668
858.197	4782
858.331	4630
858.464	4588
858.597	4569
858.731	4634
858.864	4645
858.997	4588
859.13	4622
859.263	4656
859.396	4717
859.529	4565
859.662	4573
859.795	4565
859.928	4607
860.061	4767
860.194	4782
860.327	4592
860.46	4592
860.592	4717
860.725	4744
860.858	4729
860.99	4565
861.123	4531
861.256	4538
861.388	4611
861.521	5292
861.653	4519
861.786	4466
861.918	4451
862.05	4561
862.183	4565
862.315	4649
862.447	4672
862.58	4554
862.712	4462
862.844	4348
862.976	4462
863.108	4474
863.24	4896
863.372	4352
863.504	4402
863.636	4398
863.768	4474
863.9	4485
864.032	4367
864.164	4421
864.296	4493
864.428	4523
864.559	4569
864.691	4535
864.823	4542
864.954	4493
865.086	4531
865.217	4474
865.349	4466
865.48	4474
865.612	4443
865.743	4691
865.875	4489
866.006	4447
866.137	4500
866.269	4440
866.4	4470
866.531	4436
866.662	4398
866.793	4428
866.924	4421
867.055	4500
867.186	4500
867.317	4443
867.448	4383
867.579	4383
867.71	4409
867.841	4325
867.972	4451
868.103	4451
868.233	4417
868.364	4451
868.495	4485
868.625	4668
868.756	4771
868.886	4607
869.017	4615
869.147	4755
869.278	4774
869.408	4656
869.539	4664
869.669	4729
869.799	4687
869.929	4793
870.06	4679
870.19	4991
870.32	4930
870.45	4949
870.58	4999
870.71	5136
870.84	5105
870.97	4949
871.1	4881
871.23	5136
871.36	5155
871.489	5006
871.619	5086
871.749	5083
871.879	5102
872.008	5197
872.138	5064
872.267	4980
872.397	4809
872.526	4828
872.656	4763
872.785	4816
872.915	4949
873.044	5022
873.173	4976
873.303	5010
873.432	4972
873.561	5003
873.69	4915
873.819	4854
873.948	4870
874.077	4812
874.206	4767
874.335	4790
874.464	4965
874.593	5025
874.722	4942
874.851	5079
874.979	5102
875.108	5083
875.237	4889
875.365	4908
875.494	4828
875.623	4991
875.751	4870
875.88	4854
876.008	4984
876.136	5029
876.265	5227
876.393	5284
876.521	5261
876.65	5220
876.778	5189
876.906	5067
877.034	5014
877.162	5056
877.29	5018
877.418	5018
877.546	5117
877.674	4949
877.802	5025
877.93	5022
878.058	4946
878.185	4870
878.313	4957
878.441	4923
878.568	4797
878.696	4835
878.824	4957
878.951	5037
879.079	5140
879.206	5288
879.333	5105
879.461	4968
879.588	5045
879.715	5136
879.842	5277
879.97	5003
880.097	4805
880.224	4759
880.351	4778
880.478	4858
880.605	4778
880.732	4820
880.859	5048
880.986	4927
881.112	4984
881.239	4809
881.366	4656
881.493	4637
881.619	4596
881.746	4687
881.872	4683
881.999	4599
882.125	4691
882.252	4793
882.378	4816
882.505	4965
882.631	4828
882.757	4622
882.883	4717
883.01	4771
883.136	4683
883.262	4660
883.388	4615
883.514	4801
883.64	4889
883.766	4793
883.892	4694
884.018	4714
884.143	4843
884.269	4991
884.395	4714
884.52	4672
884.646	4637
884.772	4542
884.897	4596
885.023	4668
885.148	4843
885.274	4885
885.399	4793
885.524	4714
885.65	4645
885.775	4702
885.9	4733
886.025	4866
886.15	4778
886.275	4714
886.4	4668
886.525	4706
886.65	4664
886.775	4694
886.9	4915
887.025	5067
887.149	4790
887.274	4649
887.399	4588
887.523	4630
887.648	4580
887.773	4599
887.897	4786
888.021	4763
888.146	4675
888.27	4850
888.395	4900
888.519	4831
888.643	4854
888.767	4877
888.891	4675
889.015	4611
889.139	4668
889.263	4596
889.387	4759
889.511	4854
889.635	4786
889.759	4687
889.883	4706
890.006	4740
890.13	4820
890.254	4611
890.377	4664
890.501	4546
890.624	4504
890.748	4672
890.871	4531
890.995	4428
891.118	4409
891.241	4493
891.364	4542
891.488	4656
891.611	4485
891.734	4565
891.857	4596
891.98	4538
892.103	4653
892.226	4592
892.349	4459
892.471	4459
892.594	4542
892.717	4626
892.839	4634
892.962	4603
893.085	4672
893.207	4588
893.33	4462
893.452	4531
893.575	4668
893.697	4577
893.819	4835
893.941	4831
894.064	4771
894.186	4592
894.308	4599
894.43	4774
894.552	4843
894.674	4797
894.796	4565
894.918	4599
895.04	4573
895.161	4698
895.283	4679
895.405	4573
895.526	4637
895.648	4679
895.769	4687
895.891	4729
896.012	4744
896.134	4717
896.255	4679
896.376	4630
896.498	4641
896.619	4691
896.74	4618
896.861	4645
896.982	4949
897.103	5060
897.224	4889
897.345	4786
897.466	4664
897.587	4702
897.708	4847
897.828	4759
897.949	4675
898.07	4565
898.19	4637
898.311	4828
898.431	4656
898.552	4729
898.672	4904
898.792	4782
898.913	4752
899.033	4626
899.153	4516
899.273	4451
899.393	4493
899.513	4550
899.633	4523
899.753	4573
899.873	4516
899.993	4588
900.113	4573
900.232	4580
900.352	4554
900.472	4500
900.591	4443
900.711	4497
900.83	4493
900.95	4573
901.069	4740
901.189	4535
901.308	4405
901.427	4329
901.546	4409
901.665	4451
901.784	4519
901.904	4386
902.023	4303
902.141	4177
902.26	4169
902.379	4299
902.498	4261
902.617	4265
902.735	4375
902.854	4409
902.973	4325
903.091	4207
903.21	4219
903.328	4318
903.446	4295
903.565	4268
903.683	4371
903.801	4280
903.919	4383
904.038	4413
904.156	4303
904.274	4451
904.392	4424
904.51	4424
904.627	4508
904.745	4592
904.863	4634
904.981	4367
905.098	4333
905.216	4367
905.334	4443
905.451	4474
905.569	4459
905.686	4519
905.803	4580
905.921	4371
906.038	4531
906.155	4474
906.272	4394
906.389	4424
906.506	4325
906.623	4363
906.74	4379
906.857	4333
906.974	4379
907.091	4592
907.208	4691
907.324	4592
907.441	4519
907.557	4367
907.674	4352
907.79	4325
907.907	4394
908.023	4493
908.139	4478
908.256	4436
908.372	4500
908.488	4462
908.604	4379
908.72	4295
908.836	4367
908.952	4394
909.068	4474
909.184	4565
909.3	4462
909.415	4569
909.531	4527
909.647	4363
909.762	4325
909.878	4333
909.993	4398
910.108	4417
910.224	4455
910.339	4516
910.454	4413
910.57	4375
910.685	4356
910.8	4634
910.915	4630
911.03	4500
911.145	4318
911.259	4318
911.374	4405
911.489	4333
911.604	4268
911.718	4105
911.833	4211
911.947	4090
912.062	4078
912.176	4219
912.291	4223
912.405	4249
912.519	4424
912.633	4508
912.748	4367
912.862	4333
912.976	4234
913.09	4097
913.204	4207
913.318	4257
913.431	4405
913.545	4386
913.659	4440
913.772	4394
913.886	4242
914	4242
914.113	4383
914.226	4428
914.34	4409
914.453	4230
914.566	4428
914.68	4322
914.793	4344
914.906	4177
915.019	4120
915.132	4097
915.245	4196
915.358	4238
915.47	4280
915.583	4265
915.696	4310
915.809	4432
915.921	4443
916.034	4276
916.146	4223
916.259	4215
916.371	4405
916.483	4386
916.595	4249
916.708	4280
916.82	4333
916.932	4344
917.044	4352
917.156	4337
917.268	4261
917.38	4310
917.491	4325
917.603	4398
917.715	4455
917.826	4436
917.938	4398
918.049	4211
918.161	4383
918.272	4561
918.384	4531
918.495	4409
918.606	4284
918.717	4238
918.828	4348
918.939	4352
919.05	4265
919.161	4363
919.272	4204
919.383	4234
919.494	4424
919.604	4630
919.715	4462
919.826	4383
919.936	4409
920.047	4546
920.157	4493
920.267	4683
920.378	4584
920.488	4481
920.598	4649
920.708	4881
920.818	4725
920.928	4771
921.038	4957
921.148	4892
921.258	4577
921.368	4580
921.477	4466
921.587	4443
921.697	4356
921.806	4561
921.916	4481
922.025	4249
922.134	4295
922.244	4234
922.353	4398
922.462	4223
922.571	4135
922.68	3987
922.789	3960
922.898	4032
923.007	3972
923.116	4059
923.224	4059
923.333	4086
923.442	4002
923.55	3960
923.659	4036
923.767	4147
923.876	3983
923.984	4112
924.092	4017
924.201	4086
924.309	4071
924.417	4112
924.525	4086
924.633	4124
924.741	5067
924.849	3937
924.956	4162
925.064	3968
925.172	3949
925.279	4010
925.387	4044
925.494	4071
925.602	4158
925.709	4207
925.816	4074
925.924	4116
926.031	4227
926.138	4196
926.245	4207
926.352	4063
926.459	4272
926.566	4325
926.673	4200
926.779	4078
926.886	4090
926.993	3998
927.099	3941
927.206	3937
927.312	3991
927.419	4090
927.525	4067
927.631	4120
927.737	3968
927.843	3926
927.95	3804
928.056	3956
928.162	4002
928.267	4086
928.373	4698
928.479	4074
928.585	3915
928.69	4006
928.796	4044
928.901	3975
929.007	3819
929.112	3991
929.218	4010
929.323	3953
929.428	3934
929.533	4055
929.638	3880
929.743	4029
929.848	4021
929.953	3998
930.058	3949
930.163	3778
930.267	3869
930.372	3949
930.477	3876
930.581	4105
930.685	3968
930.79	3823
930.894	3896
930.998	3831
931.103	4074
931.207	3720
931.311	3713
931.415	3679
931.519	3485
931.623	3568
