Data from test_V78500241_314.txt Node
Date: Fri Mar 25 16:51:11 CST 2022
User: usil
Spectrometer: V785-0024
Trigger mode: 0
Integration Time (sec): 4.000000E-1
Scans to average: 1
Nonlinearity correction enabled: false
Boxcar width: 0
Storing dark spectrum: false
XAxis mode: Wavelengths
Number of Pixels in Spectrum: 1024
>>>>>Begin Spectral Data<<<<<
801.071	8092
801.214	8012
801.356	7913
801.499	7902
801.641	7833
801.783	7909
801.926	8024
802.068	7940
802.211	7997
802.353	8103
802.496	7906
802.638	7974
802.78	7909
802.923	7906
803.065	7879
803.208	7925
803.35	7947
803.492	8100
803.635	8145
803.777	8050
803.919	8111
804.061	8514
804.204	8267
804.346	8069
804.488	7955
804.63	8134
804.773	8012
804.915	8126
805.057	8240
805.199	8123
805.341	8176
805.483	8244
805.626	8202
805.768	8073
805.91	8172
806.052	8180
806.194	8119
806.336	8263
806.478	8195
806.62	8161
806.762	8153
806.904	8199
807.046	8552
807.188	8317
807.33	8358
807.472	8294
807.614	8244
807.756	8157
807.898	8005
808.04	7856
808.182	7902
808.324	7921
808.465	8054
808.607	8016
808.749	8115
808.891	8214
809.033	8259
809.174	8176
809.316	8138
809.458	8092
809.6	7997
809.741	8058
809.883	8100
810.025	8058
810.166	8123
810.308	8111
810.45	7986
810.591	7909
810.733	7742
810.875	7670
811.016	7525
811.158	7521
811.299	7582
811.441	7788
811.582	7731
811.724	7556
811.865	7563
812.007	7647
812.148	7609
812.29	7586
812.431	7712
812.573	7860
812.714	7982
812.855	8126
812.997	8176
813.138	8343
813.279	8195
813.421	8142
813.562	8016
813.703	7818
813.845	7792
813.986	7502
814.127	7362
814.268	7274
814.41	7293
814.551	7236
814.692	7259
814.833	7107
814.974	7122
815.115	7110
815.256	6954
815.397	6966
815.539	6894
815.68	6791
815.821	6852
815.962	6882
816.103	6882
816.244	6741
816.385	6703
816.526	6650
816.666	6551
816.807	6315
816.948	6464
817.089	6498
817.23	6456
817.371	6376
817.512	6426
817.653	6357
817.793	6334
817.934	6376
818.075	6544
818.216	6471
818.356	6414
818.497	6270
818.638	6140
818.778	6159
818.919	6133
819.06	6155
819.2	6323
819.341	6338
819.481	6338
819.622	6521
819.762	6741
819.903	6703
820.043	6559
820.184	6563
820.324	6528
820.465	6650
820.605	6688
820.746	6642
820.886	6467
821.026	6578
821.167	6719
821.307	6764
821.447	6757
821.588	6715
821.728	6570
821.868	6509
822.008	6365
822.149	6372
822.289	6353
822.429	6155
822.569	6087
822.709	6163
822.849	5965
822.99	5893
823.13	5958
823.27	5923
823.41	5756
823.55	5844
823.69	5718
823.83	5817
823.97	5684
824.11	5570
824.25	5528
824.389	5646
824.529	5543
824.669	5573
824.809	5611
824.949	5668
825.089	5577
825.228	5547
825.368	5414
825.508	5364
825.648	5292
825.787	5341
825.927	5398
826.067	5322
826.206	5292
826.346	5398
826.485	5376
826.625	5398
826.765	5558
826.904	5459
827.044	5273
827.183	5201
827.323	5208
827.462	5284
827.601	5143
827.741	5155
827.88	5242
828.02	5132
828.159	5246
828.298	5303
828.437	5368
828.577	5265
828.716	5444
828.855	5406
828.994	5132
829.134	5147
829.273	5193
829.412	5124
829.551	5140
829.69	5147
829.829	5227
829.968	5341
830.107	5280
830.246	5273
830.385	5178
830.524	5136
830.663	5056
830.802	4980
830.941	4930
831.08	4900
831.219	5006
831.357	5025
831.496	5136
831.635	4968
831.774	4847
831.913	4877
832.051	4717
832.19	4744
832.329	4847
832.467	4717
832.606	4641
832.744	4717
832.883	4691
833.022	4679
833.16	4801
833.299	4873
833.437	4858
833.576	4828
833.714	4820
833.852	4892
833.991	4919
834.129	4953
834.267	4915
834.406	4980
834.544	4972
834.682	4999
834.821	5033
834.959	5147
835.097	4968
835.235	5159
835.373	5094
835.511	5113
835.65	5048
835.788	4972
835.926	4850
836.064	4839
836.202	4896
836.34	5162
836.478	5246
836.615	5166
836.753	5216
836.891	5212
837.029	5231
837.167	5185
837.305	5178
837.443	5166
837.58	5109
837.718	5250
837.856	5147
837.993	5140
838.131	5254
838.269	5208
838.406	5193
838.544	5143
838.681	5022
838.819	5083
838.956	4915
839.094	4923
839.231	4980
839.369	5067
839.506	5360
839.643	5311
839.781	5064
839.918	5041
840.055	5094
840.193	5117
840.33	5166
840.467	5124
840.604	5231
840.742	5421
840.879	5124
841.016	5064
841.153	5223
841.29	5379
841.427	5303
841.564	5318
841.701	5387
841.838	5269
841.975	5193
842.112	5269
842.249	5155
842.385	5109
842.522	5311
842.659	5208
842.796	5166
842.933	5216
843.069	5178
843.206	5174
843.343	5345
843.479	5178
843.616	5288
843.752	5018
843.889	4972
844.025	5261
844.162	5037
844.298	5204
844.435	5079
844.571	5048
844.708	5193
844.844	5296
844.98	5318
845.117	5315
845.253	5105
845.389	5064
845.525	5132
845.661	5178
845.798	5006
845.934	5170
846.07	5083
846.206	5181
846.342	5341
846.478	5143
846.614	5018
846.75	5018
846.886	4999
847.022	5136
847.158	4995
847.294	5025
847.429	5067
847.565	5067
847.701	5315
847.837	4873
847.972	4843
848.108	4953
848.244	4953
848.379	4748
848.515	4721
848.65	4748
848.786	4736
848.921	4759
849.057	4858
849.192	4892
849.328	4866
849.463	4870
849.598	4801
849.734	4759
849.869	4694
850.004	4637
850.14	4649
850.275	4542
850.41	4500
850.545	4588
850.68	4584
850.815	4615
850.95	4607
851.085	4854
851.22	4740
851.355	4714
851.49	4626
851.625	4664
851.76	4630
851.895	4607
852.03	4497
852.165	4668
852.299	4748
852.434	4790
852.569	4752
852.703	4793
852.838	4942
852.973	4949
853.107	4934
853.242	4698
853.376	4675
853.511	4550
853.645	4603
853.78	4831
853.914	4729
854.048	4668
854.183	4672
854.317	4634
854.451	4862
854.585	4645
854.72	4626
854.854	4774
854.988	4615
855.122	4649
855.256	4573
855.39	4660
855.524	4755
855.658	4717
855.792	4702
855.926	4763
856.06	4763
856.194	4793
856.327	4721
856.461	4611
856.595	4630
856.729	4641
856.862	4748
856.996	4698
857.13	4748
857.263	4767
857.397	4782
857.53	4649
857.664	4740
857.797	4782
857.931	4752
858.064	4698
858.197	4725
858.331	4641
858.464	4580
858.597	4542
858.731	4683
858.864	4634
858.997	4577
859.13	4660
859.263	4710
859.396	4687
859.529	4611
859.662	4527
859.795	4508
859.928	4607
860.061	4679
860.194	4733
860.327	4645
860.46	4611
860.592	4721
860.725	4656
860.858	4725
860.99	4565
861.123	4558
861.256	4584
861.388	4542
861.521	5318
861.653	4519
861.786	4451
861.918	4432
862.05	4535
862.183	4538
862.315	4577
862.447	4687
862.58	4546
862.712	4443
862.844	4341
862.976	4413
863.108	4428
863.24	4831
863.372	4337
863.504	4424
863.636	4428
863.768	4504
863.9	4481
864.032	4394
864.164	4398
864.296	4485
864.428	4569
864.559	4542
864.691	4538
864.823	4512
864.954	4481
865.086	4531
865.217	4436
865.349	4428
865.48	4470
865.612	4485
865.743	4637
865.875	4466
866.006	4451
866.137	4508
866.269	4432
866.4	4459
866.531	4466
866.662	4386
866.793	4413
866.924	4478
867.055	4546
867.186	4493
867.317	4405
867.448	4352
867.579	4367
867.71	4386
867.841	4386
867.972	4447
868.103	4451
868.233	4474
868.364	4436
868.495	4470
868.625	4664
868.756	4805
868.886	4546
869.017	4668
869.147	4714
869.278	4812
869.408	4687
869.539	4641
869.669	4714
869.799	4691
869.929	4793
870.06	4702
870.19	4968
870.32	4938
870.45	4949
870.58	5006
870.71	5083
870.84	5105
870.97	4961
871.1	4892
871.23	5117
871.36	5090
871.489	5018
871.619	5025
871.749	5117
871.879	5117
872.008	5204
872.138	5079
872.267	4995
872.397	4854
872.526	4763
872.656	4721
872.785	4774
872.915	4927
873.044	5014
873.173	4923
873.303	4911
873.432	4930
873.561	4949
873.69	4877
873.819	4862
873.948	4965
874.077	4809
874.206	4797
874.335	4782
874.464	4957
874.593	5033
874.722	4961
874.851	5083
874.979	5071
875.108	5060
875.237	4911
875.365	4892
875.494	4889
875.623	5003
875.751	4847
875.88	4866
876.008	4976
876.136	5048
876.265	5208
876.393	5353
876.521	5254
876.65	5242
876.778	5147
876.906	5109
877.034	5067
877.162	5086
877.29	5003
877.418	5067
877.546	5014
877.674	5083
877.802	5010
877.93	4991
878.058	4904
878.185	4870
878.313	4942
878.441	4938
878.568	4824
878.696	4892
878.824	4980
878.951	4987
879.079	5121
879.206	5337
879.333	5117
879.461	5041
879.588	4957
879.715	5143
879.842	5216
879.97	5033
880.097	4816
880.224	4790
880.351	4797
880.478	4870
880.605	4782
880.732	4755
880.859	5094
880.986	4892
881.112	4873
881.239	4755
881.366	4672
881.493	4577
881.619	4603
881.746	4679
881.872	4634
881.999	4626
882.125	4755
882.252	4790
882.378	4793
882.505	5014
882.631	4824
882.757	4637
882.883	4733
883.01	4748
883.136	4691
883.262	4596
883.388	4664
883.514	4870
883.64	4862
883.766	4763
883.892	4664
884.018	4721
884.143	4843
884.269	5025
884.395	4694
884.52	4607
884.646	4637
884.772	4599
884.897	4565
885.023	4649
885.148	4793
885.274	4892
885.399	4850
885.524	4767
885.65	4691
885.775	4835
885.9	4668
886.025	4850
886.15	4767
886.275	4694
886.4	4630
886.525	4721
886.65	4683
886.775	4725
886.9	4946
887.025	5018
887.149	4858
887.274	4615
887.399	4561
887.523	4573
887.648	4554
887.773	4622
887.897	4763
888.021	4774
888.146	4698
888.27	4805
888.395	4896
888.519	4801
888.643	4870
888.767	4816
888.891	4752
889.015	4584
889.139	4714
889.263	4660
889.387	4752
889.511	4854
889.635	4801
889.759	4656
889.883	4634
890.006	4725
890.13	4877
890.254	4626
890.377	4649
890.501	4558
890.624	4542
890.748	4637
890.871	4538
890.995	4417
891.118	4432
891.241	4535
891.364	4558
891.488	4630
891.611	4546
891.734	4554
891.857	4611
891.98	4542
892.103	4653
892.226	4588
892.349	4550
892.471	4440
892.594	4535
892.717	4626
892.839	4561
892.962	4588
893.085	4645
893.207	4596
893.33	4451
893.452	4523
893.575	4622
893.697	4596
893.819	4801
893.941	4847
894.064	4755
894.186	4596
894.308	4565
894.43	4725
894.552	4858
894.674	4725
894.796	4519
894.918	4634
895.04	4550
895.161	4714
895.283	4679
895.405	4596
895.526	4615
895.648	4717
895.769	4698
895.891	4759
896.012	4759
896.134	4729
896.255	4691
896.376	4641
896.498	4622
896.619	4694
896.74	4615
896.861	4660
896.982	4889
897.103	5079
897.224	4889
897.345	4767
897.466	4637
897.587	4736
897.708	4873
897.828	4748
897.949	4679
898.07	4577
898.19	4683
898.311	4866
898.431	4649
898.552	4702
898.672	4809
898.792	4831
898.913	4725
899.033	4634
899.153	4455
899.273	4455
899.393	4485
899.513	4550
899.633	4554
899.753	4558
899.873	4481
899.993	4596
900.113	4512
900.232	4626
900.352	4561
900.472	4459
900.591	4379
900.711	4493
900.83	4451
900.95	4668
901.069	4675
901.189	4535
901.308	4329
901.427	4295
901.546	4367
901.665	4478
901.784	4489
901.904	4409
902.023	4295
902.141	4223
902.26	4169
902.379	4295
902.498	4223
902.617	4238
902.735	4379
902.854	4398
902.973	4310
903.091	4234
903.21	4276
903.328	4299
903.446	4230
903.565	4230
903.683	4360
903.801	4299
903.919	4398
904.038	4424
904.156	4299
904.274	4470
904.392	4398
904.51	4447
904.627	4470
904.745	4588
904.863	4637
904.981	4405
905.098	4268
905.216	4371
905.334	4455
905.451	4440
905.569	4443
905.686	4527
905.803	4565
905.921	4428
906.038	4565
906.155	4447
906.272	4398
906.389	4508
906.506	4352
906.623	4398
906.74	4443
906.857	4333
906.974	4375
907.091	4538
907.208	4668
907.324	4580
907.441	4516
907.557	4386
907.674	4322
907.79	4299
907.907	4379
908.023	4481
908.139	4462
908.256	4413
908.372	4436
908.488	4432
908.604	4344
908.72	4322
908.836	4402
908.952	4367
909.068	4405
909.184	4577
909.3	4535
909.415	4580
909.531	4558
909.647	4360
909.762	4409
909.878	4383
909.993	4459
910.108	4428
910.224	4436
910.339	4474
910.454	4383
910.57	4341
910.685	4325
910.8	4649
910.915	4588
911.03	4478
911.145	4337
911.259	4329
911.374	4360
911.489	4318
911.604	4295
911.718	4181
911.833	4238
911.947	4105
912.062	3998
912.176	4188
912.291	4238
912.405	4280
912.519	4455
912.633	4527
912.748	4390
912.862	4325
912.976	4204
913.09	4101
913.204	4207
913.318	4276
913.431	4367
913.545	4360
913.659	4424
913.772	4390
913.886	4280
914	4188
914.113	4394
914.226	4447
914.34	4390
914.453	4246
914.566	4424
914.68	4341
914.793	4314
914.906	4154
915.019	4154
915.132	4105
915.245	4200
915.358	4204
915.47	4238
915.583	4253
915.696	4272
915.809	4413
915.921	4367
916.034	4295
916.146	4257
916.259	4253
916.371	4417
916.483	4383
916.595	4299
916.708	4333
916.82	4337
916.932	4348
917.044	4318
917.156	4329
917.268	4261
917.38	4276
917.491	4295
917.603	4287
917.715	4409
917.826	4421
917.938	4371
918.049	4272
918.161	4390
918.272	4516
918.384	4550
918.495	4451
918.606	4268
918.717	4207
918.828	4344
918.939	4383
919.05	4238
919.161	4291
919.272	4131
919.383	4219
919.494	4462
919.604	4641
919.715	4489
919.826	4371
919.936	4398
920.047	4519
920.157	4474
920.267	4706
920.378	4542
920.488	4519
920.598	4736
920.708	4957
920.818	4786
920.928	4740
921.038	4949
921.148	4934
921.258	4656
921.368	4584
921.477	4538
921.587	4485
921.697	4360
921.806	4573
921.916	4402
922.025	4291
922.134	4276
922.244	4291
922.353	4344
922.462	4200
922.571	4131
922.68	3979
922.789	3975
922.898	4017
923.007	4021
923.116	4101
923.224	4071
923.333	4036
923.442	3975
923.55	3934
923.659	4086
923.767	4124
923.876	4010
923.984	4131
924.092	3979
924.201	4090
924.309	4067
924.417	4109
924.525	4048
924.633	4082
924.741	4839
924.849	3926
924.956	4105
925.064	3941
925.172	3941
925.279	3979
925.387	4055
925.494	4059
925.602	4204
925.709	4154
925.816	4074
925.924	4143
926.031	4230
926.138	4135
926.245	4185
926.352	4093
926.459	4268
926.566	4314
926.673	4143
926.779	4112
926.886	4048
926.993	3979
927.099	3941
927.206	3945
927.312	3930
927.419	4063
927.525	4021
927.631	4074
927.737	4002
927.843	3918
927.95	3838
928.056	3945
928.162	4025
928.267	4051
928.373	4664
928.479	4128
928.585	3922
928.69	4017
928.796	4093
928.901	3960
929.007	3865
929.112	4025
929.218	3960
929.323	3960
929.428	3934
929.533	4112
929.638	3899
929.743	3922
929.848	3983
929.953	4013
930.058	3918
930.163	3804
930.267	3816
930.372	3934
930.477	3831
930.581	4074
930.685	3998
930.79	3819
930.894	3892
930.998	3846
931.103	4059
931.207	3717
931.311	3720
931.415	3690
931.519	3477
931.623	3603
