Data from test_V78500241_1368.txt Node
Date: Fri Mar 25 16:58:30 CST 2022
User: usil
Spectrometer: V785-0024
Trigger mode: 0
Integration Time (sec): 4.000000E-1
Scans to average: 1
Nonlinearity correction enabled: false
Boxcar width: 0
Storing dark spectrum: false
XAxis mode: Wavelengths
Number of Pixels in Spectrum: 1024
>>>>>Begin Spectral Data<<<<<
801.071	8050
801.214	7997
801.356	7906
801.499	7753
801.641	7788
801.783	7826
801.926	7925
802.068	7974
802.211	7967
802.353	7970
802.496	7780
802.638	7944
802.78	7898
802.923	7951
803.065	7875
803.208	7830
803.35	7989
803.492	8027
803.635	8145
803.777	8008
803.919	8084
804.061	8434
804.204	8157
804.346	8020
804.488	7944
804.63	8054
804.773	7978
804.915	8123
805.057	8271
805.199	8199
805.341	8210
805.483	8301
805.626	8176
805.768	8050
805.91	8180
806.052	8240
806.194	8077
806.336	8298
806.478	8065
806.62	8035
806.762	8119
806.904	8248
807.046	8442
807.188	8389
807.33	8244
807.472	8263
807.614	8199
807.756	8126
807.898	8012
808.04	7871
808.182	7898
808.324	7955
808.465	7925
808.607	8126
808.749	8077
808.891	8252
809.033	8324
809.174	8164
809.316	8077
809.458	8077
809.6	7970
809.741	8054
809.883	7955
810.025	8077
810.166	8069
810.308	8062
810.45	7978
810.591	7913
810.733	7712
810.875	7647
811.016	7483
811.158	7544
811.299	7609
811.441	7674
811.582	7677
811.724	7544
811.865	7559
812.007	7578
812.148	7521
812.29	7571
812.431	7753
812.573	7898
812.714	7944
812.855	8107
812.997	8180
813.138	8347
813.279	8157
813.421	8058
813.562	8016
813.703	7887
813.845	7723
813.986	7468
814.127	7236
814.268	7171
814.41	7175
814.551	7145
814.692	7198
814.833	7095
814.974	7122
815.115	7084
815.256	6943
815.397	6909
815.539	6928
815.68	6859
815.821	6764
815.962	6939
816.103	6730
816.244	6711
816.385	6589
816.526	6608
816.666	6506
816.807	6285
816.948	6403
817.089	6410
817.23	6384
817.371	6380
817.512	6323
817.653	6414
817.793	6372
817.934	6369
818.075	6441
818.216	6407
818.356	6422
818.497	6258
818.638	6148
818.778	6148
818.919	6117
819.06	6148
819.2	6281
819.341	6258
819.481	6353
819.622	6483
819.762	6707
819.903	6700
820.043	6544
820.184	6601
820.324	6513
820.465	6665
820.605	6646
820.746	6642
820.886	6498
821.026	6658
821.167	6734
821.307	6768
821.447	6730
821.588	6707
821.728	6601
821.868	6441
822.008	6319
822.149	6395
822.289	6342
822.429	6205
822.569	6091
822.709	6072
822.849	5904
822.99	5866
823.13	5916
823.27	5897
823.41	5741
823.55	5775
823.69	5775
823.83	5805
823.97	5608
824.11	5516
824.25	5486
824.389	5455
824.529	5547
824.669	5585
824.809	5604
824.949	5627
825.089	5627
825.228	5566
825.368	5376
825.508	5376
825.648	5349
825.787	5341
825.927	5330
826.067	5277
826.206	5280
826.346	5376
826.485	5376
826.625	5372
826.765	5577
826.904	5436
827.044	5265
827.183	5178
827.323	5090
827.462	5181
827.601	5162
827.741	5143
827.88	5220
828.02	5121
828.159	5212
828.298	5269
828.437	5379
828.577	5254
828.716	5395
828.855	5299
828.994	5128
829.134	5170
829.273	5159
829.412	5124
829.551	5105
829.69	5132
829.829	5201
829.968	5360
830.107	5231
830.246	5235
830.385	5181
830.524	5140
830.663	5045
830.802	4942
830.941	4870
831.08	4923
831.219	4957
831.357	4927
831.496	5147
831.635	4904
831.774	4885
831.913	4816
832.051	4736
832.19	4717
832.329	4809
832.467	4687
832.606	4645
832.744	4729
832.883	4725
833.022	4694
833.16	4786
833.299	4801
833.437	4786
833.576	4870
833.714	4835
833.852	4850
833.991	4881
834.129	4961
834.267	4961
834.406	4870
834.544	4946
834.682	4919
834.821	4911
834.959	5109
835.097	4965
835.235	5121
835.373	5029
835.511	5060
835.65	4991
835.788	4972
835.926	4854
836.064	4835
836.202	4949
836.34	5162
836.478	5193
836.615	5094
836.753	5185
836.891	5269
837.029	5231
837.167	5227
837.305	5117
837.443	5098
837.58	5045
837.718	5220
837.856	5189
837.993	5143
838.131	5231
838.269	5178
838.406	5151
838.544	5174
838.681	5018
838.819	4957
838.956	4858
839.094	4900
839.231	4984
839.369	5079
839.506	5357
839.643	5246
839.781	5056
839.918	5010
840.055	5067
840.193	5079
840.33	5086
840.467	5151
840.604	5197
840.742	5433
840.879	5037
841.016	5052
841.153	5162
841.29	5322
841.427	5337
841.564	5296
841.701	5326
841.838	5277
841.975	5178
842.112	5231
842.249	5170
842.385	5086
842.522	5341
842.659	5143
842.796	5098
842.933	5140
843.069	5090
843.206	5155
843.343	5280
843.479	5212
843.616	5254
843.752	5045
843.889	5025
844.025	5212
844.162	4999
844.298	5204
844.435	5090
844.571	5052
844.708	5193
844.844	5299
844.98	5292
845.117	5307
845.253	5140
845.389	5056
845.525	5109
845.661	5132
845.798	5041
845.934	5140
846.07	5075
846.206	5162
846.342	5284
846.478	5174
846.614	4976
846.75	4953
846.886	4908
847.022	5105
847.158	5029
847.294	5022
847.429	5109
847.565	4999
847.701	5299
847.837	4786
847.972	4812
848.108	4984
848.244	4900
848.379	4805
848.515	4710
848.65	4740
848.786	4702
848.921	4782
849.057	4771
849.192	4904
849.328	4778
849.463	4805
849.598	4771
849.734	4759
849.869	4675
850.004	4603
850.14	4656
850.275	4580
850.41	4519
850.545	4569
850.68	4592
850.815	4607
850.95	4603
851.085	4805
851.22	4714
851.355	4683
851.49	4584
851.625	4653
851.76	4630
851.895	4569
852.03	4500
852.165	4626
852.299	4755
852.434	4733
852.569	4717
852.703	4740
852.838	4809
852.973	4908
853.107	4896
853.242	4729
853.376	4653
853.511	4531
853.645	4607
853.78	4755
853.914	4672
854.048	4664
854.183	4626
854.317	4698
854.451	4790
854.585	4645
854.72	4668
854.854	4698
854.988	4588
855.122	4626
855.256	4519
855.39	4618
855.524	4805
855.658	4717
855.792	4698
855.926	4694
856.06	4759
856.194	4774
856.327	4672
856.461	4584
856.595	4634
856.729	4603
856.862	4759
856.996	4702
857.13	4691
857.263	4759
857.397	4793
857.53	4634
857.664	4714
857.797	4774
857.931	4729
858.064	4725
858.197	4702
858.331	4618
858.464	4615
858.597	4481
858.731	4626
858.864	4569
858.997	4599
859.13	4622
859.263	4653
859.396	4691
859.529	4569
859.662	4508
859.795	4516
859.928	4611
860.061	4759
860.194	4687
860.327	4599
860.46	4588
860.592	4656
860.725	4725
860.858	4740
860.99	4538
861.123	4481
861.256	4531
861.388	4599
861.521	5360
861.653	4523
861.786	4394
861.918	4428
862.05	4497
862.183	4531
862.315	4573
862.447	4634
862.58	4554
862.712	4402
862.844	4344
862.976	4470
863.108	4485
863.24	4866
863.372	4272
863.504	4409
863.636	4409
863.768	4485
863.9	4386
864.032	4363
864.164	4348
864.296	4470
864.428	4485
864.559	4577
864.691	4531
864.823	4508
864.954	4504
865.086	4500
865.217	4432
865.349	4409
865.48	4447
865.612	4466
865.743	4599
865.875	4470
866.006	4398
866.137	4443
866.269	4436
866.4	4417
866.531	4344
866.662	4394
866.793	4356
866.924	4383
867.055	4462
867.186	4405
867.317	4405
867.448	4352
867.579	4390
867.71	4318
867.841	4295
867.972	4451
868.103	4500
868.233	4459
868.364	4428
868.495	4455
868.625	4641
868.756	4702
868.886	4523
869.017	4592
869.147	4755
869.278	4729
869.408	4641
869.539	4626
869.669	4698
869.799	4668
869.929	4721
870.06	4714
870.19	4927
870.32	4881
870.45	4885
870.58	5014
870.71	5025
870.84	5071
870.97	4919
871.1	4908
871.23	5117
871.36	5117
871.489	5041
871.619	5067
871.749	5102
871.879	5064
872.008	5170
872.138	5022
872.267	4957
872.397	4816
872.526	4793
872.656	4698
872.785	4771
872.915	4934
873.044	5006
873.173	4923
873.303	4942
873.432	4953
873.561	4919
873.69	4835
873.819	4889
873.948	4938
874.077	4801
874.206	4755
874.335	4740
874.464	4938
874.593	5033
874.722	4934
874.851	5079
874.979	5014
875.108	5037
875.237	4873
875.365	4862
875.494	4843
875.623	4972
875.751	4809
875.88	4847
876.008	4961
876.136	5014
876.265	5166
876.393	5307
876.521	5216
876.65	5212
876.778	5174
876.906	5041
877.034	4961
877.162	4972
877.29	4949
877.418	5033
877.546	5018
877.674	5018
877.802	5003
877.93	4938
878.058	4904
878.185	4900
878.313	4930
878.441	4892
878.568	4793
878.696	4915
878.824	4965
878.951	4927
879.079	5098
879.206	5258
879.333	5075
879.461	4995
879.588	4980
879.715	5079
879.842	5208
879.97	4980
880.097	4778
880.224	4786
880.351	4801
880.478	4793
880.605	4866
880.732	4812
880.859	5117
880.986	4885
881.112	4870
881.239	4767
881.366	4710
881.493	4580
881.619	4592
881.746	4611
881.872	4653
881.999	4656
882.125	4748
882.252	4801
882.378	4809
882.505	4980
882.631	4763
882.757	4721
882.883	4771
883.01	4744
883.136	4668
883.262	4615
883.388	4596
883.514	4900
883.64	4870
883.766	4843
883.892	4721
884.018	4763
884.143	4961
884.269	5037
884.395	4687
884.52	4687
884.646	4637
884.772	4603
884.897	4580
885.023	4736
885.148	4812
885.274	4911
885.399	4866
885.524	4771
885.65	4710
885.775	4763
885.9	4736
886.025	4889
886.15	4782
886.275	4786
886.4	4702
886.525	4786
886.65	4721
886.775	4706
886.9	4896
887.025	5071
887.149	4805
887.274	4736
887.399	4592
887.523	4615
887.648	4611
887.773	4634
887.897	4805
888.021	4889
888.146	4710
888.27	4774
888.395	4881
888.519	4824
888.643	4831
888.767	4858
888.891	4645
889.015	4622
889.139	4725
889.263	4683
889.387	4805
889.511	4839
889.635	4812
889.759	4653
889.883	4679
890.006	4725
890.13	4889
890.254	4649
890.377	4649
890.501	4592
890.624	4531
890.748	4577
890.871	4550
890.995	4470
891.118	4440
891.241	4569
891.364	4558
891.488	4634
891.611	4538
891.734	4519
891.857	4618
891.98	4573
892.103	4656
892.226	4660
892.349	4558
892.471	4447
892.594	4550
892.717	4641
892.839	4565
892.962	4611
893.085	4736
893.207	4615
893.33	4462
893.452	4535
893.575	4637
893.697	4596
893.819	4797
893.941	4847
894.064	4812
894.186	4622
894.308	4580
894.43	4748
894.552	4843
894.674	4824
894.796	4577
894.918	4645
895.04	4596
895.161	4698
895.283	4691
895.405	4630
895.526	4584
895.648	4714
895.769	4725
895.891	4748
896.012	4767
896.134	4755
896.255	4710
896.376	4679
896.498	4691
896.619	4656
896.74	4649
896.861	4721
896.982	4919
897.103	5117
897.224	4858
897.345	4767
897.466	4702
897.587	4725
897.708	4889
897.828	4843
897.949	4683
898.07	4607
898.19	4656
898.311	4801
898.431	4714
898.552	4790
898.672	4843
898.792	4797
898.913	4763
899.033	4679
899.153	4504
899.273	4462
899.393	4523
899.513	4558
899.633	4542
899.753	4558
899.873	4561
899.993	4618
900.113	4523
900.232	4603
900.352	4565
900.472	4519
900.591	4417
900.711	4485
900.83	4474
900.95	4656
901.069	4717
901.189	4592
901.308	4432
901.427	4341
901.546	4398
901.665	4542
901.784	4580
901.904	4432
902.023	4379
902.141	4268
902.26	4185
902.379	4375
902.498	4253
902.617	4227
902.735	4421
902.854	4447
902.973	4440
903.091	4242
903.21	4265
903.328	4344
903.446	4265
903.565	4265
903.683	4371
903.801	4329
903.919	4394
904.038	4443
904.156	4341
904.274	4428
904.392	4466
904.51	4497
904.627	4485
904.745	4618
904.863	4683
904.981	4428
905.098	4394
905.216	4367
905.334	4497
905.451	4428
905.569	4466
905.686	4615
905.803	4599
905.921	4447
906.038	4554
906.155	4512
906.272	4443
906.389	4497
906.506	4402
906.623	4409
906.74	4417
906.857	4325
906.974	4371
907.091	4603
907.208	4668
907.324	4580
907.441	4512
907.557	4379
907.674	4341
907.79	4341
907.907	4394
908.023	4546
908.139	4478
908.256	4424
908.372	4500
908.488	4421
908.604	4405
908.72	4371
908.836	4360
908.952	4367
909.068	4421
909.184	4615
909.3	4542
909.415	4630
909.531	4584
909.647	4371
909.762	4409
909.878	4390
909.993	4470
910.108	4413
910.224	4402
910.339	4493
910.454	4451
910.57	4405
910.685	4337
910.8	4683
910.915	4615
911.03	4497
911.145	4314
911.259	4383
911.374	4398
911.489	4333
911.604	4333
911.718	4234
911.833	4227
911.947	4169
912.062	4048
912.176	4219
912.291	4268
912.405	4291
912.519	4519
912.633	4523
912.748	4405
912.862	4341
912.976	4192
913.09	4143
913.204	4192
913.318	4272
913.431	4363
913.545	4367
913.659	4436
913.772	4371
913.886	4272
914	4200
914.113	4383
914.226	4459
914.34	4413
914.453	4280
914.566	4371
914.68	4318
914.793	4333
914.906	4166
915.019	4177
915.132	4154
915.245	4234
915.358	4246
915.47	4284
915.583	4295
915.696	4341
915.809	4474
915.921	4409
916.034	4276
916.146	4322
916.259	4265
916.371	4367
916.483	4344
916.595	4280
916.708	4352
916.82	4348
916.932	4303
917.044	4318
917.156	4348
917.268	4246
917.38	4322
917.491	4295
917.603	4333
917.715	4451
917.826	4440
917.938	4390
918.049	4265
918.161	4421
918.272	4542
918.384	4592
918.495	4493
918.606	4352
918.717	4299
918.828	4333
918.939	4360
919.05	4287
919.161	4341
919.272	4128
919.383	4227
919.494	4402
919.604	4618
919.715	4466
919.826	4356
919.936	4428
920.047	4516
920.157	4466
920.267	4752
920.378	4546
920.488	4459
920.598	4748
920.708	4892
920.818	4744
920.928	4820
921.038	4927
921.148	4949
921.258	4653
921.368	4584
921.477	4519
921.587	4451
921.697	4379
921.806	4497
921.916	4462
922.025	4242
922.134	4295
922.244	4234
922.353	4367
922.462	4215
922.571	4120
922.68	4025
922.789	4017
922.898	4025
923.007	4029
923.116	4150
923.224	4086
923.333	4074
923.442	3991
923.55	4017
923.659	4051
923.767	4086
923.876	3994
923.984	4139
924.092	4021
924.201	4074
924.309	4067
924.417	4173
924.525	4059
924.633	4097
924.741	5022
924.849	3934
924.956	4128
925.064	3964
925.172	3907
925.279	3972
925.387	4032
925.494	4086
925.602	4215
925.709	4215
925.816	3994
925.924	4150
926.031	4230
926.138	4215
926.245	4230
926.352	4082
926.459	4276
926.566	4371
926.673	4154
926.779	4093
926.886	4086
926.993	3956
927.099	3972
927.206	3953
927.312	3975
927.419	4051
927.525	4044
927.631	4105
927.737	4017
927.843	3960
927.95	3861
928.056	3998
928.162	4017
928.267	4044
928.373	4664
928.479	4082
928.585	3873
928.69	4036
928.796	4109
928.901	3991
929.007	3827
929.112	4040
929.218	4002
929.323	3937
929.428	3941
929.533	4097
929.638	3949
929.743	3987
929.848	4055
929.953	3998
930.058	3945
930.163	3800
930.267	3823
930.372	4036
930.477	3812
930.581	4120
930.685	3941
930.79	3816
930.894	3911
930.998	3865
931.103	4040
931.207	3705
931.311	3724
931.415	3671
931.519	3549
931.623	3595
