Data from test_V78500241_2358.txt Node
Date: Fri Mar 25 17:05:23 CST 2022
User: usil
Spectrometer: V785-0024
Trigger mode: 0
Integration Time (sec): 4.000000E-1
Scans to average: 1
Nonlinearity correction enabled: false
Boxcar width: 0
Storing dark spectrum: false
XAxis mode: Wavelengths
Number of Pixels in Spectrum: 1024
>>>>>Begin Spectral Data<<<<<
801.071	7986
801.214	8012
801.356	7871
801.499	7803
801.641	7753
801.783	7814
801.926	7974
802.068	7909
802.211	8012
802.353	8027
802.496	7894
802.638	7932
802.78	7894
802.923	7967
803.065	7856
803.208	7906
803.35	8020
803.492	8100
803.635	8145
803.777	8096
803.919	8126
804.061	8518
804.204	8240
804.346	8138
804.488	7963
804.63	8081
804.773	8092
804.915	8043
805.057	8286
805.199	8229
805.341	8240
805.483	8294
805.626	8313
805.768	8172
805.91	8244
806.052	8195
806.194	8161
806.336	8263
806.478	8062
806.62	8123
806.762	8130
806.904	8286
807.046	8408
807.188	8431
807.33	8381
807.472	8400
807.614	8256
807.756	8176
807.898	8077
808.04	7921
808.182	7902
808.324	7830
808.465	7951
808.607	8123
808.749	8168
808.891	8244
809.033	8370
809.174	8263
809.316	8123
809.458	8058
809.6	8020
809.741	8100
809.883	8005
810.025	8115
810.166	8027
810.308	8039
810.45	8005
810.591	7909
810.733	7822
810.875	7719
811.016	7487
811.158	7476
811.299	7647
811.441	7723
811.582	7670
811.724	7571
811.865	7586
812.007	7613
812.148	7582
812.29	7624
812.431	7784
812.573	7856
812.714	7982
812.855	8176
812.997	8138
813.138	8282
813.279	8138
813.421	8027
813.562	8027
813.703	7852
813.845	7757
813.986	7438
814.127	7297
814.268	7266
814.41	7183
814.551	7198
814.692	7217
814.833	7110
814.974	7103
815.115	7141
815.256	6962
815.397	6981
815.539	6886
815.68	6810
815.821	6829
815.962	6973
816.103	6837
816.244	6681
816.385	6631
816.526	6635
816.666	6456
816.807	6338
816.948	6479
817.089	6498
817.23	6452
817.371	6426
817.512	6418
817.653	6460
817.793	6346
817.934	6388
818.075	6460
818.216	6437
818.356	6433
818.497	6315
818.638	6064
818.778	6117
818.919	6136
819.06	6129
819.2	6338
819.341	6311
819.481	6300
819.622	6574
819.762	6764
819.903	6703
820.043	6646
820.184	6635
820.324	6608
820.465	6696
820.605	6631
820.746	6593
820.886	6498
821.026	6681
821.167	6738
821.307	6738
821.447	6787
821.588	6703
821.728	6593
821.868	6536
822.008	6323
822.149	6429
822.289	6372
822.429	6190
822.569	6167
822.709	6133
822.849	5920
822.99	5920
823.13	5920
823.27	5946
823.41	5745
823.55	5836
823.69	5771
823.83	5817
823.97	5733
824.11	5558
824.25	5577
824.389	5608
824.529	5558
824.669	5547
824.809	5684
824.949	5665
825.089	5630
825.228	5562
825.368	5383
825.508	5383
825.648	5364
825.787	5406
825.927	5368
826.067	5330
826.206	5288
826.346	5379
826.485	5414
826.625	5395
826.765	5638
826.904	5490
827.044	5254
827.183	5170
827.323	5174
827.462	5239
827.601	5151
827.741	5204
827.88	5193
828.02	5143
828.159	5284
828.298	5341
828.437	5398
828.577	5315
828.716	5467
828.855	5357
828.994	5227
829.134	5159
829.273	5185
829.412	5166
829.551	5121
829.69	5254
829.829	5250
829.968	5406
830.107	5292
830.246	5269
830.385	5250
830.524	5132
830.663	5094
830.802	4991
830.941	4873
831.08	4873
831.219	5022
831.357	4991
831.496	5128
831.635	4965
831.774	4850
831.913	4835
832.051	4714
832.19	4759
832.329	4870
832.467	4691
832.606	4683
832.744	4744
832.883	4752
833.022	4725
833.16	4759
833.299	4839
833.437	4824
833.576	4919
833.714	4915
833.852	4892
833.991	4938
834.129	4934
834.267	4976
834.406	4889
834.544	4980
834.682	4984
834.821	5006
834.959	5170
835.097	4999
835.235	5212
835.373	5086
835.511	5094
835.65	4995
835.788	5052
835.926	4896
836.064	4908
836.202	4889
836.34	5201
836.478	5299
836.615	5140
836.753	5239
836.891	5284
837.029	5254
837.167	5212
837.305	5140
837.443	5162
837.58	5090
837.718	5254
837.856	5254
837.993	5147
838.131	5208
838.269	5212
838.406	5197
838.544	5223
838.681	5079
838.819	5022
838.956	4934
839.094	4919
839.231	4968
839.369	5079
839.506	5444
839.643	5296
839.781	5109
839.918	5048
840.055	5113
840.193	5060
840.33	5105
840.467	5136
840.604	5242
840.742	5429
840.879	5086
841.016	5151
841.153	5201
841.29	5406
841.427	5292
841.564	5337
841.701	5326
841.838	5288
841.975	5197
842.112	5269
842.249	5136
842.385	5094
842.522	5364
842.659	5166
842.796	5193
842.933	5159
843.069	5155
843.206	5151
843.343	5368
843.479	5235
843.616	5261
843.752	5052
843.889	5037
844.025	5204
844.162	5041
844.298	5254
844.435	5090
844.571	5060
844.708	5170
844.844	5326
844.98	5345
845.117	5326
845.253	5124
845.389	5060
845.525	5181
845.661	5136
845.798	5022
845.934	5151
846.07	5060
846.206	5178
846.342	5284
846.478	5181
846.614	5067
846.75	4995
846.886	4934
847.022	5143
847.158	5045
847.294	5056
847.429	5113
847.565	5045
847.701	5379
847.837	4854
847.972	4809
848.108	4968
848.244	4946
848.379	4767
848.515	4721
848.65	4748
848.786	4736
848.921	4790
849.057	4881
849.192	4904
849.328	4820
849.463	4892
849.598	4790
849.734	4725
849.869	4714
850.004	4611
850.14	4687
850.275	4668
850.41	4580
850.545	4561
850.68	4596
850.815	4607
850.95	4630
851.085	4816
851.22	4733
851.355	4634
851.49	4599
851.625	4607
851.76	4649
851.895	4558
852.03	4554
852.165	4668
852.299	4759
852.434	4790
852.569	4778
852.703	4771
852.838	4824
852.973	4942
853.107	4930
853.242	4714
853.376	4694
853.511	4542
853.645	4603
853.78	4858
853.914	4687
854.048	4675
854.183	4634
854.317	4675
854.451	4843
854.585	4694
854.72	4687
854.854	4790
854.988	4637
855.122	4683
855.256	4504
855.39	4668
855.524	4812
855.658	4725
855.792	4710
855.926	4752
856.06	4782
856.194	4816
856.327	4653
856.461	4565
856.595	4538
856.729	4634
856.862	4744
856.996	4679
857.13	4714
857.263	4759
857.397	4771
857.53	4596
857.664	4691
857.797	4771
857.931	4782
858.064	4717
858.197	4740
858.331	4672
858.464	4611
858.597	4512
858.731	4645
858.864	4656
858.997	4637
859.13	4656
859.263	4637
859.396	4672
859.529	4607
859.662	4554
859.795	4561
859.928	4668
860.061	4748
860.194	4809
860.327	4634
860.46	4569
860.592	4683
860.725	4736
860.858	4736
860.99	4573
861.123	4550
861.256	4531
861.388	4672
861.521	5250
861.653	4500
861.786	4462
861.918	4489
862.05	4542
862.183	4596
862.315	4611
862.447	4672
862.58	4592
862.712	4405
862.844	4333
862.976	4493
863.108	4478
863.24	4870
863.372	4329
863.504	4443
863.636	4405
863.768	4512
863.9	4451
864.032	4383
864.164	4405
864.296	4504
864.428	4577
864.559	4527
864.691	4531
864.823	4519
864.954	4493
865.086	4550
865.217	4455
865.349	4443
865.48	4466
865.612	4504
865.743	4611
865.875	4474
866.006	4459
866.137	4462
866.269	4443
866.4	4459
866.531	4459
866.662	4413
866.793	4402
866.924	4421
867.055	4481
867.186	4459
867.317	4424
867.448	4375
867.579	4390
867.71	4379
867.841	4398
867.972	4466
868.103	4481
868.233	4470
868.364	4478
868.495	4516
868.625	4698
868.756	4759
868.886	4588
869.017	4596
869.147	4767
869.278	4774
869.408	4698
869.539	4615
869.669	4698
869.799	4656
869.929	4805
870.06	4740
870.19	4972
870.32	4900
870.45	4934
870.58	5014
870.71	5140
870.84	5064
870.97	4984
871.1	4908
871.23	5102
871.36	5094
871.489	5029
871.619	5083
871.749	5086
871.879	5102
872.008	5147
872.138	5045
872.267	4987
872.397	4873
872.526	4786
872.656	4714
872.785	4793
872.915	4923
873.044	5105
873.173	4968
873.303	4965
873.432	4927
873.561	4968
873.69	4828
873.819	4873
873.948	4915
874.077	4835
874.206	4752
874.335	4740
874.464	4850
874.593	5064
874.722	4953
874.851	5079
874.979	5045
875.108	5056
875.237	4904
875.365	4877
875.494	4896
875.623	4976
875.751	4820
875.88	4858
876.008	4900
876.136	5029
876.265	5170
876.393	5398
876.521	5269
876.65	5223
876.778	5151
876.906	5121
877.034	5025
877.162	5022
877.29	5071
877.418	5045
877.546	5067
877.674	5041
877.802	5048
877.93	4976
878.058	4915
878.185	4908
878.313	4999
878.441	4980
878.568	4790
878.696	4892
878.824	4965
878.951	4999
879.079	5155
879.206	5277
879.333	5086
879.461	4965
879.588	4984
879.715	5159
879.842	5239
879.97	4968
880.097	4782
880.224	4706
880.351	4759
880.478	4786
880.605	4812
880.732	4809
880.859	5003
880.986	4892
881.112	4889
881.239	4790
881.366	4626
881.493	4626
881.619	4577
881.746	4691
881.872	4668
881.999	4664
882.125	4672
882.252	4767
882.378	4771
882.505	4972
882.631	4797
882.757	4698
882.883	4694
883.01	4763
883.136	4634
883.262	4653
883.388	4584
883.514	4858
883.64	4881
883.766	4809
883.892	4698
884.018	4721
884.143	4908
884.269	4980
884.395	4660
884.52	4637
884.646	4656
884.772	4584
884.897	4577
885.023	4641
885.148	4767
885.274	4831
885.399	4824
885.524	4721
885.65	4698
885.775	4763
885.9	4664
886.025	4843
886.15	4763
886.275	4733
886.4	4656
886.525	4748
886.65	4679
886.775	4694
886.9	4892
887.025	5067
887.149	4790
887.274	4618
887.399	4554
887.523	4634
887.648	4577
887.773	4588
887.897	4774
888.021	4790
888.146	4664
888.27	4774
888.395	4908
888.519	4759
888.643	4824
888.767	4828
888.891	4653
889.015	4664
889.139	4679
889.263	4611
889.387	4740
889.511	4885
889.635	4809
889.759	4660
889.883	4668
890.006	4725
890.13	4828
890.254	4596
890.377	4675
890.501	4561
890.624	4497
890.748	4607
890.871	4493
890.995	4417
891.118	4356
891.241	4485
891.364	4569
891.488	4596
891.611	4474
891.734	4500
891.857	4626
891.98	4565
892.103	4615
892.226	4580
892.349	4565
892.471	4394
892.594	4577
892.717	4588
892.839	4554
892.962	4569
893.085	4622
893.207	4596
893.33	4409
893.452	4554
893.575	4630
893.697	4561
893.819	4797
893.941	4778
894.064	4782
894.186	4599
894.308	4588
894.43	4771
894.552	4774
894.674	4725
894.796	4554
894.918	4634
895.04	4588
895.161	4660
895.283	4683
895.405	4569
895.526	4618
895.648	4710
895.769	4683
895.891	4702
896.012	4691
896.134	4717
896.255	4649
896.376	4645
896.498	4603
896.619	4622
896.74	4626
896.861	4691
896.982	4885
897.103	5037
897.224	4873
897.345	4752
897.466	4672
897.587	4710
897.708	4854
897.828	4774
897.949	4679
898.07	4535
898.19	4630
898.311	4771
898.431	4694
898.552	4759
898.672	4778
898.792	4767
898.913	4694
899.033	4653
899.153	4542
899.273	4413
899.393	4512
899.513	4538
899.633	4497
899.753	4508
899.873	4519
899.993	4626
900.113	4493
900.232	4565
900.352	4554
900.472	4504
900.591	4405
900.711	4497
900.83	4432
900.95	4660
901.069	4683
901.189	4580
901.308	4383
901.427	4341
901.546	4360
901.665	4470
901.784	4519
901.904	4383
902.023	4253
902.141	4166
902.26	4181
902.379	4291
902.498	4223
902.617	4234
902.735	4390
902.854	4367
902.973	4367
903.091	4253
903.21	4200
903.328	4306
903.446	4310
903.565	4249
903.683	4356
903.801	4299
903.919	4402
904.038	4432
904.156	4341
904.274	4459
904.392	4421
904.51	4428
904.627	4478
904.745	4573
904.863	4618
904.981	4447
905.098	4344
905.216	4360
905.334	4409
905.451	4424
905.569	4402
905.686	4546
905.803	4531
905.921	4390
906.038	4504
906.155	4470
906.272	4337
906.389	4462
906.506	4360
906.623	4371
906.74	4398
906.857	4329
906.974	4390
907.091	4569
907.208	4637
907.324	4599
907.441	4527
907.557	4367
907.674	4348
907.79	4291
907.907	4352
908.023	4497
908.139	4462
908.256	4424
908.372	4455
908.488	4459
908.604	4367
908.72	4360
908.836	4337
908.952	4363
909.068	4367
909.184	4573
909.3	4478
909.415	4592
909.531	4561
909.647	4318
909.762	4405
909.878	4341
909.993	4421
910.108	4413
910.224	4402
910.339	4489
910.454	4443
910.57	4337
910.685	4299
910.8	4675
910.915	4565
911.03	4451
911.145	4318
911.259	4379
911.374	4383
911.489	4272
911.604	4249
911.718	4188
911.833	4169
911.947	4071
912.062	4044
912.176	4219
912.291	4230
912.405	4253
912.519	4485
912.633	4478
912.748	4371
912.862	4360
912.976	4246
913.09	4124
913.204	4166
913.318	4215
913.431	4375
913.545	4363
913.659	4428
913.772	4386
913.886	4284
914	4257
914.113	4417
914.226	4451
914.34	4371
914.453	4253
914.566	4447
914.68	4291
914.793	4287
914.906	4215
915.019	4116
915.132	4078
915.245	4188
915.358	4219
915.47	4242
915.583	4246
915.696	4325
915.809	4394
915.921	4440
916.034	4265
916.146	4276
916.259	4196
916.371	4375
916.483	4379
916.595	4276
916.708	4329
916.82	4329
916.932	4329
917.044	4344
917.156	4333
917.268	4246
917.38	4268
917.491	4242
917.603	4360
917.715	4402
917.826	4417
917.938	4386
918.049	4219
918.161	4405
918.272	4565
918.384	4516
918.495	4504
918.606	4310
918.717	4287
918.828	4276
918.939	4356
919.05	4215
919.161	4322
919.272	4101
919.383	4230
919.494	4459
919.604	4641
919.715	4409
919.826	4360
919.936	4447
920.047	4497
920.157	4447
920.267	4679
920.378	4554
920.488	4474
920.598	4656
920.708	4866
920.818	4805
920.928	4790
921.038	4923
921.148	4927
921.258	4645
921.368	4550
921.477	4516
921.587	4459
921.697	4337
921.806	4500
921.916	4421
922.025	4272
922.134	4204
922.244	4223
922.353	4360
922.462	4162
922.571	4158
922.68	4025
922.789	3964
922.898	4036
923.007	4017
923.116	4078
923.224	4025
923.333	4086
923.442	4006
923.55	3949
923.659	4021
923.767	4116
923.876	4055
923.984	4124
924.092	4002
924.201	4105
924.309	4090
924.417	4101
924.525	4048
924.633	4120
924.741	5037
924.849	3899
924.956	4131
925.064	3983
925.172	3903
925.279	3975
925.387	4055
925.494	4078
925.602	4230
925.709	4169
925.816	4032
925.924	4131
926.031	4204
926.138	4177
926.245	4177
926.352	4105
926.459	4223
926.566	4284
926.673	4150
926.779	4082
926.886	4074
926.993	3956
927.099	3937
927.206	3941
927.312	3911
927.419	4002
927.525	4025
927.631	4093
927.737	3937
927.843	3926
927.95	3842
928.056	3953
928.162	4017
928.267	4071
928.373	4607
928.479	4143
928.585	3892
928.69	4006
928.796	4021
928.901	3956
929.007	3838
929.112	3998
929.218	3956
929.323	3926
929.428	3983
929.533	4074
929.638	3892
929.743	3972
929.848	4017
929.953	3998
930.058	3922
930.163	3755
930.267	3835
930.372	3945
930.477	3838
930.581	4097
930.685	3941
930.79	3789
930.894	3911
930.998	3857
931.103	4017
931.207	3717
931.311	3663
931.415	3675
931.519	3519
931.623	3584
