Data from test_V78500241_1777.txt Node
Date: Fri Mar 25 17:01:21 CST 2022
User: usil
Spectrometer: V785-0024
Trigger mode: 0
Integration Time (sec): 4.000000E-1
Scans to average: 1
Nonlinearity correction enabled: false
Boxcar width: 0
Storing dark spectrum: false
XAxis mode: Wavelengths
Number of Pixels in Spectrum: 1024
>>>>>Begin Spectral Data<<<<<
801.071	8008
801.214	8073
801.356	7875
801.499	7856
801.641	7822
801.783	7841
801.926	7955
802.068	7959
802.211	8027
802.353	8035
802.496	7883
802.638	7856
802.78	7951
802.923	7925
803.065	7830
803.208	7898
803.35	7986
803.492	8054
803.635	8225
803.777	7982
803.919	8153
804.061	8431
804.204	8225
804.346	8100
804.488	7963
804.63	8199
804.773	8088
804.915	8111
805.057	8305
805.199	8111
805.341	8275
805.483	8237
805.626	8153
805.768	8123
805.91	8176
806.052	8244
806.194	8077
806.336	8332
806.478	8103
806.62	8012
806.762	8142
806.904	8214
807.046	8518
807.188	8366
807.33	8275
807.472	8339
807.614	8126
807.756	8183
807.898	7989
808.04	7887
808.182	7936
808.324	7826
808.465	7887
808.607	8081
808.749	8081
808.891	8187
809.033	8355
809.174	8164
809.316	8149
809.458	8107
809.6	7982
809.741	8058
809.883	8092
810.025	8161
810.166	8073
810.308	8065
810.45	7871
810.591	7807
810.733	7792
810.875	7674
811.016	7499
811.158	7487
811.299	7651
811.441	7704
811.582	7670
811.724	7674
811.865	7575
812.007	7556
812.148	7613
812.29	7643
812.431	7803
812.573	7913
812.714	7986
812.855	8168
812.997	8248
813.138	8347
813.279	8153
813.421	8126
813.562	7978
813.703	7845
813.845	7769
813.986	7457
814.127	7316
814.268	7240
814.41	7225
814.551	7213
814.692	7236
814.833	7126
814.974	7122
815.115	7129
815.256	6993
815.397	6996
815.539	7008
815.68	6795
815.821	6783
815.962	6905
816.103	6821
816.244	6677
816.385	6612
816.526	6582
816.666	6525
816.807	6273
816.948	6494
817.089	6475
817.23	6464
817.371	6445
817.512	6380
817.653	6464
817.793	6388
817.934	6437
818.075	6460
818.216	6456
818.356	6426
818.497	6243
818.638	6175
818.778	6129
818.919	6068
819.06	6194
819.2	6353
819.341	6350
819.481	6384
819.622	6604
819.762	6730
819.903	6734
820.043	6555
820.184	6593
820.324	6540
820.465	6734
820.605	6692
820.746	6662
820.886	6498
821.026	6635
821.167	6673
821.307	6833
821.447	6814
821.588	6734
821.728	6604
821.868	6467
822.008	6365
822.149	6346
822.289	6331
822.429	6178
822.569	6030
822.709	6114
822.849	5946
822.99	5908
823.13	5878
823.27	5923
823.41	5847
823.55	5832
823.69	5828
823.83	5805
823.97	5649
824.11	5512
824.25	5433
824.389	5501
824.529	5570
824.669	5516
824.809	5589
824.949	5668
825.089	5573
825.228	5505
825.368	5357
825.508	5349
825.648	5345
825.787	5425
825.927	5360
826.067	5311
826.206	5231
826.346	5372
826.485	5410
826.625	5452
826.765	5524
826.904	5482
827.044	5280
827.183	5231
827.323	5162
827.462	5227
827.601	5151
827.741	5193
827.88	5178
828.02	5086
828.159	5208
828.298	5322
828.437	5322
828.577	5254
828.716	5486
828.855	5315
828.994	5140
829.134	5109
829.273	5170
829.412	5109
829.551	5090
829.69	5174
829.829	5216
829.968	5376
830.107	5277
830.246	5345
830.385	5143
830.524	5162
830.663	5098
830.802	4938
830.941	4881
831.08	4858
831.219	5010
831.357	4984
831.496	5102
831.635	4873
831.774	4839
831.913	4866
832.051	4714
832.19	4714
832.329	4847
832.467	4694
832.606	4577
832.744	4702
832.883	4733
833.022	4672
833.16	4767
833.299	4797
833.437	4812
833.576	4812
833.714	4908
833.852	4881
833.991	4919
834.129	4987
834.267	4949
834.406	4889
834.544	4942
834.682	4976
834.821	4942
834.959	5151
835.097	4991
835.235	5105
835.373	5060
835.511	5117
835.65	5067
835.788	4980
835.926	4885
836.064	4889
836.202	4938
836.34	5181
836.478	5197
836.615	5136
836.753	5235
836.891	5303
837.029	5231
837.167	5178
837.305	5185
837.443	5124
837.58	5045
837.718	5284
837.856	5132
837.993	5162
838.131	5220
838.269	5193
838.406	5185
838.544	5140
838.681	5029
838.819	5006
838.956	4896
839.094	4854
839.231	4976
839.369	5045
839.506	5391
839.643	5223
839.781	4999
839.918	5025
840.055	5102
840.193	5041
840.33	5132
840.467	5117
840.604	5208
840.742	5398
840.879	5159
841.016	5098
841.153	5193
841.29	5357
841.427	5360
841.564	5311
841.701	5360
841.838	5258
841.975	5227
842.112	5231
842.249	5140
842.385	5090
842.522	5368
842.659	5185
842.796	5147
842.933	5193
843.069	5124
843.206	5178
843.343	5372
843.479	5246
843.616	5288
843.752	5003
843.889	5045
844.025	5235
844.162	5037
844.298	5227
844.435	5071
844.571	5075
844.708	5178
844.844	5337
844.98	5341
845.117	5280
845.253	5197
845.389	5124
845.525	5136
845.661	5155
845.798	5025
845.934	5140
846.07	5003
846.206	5185
846.342	5280
846.478	5151
846.614	5071
846.75	5033
846.886	4961
847.022	5155
847.158	5037
847.294	5086
847.429	5105
847.565	5045
847.701	5337
847.837	4843
847.972	4816
848.108	4991
848.244	4904
848.379	4790
848.515	4744
848.65	4710
848.786	4721
848.921	4748
849.057	4870
849.192	4850
849.328	4805
849.463	4831
849.598	4820
849.734	4717
849.869	4710
850.004	4637
850.14	4664
850.275	4599
850.41	4516
850.545	4535
850.68	4611
850.815	4599
850.95	4580
851.085	4816
851.22	4744
851.355	4706
851.49	4599
851.625	4645
851.76	4611
851.895	4504
852.03	4527
852.165	4626
852.299	4759
852.434	4752
852.569	4767
852.703	4797
852.838	4809
852.973	4892
853.107	4930
853.242	4755
853.376	4653
853.511	4577
853.645	4626
853.78	4797
853.914	4694
854.048	4675
854.183	4622
854.317	4687
854.451	4835
854.585	4637
854.72	4656
854.854	4733
854.988	4588
855.122	4611
855.256	4519
855.39	4603
855.524	4721
855.658	4691
855.792	4679
855.926	4702
856.06	4725
856.194	4797
856.327	4694
856.461	4618
856.595	4622
856.729	4672
856.862	4721
856.996	4748
857.13	4725
857.263	4740
857.397	4710
857.53	4634
857.664	4733
857.797	4733
857.931	4797
858.064	4622
858.197	4755
858.331	4660
858.464	4603
858.597	4523
858.731	4588
858.864	4672
858.997	4618
859.13	4603
859.263	4634
859.396	4710
859.529	4558
859.662	4565
859.795	4527
859.928	4607
860.061	4786
860.194	4729
860.327	4580
860.46	4546
860.592	4710
860.725	4729
860.858	4710
860.99	4542
861.123	4497
861.256	4497
861.388	4618
861.521	5315
861.653	4466
861.786	4451
861.918	4493
862.05	4561
862.183	4569
862.315	4584
862.447	4645
862.58	4489
862.712	4352
862.844	4367
862.976	4466
863.108	4512
863.24	4870
863.372	4318
863.504	4417
863.636	4424
863.768	4440
863.9	4455
864.032	4386
864.164	4402
864.296	4447
864.428	4554
864.559	4607
864.691	4550
864.823	4519
864.954	4474
865.086	4531
865.217	4466
865.349	4402
865.48	4443
865.612	4489
865.743	4626
865.875	4413
866.006	4390
866.137	4417
866.269	4478
866.4	4428
866.531	4402
866.662	4409
866.793	4459
866.924	4402
867.055	4451
867.186	4428
867.317	4405
867.448	4379
867.579	4409
867.71	4409
867.841	4367
867.972	4447
868.103	4462
868.233	4470
868.364	4474
868.495	4523
868.625	4675
868.756	4725
868.886	4599
869.017	4653
869.147	4774
869.278	4774
869.408	4599
869.539	4637
869.669	4691
869.799	4599
869.929	4778
870.06	4710
870.19	4908
870.32	4904
870.45	4946
870.58	4972
870.71	5067
870.84	5105
870.97	4938
871.1	4877
871.23	5140
871.36	5098
871.489	5048
871.619	5048
871.749	5079
871.879	5140
872.008	5201
872.138	5037
872.267	4987
872.397	4850
872.526	4812
872.656	4702
872.785	4771
872.915	4923
873.044	5014
873.173	4946
873.303	4984
873.432	4949
873.561	4961
873.69	4870
873.819	4858
873.948	4934
874.077	4820
874.206	4725
874.335	4797
874.464	4934
874.593	5003
874.722	4980
874.851	5109
874.979	5048
875.108	5037
875.237	4919
875.365	4900
875.494	4908
875.623	4972
875.751	4782
875.88	4915
876.008	4957
876.136	5045
876.265	5162
876.393	5322
876.521	5242
876.65	5273
876.778	5147
876.906	5048
877.034	5041
877.162	5018
877.29	4976
877.418	5010
877.546	5056
877.674	5025
877.802	5022
877.93	5018
878.058	4942
878.185	4870
878.313	4949
878.441	4923
878.568	4752
878.696	4854
878.824	4972
878.951	5014
879.079	5102
879.206	5273
879.333	5094
879.461	5010
879.588	5010
879.715	5147
879.842	5223
879.97	5033
880.097	4790
880.224	4767
880.351	4790
880.478	4801
880.605	4790
880.732	4816
880.859	5086
880.986	4919
881.112	4862
881.239	4778
881.366	4687
881.493	4607
881.619	4596
881.746	4641
881.872	4645
881.999	4664
882.125	4694
882.252	4805
882.378	4812
882.505	4900
882.631	4759
882.757	4637
882.883	4782
883.01	4698
883.136	4649
883.262	4554
883.388	4656
883.514	4793
883.64	4911
883.766	4774
883.892	4618
884.018	4656
884.143	4892
884.269	4980
884.395	4664
884.52	4592
884.646	4660
884.772	4538
884.897	4615
885.023	4660
885.148	4774
885.274	4782
885.399	4774
885.524	4733
885.65	4683
885.775	4733
885.9	4687
886.025	4809
886.15	4801
886.275	4740
886.4	4653
886.525	4748
886.65	4683
886.775	4683
886.9	4881
887.025	5006
887.149	4793
887.274	4611
887.399	4580
887.523	4580
887.648	4554
887.773	4580
887.897	4767
888.021	4748
888.146	4630
888.27	4786
888.395	4831
888.519	4778
888.643	4835
888.767	4870
888.891	4717
889.015	4630
889.139	4634
889.263	4611
889.387	4755
889.511	4854
889.635	4816
889.759	4622
889.883	4615
890.006	4698
890.13	4793
890.254	4611
890.377	4672
890.501	4504
890.624	4500
890.748	4630
890.871	4531
890.995	4417
891.118	4371
891.241	4535
891.364	4527
891.488	4611
891.611	4485
891.734	4493
891.857	4558
891.98	4519
892.103	4687
892.226	4531
892.349	4531
892.471	4459
892.594	4554
892.717	4626
892.839	4531
892.962	4607
893.085	4683
893.207	4577
893.33	4451
893.452	4527
893.575	4626
893.697	4584
893.819	4774
893.941	4790
894.064	4717
894.186	4577
894.308	4550
894.43	4702
894.552	4839
894.674	4729
894.796	4558
894.918	4577
895.04	4584
895.161	4618
895.283	4679
895.405	4535
895.526	4615
895.648	4698
895.769	4698
895.891	4729
896.012	4733
896.134	4748
896.255	4626
896.376	4588
896.498	4637
896.619	4706
896.74	4599
896.861	4649
896.982	4923
897.103	5048
897.224	4812
897.345	4736
897.466	4694
897.587	4752
897.708	4843
897.828	4786
897.949	4668
898.07	4523
898.19	4630
898.311	4774
898.431	4675
898.552	4725
898.672	4809
898.792	4767
898.913	4759
899.033	4611
899.153	4554
899.273	4459
899.393	4508
899.513	4504
899.633	4497
899.753	4519
899.873	4493
899.993	4599
900.113	4493
900.232	4580
900.352	4527
900.472	4485
900.591	4398
900.711	4523
900.83	4390
900.95	4596
901.069	4683
901.189	4558
901.308	4371
901.427	4310
901.546	4352
901.665	4519
901.784	4527
901.904	4386
902.023	4284
902.141	4192
902.26	4219
902.379	4257
902.498	4230
902.617	4242
902.735	4318
902.854	4322
902.973	4337
903.091	4173
903.21	4207
903.328	4314
903.446	4230
903.565	4253
903.683	4333
903.801	4295
903.919	4379
904.038	4447
904.156	4325
904.274	4402
904.392	4379
904.51	4436
904.627	4481
904.745	4573
904.863	4641
904.981	4405
905.098	4318
905.216	4344
905.334	4436
905.451	4443
905.569	4478
905.686	4523
905.803	4577
905.921	4379
906.038	4550
906.155	4504
906.272	4432
906.389	4451
906.506	4371
906.623	4329
906.74	4398
906.857	4295
906.974	4341
907.091	4649
907.208	4691
907.324	4607
907.441	4485
907.557	4344
907.674	4363
907.79	4356
907.907	4375
908.023	4443
908.139	4493
908.256	4436
908.372	4402
908.488	4421
908.604	4398
908.72	4322
908.836	4344
908.952	4348
909.068	4398
909.184	4607
909.3	4466
909.415	4592
909.531	4527
909.647	4329
909.762	4379
909.878	4329
909.993	4447
910.108	4375
910.224	4386
910.339	4474
910.454	4394
910.57	4363
910.685	4310
910.8	4649
910.915	4599
911.03	4466
911.145	4348
911.259	4284
911.374	4386
911.489	4303
911.604	4295
911.718	4166
911.833	4185
911.947	4067
912.062	4025
912.176	4230
912.291	4219
912.405	4173
912.519	4440
912.633	4481
912.748	4394
912.862	4261
912.976	4181
913.09	4109
913.204	4173
913.318	4306
913.431	4379
913.545	4333
913.659	4375
913.772	4394
913.886	4227
914	4238
914.113	4363
914.226	4455
914.34	4386
914.453	4219
914.566	4413
914.68	4280
914.793	4333
914.906	4139
915.019	4093
915.132	4063
915.245	4162
915.358	4192
915.47	4265
915.583	4265
915.696	4261
915.809	4424
915.921	4402
916.034	4200
916.146	4257
916.259	4242
916.371	4344
916.483	4402
916.595	4276
916.708	4341
916.82	4310
916.932	4325
917.044	4348
917.156	4341
917.268	4246
917.38	4287
917.491	4246
917.603	4352
917.715	4432
917.826	4440
917.938	4367
918.049	4238
918.161	4386
918.272	4584
918.384	4535
918.495	4500
918.606	4314
918.717	4249
918.828	4360
918.939	4363
919.05	4287
919.161	4379
919.272	4090
919.383	4299
919.494	4474
919.604	4683
919.715	4500
919.826	4398
919.936	4455
920.047	4615
920.157	4542
920.267	4668
920.378	4558
920.488	4538
920.598	4717
920.708	4946
920.818	4778
920.928	4809
921.038	4934
921.148	4957
921.258	4641
921.368	4565
921.477	4546
921.587	4497
921.697	4356
921.806	4573
921.916	4504
922.025	4299
922.134	4341
922.244	4299
922.353	4405
922.462	4253
922.571	4177
922.68	4048
922.789	4002
922.898	4082
923.007	4044
923.116	4143
923.224	4150
923.333	4120
923.442	4044
923.55	4002
923.659	4093
923.767	4139
923.876	4059
923.984	4196
924.092	4029
924.201	4116
924.309	4101
924.417	4143
924.525	4078
924.633	4116
924.741	5117
924.849	3979
924.956	4154
925.064	3994
925.172	3979
925.279	4025
925.387	4101
925.494	4090
925.602	4257
925.709	4227
925.816	4048
925.924	4181
926.031	4268
926.138	4268
926.245	4276
926.352	4124
926.459	4284
926.566	4333
926.673	4188
926.779	4116
926.886	4120
926.993	4059
927.099	3987
927.206	3934
927.312	3987
927.419	4074
927.525	4090
927.631	4112
927.737	3998
927.843	3987
927.95	3911
928.056	4021
928.162	4032
928.267	4090
928.373	4607
928.479	4204
928.585	3983
928.69	4059
928.796	4093
928.901	3983
929.007	3915
929.112	3964
929.218	4032
929.323	3972
929.428	3949
929.533	4181
929.638	3968
929.743	4032
929.848	4051
929.953	4002
930.058	3983
930.163	3812
930.267	3850
930.372	4021
930.477	3865
930.581	4097
930.685	3994
930.79	3865
930.894	3930
930.998	3888
931.103	4067
931.207	3713
931.311	3751
931.415	3724
931.519	3564
931.623	3576
