Data from test_V78500241_1869.txt Node
Date: Fri Mar 25 17:01:59 CST 2022
User: usil
Spectrometer: V785-0024
Trigger mode: 0
Integration Time (sec): 4.000000E-1
Scans to average: 1
Nonlinearity correction enabled: false
Boxcar width: 0
Storing dark spectrum: false
XAxis mode: Wavelengths
Number of Pixels in Spectrum: 1024
>>>>>Begin Spectral Data<<<<<
801.071	8123
801.214	8073
801.356	7898
801.499	7822
801.641	7818
801.783	7841
801.926	7986
802.068	8012
802.211	8027
802.353	8050
802.496	7894
802.638	7864
802.78	7875
802.923	7955
803.065	7883
803.208	7906
803.35	8020
803.492	8100
803.635	8279
803.777	8020
803.919	8164
804.061	8419
804.204	8225
804.346	8073
804.488	7944
804.63	8035
804.773	8039
804.915	8142
805.057	8336
805.199	8168
805.341	8142
805.483	8233
805.626	8229
805.768	8134
805.91	8256
806.052	8218
806.194	8149
806.336	8313
806.478	8100
806.62	8134
806.762	8134
806.904	8237
807.046	8492
807.188	8393
807.33	8332
807.472	8377
807.614	8180
807.756	8176
807.898	7913
808.04	7944
808.182	7963
808.324	7917
808.465	7887
808.607	8088
808.749	8168
808.891	8145
809.033	8362
809.174	8240
809.316	8119
809.458	8062
809.6	8043
809.741	8008
809.883	8046
810.025	8092
810.166	8069
810.308	8073
810.45	7944
810.591	7849
810.733	7639
810.875	7731
811.016	7544
811.158	7430
811.299	7537
811.441	7753
811.582	7742
811.724	7559
811.865	7567
812.007	7651
812.148	7609
812.29	7681
812.431	7761
812.573	7883
812.714	7993
812.855	8130
812.997	8225
813.138	8343
813.279	8142
813.421	8065
813.562	7967
813.703	7757
813.845	7750
813.986	7476
814.127	7244
814.268	7221
814.41	7194
814.551	7213
814.692	7251
814.833	7103
814.974	7118
815.115	7122
815.256	7027
815.397	6966
815.539	6932
815.68	6802
815.821	6741
815.962	6859
816.103	6787
816.244	6749
816.385	6604
816.526	6616
816.666	6494
816.807	6369
816.948	6429
817.089	6437
817.23	6441
817.371	6361
817.512	6410
817.653	6388
817.793	6327
817.934	6331
818.075	6494
818.216	6445
818.356	6410
818.497	6289
818.638	6144
818.778	6182
818.919	6175
819.06	6171
819.2	6338
819.341	6346
819.481	6376
819.622	6551
819.762	6741
819.903	6772
820.043	6578
820.184	6574
820.324	6623
820.465	6722
820.605	6658
820.746	6646
820.886	6517
821.026	6639
821.167	6665
821.307	6787
821.447	6779
821.588	6673
821.728	6585
821.868	6433
822.008	6338
822.149	6369
822.289	6319
822.429	6186
822.569	6060
822.709	6129
822.849	5946
822.99	5863
823.13	5901
823.27	5897
823.41	5771
823.55	5771
823.69	5802
823.83	5790
823.97	5649
824.11	5562
824.25	5509
824.389	5516
824.529	5581
824.669	5471
824.809	5623
824.949	5699
825.089	5630
825.228	5528
825.368	5452
825.508	5345
825.648	5425
825.787	5410
825.927	5368
826.067	5292
826.206	5277
826.346	5334
826.485	5482
826.625	5414
826.765	5547
826.904	5490
827.044	5273
827.183	5208
827.323	5143
827.462	5220
827.601	5193
827.741	5197
827.88	5212
828.02	5056
828.159	5246
828.298	5330
828.437	5372
828.577	5277
828.716	5493
828.855	5368
828.994	5212
829.134	5181
829.273	5208
829.412	5174
829.551	5155
829.69	5181
829.829	5242
829.968	5372
830.107	5311
830.246	5261
830.385	5174
830.524	5128
830.663	5037
830.802	4968
830.941	4938
831.08	4877
831.219	4991
831.357	4968
831.496	5155
831.635	4881
831.774	4854
831.913	4847
832.051	4729
832.19	4759
832.329	4870
832.467	4687
832.606	4641
832.744	4733
832.883	4744
833.022	4740
833.16	4748
833.299	4801
833.437	4850
833.576	4850
833.714	4854
833.852	4839
833.991	4870
834.129	4934
834.267	4965
834.406	4927
834.544	4968
834.682	4984
834.821	5003
834.959	5197
835.097	4999
835.235	5155
835.373	5067
835.511	5132
835.65	5003
835.788	5037
835.926	4915
836.064	4862
836.202	4953
836.34	5170
836.478	5212
836.615	5117
836.753	5136
836.891	5334
837.029	5235
837.167	5178
837.305	5109
837.443	5136
837.58	5067
837.718	5265
837.856	5174
837.993	5174
838.131	5246
838.269	5208
838.406	5193
838.544	5197
838.681	5006
838.819	5037
838.956	4889
839.094	4904
839.231	4995
839.369	5045
839.506	5398
839.643	5315
839.781	5018
839.918	5064
840.055	5018
840.193	5090
840.33	5048
840.467	5109
840.604	5143
840.742	5490
840.879	5056
841.016	5121
841.153	5109
841.29	5318
841.427	5391
841.564	5273
841.701	5337
841.838	5235
841.975	5239
842.112	5258
842.249	5185
842.385	5105
842.522	5376
842.659	5170
842.796	5117
842.933	5227
843.069	5147
843.206	5132
843.343	5212
843.479	5227
843.616	5284
843.752	5045
843.889	4961
844.025	5204
844.162	5014
844.298	5201
844.435	5060
844.571	5029
844.708	5261
844.844	5284
844.98	5376
845.117	5322
845.253	5155
845.389	5113
845.525	5162
845.661	5143
845.798	5067
845.934	5159
846.07	5071
846.206	5220
846.342	5292
846.478	5094
846.614	5029
846.75	4968
846.886	4984
847.022	5136
847.158	5060
847.294	5094
847.429	5121
847.565	5064
847.701	5277
847.837	4866
847.972	4774
848.108	4915
848.244	4946
848.379	4763
848.515	4687
848.65	4694
848.786	4736
848.921	4786
849.057	4828
849.192	4850
849.328	4820
849.463	4847
849.598	4809
849.734	4714
849.869	4668
850.004	4599
850.14	4694
850.275	4588
850.41	4546
850.545	4538
850.68	4596
850.815	4615
850.95	4622
851.085	4797
851.22	4755
851.355	4645
851.49	4588
851.625	4637
851.76	4660
851.895	4546
852.03	4550
852.165	4649
852.299	4656
852.434	4824
852.569	4755
852.703	4755
852.838	4809
852.973	4927
853.107	4915
853.242	4752
853.376	4634
853.511	4531
853.645	4622
853.78	4805
853.914	4675
854.048	4611
854.183	4626
854.317	4691
854.451	4831
854.585	4679
854.72	4618
854.854	4771
854.988	4565
855.122	4626
855.256	4493
855.39	4683
855.524	4786
855.658	4736
855.792	4691
855.926	4694
856.06	4744
856.194	4786
856.327	4710
856.461	4599
856.595	4596
856.729	4599
856.862	4771
856.996	4706
857.13	4698
857.263	4767
857.397	4801
857.53	4622
857.664	4725
857.797	4850
857.931	4748
858.064	4733
858.197	4714
858.331	4687
858.464	4588
858.597	4512
858.731	4660
858.864	4626
858.997	4607
859.13	4607
859.263	4656
859.396	4691
859.529	4561
859.662	4607
859.795	4535
859.928	4580
860.061	4717
860.194	4801
860.327	4607
860.46	4550
860.592	4672
860.725	4736
860.858	4725
860.99	4573
861.123	4527
861.256	4577
861.388	4584
861.521	5318
861.653	4500
861.786	4424
861.918	4470
862.05	4500
862.183	4603
862.315	4584
862.447	4660
862.58	4519
862.712	4436
862.844	4329
862.976	4542
863.108	4451
863.24	4854
863.372	4363
863.504	4424
863.636	4413
863.768	4402
863.9	4451
864.032	4371
864.164	4417
864.296	4455
864.428	4542
864.559	4538
864.691	4565
864.823	4478
864.954	4489
865.086	4440
865.217	4440
865.349	4363
865.48	4417
865.612	4421
865.743	4615
865.875	4459
866.006	4383
866.137	4455
866.269	4413
866.4	4470
866.531	4424
866.662	4398
866.793	4398
866.924	4424
867.055	4470
867.186	4459
867.317	4432
867.448	4371
867.579	4386
867.71	4398
867.841	4390
867.972	4497
868.103	4489
868.233	4424
868.364	4478
868.495	4474
868.625	4653
868.756	4740
868.886	4554
869.017	4607
869.147	4771
869.278	4759
869.408	4668
869.539	4630
869.669	4694
869.799	4675
869.929	4729
870.06	4763
870.19	4923
870.32	4927
870.45	4923
870.58	5022
870.71	5064
870.84	5079
870.97	4900
871.1	4900
871.23	5105
871.36	5151
871.489	5014
871.619	5075
871.749	5079
871.879	5185
872.008	5151
872.138	5022
872.267	4987
872.397	4850
872.526	4801
872.656	4736
872.785	4828
872.915	4904
873.044	5033
873.173	4965
873.303	4927
873.432	4961
873.561	4957
873.69	4835
873.819	4927
873.948	4858
874.077	4824
874.206	4763
874.335	4782
874.464	4934
874.593	5056
874.722	4972
874.851	5033
874.979	5041
875.108	5041
875.237	4885
875.365	4927
875.494	4915
875.623	4953
875.751	4816
875.88	4870
876.008	4991
876.136	5029
876.265	5208
876.393	5349
876.521	5227
876.65	5246
876.778	5140
876.906	5075
877.034	5037
877.162	5010
877.29	4991
877.418	5071
877.546	5045
877.674	4987
877.802	4976
877.93	5022
878.058	4953
878.185	4892
878.313	4965
878.441	4930
878.568	4809
878.696	4866
878.824	4999
878.951	5006
879.079	5067
879.206	5280
879.333	5102
879.461	5014
879.588	4946
879.715	5124
879.842	5204
879.97	4976
880.097	4816
880.224	4778
880.351	4862
880.478	4839
880.605	4790
880.732	4812
880.859	5113
880.986	4961
881.112	4919
881.239	4744
881.366	4660
881.493	4626
881.619	4618
881.746	4637
881.872	4599
881.999	4687
882.125	4656
882.252	4771
882.378	4809
882.505	4968
882.631	4839
882.757	4668
882.883	4710
883.01	4698
883.136	4588
883.262	4630
883.388	4603
883.514	4812
883.64	4889
883.766	4759
883.892	4675
884.018	4744
884.143	4904
884.269	5022
884.395	4672
884.52	4599
884.646	4599
884.772	4577
884.897	4577
885.023	4603
885.148	4797
885.274	4877
885.399	4786
885.524	4755
885.65	4660
885.775	4691
885.9	4664
886.025	4911
886.15	4812
886.275	4706
886.4	4679
886.525	4740
886.65	4687
886.775	4668
886.9	4904
887.025	5048
887.149	4809
887.274	4637
887.399	4535
887.523	4588
887.648	4569
887.773	4607
887.897	4748
888.021	4759
888.146	4721
888.27	4797
888.395	4892
888.519	4748
888.643	4793
888.767	4805
888.891	4660
889.015	4584
889.139	4645
889.263	4577
889.387	4729
889.511	4870
889.635	4801
889.759	4622
889.883	4641
890.006	4691
890.13	4774
890.254	4599
890.377	4725
890.501	4546
890.624	4481
890.748	4622
890.871	4504
890.995	4451
891.118	4375
891.241	4558
891.364	4554
891.488	4607
891.611	4538
891.734	4588
891.857	4596
891.98	4481
892.103	4683
892.226	4546
892.349	4531
892.471	4390
892.594	4577
892.717	4630
892.839	4580
892.962	4561
893.085	4599
893.207	4592
893.33	4402
893.452	4485
893.575	4649
893.697	4558
893.819	4767
893.941	4805
894.064	4759
894.186	4599
894.308	4615
894.43	4714
894.552	4801
894.674	4694
894.796	4569
894.918	4615
895.04	4535
895.161	4660
895.283	4622
895.405	4599
895.526	4615
895.648	4675
895.769	4717
895.891	4706
896.012	4767
896.134	4710
896.255	4668
896.376	4611
896.498	4573
896.619	4691
896.74	4592
896.861	4637
896.982	4946
897.103	5075
897.224	4809
897.345	4736
897.466	4660
897.587	4736
897.708	4866
897.828	4774
897.949	4660
898.07	4535
898.19	4618
898.311	4850
898.431	4687
898.552	4755
898.672	4793
898.792	4790
898.913	4755
899.033	4645
899.153	4478
899.273	4375
899.393	4500
899.513	4531
899.633	4485
899.753	4546
899.873	4481
899.993	4611
900.113	4504
900.232	4580
900.352	4535
900.472	4481
900.591	4386
900.711	4500
900.83	4436
900.95	4656
901.069	4702
901.189	4512
901.308	4344
901.427	4337
901.546	4386
901.665	4462
901.784	4516
901.904	4424
902.023	4295
902.141	4181
902.26	4158
902.379	4329
902.498	4261
902.617	4192
902.735	4318
902.854	4417
902.973	4322
903.091	4238
903.21	4185
903.328	4325
903.446	4287
903.565	4265
903.683	4360
903.801	4291
903.919	4386
904.038	4398
904.156	4314
904.274	4424
904.392	4375
904.51	4432
904.627	4493
904.745	4531
904.863	4618
904.981	4398
905.098	4318
905.216	4363
905.334	4447
905.451	4470
905.569	4447
905.686	4527
905.803	4558
905.921	4367
906.038	4542
906.155	4485
906.272	4394
906.389	4481
906.506	4367
906.623	4383
906.74	4356
906.857	4329
906.974	4348
907.091	4565
907.208	4645
907.324	4592
907.441	4474
907.557	4344
907.674	4383
907.79	4284
907.907	4386
908.023	4474
908.139	4481
908.256	4402
908.372	4440
908.488	4459
908.604	4367
908.72	4341
908.836	4360
908.952	4375
909.068	4394
909.184	4554
909.3	4436
909.415	4573
909.531	4558
909.647	4375
909.762	4379
909.878	4352
909.993	4409
910.108	4455
910.224	4405
910.339	4481
910.454	4348
910.57	4356
910.685	4306
910.8	4622
910.915	4603
911.03	4500
911.145	4291
911.259	4352
911.374	4390
911.489	4276
911.604	4268
911.718	4143
911.833	4158
911.947	4093
912.062	4036
912.176	4204
912.291	4219
912.405	4192
912.519	4451
912.633	4459
912.748	4386
912.862	4268
912.976	4234
913.09	4124
913.204	4181
913.318	4207
913.431	4341
913.545	4344
913.659	4375
913.772	4352
913.886	4265
914	4242
914.113	4386
914.226	4428
914.34	4356
914.453	4192
914.566	4379
914.68	4261
914.793	4341
914.906	4154
915.019	4090
915.132	4063
915.245	4154
915.358	4215
915.47	4173
915.583	4261
915.696	4299
915.809	4413
915.921	4432
916.034	4253
916.146	4230
916.259	4192
916.371	4333
916.483	4325
916.595	4234
916.708	4318
916.82	4371
916.932	4303
917.044	4337
917.156	4344
917.268	4219
917.38	4261
917.491	4261
917.603	4402
917.715	4390
917.826	4447
917.938	4333
918.049	4265
918.161	4390
918.272	4542
918.384	4580
918.495	4466
918.606	4303
918.717	4207
918.828	4314
918.939	4383
919.05	4196
919.161	4272
919.272	4105
919.383	4234
919.494	4459
919.604	4626
919.715	4459
919.826	4341
919.936	4375
920.047	4531
920.157	4466
920.267	4740
920.378	4535
920.488	4516
920.598	4717
920.708	4911
920.818	4774
920.928	4755
921.038	4953
921.148	4904
921.258	4653
921.368	4573
921.477	4459
921.587	4470
921.697	4375
921.806	4523
921.916	4455
922.025	4265
922.134	4238
922.244	4265
922.353	4337
922.462	4207
922.571	4162
922.68	4036
922.789	3949
922.898	4040
923.007	3987
923.116	4128
923.224	4051
923.333	4074
923.442	3987
923.55	3972
923.659	4013
923.767	4116
923.876	4013
923.984	4109
924.092	3972
924.201	4112
924.309	4101
924.417	4135
924.525	4067
924.633	4074
924.741	5064
924.849	3941
924.956	4105
925.064	3994
925.172	3922
925.279	3991
925.387	4025
925.494	4029
925.602	4169
925.709	4173
925.816	4090
925.924	4124
926.031	4211
926.138	4181
926.245	4219
926.352	4093
926.459	4215
926.566	4276
926.673	4166
926.779	4074
926.886	4044
926.993	3960
927.099	3949
927.206	3880
927.312	3960
927.419	4032
927.525	4006
927.631	4071
927.737	3953
927.843	3926
927.95	3842
928.056	3953
928.162	4010
928.267	4013
928.373	4611
928.479	4112
928.585	3846
928.69	4017
928.796	4090
928.901	3972
929.007	3827
929.112	4017
929.218	3941
929.323	3918
929.428	3953
929.533	4093
929.638	3907
929.743	3994
929.848	4051
929.953	3987
930.058	3945
930.163	3778
930.267	3812
930.372	3968
930.477	3812
930.581	4105
930.685	3975
930.79	3823
930.894	3880
930.998	3918
931.103	4010
931.207	3740
931.311	3698
931.415	3709
931.519	3492
931.623	3568
