Data from test_V78500241_1078.txt Node
Date: Fri Mar 25 16:56:29 CST 2022
User: usil
Spectrometer: V785-0024
Trigger mode: 0
Integration Time (sec): 4.000000E-1
Scans to average: 1
Nonlinearity correction enabled: false
Boxcar width: 0
Storing dark spectrum: false
XAxis mode: Wavelengths
Number of Pixels in Spectrum: 1024
>>>>>Begin Spectral Data<<<<<
801.071	8054
801.214	8039
801.356	7845
801.499	7845
801.641	7814
801.783	7788
801.926	7959
802.068	7890
802.211	7894
802.353	7963
802.496	7780
802.638	7833
802.78	7925
802.923	7902
803.065	7845
803.208	7826
803.35	7963
803.492	8107
803.635	8062
803.777	7970
803.919	8092
804.061	8419
804.204	8157
804.346	8005
804.488	7974
804.63	8142
804.773	8012
804.915	8100
805.057	8275
805.199	8077
805.341	8157
805.483	8225
805.626	8221
805.768	8103
805.91	8168
806.052	8176
806.194	8084
806.336	8233
806.478	8130
806.62	8069
806.762	8088
806.904	8210
807.046	8415
807.188	8408
807.33	8286
807.472	8309
807.614	8206
807.756	8065
807.898	8027
808.04	7898
808.182	7917
808.324	7890
808.465	7955
808.607	8027
808.749	8065
808.891	8153
809.033	8218
809.174	8183
809.316	8092
809.458	8039
809.6	7989
809.741	8065
809.883	8005
810.025	8024
810.166	8084
810.308	8058
810.45	7993
810.591	7856
810.733	7723
810.875	7613
811.016	7499
811.158	7495
811.299	7578
811.441	7712
811.582	7685
811.724	7575
811.865	7506
812.007	7502
812.148	7609
812.29	7636
812.431	7761
812.573	7833
812.714	7959
812.855	8103
812.997	8248
813.138	8286
813.279	8218
813.421	8100
813.562	7989
813.703	7902
813.845	7750
813.986	7483
814.127	7270
814.268	7278
814.41	7187
814.551	7129
814.692	7129
814.833	7034
814.974	7057
815.115	7076
815.256	6993
815.397	6905
815.539	6928
815.68	6818
815.821	6814
815.962	6829
816.103	6818
816.244	6688
816.385	6688
816.526	6631
816.666	6407
816.807	6235
816.948	6429
817.089	6471
817.23	6464
817.371	6346
817.512	6388
817.653	6429
817.793	6281
817.934	6460
818.075	6486
818.216	6475
818.356	6441
818.497	6228
818.638	6106
818.778	6232
818.919	6095
819.06	6213
819.2	6262
819.341	6357
819.481	6346
819.622	6532
819.762	6738
819.903	6677
820.043	6646
820.184	6525
820.324	6597
820.465	6715
820.605	6646
820.746	6616
820.886	6467
821.026	6608
821.167	6703
821.307	6825
821.447	6719
821.588	6597
821.728	6601
821.868	6490
822.008	6243
822.149	6350
822.289	6361
822.429	6140
822.569	6064
822.709	6087
822.849	5908
822.99	5897
823.13	5916
823.27	5874
823.41	5794
823.55	5802
823.69	5767
823.83	5764
823.97	5703
824.11	5528
824.25	5486
824.389	5478
824.529	5581
824.669	5516
824.809	5554
824.949	5608
825.089	5615
825.228	5566
825.368	5402
825.508	5395
825.648	5311
825.787	5368
825.927	5341
826.067	5261
826.206	5334
826.346	5387
826.485	5429
826.625	5334
826.765	5535
826.904	5425
827.044	5239
827.183	5181
827.323	5067
827.462	5269
827.601	5147
827.741	5174
827.88	5193
828.02	5075
828.159	5201
828.298	5303
828.437	5326
828.577	5269
828.716	5421
828.855	5303
828.994	5178
829.134	5121
829.273	5170
829.412	5181
829.551	5162
829.69	5159
829.829	5193
829.968	5326
830.107	5284
830.246	5273
830.385	5174
830.524	5060
830.663	5067
830.802	4965
830.941	4870
831.08	4858
831.219	4953
831.357	5006
831.496	5105
831.635	4904
831.774	4786
831.913	4809
832.051	4725
832.19	4755
832.329	4755
832.467	4687
832.606	4611
832.744	4672
832.883	4675
833.022	4694
833.16	4782
833.299	4790
833.437	4858
833.576	4805
833.714	4839
833.852	4812
833.991	4870
834.129	4957
834.267	4919
834.406	4889
834.544	4946
834.682	5033
834.821	4949
834.959	5140
835.097	4968
835.235	5124
835.373	5064
835.511	5117
835.65	4987
835.788	5018
835.926	4919
836.064	4858
836.202	4870
836.34	5136
836.478	5227
836.615	5117
836.753	5166
836.891	5303
837.029	5258
837.167	5094
837.305	5102
837.443	5162
837.58	5113
837.718	5204
837.856	5155
837.993	5124
838.131	5197
838.269	5166
838.406	5189
838.544	5159
838.681	5029
838.819	4961
838.956	4850
839.094	4904
839.231	4946
839.369	5098
839.506	5436
839.643	5280
839.781	4987
839.918	5006
840.055	5064
840.193	5056
840.33	5064
840.467	5151
840.604	5178
840.742	5406
840.879	5041
841.016	5029
841.153	5136
841.29	5345
841.427	5330
841.564	5250
841.701	5349
841.838	5223
841.975	5208
842.112	5231
842.249	5132
842.385	5113
842.522	5360
842.659	5166
842.796	5143
842.933	5181
843.069	5117
843.206	5132
843.343	5299
843.479	5197
843.616	5261
843.752	5048
843.889	5018
844.025	5140
844.162	4995
844.298	5143
844.435	5147
844.571	5018
844.708	5151
844.844	5261
844.98	5349
845.117	5261
845.253	5132
845.389	5033
845.525	5147
845.661	5143
845.798	5060
845.934	5083
846.07	5041
846.206	5170
846.342	5239
846.478	5155
846.614	5029
846.75	4949
846.886	4965
847.022	5162
847.158	5048
847.294	5010
847.429	5075
847.565	5033
847.701	5299
847.837	4839
847.972	4793
848.108	4953
848.244	4938
848.379	4778
848.515	4668
848.65	4664
848.786	4721
848.921	4774
849.057	4835
849.192	4900
849.328	4771
849.463	4816
849.598	4774
849.734	4729
849.869	4698
850.004	4611
850.14	4675
850.275	4622
850.41	4474
850.545	4546
850.68	4573
850.815	4615
850.95	4603
851.085	4812
851.22	4717
851.355	4664
851.49	4603
851.625	4626
851.76	4603
851.895	4508
852.03	4527
852.165	4630
852.299	4717
852.434	4805
852.569	4710
852.703	4736
852.838	4801
852.973	4915
853.107	4870
853.242	4797
853.376	4675
853.511	4538
853.645	4603
853.78	4778
853.914	4687
854.048	4641
854.183	4668
854.317	4687
854.451	4809
854.585	4626
854.72	4622
854.854	4786
854.988	4580
855.122	4615
855.256	4519
855.39	4634
855.524	4736
855.658	4702
855.792	4641
855.926	4687
856.06	4736
856.194	4759
856.327	4622
856.461	4599
856.595	4615
856.729	4573
856.862	4729
856.996	4702
857.13	4740
857.263	4698
857.397	4831
857.53	4641
857.664	4698
857.797	4706
857.931	4740
858.064	4672
858.197	4626
858.331	4649
858.464	4596
858.597	4497
858.731	4542
858.864	4599
858.997	4607
859.13	4645
859.263	4653
859.396	4698
859.529	4565
859.662	4580
859.795	4535
859.928	4580
860.061	4797
860.194	4793
860.327	4603
860.46	4554
860.592	4679
860.725	4744
860.858	4733
860.99	4565
861.123	4493
861.256	4512
861.388	4634
861.521	5402
861.653	4500
861.786	4462
861.918	4447
862.05	4523
862.183	4519
862.315	4588
862.447	4649
862.58	4531
862.712	4341
862.844	4261
862.976	4466
863.108	4459
863.24	4831
863.372	4329
863.504	4375
863.636	4409
863.768	4500
863.9	4432
864.032	4367
864.164	4421
864.296	4443
864.428	4535
864.559	4542
864.691	4531
864.823	4519
864.954	4462
865.086	4516
865.217	4470
865.349	4409
865.48	4417
865.612	4481
865.743	4596
865.875	4508
866.006	4421
866.137	4497
866.269	4432
866.4	4371
866.531	4405
866.662	4375
866.793	4379
866.924	4455
867.055	4462
867.186	4409
867.317	4375
867.448	4375
867.579	4375
867.71	4390
867.841	4314
867.972	4440
868.103	4508
868.233	4466
868.364	4436
868.495	4466
868.625	4656
868.756	4721
868.886	4569
869.017	4626
869.147	4748
869.278	4752
869.408	4645
869.539	4615
869.669	4668
869.799	4649
869.929	4748
870.06	4725
870.19	4930
870.32	4915
870.45	4908
870.58	4965
870.71	5048
870.84	5056
870.97	4942
871.1	4881
871.23	5086
871.36	5094
871.489	5033
871.619	5018
871.749	5045
871.879	5124
872.008	5166
872.138	5029
872.267	4984
872.397	4790
872.526	4771
872.656	4733
872.785	4812
872.915	5006
873.044	5048
873.173	4938
873.303	4976
873.432	4946
873.561	4934
873.69	4850
873.819	4839
873.948	4866
874.077	4820
874.206	4744
874.335	4786
874.464	4900
874.593	5025
874.722	4923
874.851	5083
874.979	4980
875.108	5014
875.237	4866
875.365	4866
875.494	4854
875.623	4953
875.751	4748
875.88	4866
876.008	4934
876.136	4991
876.265	5204
876.393	5318
876.521	5277
876.65	5220
876.778	5113
876.906	5025
877.034	5025
877.162	5048
877.29	4938
877.418	5029
877.546	4987
877.674	5048
877.802	5010
877.93	4991
878.058	4946
878.185	4816
878.313	4942
878.441	4900
878.568	4790
878.696	4873
878.824	4949
878.951	5018
879.079	5166
879.206	5280
879.333	5102
879.461	4938
879.588	5014
879.715	5105
879.842	5197
879.97	4965
880.097	4797
880.224	4710
880.351	4786
880.478	4847
880.605	4771
880.732	4786
880.859	5071
880.986	4862
881.112	4866
881.239	4778
881.366	4618
881.493	4588
881.619	4596
881.746	4599
881.872	4607
881.999	4660
882.125	4660
882.252	4740
882.378	4839
882.505	4946
882.631	4835
882.757	4649
882.883	4729
883.01	4736
883.136	4668
883.262	4592
883.388	4607
883.514	4774
883.64	4885
883.766	4721
883.892	4660
884.018	4672
884.143	4858
884.269	4976
884.395	4668
884.52	4622
884.646	4596
884.772	4558
884.897	4554
885.023	4653
885.148	4831
885.274	4904
885.399	4820
885.524	4656
885.65	4714
885.775	4752
885.9	4687
886.025	4812
886.15	4729
886.275	4691
886.4	4626
886.525	4729
886.65	4683
886.775	4687
886.9	4873
887.025	5029
887.149	4824
887.274	4714
887.399	4580
887.523	4596
887.648	4584
887.773	4565
887.897	4752
888.021	4725
888.146	4672
888.27	4847
888.395	4972
888.519	4809
888.643	4816
888.767	4809
888.891	4599
889.015	4668
889.139	4710
889.263	4584
889.387	4748
889.511	4793
889.635	4755
889.759	4618
889.883	4645
890.006	4683
890.13	4793
890.254	4588
890.377	4702
890.501	4565
890.624	4497
890.748	4637
890.871	4546
890.995	4413
891.118	4344
891.241	4478
891.364	4527
891.488	4637
891.611	4508
891.734	4516
891.857	4577
891.98	4554
892.103	4592
892.226	4622
892.349	4500
892.471	4417
892.594	4538
892.717	4565
892.839	4485
892.962	4580
893.085	4645
893.207	4634
893.33	4474
893.452	4508
893.575	4618
893.697	4580
893.819	4805
893.941	4771
894.064	4740
894.186	4565
894.308	4554
894.43	4706
894.552	4790
894.674	4759
894.796	4535
894.918	4580
895.04	4558
895.161	4687
895.283	4641
895.405	4558
895.526	4664
895.648	4691
895.769	4645
895.891	4664
896.012	4714
896.134	4710
896.255	4660
896.376	4626
896.498	4596
896.619	4687
896.74	4599
896.861	4630
896.982	4900
897.103	5102
897.224	4828
897.345	4755
897.466	4672
897.587	4664
897.708	4843
897.828	4740
897.949	4683
898.07	4542
898.19	4641
898.311	4790
898.431	4679
898.552	4740
898.672	4816
898.792	4812
898.913	4710
899.033	4615
899.153	4447
899.273	4390
899.393	4485
899.513	4504
899.633	4504
899.753	4546
899.873	4470
899.993	4554
900.113	4504
900.232	4565
900.352	4508
900.472	4466
900.591	4398
900.711	4485
900.83	4443
900.95	4580
901.069	4645
901.189	4508
901.308	4314
901.427	4276
901.546	4386
901.665	4447
901.784	4504
901.904	4386
902.023	4333
902.141	4196
902.26	4143
902.379	4284
902.498	4230
902.617	4169
902.735	4367
902.854	4375
902.973	4322
903.091	4188
903.21	4219
903.328	4333
903.446	4261
903.565	4268
903.683	4356
903.801	4265
903.919	4348
904.038	4436
904.156	4303
904.274	4455
904.392	4394
904.51	4459
904.627	4493
904.745	4554
904.863	4653
904.981	4394
905.098	4276
905.216	4383
905.334	4428
905.451	4424
905.569	4375
905.686	4516
905.803	4565
905.921	4436
906.038	4542
906.155	4523
906.272	4405
906.389	4466
906.506	4314
906.623	4352
906.74	4375
906.857	4341
906.974	4337
907.091	4519
907.208	4683
907.324	4592
907.441	4523
907.557	4318
907.674	4363
907.79	4329
907.907	4371
908.023	4493
908.139	4459
908.256	4394
908.372	4478
908.488	4421
908.604	4284
908.72	4287
908.836	4325
908.952	4367
909.068	4390
909.184	4577
909.3	4497
909.415	4569
909.531	4538
909.647	4360
909.762	4398
909.878	4352
909.993	4432
910.108	4367
910.224	4363
910.339	4470
910.454	4394
910.57	4379
910.685	4276
910.8	4653
910.915	4592
911.03	4485
911.145	4295
911.259	4322
911.374	4363
911.489	4284
911.604	4276
911.718	4169
911.833	4204
911.947	4059
912.062	3945
912.176	4158
912.291	4215
912.405	4265
912.519	4470
912.633	4519
912.748	4367
912.862	4280
912.976	4188
913.09	4086
913.204	4200
913.318	4246
913.431	4356
913.545	4367
913.659	4432
913.772	4371
913.886	4211
914	4185
914.113	4413
914.226	4409
914.34	4371
914.453	4242
914.566	4390
914.68	4261
914.793	4303
914.906	4158
915.019	4124
915.132	4071
915.245	4211
915.358	4188
915.47	4238
915.583	4272
915.696	4306
915.809	4371
915.921	4421
916.034	4265
916.146	4295
916.259	4234
916.371	4409
916.483	4344
916.595	4246
916.708	4303
916.82	4295
916.932	4325
917.044	4276
917.156	4360
917.268	4223
917.38	4310
917.491	4268
917.603	4333
917.715	4398
917.826	4466
917.938	4337
918.049	4238
918.161	4424
918.272	4531
918.384	4554
918.495	4421
918.606	4265
918.717	4253
918.828	4303
918.939	4386
919.05	4261
919.161	4306
919.272	4131
919.383	4230
919.494	4405
919.604	4580
919.715	4405
919.826	4371
919.936	4383
920.047	4500
920.157	4466
920.267	4694
920.378	4554
920.488	4538
920.598	4733
920.708	4828
920.818	4755
920.928	4725
921.038	4972
921.148	4908
921.258	4615
921.368	4535
921.477	4443
921.587	4440
921.697	4329
921.806	4561
921.916	4440
922.025	4227
922.134	4287
922.244	4211
922.353	4337
922.462	4181
922.571	4207
922.68	3991
922.789	3968
922.898	4055
923.007	3987
923.116	4120
923.224	4074
923.333	4029
923.442	4002
923.55	3918
923.659	4048
923.767	4093
923.876	3998
923.984	4112
924.092	4006
924.201	4097
924.309	4124
924.417	4067
924.525	4055
924.633	4173
924.741	5003
924.849	3892
924.956	4120
925.064	3968
925.172	3922
925.279	3972
925.387	4036
925.494	4040
925.602	4192
925.709	4181
925.816	4032
925.924	4086
926.031	4185
926.138	4135
926.245	4196
926.352	4082
926.459	4265
926.566	4299
926.673	4135
926.779	4082
926.886	4067
926.993	3949
927.099	3937
927.206	3907
927.312	3960
927.419	4067
927.525	4006
927.631	4074
927.737	3941
927.843	3945
927.95	3846
928.056	3983
928.162	3960
928.267	4017
928.373	4634
928.479	4109
928.585	3903
928.69	3975
928.796	4074
928.901	3975
929.007	3857
929.112	3998
929.218	3949
929.323	3934
929.428	3915
929.533	4105
929.638	3911
929.743	3972
929.848	4044
929.953	4032
930.058	3903
930.163	3797
930.267	3819
930.372	3964
930.477	3793
930.581	4109
930.685	3968
930.79	3755
930.894	3846
930.998	3812
931.103	4002
931.207	3656
931.311	3675
931.415	3663
931.519	3492
931.623	3542
