Data from test_V78500241_1771.txt Node
Date: Fri Mar 25 17:01:18 CST 2022
User: usil
Spectrometer: V785-0024
Trigger mode: 0
Integration Time (sec): 4.000000E-1
Scans to average: 1
Nonlinearity correction enabled: false
Boxcar width: 0
Storing dark spectrum: false
XAxis mode: Wavelengths
Number of Pixels in Spectrum: 1024
>>>>>Begin Spectral Data<<<<<
801.071	7982
801.214	8001
801.356	7822
801.499	7925
801.641	7826
801.783	7864
801.926	8012
802.068	7951
802.211	7967
802.353	7993
802.496	7883
802.638	7940
802.78	7879
802.923	7909
803.065	7818
803.208	7906
803.35	8016
803.492	8088
803.635	8199
803.777	7963
803.919	8168
804.061	8522
804.204	8172
804.346	8092
804.488	7982
804.63	8134
804.773	8046
804.915	8111
805.057	8275
805.199	8180
805.341	8183
805.483	8240
805.626	8225
805.768	8084
805.91	8240
806.052	8210
806.194	8164
806.336	8336
806.478	8126
806.62	8126
806.762	8103
806.904	8267
807.046	8549
807.188	8366
807.33	8271
807.472	8355
807.614	8195
807.756	8172
807.898	8031
808.04	7936
808.182	7879
808.324	7898
808.465	7932
808.607	8081
808.749	8065
808.891	8199
809.033	8301
809.174	8294
809.316	8031
809.458	8100
809.6	8046
809.741	8084
809.883	7993
810.025	8046
810.166	8043
810.308	8027
810.45	8046
810.591	7864
810.733	7715
810.875	7670
811.016	7537
811.158	7533
811.299	7609
811.441	7731
811.582	7719
811.724	7674
811.865	7529
812.007	7601
812.148	7609
812.29	7628
812.431	7772
812.573	7879
812.714	7986
812.855	8142
812.997	8199
813.138	8317
813.279	8168
813.421	8107
813.562	7936
813.703	7879
813.845	7746
813.986	7441
814.127	7320
814.268	7251
814.41	7228
814.551	7202
814.692	7221
814.833	7122
814.974	7164
815.115	7110
815.256	6947
815.397	6958
815.539	7000
815.68	6818
815.821	6791
815.962	6909
816.103	6837
816.244	6749
816.385	6658
816.526	6654
816.666	6528
816.807	6376
816.948	6506
817.089	6528
817.23	6464
817.371	6361
817.512	6342
817.653	6414
817.793	6308
817.934	6365
818.075	6456
818.216	6460
818.356	6479
818.497	6220
818.638	6152
818.778	6190
818.919	6155
819.06	6167
819.2	6311
819.341	6361
819.481	6372
819.622	6559
819.762	6802
819.903	6696
820.043	6627
820.184	6540
820.324	6574
820.465	6741
820.605	6681
820.746	6662
820.886	6555
821.026	6650
821.167	6700
821.307	6787
821.447	6669
821.588	6654
821.728	6620
821.868	6540
822.008	6388
822.149	6357
822.289	6323
822.429	6171
822.569	6076
822.709	6117
822.849	5901
822.99	5912
823.13	5931
823.27	5935
823.41	5824
823.55	5809
823.69	5794
823.83	5771
823.97	5619
824.11	5482
824.25	5497
824.389	5520
824.529	5554
824.669	5562
824.809	5657
824.949	5676
825.089	5619
825.228	5573
825.368	5368
825.508	5364
825.648	5330
825.787	5406
825.927	5341
826.067	5337
826.206	5330
826.346	5406
826.485	5425
826.625	5486
826.765	5589
826.904	5535
827.044	5315
827.183	5208
827.323	5102
827.462	5277
827.601	5181
827.741	5216
827.88	5265
828.02	5086
828.159	5208
828.298	5345
828.437	5376
828.577	5330
828.716	5486
828.855	5277
828.994	5170
829.134	5181
829.273	5212
829.412	5140
829.551	5147
829.69	5166
829.829	5235
829.968	5391
830.107	5315
830.246	5239
830.385	5189
830.524	5155
830.663	5094
830.802	5029
830.941	4877
831.08	4843
831.219	4999
831.357	5003
831.496	5178
831.635	4934
831.774	4797
831.913	4831
832.051	4717
832.19	4740
832.329	4854
832.467	4702
832.606	4668
832.744	4740
832.883	4752
833.022	4763
833.16	4843
833.299	4877
833.437	4816
833.576	4839
833.714	4896
833.852	4881
833.991	4911
834.129	4957
834.267	4980
834.406	4923
834.544	4972
834.682	5029
834.821	4968
834.959	5159
835.097	5022
835.235	5147
835.373	5060
835.511	5094
835.65	5029
835.788	5029
835.926	4858
836.064	4858
836.202	4915
836.34	5124
836.478	5223
836.615	5170
836.753	5193
836.891	5303
837.029	5280
837.167	5147
837.305	5220
837.443	5170
837.58	5102
837.718	5227
837.856	5140
837.993	5174
838.131	5235
838.269	5208
838.406	5235
838.544	5151
838.681	5003
838.819	4999
838.956	4904
839.094	4908
839.231	5022
839.369	5117
839.506	5436
839.643	5250
839.781	5064
839.918	5010
840.055	5143
840.193	5010
840.33	5083
840.467	5128
840.604	5197
840.742	5410
840.879	5098
841.016	5052
841.153	5140
841.29	5410
841.427	5315
841.564	5292
841.701	5337
841.838	5273
841.975	5223
842.112	5246
842.249	5124
842.385	5132
842.522	5326
842.659	5166
842.796	5162
842.933	5185
843.069	5159
843.206	5166
843.343	5364
843.479	5216
843.616	5220
843.752	5113
843.889	5033
844.025	5242
844.162	5079
844.298	5223
844.435	5128
844.571	5056
844.708	5155
844.844	5261
844.98	5330
845.117	5250
845.253	5170
845.389	5109
845.525	5121
845.661	5124
845.798	4999
845.934	5128
846.07	5067
846.206	5197
846.342	5292
846.478	5159
846.614	5029
846.75	4968
846.886	5006
847.022	5174
847.158	5045
847.294	5045
847.429	5075
847.565	5109
847.701	5353
847.837	4797
847.972	4831
848.108	4911
848.244	4938
848.379	4812
848.515	4748
848.65	4717
848.786	4771
848.921	4828
849.057	4835
849.192	4930
849.328	4786
849.463	4885
849.598	4782
849.734	4771
849.869	4733
850.004	4645
850.14	4611
850.275	4622
850.41	4538
850.545	4565
850.68	4618
850.815	4622
850.95	4660
851.085	4835
851.22	4759
851.355	4668
851.49	4622
851.625	4622
851.76	4645
851.895	4565
852.03	4508
852.165	4641
852.299	4675
852.434	4782
852.569	4714
852.703	4748
852.838	4805
852.973	4900
853.107	4927
853.242	4672
853.376	4645
853.511	4588
853.645	4630
853.78	4805
853.914	4683
854.048	4672
854.183	4634
854.317	4710
854.451	4843
854.585	4668
854.72	4683
854.854	4744
854.988	4611
855.122	4630
855.256	4546
855.39	4694
855.524	4805
855.658	4786
855.792	4672
855.926	4725
856.06	4767
856.194	4812
856.327	4702
856.461	4618
856.595	4630
856.729	4641
856.862	4771
856.996	4710
857.13	4752
857.263	4805
857.397	4793
857.53	4664
857.664	4744
857.797	4740
857.931	4767
858.064	4645
858.197	4725
858.331	4634
858.464	4626
858.597	4538
858.731	4615
858.864	4687
858.997	4588
859.13	4645
859.263	4641
859.396	4725
859.529	4603
859.662	4573
859.795	4538
859.928	4634
860.061	4706
860.194	4721
860.327	4573
860.46	4546
860.592	4694
860.725	4687
860.858	4793
860.99	4523
861.123	4550
861.256	4508
861.388	4615
861.521	5277
861.653	4489
861.786	4413
861.918	4451
862.05	4481
862.183	4546
862.315	4637
862.447	4649
862.58	4554
862.712	4356
862.844	4303
862.976	4478
863.108	4508
863.24	4870
863.372	4329
863.504	4478
863.636	4413
863.768	4474
863.9	4455
864.032	4356
864.164	4405
864.296	4466
864.428	4569
864.559	4550
864.691	4561
864.823	4523
864.954	4493
865.086	4500
865.217	4459
865.349	4398
865.48	4459
865.612	4481
865.743	4645
865.875	4493
866.006	4421
866.137	4493
866.269	4466
866.4	4424
866.531	4383
866.662	4379
866.793	4405
866.924	4417
867.055	4500
867.186	4424
867.317	4421
867.448	4375
867.579	4386
867.71	4405
867.841	4367
867.972	4474
868.103	4436
868.233	4462
868.364	4447
868.495	4478
868.625	4714
868.756	4782
868.886	4527
869.017	4577
869.147	4816
869.278	4767
869.408	4710
869.539	4637
869.669	4698
869.799	4675
869.929	4740
870.06	4744
870.19	4911
870.32	4923
870.45	4946
870.58	4972
870.71	5128
870.84	5124
870.97	4968
871.1	4862
871.23	5185
871.36	5143
871.489	5045
871.619	5052
871.749	5060
871.879	5132
872.008	5185
872.138	5041
872.267	4927
872.397	4839
872.526	4797
872.656	4702
872.785	4801
872.915	4965
873.044	4984
873.173	4980
873.303	4980
873.432	4953
873.561	4930
873.69	4919
873.819	4835
873.948	4850
874.077	4809
874.206	4767
874.335	4820
874.464	4930
874.593	5025
874.722	4961
874.851	5102
874.979	5045
875.108	5025
875.237	4911
875.365	4866
875.494	4889
875.623	4957
875.751	4801
875.88	4923
876.008	4957
876.136	5025
876.265	5216
876.393	5357
876.521	5235
876.65	5231
876.778	5159
876.906	5067
877.034	5037
877.162	5033
877.29	5045
877.418	5056
877.546	5045
877.674	5060
877.802	4987
877.93	5018
878.058	4980
878.185	4870
878.313	4870
878.441	4946
878.568	4782
878.696	4866
878.824	4991
878.951	4976
879.079	5132
879.206	5220
879.333	5086
879.461	4995
879.588	5041
879.715	5090
879.842	5223
879.97	4987
880.097	4767
880.224	4714
880.351	4824
880.478	4847
880.605	4809
880.732	4744
880.859	5083
880.986	4889
881.112	4949
881.239	4797
881.366	4599
881.493	4615
881.619	4573
881.746	4645
881.872	4664
881.999	4664
882.125	4668
882.252	4797
882.378	4771
882.505	4953
882.631	4843
882.757	4656
882.883	4748
883.01	4679
883.136	4656
883.262	4542
883.388	4641
883.514	4774
883.64	4847
883.766	4771
883.892	4691
884.018	4717
884.143	4892
884.269	5010
884.395	4717
884.52	4599
884.646	4626
884.772	4561
884.897	4558
885.023	4656
885.148	4774
885.274	4873
885.399	4812
885.524	4721
885.65	4664
885.775	4744
885.9	4679
886.025	4824
886.15	4786
886.275	4774
886.4	4634
886.525	4755
886.65	4637
886.775	4729
886.9	4923
887.025	5067
887.149	4801
887.274	4596
887.399	4538
887.523	4584
887.648	4603
887.773	4508
887.897	4767
888.021	4812
888.146	4645
888.27	4824
888.395	4873
888.519	4774
888.643	4862
888.767	4835
888.891	4721
889.015	4588
889.139	4630
889.263	4592
889.387	4752
889.511	4854
889.635	4805
889.759	4561
889.883	4626
890.006	4740
890.13	4850
890.254	4618
890.377	4656
890.501	4542
890.624	4565
890.748	4653
890.871	4459
890.995	4428
891.118	4436
891.241	4519
891.364	4535
891.488	4637
891.611	4493
891.734	4550
891.857	4603
891.98	4538
892.103	4641
892.226	4592
892.349	4500
892.471	4386
892.594	4497
892.717	4569
892.839	4588
892.962	4584
893.085	4645
893.207	4569
893.33	4451
893.452	4538
893.575	4660
893.697	4599
893.819	4801
893.941	4824
894.064	4752
894.186	4580
894.308	4607
894.43	4729
894.552	4805
894.674	4691
894.796	4565
894.918	4596
895.04	4573
895.161	4691
895.283	4618
895.405	4573
895.526	4596
895.648	4630
895.769	4729
895.891	4694
896.012	4717
896.134	4714
896.255	4679
896.376	4637
896.498	4630
896.619	4672
896.74	4599
896.861	4588
896.982	4923
897.103	5105
897.224	4812
897.345	4771
897.466	4675
897.587	4687
897.708	4828
897.828	4816
897.949	4618
898.07	4538
898.19	4641
898.311	4824
898.431	4675
898.552	4714
898.672	4755
898.792	4805
898.913	4748
899.033	4615
899.153	4474
899.273	4386
899.393	4508
899.513	4519
899.633	4538
899.753	4550
899.873	4523
899.993	4592
900.113	4565
900.232	4580
900.352	4542
900.472	4470
900.591	4413
900.711	4485
900.83	4459
900.95	4588
901.069	4733
901.189	4508
901.308	4329
901.427	4291
901.546	4379
901.665	4489
901.784	4523
901.904	4413
902.023	4306
902.141	4204
902.26	4154
902.379	4299
902.498	4234
902.617	4188
902.735	4379
902.854	4383
902.973	4363
903.091	4227
903.21	4215
903.328	4284
903.446	4287
903.565	4303
903.683	4337
903.801	4249
903.919	4371
904.038	4379
904.156	4337
904.274	4413
904.392	4409
904.51	4459
904.627	4493
904.745	4554
904.863	4626
904.981	4379
905.098	4295
905.216	4375
905.334	4352
905.451	4421
905.569	4421
905.686	4550
905.803	4580
905.921	4413
906.038	4558
906.155	4470
906.272	4383
906.389	4481
906.506	4348
906.623	4383
906.74	4371
906.857	4295
906.974	4329
907.091	4535
907.208	4691
907.324	4603
907.441	4466
907.557	4333
907.674	4337
907.79	4322
907.907	4436
908.023	4523
908.139	4440
908.256	4413
908.372	4474
908.488	4421
908.604	4363
908.72	4341
908.836	4352
908.952	4436
909.068	4455
909.184	4535
909.3	4466
909.415	4550
909.531	4565
909.647	4329
909.762	4333
909.878	4356
909.993	4424
910.108	4402
910.224	4405
910.339	4459
910.454	4383
910.57	4337
910.685	4280
910.8	4596
910.915	4618
911.03	4462
911.145	4344
911.259	4348
911.374	4325
911.489	4329
911.604	4257
911.718	4204
911.833	4185
911.947	4093
912.062	4010
912.176	4196
912.291	4261
912.405	4276
912.519	4462
912.633	4470
912.748	4386
912.862	4303
912.976	4147
913.09	4071
913.204	4181
913.318	4249
913.431	4386
913.545	4363
913.659	4424
913.772	4409
913.886	4268
914	4276
914.113	4383
914.226	4436
914.34	4386
914.453	4227
914.566	4432
914.68	4318
914.793	4371
914.906	4120
915.019	4154
915.132	4040
915.245	4200
915.358	4246
915.47	4268
915.583	4276
915.696	4348
915.809	4405
915.921	4421
916.034	4211
916.146	4261
916.259	4215
916.371	4421
916.483	4348
916.595	4265
916.708	4348
916.82	4310
916.932	4363
917.044	4306
917.156	4310
917.268	4242
917.38	4314
917.491	4234
917.603	4367
917.715	4451
917.826	4451
917.938	4341
918.049	4219
918.161	4402
918.272	4550
918.384	4542
918.495	4440
918.606	4272
918.717	4227
918.828	4333
918.939	4337
919.05	4249
919.161	4344
919.272	4147
919.383	4246
919.494	4428
919.604	4626
919.715	4405
919.826	4367
919.936	4386
920.047	4519
920.157	4489
920.267	4664
920.378	4565
920.488	4462
920.598	4710
920.708	4946
920.818	4698
920.928	4717
921.038	4995
921.148	4980
921.258	4645
921.368	4508
921.477	4504
921.587	4481
921.697	4329
921.806	4542
921.916	4405
922.025	4280
922.134	4257
922.244	4246
922.353	4325
922.462	4200
922.571	4143
922.68	4025
922.789	3953
922.898	4067
923.007	3975
923.116	4059
923.224	4071
923.333	4055
923.442	3975
923.55	3998
923.659	4078
923.767	4078
923.876	3998
923.984	4120
924.092	4025
924.201	4078
924.309	4120
924.417	4116
924.525	4086
924.633	4120
924.741	5067
924.849	3956
924.956	4128
925.064	3934
925.172	3915
925.279	3991
925.387	4048
925.494	4048
925.602	4204
925.709	4181
925.816	4017
925.924	4090
926.031	4181
926.138	4188
926.245	4207
926.352	4071
926.459	4242
926.566	4268
926.673	4166
926.779	4101
926.886	4101
926.993	4013
927.099	3979
927.206	3915
927.312	3934
927.419	4071
927.525	4029
927.631	4109
927.737	3991
927.843	3953
927.95	3804
928.056	3937
928.162	4025
928.267	4059
928.373	4584
928.479	4112
928.585	3888
928.69	4002
928.796	4109
928.901	3991
929.007	3854
929.112	3983
929.218	3991
929.323	3937
929.428	3930
929.533	4120
929.638	3876
929.743	3949
929.848	4055
929.953	3983
930.058	3907
930.163	3743
930.267	3804
930.372	4002
930.477	3835
930.581	4109
930.685	3960
930.79	3842
930.894	3888
930.998	3892
931.103	4124
931.207	3743
931.311	3656
931.415	3705
931.519	3469
931.623	3584
