Data from test_V78500241_571.txt Node
Date: Fri Mar 25 16:52:58 CST 2022
User: usil
Spectrometer: V785-0024
Trigger mode: 0
Integration Time (sec): 4.000000E-1
Scans to average: 1
Nonlinearity correction enabled: false
Boxcar width: 0
Storing dark spectrum: false
XAxis mode: Wavelengths
Number of Pixels in Spectrum: 1024
>>>>>Begin Spectral Data<<<<<
801.071	7993
801.214	8027
801.356	7890
801.499	7860
801.641	7826
801.783	7887
801.926	8119
802.068	7913
802.211	8012
802.353	8016
802.496	7982
802.638	8024
802.78	7959
802.923	7917
803.065	7894
803.208	7875
803.35	7959
803.492	8119
803.635	8161
803.777	8088
803.919	8103
804.061	8396
804.204	8130
804.346	8103
804.488	7951
804.63	8138
804.773	7989
804.915	8096
805.057	8233
805.199	8199
805.341	8206
805.483	8294
805.626	8248
805.768	8115
805.91	8111
806.052	8248
806.194	8134
806.336	8324
806.478	8088
806.62	8058
806.762	8111
806.904	8187
807.046	8507
807.188	8267
807.33	8313
807.472	8355
807.614	8157
807.756	8138
807.898	7986
808.04	7890
808.182	7890
808.324	7856
808.465	7898
808.607	8046
808.749	8039
808.891	8256
809.033	8233
809.174	8183
809.316	8016
809.458	8012
809.6	7944
809.741	7989
809.883	8046
810.025	8012
810.166	8054
810.308	8039
810.45	7974
810.591	7921
810.733	7696
810.875	7658
811.016	7552
811.158	7506
811.299	7601
811.441	7719
811.582	7712
811.724	7540
811.865	7533
812.007	7624
812.148	7582
812.29	7586
812.431	7708
812.573	7784
812.714	7936
812.855	8153
812.997	8233
813.138	8294
813.279	8259
813.421	8138
813.562	8050
813.703	7928
813.845	7769
813.986	7537
814.127	7381
814.268	7293
814.41	7221
814.551	7190
814.692	7240
814.833	7091
814.974	7027
815.115	7141
815.256	6951
815.397	6932
815.539	6977
815.68	6825
815.821	6795
815.962	6856
816.103	6837
816.244	6753
816.385	6627
816.526	6631
816.666	6532
816.807	6372
816.948	6475
817.089	6464
817.23	6414
817.371	6403
817.512	6391
817.653	6346
817.793	6380
817.934	6460
818.075	6445
818.216	6429
818.356	6407
818.497	6201
818.638	6159
818.778	6167
818.919	6140
819.06	6136
819.2	6369
819.341	6334
819.481	6304
819.622	6494
819.762	6684
819.903	6692
820.043	6604
820.184	6597
820.324	6547
820.465	6662
820.605	6612
820.746	6650
820.886	6498
821.026	6646
821.167	6703
821.307	6711
821.447	6738
821.588	6677
821.728	6559
821.868	6410
822.008	6289
822.149	6327
822.289	6414
822.429	6152
822.569	6041
822.709	6129
822.849	5946
822.99	5878
823.13	5901
823.27	5912
823.41	5798
823.55	5798
823.69	5695
823.83	5813
823.97	5661
824.11	5547
824.25	5505
824.389	5535
824.529	5589
824.669	5577
824.809	5668
824.949	5653
825.089	5642
825.228	5589
825.368	5414
825.508	5372
825.648	5345
825.787	5398
825.927	5337
826.067	5307
826.206	5296
826.346	5448
826.485	5414
826.625	5395
826.765	5589
826.904	5474
827.044	5254
827.183	5235
827.323	5052
827.462	5250
827.601	5155
827.741	5166
827.88	5216
828.02	5155
828.159	5235
828.298	5334
828.437	5341
828.577	5288
828.716	5478
828.855	5383
828.994	5136
829.134	5140
829.273	5189
829.412	5136
829.551	5132
829.69	5178
829.829	5258
829.968	5391
830.107	5269
830.246	5269
830.385	5208
830.524	5151
830.663	5094
830.802	4946
830.941	4896
831.08	4831
831.219	5060
831.357	4980
831.496	5159
831.635	4957
831.774	4843
831.913	4835
832.051	4778
832.19	4736
832.329	4801
832.467	4645
832.606	4664
832.744	4725
832.883	4733
833.022	4767
833.16	4748
833.299	4847
833.437	4828
833.576	4843
833.714	4862
833.852	4889
833.991	4873
834.129	4961
834.267	4938
834.406	4908
834.544	5003
834.682	4953
834.821	4972
834.959	5162
835.097	5025
835.235	5140
835.373	5098
835.511	5094
835.65	5033
835.788	4972
835.926	4847
836.064	4858
836.202	4911
836.34	5124
836.478	5193
836.615	5128
836.753	5220
836.891	5284
837.029	5280
837.167	5155
837.305	5155
837.443	5140
837.58	5124
837.718	5280
837.856	5174
837.993	5155
838.131	5223
838.269	5258
838.406	5162
838.544	5208
838.681	5022
838.819	5041
838.956	4862
839.094	4904
839.231	4984
839.369	5086
839.506	5379
839.643	5261
839.781	5033
839.918	5045
840.055	5105
840.193	5098
840.33	5105
840.467	5113
840.604	5189
840.742	5436
840.879	5029
841.016	5113
841.153	5181
841.29	5368
841.427	5334
841.564	5353
841.701	5330
841.838	5273
841.975	5212
842.112	5254
842.249	5121
842.385	5109
842.522	5261
842.659	5155
842.796	5140
842.933	5242
843.069	5155
843.206	5162
843.343	5265
843.479	5258
843.616	5212
843.752	5033
843.889	4972
844.025	5204
844.162	5029
844.298	5235
844.435	5056
844.571	5064
844.708	5231
844.844	5265
844.98	5341
845.117	5303
845.253	5128
845.389	5048
845.525	5117
845.661	5105
845.798	5090
845.934	5132
846.07	5025
846.206	5197
846.342	5307
846.478	5143
846.614	5045
846.75	4942
846.886	4953
847.022	5090
847.158	5037
847.294	5052
847.429	5094
847.565	5075
847.701	5292
847.837	4850
847.972	4820
848.108	4980
848.244	4904
848.379	4736
848.515	4759
848.65	4736
848.786	4721
848.921	4778
849.057	4805
849.192	4968
849.328	4740
849.463	4790
849.598	4812
849.734	4755
849.869	4683
850.004	4653
850.14	4649
850.275	4603
850.41	4527
850.545	4599
850.68	4569
850.815	4637
850.95	4634
851.085	4793
851.22	4733
851.355	4679
851.49	4618
851.625	4630
851.76	4649
851.895	4550
852.03	4508
852.165	4694
852.299	4694
852.434	4793
852.569	4752
852.703	4782
852.838	4858
852.973	4889
853.107	4938
853.242	4721
853.376	4710
853.511	4554
853.645	4603
853.78	4755
853.914	4664
854.048	4653
854.183	4611
854.317	4672
854.451	4835
854.585	4714
854.72	4641
854.854	4767
854.988	4615
855.122	4611
855.256	4504
855.39	4653
855.524	4752
855.658	4771
855.792	4706
855.926	4706
856.06	4736
856.194	4790
856.327	4706
856.461	4634
856.595	4611
856.729	4596
856.862	4740
856.996	4691
857.13	4755
857.263	4797
857.397	4820
857.53	4634
857.664	4702
857.797	4729
857.931	4733
858.064	4736
858.197	4725
858.331	4630
858.464	4630
858.597	4554
858.731	4622
858.864	4634
858.997	4607
859.13	4630
859.263	4698
859.396	4668
859.529	4538
859.662	4588
859.795	4554
859.928	4565
860.061	4748
860.194	4790
860.327	4596
860.46	4573
860.592	4717
860.725	4717
860.858	4683
860.99	4535
861.123	4550
861.256	4493
861.388	4596
861.521	5395
861.653	4485
861.786	4451
861.918	4447
862.05	4523
862.183	4523
862.315	4588
862.447	4656
862.58	4538
862.712	4421
862.844	4333
862.976	4489
863.108	4470
863.24	4862
863.372	4318
863.504	4405
863.636	4360
863.768	4497
863.9	4421
864.032	4360
864.164	4379
864.296	4466
864.428	4538
864.559	4554
864.691	4542
864.823	4538
864.954	4500
865.086	4474
865.217	4451
865.349	4417
865.48	4428
865.612	4497
865.743	4622
865.875	4428
866.006	4466
866.137	4436
866.269	4451
866.4	4440
866.531	4436
866.662	4417
866.793	4474
866.924	4432
867.055	4470
867.186	4383
867.317	4405
867.448	4394
867.579	4390
867.71	4356
867.841	4341
867.972	4519
868.103	4447
868.233	4459
868.364	4478
868.495	4512
868.625	4622
868.756	4736
868.886	4535
869.017	4622
869.147	4752
869.278	4725
869.408	4691
869.539	4641
869.669	4729
869.799	4664
869.929	4744
870.06	4691
870.19	4961
870.32	4885
870.45	4953
870.58	5022
870.71	5140
870.84	5128
870.97	4957
871.1	4923
871.23	5109
871.36	5075
871.489	5067
871.619	5045
871.749	5159
871.879	5086
872.008	5121
872.138	5071
872.267	4949
872.397	4877
872.526	4797
872.656	4691
872.785	4812
872.915	4984
873.044	5003
873.173	4923
873.303	4984
873.432	4972
873.561	4930
873.69	4858
873.819	4911
873.948	4866
874.077	4771
874.206	4736
874.335	4782
874.464	4911
874.593	5060
874.722	4976
874.851	5143
874.979	5048
875.108	5006
875.237	4915
875.365	4870
875.494	4889
875.623	5006
875.751	4812
875.88	4835
876.008	4908
876.136	5029
876.265	5124
876.393	5345
876.521	5212
876.65	5242
876.778	5151
876.906	5006
877.034	5029
877.162	5052
877.29	4980
877.418	5022
877.546	5083
877.674	5060
877.802	5037
877.93	4980
878.058	4911
878.185	4843
878.313	4961
878.441	4904
878.568	4782
878.696	4885
878.824	4965
878.951	4968
879.079	5124
879.206	5269
879.333	5143
879.461	5037
879.588	5010
879.715	5155
879.842	5185
879.97	4984
880.097	4778
880.224	4767
880.351	4831
880.478	4858
880.605	4782
880.732	4816
880.859	5052
880.986	4881
881.112	4927
881.239	4786
881.366	4744
881.493	4630
881.619	4596
881.746	4603
881.872	4645
881.999	4702
882.125	4672
882.252	4805
882.378	4820
882.505	4968
882.631	4839
882.757	4656
882.883	4710
883.01	4710
883.136	4691
883.262	4561
883.388	4618
883.514	4725
883.64	4866
883.766	4782
883.892	4645
884.018	4694
884.143	4858
884.269	4980
884.395	4706
884.52	4653
884.646	4653
884.772	4588
884.897	4584
885.023	4698
885.148	4786
885.274	4873
885.399	4793
885.524	4717
885.65	4641
885.775	4729
885.9	4733
886.025	4835
886.15	4839
886.275	4702
886.4	4611
886.525	4736
886.65	4710
886.775	4637
886.9	4904
887.025	4995
887.149	4767
887.274	4656
887.399	4561
887.523	4626
887.648	4542
887.773	4561
887.897	4778
888.021	4725
888.146	4694
888.27	4805
888.395	4953
888.519	4835
888.643	4805
888.767	4877
888.891	4729
889.015	4603
889.139	4645
889.263	4588
889.387	4752
889.511	4862
889.635	4801
889.759	4634
889.883	4679
890.006	4759
890.13	4828
890.254	4653
890.377	4702
890.501	4508
890.624	4542
890.748	4569
890.871	4516
890.995	4436
891.118	4394
891.241	4561
891.364	4527
891.488	4618
891.611	4512
891.734	4538
891.857	4596
891.98	4561
892.103	4626
892.226	4637
892.349	4531
892.471	4459
892.594	4554
892.717	4615
892.839	4542
892.962	4607
893.085	4626
893.207	4603
893.33	4459
893.452	4516
893.575	4664
893.697	4573
893.819	4736
893.941	4805
894.064	4733
894.186	4577
894.308	4561
894.43	4694
894.552	4843
894.674	4710
894.796	4584
894.918	4550
895.04	4573
895.161	4702
895.283	4675
895.405	4603
895.526	4656
895.648	4675
895.769	4710
895.891	4687
896.012	4710
896.134	4698
896.255	4694
896.376	4637
896.498	4630
896.619	4664
896.74	4626
896.861	4664
896.982	4889
897.103	5147
897.224	4870
897.345	4744
897.466	4645
897.587	4710
897.708	4816
897.828	4755
897.949	4683
898.07	4535
898.19	4660
898.311	4831
898.431	4607
898.552	4759
898.672	4782
898.792	4790
898.913	4736
899.033	4641
899.153	4485
899.273	4428
899.393	4462
899.513	4519
899.633	4512
899.753	4565
899.873	4500
899.993	4611
900.113	4493
900.232	4645
900.352	4519
900.472	4443
900.591	4405
900.711	4500
900.83	4432
900.95	4580
901.069	4683
901.189	4535
901.308	4375
901.427	4272
901.546	4379
901.665	4421
901.784	4504
901.904	4344
902.023	4333
902.141	4200
902.26	4162
902.379	4276
902.498	4257
902.617	4276
902.735	4341
902.854	4398
902.973	4428
903.091	4238
903.21	4230
903.328	4280
903.446	4276
903.565	4215
903.683	4367
903.801	4310
903.919	4394
904.038	4413
904.156	4295
904.274	4424
904.392	4413
904.51	4428
904.627	4474
904.745	4580
904.863	4584
904.981	4379
905.098	4348
905.216	4375
905.334	4443
905.451	4432
905.569	4432
905.686	4561
905.803	4565
905.921	4402
906.038	4531
906.155	4466
906.272	4394
906.389	4459
906.506	4371
906.623	4363
906.74	4409
906.857	4291
906.974	4402
907.091	4531
907.208	4672
907.324	4588
907.441	4474
907.557	4333
907.674	4375
907.79	4333
907.907	4379
908.023	4436
908.139	4459
908.256	4470
908.372	4478
908.488	4417
908.604	4314
908.72	4303
908.836	4367
908.952	4367
909.068	4447
909.184	4565
909.3	4538
909.415	4580
909.531	4577
909.647	4337
909.762	4360
909.878	4325
909.993	4428
910.108	4417
910.224	4375
910.339	4512
910.454	4421
910.57	4367
910.685	4303
910.8	4664
910.915	4599
911.03	4519
911.145	4383
911.259	4318
911.374	4344
911.489	4284
911.604	4253
911.718	4173
911.833	4242
911.947	4105
912.062	4017
912.176	4253
912.291	4219
912.405	4230
912.519	4485
912.633	4485
912.748	4352
912.862	4318
912.976	4238
913.09	4124
913.204	4173
913.318	4268
913.431	4367
913.545	4386
913.659	4462
913.772	4367
913.886	4227
914	4253
914.113	4360
914.226	4432
914.34	4413
914.453	4249
914.566	4440
914.68	4310
914.793	4310
914.906	4162
915.019	4147
915.132	4116
915.245	4211
915.358	4230
915.47	4265
915.583	4299
915.696	4337
915.809	4394
915.921	4421
916.034	4337
916.146	4295
916.259	4204
916.371	4344
916.483	4375
916.595	4246
916.708	4344
916.82	4310
916.932	4348
917.044	4314
917.156	4356
917.268	4249
917.38	4253
917.491	4333
917.603	4333
917.715	4417
917.826	4474
917.938	4352
918.049	4230
918.161	4322
918.272	4569
918.384	4584
918.495	4459
918.606	4337
918.717	4234
918.828	4344
918.939	4375
919.05	4246
919.161	4344
919.272	4097
919.383	4219
919.494	4398
919.604	4573
919.715	4459
919.826	4337
919.936	4405
920.047	4550
920.157	4508
920.267	4721
920.378	4573
920.488	4516
920.598	4672
920.708	4904
920.818	4679
920.928	4763
921.038	4972
921.148	4908
921.258	4577
921.368	4523
921.477	4531
921.587	4485
921.697	4333
921.806	4573
921.916	4413
922.025	4333
922.134	4280
922.244	4257
922.353	4291
922.462	4204
922.571	4112
922.68	3972
922.789	3979
922.898	4025
923.007	3956
923.116	4128
923.224	4112
923.333	4093
923.442	3983
923.55	3968
923.659	4017
923.767	4086
923.876	4029
923.984	4147
924.092	4010
924.201	4090
924.309	4048
924.417	4101
924.525	4067
924.633	4135
924.741	5056
924.849	3911
924.956	4143
925.064	3983
925.172	3896
925.279	3998
925.387	4071
925.494	4055
925.602	4211
925.709	4234
925.816	4040
925.924	4116
926.031	4227
926.138	4135
926.245	4215
926.352	4067
926.459	4227
926.566	4291
926.673	4219
926.779	4078
926.886	4063
926.993	3991
927.099	3937
927.206	3953
927.312	3911
927.419	4086
927.525	4059
927.631	4067
927.737	3975
927.843	3930
927.95	3838
928.056	3960
928.162	3956
928.267	4071
928.373	4641
928.479	4116
928.585	3873
928.69	4013
928.796	4112
928.901	3960
929.007	3827
929.112	3998
929.218	3941
929.323	3956
929.428	3960
929.533	4109
929.638	3911
929.743	3960
929.848	4090
929.953	3998
930.058	3930
930.163	3785
930.267	3842
930.372	3987
930.477	3831
930.581	4112
930.685	3975
930.79	3819
930.894	3880
930.998	3876
931.103	3987
931.207	3671
931.311	3701
931.415	3637
931.519	3557
931.623	3561
