Data from test_V78500241_2559.txt Node
Date: Fri Mar 25 17:06:47 CST 2022
User: usil
Spectrometer: V785-0024
Trigger mode: 0
Integration Time (sec): 4.000000E-1
Scans to average: 1
Nonlinearity correction enabled: false
Boxcar width: 0
Storing dark spectrum: false
XAxis mode: Wavelengths
Number of Pixels in Spectrum: 1024
>>>>>Begin Spectral Data<<<<<
801.071	8050
801.214	7959
801.356	7887
801.499	7871
801.641	7784
801.783	7784
801.926	7917
802.068	7913
802.211	8005
802.353	7982
802.496	7879
802.638	7837
802.78	7913
802.923	7887
803.065	7890
803.208	7852
803.35	7974
803.492	8077
803.635	8119
803.777	8001
803.919	8142
804.061	8438
804.204	8183
804.346	8031
804.488	7959
804.63	8096
804.773	8031
804.915	8081
805.057	8282
805.199	8103
805.341	8229
805.483	8244
805.626	8240
805.768	8164
805.91	8153
806.052	8164
806.194	8123
806.336	8229
806.478	8115
806.62	7955
806.762	8077
806.904	8267
807.046	8423
807.188	8374
807.33	8328
807.472	8286
807.614	8164
807.756	8183
807.898	7978
808.04	7909
808.182	7879
808.324	7928
808.465	7898
808.607	8020
808.749	8096
808.891	8271
809.033	8233
809.174	8199
809.316	8035
809.458	8073
809.6	8046
809.741	8081
809.883	8031
810.025	8123
810.166	8073
810.308	7951
810.45	7967
810.591	7890
810.733	7750
810.875	7674
811.016	7556
811.158	7502
811.299	7556
811.441	7677
811.582	7708
811.724	7548
811.865	7563
812.007	7601
812.148	7632
812.29	7567
812.431	7738
812.573	7864
812.714	7913
812.855	8115
812.997	8240
813.138	8237
813.279	8233
813.421	8024
813.562	7993
813.703	7871
813.845	7814
813.986	7460
814.127	7209
814.268	7232
814.41	7168
814.551	7122
814.692	7285
814.833	7091
814.974	7080
815.115	7122
815.256	7019
815.397	6970
815.539	6939
815.68	6818
815.821	6825
815.962	6894
816.103	6818
816.244	6707
816.385	6642
816.526	6608
816.666	6464
816.807	6311
816.948	6448
817.089	6509
817.23	6414
817.371	6407
817.512	6433
817.653	6414
817.793	6342
817.934	6418
818.075	6471
818.216	6414
818.356	6338
818.497	6258
818.638	6079
818.778	6129
818.919	6091
819.06	6155
819.2	6323
819.341	6346
819.481	6350
819.622	6536
819.762	6779
819.903	6688
820.043	6608
820.184	6604
820.324	6604
820.465	6700
820.605	6673
820.746	6688
820.886	6532
821.026	6623
821.167	6700
821.307	6772
821.447	6745
821.588	6662
821.728	6566
821.868	6502
822.008	6342
822.149	6346
822.289	6361
822.429	6136
822.569	6095
822.709	6110
822.849	5889
822.99	5893
823.13	5916
823.27	5904
823.41	5817
823.55	5748
823.69	5775
823.83	5775
823.97	5691
824.11	5558
824.25	5512
824.389	5596
824.529	5554
824.669	5512
824.809	5604
824.949	5630
825.089	5630
825.228	5562
825.368	5410
825.508	5284
825.648	5334
825.787	5395
825.927	5398
826.067	5292
826.206	5307
826.346	5353
826.485	5425
826.625	5440
826.765	5535
826.904	5448
827.044	5227
827.183	5185
827.323	5166
827.462	5284
827.601	5155
827.741	5159
827.88	5258
828.02	5140
828.159	5216
828.298	5269
828.437	5334
828.577	5292
828.716	5436
828.855	5307
828.994	5162
829.134	5155
829.273	5220
829.412	5143
829.551	5113
829.69	5136
829.829	5239
829.968	5318
830.107	5223
830.246	5250
830.385	5189
830.524	5102
830.663	5079
830.802	4972
830.941	4900
831.08	4904
831.219	5003
831.357	4984
831.496	5136
831.635	4892
831.774	4816
831.913	4850
832.051	4763
832.19	4755
832.329	4862
832.467	4679
832.606	4694
832.744	4740
832.883	4675
833.022	4714
833.16	4786
833.299	4812
833.437	4835
833.576	4847
833.714	4866
833.852	4877
833.991	4835
834.129	4908
834.267	4949
834.406	4881
834.544	4987
834.682	5003
834.821	4953
834.959	5170
835.097	4987
835.235	5117
835.373	5056
835.511	5048
835.65	5064
835.788	5041
835.926	4923
836.064	4843
836.202	4946
836.34	5147
836.478	5246
836.615	5143
836.753	5216
836.891	5261
837.029	5227
837.167	5193
837.305	5105
837.443	5128
837.58	5083
837.718	5296
837.856	5204
837.993	5143
838.131	5280
838.269	5220
838.406	5193
838.544	5174
838.681	4999
838.819	5071
838.956	4904
839.094	4896
839.231	5018
839.369	5090
839.506	5421
839.643	5273
839.781	5060
839.918	5064
840.055	5048
840.193	5105
840.33	5121
840.467	5086
840.604	5185
840.742	5406
840.879	5121
841.016	5140
841.153	5128
841.29	5360
841.427	5341
841.564	5379
841.701	5376
841.838	5334
841.975	5265
842.112	5273
842.249	5143
842.385	5105
842.522	5322
842.659	5155
842.796	5128
842.933	5178
843.069	5105
843.206	5124
843.343	5254
843.479	5242
843.616	5239
843.752	4991
843.889	5041
844.025	5223
844.162	5006
844.298	5201
844.435	5064
844.571	5098
844.708	5189
844.844	5261
844.98	5326
845.117	5246
845.253	5143
845.389	5083
845.525	5162
845.661	5109
845.798	5041
845.934	5155
846.07	5033
846.206	5181
846.342	5261
846.478	5170
846.614	5010
846.75	4961
846.886	4968
847.022	5147
847.158	5003
847.294	5079
847.429	5143
847.565	5045
847.701	5364
847.837	4862
847.972	4839
848.108	4995
848.244	4930
848.379	4759
848.515	4717
848.65	4736
848.786	4752
848.921	4755
849.057	4858
849.192	4858
849.328	4858
849.463	4828
849.598	4793
849.734	4774
849.869	4668
850.004	4653
850.14	4618
850.275	4599
850.41	4554
850.545	4561
850.68	4607
850.815	4592
850.95	4645
851.085	4858
851.22	4755
851.355	4645
851.49	4615
851.625	4603
851.76	4660
851.895	4531
852.03	4535
852.165	4634
852.299	4717
852.434	4763
852.569	4721
852.703	4748
852.838	4797
852.973	4953
853.107	4904
853.242	4729
853.376	4683
853.511	4580
853.645	4630
853.78	4805
853.914	4679
854.048	4645
854.183	4611
854.317	4736
854.451	4870
854.585	4668
854.72	4634
854.854	4786
854.988	4569
855.122	4592
855.256	4523
855.39	4668
855.524	4809
855.658	4721
855.792	4706
855.926	4668
856.06	4736
856.194	4782
856.327	4683
856.461	4550
856.595	4607
856.729	4615
856.862	4748
856.996	4725
857.13	4736
857.263	4733
857.397	4809
857.53	4622
857.664	4744
857.797	4763
857.931	4797
858.064	4717
858.197	4725
858.331	4618
858.464	4596
858.597	4485
858.731	4656
858.864	4664
858.997	4615
859.13	4672
859.263	4653
859.396	4664
859.529	4630
859.662	4592
859.795	4519
859.928	4630
860.061	4740
860.194	4733
860.327	4577
860.46	4569
860.592	4679
860.725	4740
860.858	4744
860.99	4516
861.123	4512
861.256	4508
861.388	4618
861.521	5318
861.653	4470
861.786	4383
861.918	4500
862.05	4542
862.183	4550
862.315	4634
862.447	4615
862.58	4607
862.712	4447
862.844	4333
862.976	4440
863.108	4375
863.24	4774
863.372	4287
863.504	4440
863.636	4352
863.768	4455
863.9	4474
864.032	4360
864.164	4413
864.296	4478
864.428	4519
864.559	4554
864.691	4523
864.823	4531
864.954	4493
865.086	4584
865.217	4451
865.349	4413
865.48	4459
865.612	4493
865.743	4645
865.875	4493
866.006	4402
866.137	4489
866.269	4466
866.4	4436
866.531	4424
866.662	4398
866.793	4409
866.924	4428
867.055	4504
867.186	4432
867.317	4383
867.448	4363
867.579	4375
867.71	4356
867.841	4341
867.972	4466
868.103	4432
868.233	4455
868.364	4398
868.495	4538
868.625	4706
868.756	4793
868.886	4607
869.017	4596
869.147	4816
869.278	4809
869.408	4599
869.539	4675
869.669	4714
869.799	4660
869.929	4729
870.06	4744
870.19	4949
870.32	4870
870.45	4965
870.58	5003
870.71	5083
870.84	5090
870.97	4957
871.1	4889
871.23	5117
871.36	5132
871.489	4961
871.619	5098
871.749	5136
871.879	5105
872.008	5178
872.138	5029
872.267	5006
872.397	4858
872.526	4809
872.656	4736
872.785	4843
872.915	4984
873.044	5071
873.173	4949
873.303	5006
873.432	4976
873.561	4972
873.69	4889
873.819	4835
873.948	4942
874.077	4820
874.206	4767
874.335	4816
874.464	4911
874.593	5022
874.722	4949
874.851	5128
874.979	5090
875.108	5018
875.237	4938
875.365	4866
875.494	4850
875.623	4991
875.751	4831
875.88	4843
876.008	5003
876.136	5052
876.265	5204
876.393	5357
876.521	5170
876.65	5216
876.778	5166
876.906	5105
877.034	5041
877.162	5064
877.29	5006
877.418	5010
877.546	5052
877.674	5041
877.802	5029
877.93	5052
878.058	4976
878.185	4866
878.313	4968
878.441	4938
878.568	4752
878.696	4877
878.824	4930
878.951	4984
879.079	5117
879.206	5311
879.333	5079
879.461	5006
879.588	5006
879.715	5124
879.842	5242
879.97	5006
880.097	4820
880.224	4755
880.351	4850
880.478	4835
880.605	4870
880.732	4801
880.859	5117
880.986	4911
881.112	4915
881.239	4763
881.366	4645
881.493	4618
881.619	4577
881.746	4641
881.872	4698
881.999	4649
882.125	4706
882.252	4744
882.378	4816
882.505	4972
882.631	4793
882.757	4683
882.883	4729
883.01	4736
883.136	4649
883.262	4573
883.388	4622
883.514	4740
883.64	4858
883.766	4767
883.892	4656
884.018	4714
884.143	4911
884.269	4999
884.395	4675
884.52	4588
884.646	4611
884.772	4641
884.897	4558
885.023	4664
885.148	4752
885.274	4885
885.399	4797
885.524	4691
885.65	4706
885.775	4687
885.9	4656
886.025	4877
886.15	4850
886.275	4721
886.4	4634
886.525	4706
886.65	4656
886.775	4679
886.9	4873
887.025	4995
887.149	4782
887.274	4641
887.399	4561
887.523	4584
887.648	4607
887.773	4569
887.897	4733
888.021	4767
888.146	4710
888.27	4828
888.395	4870
888.519	4752
888.643	4805
888.767	4870
888.891	4710
889.015	4596
889.139	4672
889.263	4626
889.387	4763
889.511	4854
889.635	4778
889.759	4615
889.883	4634
890.006	4774
890.13	4850
890.254	4607
890.377	4653
890.501	4523
890.624	4489
890.748	4630
890.871	4519
890.995	4428
891.118	4428
891.241	4474
891.364	4508
891.488	4630
891.611	4493
891.734	4489
891.857	4626
891.98	4588
892.103	4675
892.226	4630
892.349	4512
892.471	4432
892.594	4538
892.717	4561
892.839	4596
892.962	4611
893.085	4664
893.207	4554
893.33	4428
893.452	4542
893.575	4668
893.697	4577
893.819	4816
893.941	4881
894.064	4763
894.186	4596
894.308	4516
894.43	4759
894.552	4805
894.674	4740
894.796	4596
894.918	4580
895.04	4622
895.161	4710
895.283	4653
895.405	4554
895.526	4630
895.648	4660
895.769	4725
895.891	4691
896.012	4702
896.134	4774
896.255	4618
896.376	4611
896.498	4702
896.619	4649
896.74	4596
896.861	4634
896.982	4930
897.103	5064
897.224	4816
897.345	4767
897.466	4672
897.587	4675
897.708	4858
897.828	4778
897.949	4641
898.07	4577
898.19	4645
898.311	4831
898.431	4721
898.552	4714
898.672	4790
898.792	4805
898.913	4717
899.033	4649
899.153	4531
899.273	4405
899.393	4508
899.513	4535
899.633	4535
899.753	4523
899.873	4542
899.993	4618
900.113	4558
900.232	4599
900.352	4565
900.472	4474
900.591	4363
900.711	4447
900.83	4386
900.95	4641
901.069	4736
901.189	4500
901.308	4360
901.427	4322
901.546	4386
901.665	4504
901.784	4485
901.904	4341
902.023	4360
902.141	4211
902.26	4154
902.379	4314
902.498	4196
902.617	4238
902.735	4375
902.854	4379
902.973	4348
903.091	4204
903.21	4238
903.328	4284
903.446	4223
903.565	4284
903.683	4329
903.801	4295
903.919	4356
904.038	4432
904.156	4314
904.274	4405
904.392	4375
904.51	4428
904.627	4447
904.745	4577
904.863	4596
904.981	4402
905.098	4272
905.216	4371
905.334	4436
905.451	4405
905.569	4409
905.686	4588
905.803	4592
905.921	4440
906.038	4569
906.155	4497
906.272	4459
906.389	4493
906.506	4306
906.623	4379
906.74	4352
906.857	4348
906.974	4390
907.091	4569
907.208	4672
907.324	4603
907.441	4481
907.557	4367
907.674	4306
907.79	4352
907.907	4367
908.023	4459
908.139	4481
908.256	4440
908.372	4462
908.488	4394
908.604	4356
908.72	4314
908.836	4360
908.952	4360
909.068	4432
909.184	4588
909.3	4497
909.415	4596
909.531	4523
909.647	4344
909.762	4367
909.878	4291
909.993	4413
910.108	4398
910.224	4421
910.339	4459
910.454	4436
910.57	4337
910.685	4291
910.8	4668
910.915	4584
911.03	4504
911.145	4379
911.259	4371
911.374	4329
911.489	4291
911.604	4246
911.718	4188
911.833	4200
911.947	4101
912.062	4025
912.176	4246
912.291	4253
912.405	4246
912.519	4497
912.633	4493
912.748	4405
912.862	4295
912.976	4200
913.09	4078
913.204	4249
913.318	4265
913.431	4371
913.545	4344
913.659	4386
913.772	4333
913.886	4215
914	4196
914.113	4356
914.226	4455
914.34	4409
914.453	4215
914.566	4417
914.68	4268
914.793	4333
914.906	4169
915.019	4150
915.132	4063
915.245	4196
915.358	4238
915.47	4234
915.583	4287
915.696	4341
915.809	4383
915.921	4386
916.034	4268
916.146	4291
916.259	4219
916.371	4344
916.483	4383
916.595	4246
916.708	4322
916.82	4371
916.932	4390
917.044	4352
917.156	4344
917.268	4261
917.38	4303
917.491	4303
917.603	4333
917.715	4398
917.826	4436
917.938	4379
918.049	4261
918.161	4341
918.272	4569
918.384	4512
918.495	4428
918.606	4295
918.717	4295
918.828	4333
918.939	4356
919.05	4295
919.161	4337
919.272	4101
919.383	4238
919.494	4459
919.604	4656
919.715	4379
919.826	4341
919.936	4398
920.047	4519
920.157	4527
920.267	4660
920.378	4561
920.488	4527
920.598	4706
920.708	4862
920.818	4755
920.928	4755
921.038	4999
921.148	4915
921.258	4637
921.368	4470
921.477	4497
921.587	4478
921.697	4356
921.806	4542
921.916	4451
922.025	4219
922.134	4261
922.244	4185
922.353	4318
922.462	4162
922.571	4067
922.68	3968
922.789	4017
922.898	4006
923.007	4006
923.116	4097
923.224	4093
923.333	4074
923.442	3960
923.55	4006
923.659	4055
923.767	4116
923.876	4017
923.984	4082
924.092	3975
924.201	4036
924.309	4093
924.417	4143
924.525	4101
924.633	4109
924.741	5052
924.849	3918
924.956	4131
925.064	3941
925.172	3941
925.279	3949
925.387	4074
925.494	4040
925.602	4215
925.709	4196
925.816	4071
925.924	4177
926.031	4211
926.138	4192
926.245	4192
926.352	4082
926.459	4253
926.566	4310
926.673	4200
926.779	4082
926.886	4105
926.993	3960
927.099	3987
927.206	3937
927.312	3903
927.419	4048
927.525	4051
927.631	4082
927.737	4002
927.843	3922
927.95	3892
928.056	3945
928.162	4017
928.267	4101
928.373	4599
928.479	4078
928.585	3888
928.69	3991
928.796	4071
928.901	3937
929.007	3838
929.112	3964
929.218	3956
929.323	3907
929.428	3937
929.533	4071
929.638	3850
929.743	3960
929.848	4040
929.953	4017
930.058	3953
930.163	3785
930.267	3831
930.372	3998
930.477	3793
930.581	4044
930.685	3949
930.79	3808
930.894	3922
930.998	3797
931.103	4040
931.207	3732
931.311	3705
931.415	3705
931.519	3469
931.623	3587
