Data from test_V78500241_1480.txt Node
Date: Fri Mar 25 16:59:17 CST 2022
User: usil
Spectrometer: V785-0024
Trigger mode: 0
Integration Time (sec): 4.000000E-1
Scans to average: 1
Nonlinearity correction enabled: false
Boxcar width: 0
Storing dark spectrum: false
XAxis mode: Wavelengths
Number of Pixels in Spectrum: 1024
>>>>>Begin Spectral Data<<<<<
801.071	7978
801.214	8001
801.356	7833
801.499	7928
801.641	7693
801.783	7814
801.926	7909
802.068	7940
802.211	7974
802.353	7997
802.496	7784
802.638	7883
802.78	7902
802.923	7917
803.065	7875
803.208	7841
803.35	7947
803.492	8043
803.635	8130
803.777	7986
803.919	8145
804.061	8396
804.204	8164
804.346	8031
804.488	7890
804.63	8107
804.773	8046
804.915	8081
805.057	8286
805.199	8183
805.341	8275
805.483	8282
805.626	8183
805.768	8130
805.91	8206
806.052	8199
806.194	8016
806.336	8267
806.478	8027
806.62	8027
806.762	8092
806.904	8221
807.046	8457
807.188	8374
807.33	8221
807.472	8279
807.614	8172
807.756	8138
807.898	7913
808.04	7856
808.182	7947
808.324	7879
808.465	7917
808.607	8077
808.749	8096
808.891	8176
809.033	8233
809.174	8115
809.316	7970
809.458	8005
809.6	7917
809.741	7982
809.883	7970
810.025	8027
810.166	7986
810.308	7997
810.45	8016
810.591	7803
810.733	7719
810.875	7643
811.016	7521
811.158	7468
811.299	7544
811.441	7693
811.582	7632
811.724	7636
811.865	7525
812.007	7575
812.148	7540
812.29	7616
812.431	7738
812.573	7833
812.714	7925
812.855	8069
812.997	8164
813.138	8324
813.279	8142
813.421	8065
813.562	7974
813.703	7807
813.845	7708
813.986	7419
814.127	7236
814.268	7183
814.41	7217
814.551	7126
814.692	7209
814.833	7084
814.974	7065
815.115	7114
815.256	6981
815.397	6867
815.539	6924
815.68	6821
815.821	6783
815.962	6844
816.103	6783
816.244	6692
816.385	6532
816.526	6620
816.666	6475
816.807	6277
816.948	6369
817.089	6448
817.23	6376
817.371	6315
817.512	6361
817.653	6353
817.793	6300
817.934	6407
818.075	6479
818.216	6429
818.356	6429
818.497	6266
818.638	6114
818.778	6125
818.919	6140
819.06	6095
819.2	6281
819.341	6331
819.481	6441
819.622	6559
819.762	6700
819.903	6673
820.043	6585
820.184	6627
820.324	6574
820.465	6779
820.605	6684
820.746	6662
820.886	6525
821.026	6646
821.167	6700
821.307	6764
821.447	6783
821.588	6673
821.728	6608
821.868	6445
822.008	6311
822.149	6384
822.289	6380
822.429	6228
822.569	6083
822.709	6155
822.849	5942
822.99	5923
823.13	5939
823.27	5942
823.41	5851
823.55	5813
823.69	5771
823.83	5805
823.97	5676
824.11	5615
824.25	5509
824.389	5627
824.529	5547
824.669	5528
824.809	5657
824.949	5684
825.089	5661
825.228	5562
825.368	5406
825.508	5376
825.648	5414
825.787	5410
825.927	5414
826.067	5353
826.206	5322
826.346	5410
826.485	5429
826.625	5452
826.765	5543
826.904	5516
827.044	5204
827.183	5246
827.323	5193
827.462	5299
827.601	5189
827.741	5201
827.88	5227
828.02	5162
828.159	5273
828.298	5345
828.437	5421
828.577	5296
828.716	5535
828.855	5421
828.994	5181
829.134	5189
829.273	5216
829.412	5193
829.551	5166
829.69	5193
829.829	5299
829.968	5417
830.107	5280
830.246	5330
830.385	5265
830.524	5181
830.663	5075
830.802	5003
830.941	4930
831.08	4892
831.219	5041
831.357	5029
831.496	5220
831.635	4991
831.774	4904
831.913	4866
832.051	4759
832.19	4805
832.329	4866
832.467	4729
832.606	4641
832.744	4816
832.883	4729
833.022	4759
833.16	4782
833.299	4862
833.437	4862
833.576	4831
833.714	4877
833.852	4885
833.991	4946
834.129	4984
834.267	4984
834.406	4915
834.544	5014
834.682	4984
834.821	4953
834.959	5193
835.097	5045
835.235	5193
835.373	5113
835.511	5136
835.65	5090
835.788	5025
835.926	4938
836.064	4892
836.202	4927
836.34	5181
836.478	5277
836.615	5159
836.753	5246
836.891	5296
837.029	5250
837.167	5273
837.305	5132
837.443	5136
837.58	5064
837.718	5242
837.856	5201
837.993	5197
838.131	5311
838.269	5261
838.406	5216
838.544	5208
838.681	5010
838.819	5075
838.956	4946
839.094	4953
839.231	4976
839.369	5098
839.506	5433
839.643	5277
839.781	5105
839.918	5048
840.055	5094
840.193	5067
840.33	5132
840.467	5159
840.604	5216
840.742	5417
840.879	5083
841.016	5094
841.153	5147
841.29	5387
841.427	5330
841.564	5326
841.701	5440
841.838	5273
841.975	5231
842.112	5277
842.249	5159
842.385	5109
842.522	5417
842.659	5170
842.796	5124
842.933	5258
843.069	5181
843.206	5162
843.343	5379
843.479	5273
843.616	5307
843.752	5018
843.889	5037
844.025	5235
844.162	5045
844.298	5254
844.435	5124
844.571	5117
844.708	5174
844.844	5292
844.98	5372
845.117	5315
845.253	5197
845.389	5090
845.525	5201
845.661	5155
845.798	5094
845.934	5159
846.07	5075
846.206	5235
846.342	5311
846.478	5284
846.614	5029
846.75	4968
846.886	4934
847.022	5181
847.158	5052
847.294	5064
847.429	5128
847.565	5071
847.701	5341
847.837	4881
847.972	4854
848.108	4953
848.244	4968
848.379	4828
848.515	4790
848.65	4729
848.786	4786
848.921	4767
849.057	4904
849.192	4911
849.328	4831
849.463	4873
849.598	4801
849.734	4801
849.869	4683
850.004	4596
850.14	4653
850.275	4668
850.41	4523
850.545	4569
850.68	4637
850.815	4660
850.95	4672
851.085	4873
851.22	4774
851.355	4691
851.49	4668
851.625	4672
851.76	4683
851.895	4599
852.03	4611
852.165	4698
852.299	4755
852.434	4862
852.569	4801
852.703	4809
852.838	4858
852.973	4927
853.107	4957
853.242	4767
853.376	4687
853.511	4592
853.645	4691
853.78	4790
853.914	4729
854.048	4683
854.183	4637
854.317	4729
854.451	4892
854.585	4683
854.72	4645
854.854	4801
854.988	4599
855.122	4641
855.256	4558
855.39	4645
855.524	4805
855.658	4752
855.792	4744
855.926	4717
856.06	4801
856.194	4824
856.327	4660
856.461	4630
856.595	4599
856.729	4641
856.862	4782
856.996	4698
857.13	4725
857.263	4797
857.397	4809
857.53	4706
857.664	4729
857.797	4694
857.931	4778
858.064	4729
858.197	4774
858.331	4637
858.464	4611
858.597	4584
858.731	4615
858.864	4660
858.997	4611
859.13	4645
859.263	4710
859.396	4759
859.529	4615
859.662	4558
859.795	4573
859.928	4634
860.061	4778
860.194	4740
860.327	4626
860.46	4611
860.592	4721
860.725	4752
860.858	4714
860.99	4599
861.123	4573
861.256	4512
861.388	4622
861.521	5421
861.653	4459
861.786	4474
861.918	4481
862.05	4569
862.183	4561
862.315	4645
862.447	4672
862.58	4558
862.712	4383
862.844	4306
862.976	4485
863.108	4470
863.24	4805
863.372	4356
863.504	4440
863.636	4405
863.768	4485
863.9	4459
864.032	4428
864.164	4398
864.296	4470
864.428	4584
864.559	4561
864.691	4519
864.823	4573
864.954	4481
865.086	4542
865.217	4443
865.349	4459
865.48	4481
865.612	4527
865.743	4683
865.875	4512
866.006	4436
866.137	4447
866.269	4451
866.4	4489
866.531	4436
866.662	4447
866.793	4417
866.924	4424
867.055	4489
867.186	4519
867.317	4417
867.448	4367
867.579	4363
867.71	4436
867.841	4390
867.972	4466
868.103	4436
868.233	4462
868.364	4481
868.495	4500
868.625	4653
868.756	4793
868.886	4603
869.017	4618
869.147	4778
869.278	4793
869.408	4668
869.539	4694
869.669	4755
869.799	4672
869.929	4755
870.06	4740
870.19	4980
870.32	4949
870.45	4911
870.58	5048
870.71	5151
870.84	5105
870.97	4961
871.1	4930
871.23	5185
871.36	5166
871.489	5052
871.619	5109
871.749	5102
871.879	5132
872.008	5220
872.138	5045
872.267	5060
872.397	4866
872.526	4862
872.656	4729
872.785	4805
872.915	4987
873.044	5105
873.173	4927
873.303	4984
873.432	4976
873.561	5010
873.69	4873
873.819	4896
873.948	4923
874.077	4892
874.206	4816
874.335	4782
874.464	4915
874.593	5102
874.722	5010
874.851	5109
874.979	5098
875.108	5003
875.237	4892
875.365	4885
875.494	4953
875.623	5014
875.751	4858
875.88	4870
876.008	5018
876.136	4991
876.265	5208
876.393	5292
876.521	5277
876.65	5292
876.778	5147
876.906	5090
877.034	5033
877.162	5033
877.29	4995
877.418	5041
877.546	5060
877.674	5018
877.802	5029
877.93	5022
878.058	4961
878.185	4919
878.313	4987
878.441	4915
878.568	4835
878.696	4858
878.824	4908
878.951	4972
879.079	5143
879.206	5322
879.333	5105
879.461	5022
879.588	5025
879.715	5166
879.842	5231
879.97	4987
880.097	4820
880.224	4767
880.351	4828
880.478	4835
880.605	4793
880.732	4812
880.859	5117
880.986	4885
881.112	4949
881.239	4771
881.366	4672
881.493	4641
881.619	4584
881.746	4630
881.872	4634
881.999	4664
882.125	4706
882.252	4797
882.378	4831
882.505	4942
882.631	4839
882.757	4672
882.883	4721
883.01	4809
883.136	4630
883.262	4592
883.388	4622
883.514	4828
883.64	4896
883.766	4778
883.892	4683
884.018	4755
884.143	4858
884.269	5041
884.395	4736
884.52	4687
884.646	4675
884.772	4546
884.897	4565
885.023	4660
885.148	4774
885.274	4915
885.399	4805
885.524	4702
885.65	4691
885.775	4828
885.9	4687
886.025	4828
886.15	4790
886.275	4721
886.4	4664
886.525	4729
886.65	4649
886.775	4729
886.9	4885
887.025	5064
887.149	4835
887.274	4649
887.399	4596
887.523	4645
887.648	4599
887.773	4653
887.897	4740
888.021	4790
888.146	4691
888.27	4839
888.395	4946
888.519	4793
888.643	4850
888.767	4866
888.891	4710
889.015	4599
889.139	4618
889.263	4569
889.387	4744
889.511	4809
889.635	4805
889.759	4626
889.883	4637
890.006	4755
890.13	4850
890.254	4641
890.377	4660
890.501	4550
890.624	4523
890.748	4672
890.871	4519
890.995	4443
891.118	4390
891.241	4512
891.364	4531
891.488	4664
891.611	4546
891.734	4527
891.857	4622
891.98	4493
892.103	4645
892.226	4580
892.349	4527
892.471	4394
892.594	4558
892.717	4596
892.839	4546
892.962	4645
893.085	4687
893.207	4649
893.33	4436
893.452	4527
893.575	4683
893.697	4588
893.819	4793
893.941	4831
894.064	4790
894.186	4603
894.308	4542
894.43	4721
894.552	4809
894.674	4748
894.796	4580
894.918	4596
895.04	4558
895.161	4752
895.283	4653
895.405	4550
895.526	4687
895.648	4698
895.769	4675
895.891	4717
896.012	4767
896.134	4717
896.255	4687
896.376	4660
896.498	4603
896.619	4717
896.74	4580
896.861	4672
896.982	4919
897.103	5071
897.224	4809
897.345	4771
897.466	4653
897.587	4740
897.708	4885
897.828	4771
897.949	4668
898.07	4565
898.19	4615
898.311	4862
898.431	4683
898.552	4755
898.672	4771
898.792	4778
898.913	4733
899.033	4634
899.153	4504
899.273	4424
899.393	4504
899.513	4516
899.633	4527
899.753	4535
899.873	4516
899.993	4580
900.113	4531
900.232	4584
900.352	4580
900.472	4512
900.591	4386
900.711	4493
900.83	4459
900.95	4626
901.069	4744
901.189	4550
901.308	4390
901.427	4337
901.546	4379
901.665	4516
901.784	4565
901.904	4360
902.023	4333
902.141	4196
902.26	4162
902.379	4341
902.498	4257
902.617	4230
902.735	4405
902.854	4440
902.973	4363
903.091	4219
903.21	4242
903.328	4287
903.446	4249
903.565	4303
903.683	4341
903.801	4322
903.919	4383
904.038	4451
904.156	4303
904.274	4390
904.392	4424
904.51	4440
904.627	4489
904.745	4626
904.863	4668
904.981	4405
905.098	4318
905.216	4413
905.334	4402
905.451	4436
905.569	4424
905.686	4550
905.803	4565
905.921	4432
906.038	4531
906.155	4478
906.272	4371
906.389	4470
906.506	4375
906.623	4398
906.74	4371
906.857	4310
906.974	4386
907.091	4615
907.208	4660
907.324	4584
907.441	4459
907.557	4325
907.674	4337
907.79	4348
907.907	4367
908.023	4546
908.139	4470
908.256	4443
908.372	4504
908.488	4428
908.604	4322
908.72	4325
908.836	4367
908.952	4417
909.068	4402
909.184	4577
909.3	4447
909.415	4550
909.531	4550
909.647	4314
909.762	4383
909.878	4390
909.993	4451
910.108	4360
910.224	4405
910.339	4489
910.454	4371
910.57	4322
910.685	4348
910.8	4656
910.915	4596
911.03	4451
911.145	4348
911.259	4314
911.374	4375
911.489	4291
911.604	4280
911.718	4192
911.833	4177
911.947	4101
912.062	4078
912.176	4234
912.291	4249
912.405	4246
912.519	4432
912.633	4527
912.748	4371
912.862	4318
912.976	4185
913.09	4112
913.204	4166
913.318	4238
913.431	4341
913.545	4398
913.659	4462
913.772	4390
913.886	4276
914	4215
914.113	4360
914.226	4432
914.34	4436
914.453	4272
914.566	4409
914.68	4268
914.793	4356
914.906	4135
915.019	4185
915.132	4055
915.245	4192
915.358	4207
915.47	4242
915.583	4238
915.696	4341
915.809	4413
915.921	4428
916.034	4246
916.146	4272
916.259	4204
916.371	4421
916.483	4405
916.595	4295
916.708	4291
916.82	4291
916.932	4344
917.044	4318
917.156	4337
917.268	4238
917.38	4291
917.491	4253
917.603	4322
917.715	4443
917.826	4432
917.938	4329
918.049	4223
918.161	4443
918.272	4516
918.384	4531
918.495	4474
918.606	4272
918.717	4227
918.828	4337
918.939	4386
919.05	4230
919.161	4363
919.272	4101
919.383	4234
919.494	4462
919.604	4649
919.715	4462
919.826	4390
919.936	4383
920.047	4542
920.157	4500
920.267	4660
920.378	4500
920.488	4535
920.598	4733
920.708	4892
920.818	4721
920.928	4763
921.038	4957
921.148	4934
921.258	4687
921.368	4535
921.477	4466
921.587	4504
921.697	4402
921.806	4538
921.916	4421
922.025	4272
922.134	4227
922.244	4177
922.353	4352
922.462	4211
922.571	4063
922.68	4006
922.789	3998
922.898	4040
923.007	3979
923.116	4101
923.224	4105
923.333	4074
923.442	3998
923.55	4013
923.659	4013
923.767	4131
923.876	4036
923.984	4074
924.092	3960
924.201	4101
924.309	4090
924.417	4120
924.525	4067
924.633	4082
924.741	5025
924.849	3892
924.956	4112
925.064	3975
925.172	3922
925.279	3930
925.387	4074
925.494	4044
925.602	4147
925.709	4158
925.816	4032
925.924	4139
926.031	4188
926.138	4150
926.245	4215
926.352	4090
926.459	4204
926.566	4299
926.673	4188
926.779	4067
926.886	4093
926.993	4010
927.099	3956
927.206	3937
927.312	3907
927.419	4063
927.525	4010
927.631	4097
927.737	3953
927.843	3930
927.95	3838
928.056	3987
928.162	3983
928.267	4071
928.373	4523
928.479	4112
928.585	3854
928.69	3987
928.796	4048
928.901	4006
929.007	3854
929.112	3975
929.218	3972
929.323	3941
929.428	3926
929.533	4082
929.638	3915
929.743	4002
929.848	4055
929.953	3968
930.058	3983
930.163	3804
930.267	3816
930.372	3918
930.477	3854
930.581	4116
930.685	3945
930.79	3804
930.894	3865
930.998	3865
931.103	4048
931.207	3713
931.311	3717
931.415	3686
931.519	3542
931.623	3553
