Data from test_V78500241_1135.txt Node
Date: Fri Mar 25 16:56:53 CST 2022
User: usil
Spectrometer: V785-0024
Trigger mode: 0
Integration Time (sec): 4.000000E-1
Scans to average: 1
Nonlinearity correction enabled: false
Boxcar width: 0
Storing dark spectrum: false
XAxis mode: Wavelengths
Number of Pixels in Spectrum: 1024
>>>>>Begin Spectral Data<<<<<
801.071	8005
801.214	8050
801.356	7879
801.499	7856
801.641	7746
801.783	7822
801.926	7940
802.068	7921
802.211	7967
802.353	7921
802.496	7799
802.638	7856
802.78	7860
802.923	7928
803.065	7875
803.208	7818
803.35	7955
803.492	8077
803.635	8134
803.777	8020
803.919	8073
804.061	8492
804.204	8084
804.346	8115
804.488	7909
804.63	8123
804.773	8016
804.915	8153
805.057	8298
805.199	8195
805.341	8096
805.483	8282
805.626	8183
805.768	8100
805.91	8233
806.052	8225
806.194	8115
806.336	8248
806.478	8084
806.62	8027
806.762	8191
806.904	8240
807.046	8431
807.188	8225
807.33	8324
807.472	8351
807.614	8123
807.756	8062
807.898	8020
808.04	7917
808.182	7955
808.324	7902
808.465	7894
808.607	8046
808.749	8111
808.891	8168
809.033	8271
809.174	8138
809.316	8043
809.458	8005
809.6	8035
809.741	7959
809.883	7974
810.025	8073
810.166	8115
810.308	8050
810.45	8035
810.591	7875
810.733	7693
810.875	7590
811.016	7457
811.158	7480
811.299	7597
811.441	7685
811.582	7647
811.724	7559
811.865	7453
812.007	7548
812.148	7483
812.29	7651
812.431	7689
812.573	7932
812.714	7936
812.855	8035
812.997	8187
813.138	8259
813.279	8119
813.421	8153
813.562	8012
813.703	7780
813.845	7776
813.986	7457
814.127	7270
814.268	7179
814.41	7206
814.551	7122
814.692	7110
814.833	7065
814.974	7076
815.115	7065
815.256	6905
815.397	6932
815.539	6954
815.68	6810
815.821	6757
815.962	6867
816.103	6837
816.244	6692
816.385	6574
816.526	6627
816.666	6521
816.807	6285
816.948	6437
817.089	6460
817.23	6391
817.371	6369
817.512	6346
817.653	6357
817.793	6395
817.934	6353
818.075	6456
818.216	6369
818.356	6445
818.497	6220
818.638	6125
818.778	6098
818.919	6171
819.06	6106
819.2	6342
819.341	6292
819.481	6357
819.622	6532
819.762	6757
819.903	6654
820.043	6623
820.184	6559
820.324	6582
820.465	6635
820.605	6696
820.746	6654
820.886	6517
821.026	6612
821.167	6616
821.307	6764
821.447	6741
821.588	6711
821.728	6604
821.868	6486
822.008	6308
822.149	6407
822.289	6323
822.429	6159
822.569	6034
822.709	6129
822.849	5901
822.99	5893
823.13	5935
823.27	5878
823.41	5760
823.55	5771
823.69	5771
823.83	5752
823.97	5684
824.11	5467
824.25	5551
824.389	5577
824.529	5573
824.669	5482
824.809	5627
824.949	5646
825.089	5653
825.228	5524
825.368	5360
825.508	5364
825.648	5330
825.787	5337
825.927	5395
826.067	5307
826.206	5246
826.346	5303
826.485	5383
826.625	5395
826.765	5486
826.904	5433
827.044	5201
827.183	5170
827.323	5109
827.462	5239
827.601	5185
827.741	5201
827.88	5201
828.02	5098
828.159	5162
828.298	5322
828.437	5337
828.577	5258
828.716	5452
828.855	5334
828.994	5140
829.134	5105
829.273	5174
829.412	5128
829.551	5094
829.69	5208
829.829	5216
829.968	5372
830.107	5269
830.246	5231
830.385	5147
830.524	5147
830.663	5048
830.802	4915
830.941	4839
831.08	4877
831.219	4961
831.357	4930
831.496	5105
831.635	4938
831.774	4839
831.913	4828
832.051	4767
832.19	4778
832.329	4809
832.467	4668
832.606	4538
832.744	4736
832.883	4668
833.022	4721
833.16	4721
833.299	4763
833.437	4717
833.576	4828
833.714	4866
833.852	4892
833.991	4881
834.129	4961
834.267	4934
834.406	4900
834.544	4949
834.682	4911
834.821	4930
834.959	5079
835.097	4987
835.235	5143
835.373	5094
835.511	5060
835.65	5022
835.788	5010
835.926	4908
836.064	4866
836.202	4953
836.34	5147
836.478	5235
836.615	5113
836.753	5235
836.891	5269
837.029	5212
837.167	5181
837.305	5159
837.443	5117
837.58	5022
837.718	5223
837.856	5220
837.993	5121
838.131	5250
838.269	5197
838.406	5140
838.544	5197
838.681	5075
838.819	4984
838.956	4892
839.094	4847
839.231	4980
839.369	5048
839.506	5440
839.643	5220
839.781	5018
839.918	5022
840.055	5083
840.193	5071
840.33	5117
840.467	5121
840.604	5151
840.742	5433
840.879	5064
841.016	5098
841.153	5121
841.29	5372
841.427	5303
841.564	5258
841.701	5341
841.838	5261
841.975	5250
842.112	5246
842.249	5147
842.385	5121
842.522	5341
842.659	5189
842.796	5098
842.933	5216
843.069	5117
843.206	5128
843.343	5250
843.479	5204
843.616	5231
843.752	5025
843.889	4961
844.025	5185
844.162	5029
844.298	5140
844.435	5083
844.571	4999
844.708	5151
844.844	5239
844.98	5311
845.117	5265
845.253	5132
845.389	5022
845.525	5143
845.661	5109
845.798	5014
845.934	5155
846.07	5029
846.206	5220
846.342	5307
846.478	5117
846.614	5010
846.75	4949
846.886	4908
847.022	5136
847.158	5037
847.294	5132
847.429	5067
847.565	5045
847.701	5307
847.837	4828
847.972	4790
848.108	4911
848.244	4900
848.379	4755
848.515	4721
848.65	4679
848.786	4729
848.921	4729
849.057	4828
849.192	4900
849.328	4759
849.463	4885
849.598	4831
849.734	4782
849.869	4672
850.004	4584
850.14	4649
850.275	4588
850.41	4504
850.545	4512
850.68	4588
850.815	4603
850.95	4599
851.085	4805
851.22	4721
851.355	4649
851.49	4622
851.625	4607
851.76	4615
851.895	4577
852.03	4504
852.165	4660
852.299	4645
852.434	4706
852.569	4729
852.703	4797
852.838	4862
852.973	4927
853.107	4900
853.242	4744
853.376	4618
853.511	4565
853.645	4577
853.78	4778
853.914	4687
854.048	4714
854.183	4645
854.317	4668
854.451	4839
854.585	4672
854.72	4634
854.854	4725
854.988	4611
855.122	4626
855.256	4519
855.39	4645
855.524	4801
855.658	4740
855.792	4649
855.926	4736
856.06	4725
856.194	4778
856.327	4664
856.461	4599
856.595	4588
856.729	4630
856.862	4736
856.996	4691
857.13	4744
857.263	4717
857.397	4790
857.53	4596
857.664	4691
857.797	4748
857.931	4774
858.064	4637
858.197	4733
858.331	4668
858.464	4584
858.597	4516
858.731	4607
858.864	4630
858.997	4554
859.13	4675
859.263	4626
859.396	4679
859.529	4569
859.662	4542
859.795	4497
859.928	4630
860.061	4748
860.194	4763
860.327	4584
860.46	4596
860.592	4729
860.725	4683
860.858	4721
860.99	4618
861.123	4516
861.256	4527
861.388	4599
861.521	5318
861.653	4508
861.786	4462
861.918	4455
862.05	4497
862.183	4542
862.315	4618
862.447	4630
862.58	4565
862.712	4428
862.844	4291
862.976	4493
863.108	4428
863.24	4828
863.372	4272
863.504	4405
863.636	4383
863.768	4508
863.9	4405
864.032	4367
864.164	4333
864.296	4462
864.428	4565
864.559	4497
864.691	4504
864.823	4531
864.954	4447
865.086	4516
865.217	4417
865.349	4367
865.48	4428
865.612	4447
865.743	4649
865.875	4443
866.006	4394
866.137	4481
866.269	4478
866.4	4440
866.531	4394
866.662	4402
866.793	4383
866.924	4417
867.055	4466
867.186	4409
867.317	4402
867.448	4318
867.579	4386
867.71	4344
867.841	4367
867.972	4500
868.103	4405
868.233	4432
868.364	4451
868.495	4459
868.625	4656
868.756	4771
868.886	4580
869.017	4622
869.147	4729
869.278	4714
869.408	4634
869.539	4588
869.669	4679
869.799	4679
869.929	4744
870.06	4706
870.19	4976
870.32	4919
870.45	4927
870.58	4953
870.71	5086
870.84	5094
870.97	4934
871.1	4930
871.23	5159
871.36	5140
871.489	4991
871.619	5022
871.749	5083
871.879	5105
872.008	5212
872.138	5014
872.267	4938
872.397	4831
872.526	4774
872.656	4748
872.785	4771
872.915	4915
873.044	5006
873.173	4915
873.303	4984
873.432	4892
873.561	4927
873.69	4828
873.819	4828
873.948	4900
874.077	4828
874.206	4706
874.335	4793
874.464	4938
874.593	5018
874.722	4930
874.851	5071
874.979	5029
875.108	5052
875.237	4877
875.365	4866
875.494	4877
875.623	4987
875.751	4843
875.88	4927
876.008	4972
876.136	4984
876.265	5143
876.393	5326
876.521	5254
876.65	5284
876.778	5124
876.906	5045
877.034	5037
877.162	5056
877.29	4968
877.418	5018
877.546	5075
877.674	5037
877.802	5014
877.93	5033
878.058	4957
878.185	4908
878.313	4915
878.441	4972
878.568	4839
878.696	4904
878.824	4991
878.951	4938
879.079	5136
879.206	5280
879.333	5056
879.461	4934
879.588	4980
879.715	5098
879.842	5235
879.97	4961
880.097	4736
880.224	4736
880.351	4805
880.478	4831
880.605	4744
880.732	4782
880.859	5094
880.986	4858
881.112	4858
881.239	4710
881.366	4694
881.493	4584
881.619	4550
881.746	4615
881.872	4622
881.999	4660
882.125	4721
882.252	4786
882.378	4835
882.505	4927
882.631	4774
882.757	4672
882.883	4687
883.01	4702
883.136	4622
883.262	4626
883.388	4611
883.514	4816
883.64	4843
883.766	4771
883.892	4653
884.018	4774
884.143	4881
884.269	4968
884.395	4622
884.52	4618
884.646	4645
884.772	4607
884.897	4531
885.023	4634
885.148	4771
885.274	4900
885.399	4786
885.524	4740
885.65	4706
885.775	4771
885.9	4706
886.025	4911
886.15	4771
886.275	4759
886.4	4603
886.525	4687
886.65	4740
886.775	4672
886.9	4896
887.025	4987
887.149	4801
887.274	4630
887.399	4615
887.523	4584
887.648	4550
887.773	4573
887.897	4778
888.021	4767
888.146	4668
888.27	4759
888.395	4904
888.519	4801
888.643	4809
888.767	4786
888.891	4694
889.015	4569
889.139	4615
889.263	4588
889.387	4725
889.511	4820
889.635	4805
889.759	4596
889.883	4630
890.006	4694
890.13	4824
890.254	4634
890.377	4698
890.501	4565
890.624	4504
890.748	4679
890.871	4497
890.995	4398
891.118	4390
891.241	4451
891.364	4523
891.488	4607
891.611	4508
891.734	4504
891.857	4577
891.98	4527
892.103	4649
892.226	4550
892.349	4538
892.471	4424
892.594	4580
892.717	4603
892.839	4611
892.962	4584
893.085	4656
893.207	4611
893.33	4447
893.452	4546
893.575	4656
893.697	4599
893.819	4786
893.941	4774
894.064	4763
894.186	4538
894.308	4584
894.43	4755
894.552	4797
894.674	4767
894.796	4527
894.918	4622
895.04	4565
895.161	4706
895.283	4637
895.405	4542
895.526	4634
895.648	4725
895.769	4656
895.891	4725
896.012	4759
896.134	4797
896.255	4698
896.376	4634
896.498	4607
896.619	4656
896.74	4634
896.861	4630
896.982	4900
897.103	5037
897.224	4850
897.345	4736
897.466	4656
897.587	4710
897.708	4847
897.828	4771
897.949	4706
898.07	4554
898.19	4641
898.311	4835
898.431	4634
898.552	4717
898.672	4782
898.792	4767
898.913	4748
899.033	4603
899.153	4478
899.273	4428
899.393	4474
899.513	4478
899.633	4497
899.753	4527
899.873	4462
899.993	4569
900.113	4535
900.232	4554
900.352	4500
900.472	4459
900.591	4402
900.711	4516
900.83	4474
900.95	4558
901.069	4702
901.189	4504
901.308	4344
901.427	4341
901.546	4356
901.665	4466
901.784	4512
901.904	4375
902.023	4318
902.141	4219
902.26	4207
902.379	4284
902.498	4242
902.617	4230
902.735	4363
902.854	4436
902.973	4329
903.091	4192
903.21	4166
903.328	4227
903.446	4295
903.565	4261
903.683	4344
903.801	4291
903.919	4428
904.038	4386
904.156	4314
904.274	4451
904.392	4405
904.51	4424
904.627	4443
904.745	4565
904.863	4599
904.981	4398
905.098	4291
905.216	4383
905.334	4436
905.451	4428
905.569	4447
905.686	4588
905.803	4565
905.921	4371
906.038	4546
906.155	4436
906.272	4341
906.389	4527
906.506	4329
906.623	4398
906.74	4394
906.857	4306
906.974	4363
907.091	4527
907.208	4683
907.324	4611
907.441	4497
907.557	4337
907.674	4318
907.79	4333
907.907	4383
908.023	4451
908.139	4462
908.256	4432
908.372	4394
908.488	4413
908.604	4348
908.72	4306
908.836	4371
908.952	4405
909.068	4436
909.184	4538
909.3	4478
909.415	4569
909.531	4565
909.647	4386
909.762	4371
909.878	4360
909.993	4436
910.108	4379
910.224	4489
910.339	4432
910.454	4363
910.57	4379
910.685	4287
910.8	4637
910.915	4599
911.03	4497
911.145	4360
911.259	4318
911.374	4409
911.489	4211
911.604	4272
911.718	4177
911.833	4181
911.947	4074
912.062	4067
912.176	4185
912.291	4219
912.405	4230
912.519	4478
912.633	4485
912.748	4375
912.862	4280
912.976	4181
913.09	4071
913.204	4150
913.318	4215
913.431	4352
913.545	4322
913.659	4462
913.772	4341
913.886	4207
914	4188
914.113	4356
914.226	4379
914.34	4409
914.453	4249
914.566	4405
914.68	4291
914.793	4322
914.906	4090
915.019	4128
915.132	4097
915.245	4185
915.358	4223
915.47	4211
915.583	4276
915.696	4276
915.809	4409
915.921	4409
916.034	4234
916.146	4253
916.259	4249
916.371	4356
916.483	4344
916.595	4253
916.708	4325
916.82	4303
916.932	4284
917.044	4318
917.156	4329
917.268	4227
917.38	4246
917.491	4299
917.603	4295
917.715	4341
917.826	4409
917.938	4329
918.049	4261
918.161	4394
918.272	4478
918.384	4592
918.495	4436
918.606	4219
918.717	4230
918.828	4314
918.939	4310
919.05	4276
919.161	4348
919.272	4124
919.383	4238
919.494	4421
919.604	4599
919.715	4398
919.826	4341
919.936	4363
920.047	4538
920.157	4428
920.267	4721
920.378	4577
920.488	4493
920.598	4717
920.708	4923
920.818	4740
920.928	4733
921.038	4930
921.148	4923
921.258	4599
921.368	4512
921.477	4489
921.587	4447
921.697	4390
921.806	4554
921.916	4390
922.025	4268
922.134	4322
922.244	4211
922.353	4363
922.462	4192
922.571	4139
922.68	4017
922.789	3953
922.898	4032
923.007	3975
923.116	4074
923.224	4059
923.333	4067
923.442	4021
923.55	4017
923.659	4025
923.767	4097
923.876	3991
923.984	4112
924.092	3964
924.201	4093
924.309	4040
924.417	4109
924.525	4082
924.633	4078
924.741	5045
924.849	3934
924.956	4139
925.064	3918
925.172	3884
925.279	3994
925.387	4055
925.494	4048
925.602	4215
925.709	4181
925.816	4086
925.924	4158
926.031	4154
926.138	4143
926.245	4188
926.352	4059
926.459	4295
926.566	4325
926.673	4147
926.779	4063
926.886	4093
926.993	3994
927.099	3937
927.206	3972
927.312	3896
927.419	4071
927.525	3987
927.631	4116
927.737	3983
927.843	3926
927.95	3827
928.056	3941
928.162	3979
928.267	4059
928.373	4653
928.479	4135
928.585	3857
928.69	4032
928.796	4048
928.901	3949
929.007	3869
929.112	3987
929.218	3964
929.323	3930
929.428	3915
929.533	4112
929.638	3915
929.743	3945
929.848	4055
929.953	3979
930.058	3907
930.163	3781
930.267	3854
930.372	3983
930.477	3804
930.581	4055
930.685	3994
930.79	3823
930.894	3865
930.998	3819
931.103	4006
931.207	3701
931.311	3690
931.415	3622
931.519	3500
931.623	3545
