Data from test_V78500241_2399.txt Node
Date: Fri Mar 25 17:05:40 CST 2022
User: usil
Spectrometer: V785-0024
Trigger mode: 0
Integration Time (sec): 4.000000E-1
Scans to average: 1
Nonlinearity correction enabled: false
Boxcar width: 0
Storing dark spectrum: false
XAxis mode: Wavelengths
Number of Pixels in Spectrum: 1024
>>>>>Begin Spectral Data<<<<<
801.071	8031
801.214	8020
801.356	7864
801.499	7894
801.641	7818
801.783	7852
801.926	8008
802.068	7932
802.211	7970
802.353	8005
802.496	7852
802.638	7868
802.78	7890
802.923	7898
803.065	7803
803.208	7868
803.35	7993
803.492	8096
803.635	8252
803.777	8046
803.919	8161
804.061	8541
804.204	8191
804.346	8050
804.488	7925
804.63	8107
804.773	8035
804.915	8103
805.057	8313
805.199	8183
805.341	8183
805.483	8252
805.626	8244
805.768	8195
805.91	8214
806.052	8279
806.194	8062
806.336	8279
806.478	8126
806.62	8084
806.762	8084
806.904	8305
807.046	8419
807.188	8396
807.33	8286
807.472	8313
807.614	8210
807.756	8134
807.898	8027
808.04	7887
808.182	7852
808.324	7902
808.465	7868
808.607	8145
808.749	8107
808.891	8218
809.033	8343
809.174	8180
809.316	8123
809.458	8092
809.6	8031
809.741	7993
809.883	7993
810.025	8043
810.166	8088
810.308	8035
810.45	7993
810.591	7818
810.733	7769
810.875	7605
811.016	7540
811.158	7480
811.299	7552
811.441	7723
811.582	7742
811.724	7597
811.865	7556
812.007	7613
812.148	7609
812.29	7628
812.431	7761
812.573	7913
812.714	7944
812.855	8142
812.997	8168
813.138	8252
813.279	8191
813.421	8111
813.562	7982
813.703	7883
813.845	7757
813.986	7415
814.127	7266
814.268	7228
814.41	7225
814.551	7156
814.692	7232
814.833	7046
814.974	7057
815.115	7122
815.256	6943
815.397	6966
815.539	7027
815.68	6848
815.821	6772
815.962	6913
816.103	6798
816.244	6772
816.385	6654
816.526	6555
816.666	6517
816.807	6346
816.948	6429
817.089	6513
817.23	6464
817.371	6433
817.512	6365
817.653	6407
817.793	6357
817.934	6433
818.075	6429
818.216	6437
818.356	6429
818.497	6247
818.638	6087
818.778	6167
818.919	6182
819.06	6175
819.2	6323
819.341	6281
819.481	6342
819.622	6612
819.762	6681
819.903	6665
820.043	6627
820.184	6620
820.324	6604
820.465	6738
820.605	6662
820.746	6620
820.886	6547
821.026	6684
821.167	6753
821.307	6795
821.447	6768
821.588	6696
821.728	6639
821.868	6551
822.008	6304
822.149	6369
822.289	6376
822.429	6182
822.569	6114
822.709	6091
822.849	5977
822.99	5912
823.13	5908
823.27	5931
823.41	5836
823.55	5767
823.69	5752
823.83	5821
823.97	5634
824.11	5539
824.25	5516
824.389	5589
824.529	5608
824.669	5551
824.809	5638
824.949	5672
825.089	5630
825.228	5600
825.368	5421
825.508	5353
825.648	5334
825.787	5395
825.927	5398
826.067	5330
826.206	5261
826.346	5353
826.485	5360
826.625	5345
826.765	5581
826.904	5524
827.044	5265
827.183	5201
827.323	5166
827.462	5258
827.601	5189
827.741	5220
827.88	5189
828.02	5105
828.159	5189
828.298	5212
828.437	5402
828.577	5254
828.716	5490
828.855	5330
828.994	5162
829.134	5098
829.273	5227
829.412	5124
829.551	5140
829.69	5147
829.829	5235
829.968	5318
830.107	5254
830.246	5212
830.385	5147
830.524	5151
830.663	5094
830.802	4949
830.941	4908
831.08	4858
831.219	5006
831.357	4927
831.496	5147
831.635	4927
831.774	4793
831.913	4873
832.051	4771
832.19	4752
832.329	4828
832.467	4637
832.606	4645
832.744	4698
832.883	4710
833.022	4729
833.16	4835
833.299	4828
833.437	4812
833.576	4885
833.714	4843
833.852	4854
833.991	4927
834.129	4946
834.267	4949
834.406	4877
834.544	4965
834.682	4968
834.821	5003
834.959	5201
835.097	4968
835.235	5143
835.373	5113
835.511	5105
835.65	5006
835.788	4995
835.926	4904
836.064	4889
836.202	4908
836.34	5128
836.478	5220
836.615	5147
836.753	5235
836.891	5231
837.029	5239
837.167	5204
837.305	5185
837.443	5170
837.58	5064
837.718	5273
837.856	5201
837.993	5140
838.131	5208
838.269	5212
838.406	5223
838.544	5155
838.681	5037
838.819	4965
838.956	4923
839.094	4889
839.231	4953
839.369	5102
839.506	5391
839.643	5288
839.781	5052
839.918	5029
840.055	5094
840.193	5090
840.33	5086
840.467	5117
840.604	5208
840.742	5414
840.879	5117
841.016	5075
841.153	5147
841.29	5387
841.427	5322
841.564	5288
841.701	5299
841.838	5288
841.975	5261
842.112	5242
842.249	5155
842.385	5136
842.522	5307
842.659	5132
842.796	5128
842.933	5197
843.069	5117
843.206	5170
843.343	5322
843.479	5201
843.616	5246
843.752	5014
843.889	5025
844.025	5223
844.162	4972
844.298	5201
844.435	5124
844.571	5060
844.708	5201
844.844	5280
844.98	5318
845.117	5296
845.253	5235
845.389	5060
845.525	5128
845.661	5162
845.798	5045
845.934	5124
846.07	5067
846.206	5204
846.342	5269
846.478	5109
846.614	5029
846.75	5006
846.886	4896
847.022	5083
847.158	5018
847.294	5121
847.429	5117
847.565	5033
847.701	5349
847.837	4835
847.972	4790
848.108	4927
848.244	4904
848.379	4805
848.515	4763
848.65	4721
848.786	4736
848.921	4786
849.057	4801
849.192	4900
849.328	4831
849.463	4850
849.598	4763
849.734	4774
849.869	4683
850.004	4664
850.14	4641
850.275	4592
850.41	4584
850.545	4603
850.68	4607
850.815	4611
850.95	4607
851.085	4809
851.22	4702
851.355	4672
851.49	4577
851.625	4603
851.76	4653
851.895	4565
852.03	4542
852.165	4611
852.299	4679
852.434	4771
852.569	4653
852.703	4801
852.838	4786
852.973	4923
853.107	4904
853.242	4733
853.376	4702
853.511	4596
853.645	4626
853.78	4790
853.914	4702
854.048	4607
854.183	4611
854.317	4683
854.451	4850
854.585	4702
854.72	4622
854.854	4748
854.988	4592
855.122	4664
855.256	4573
855.39	4649
855.524	4755
855.658	4710
855.792	4626
855.926	4733
856.06	4763
856.194	4778
856.327	4691
856.461	4622
856.595	4649
856.729	4611
856.862	4740
856.996	4660
857.13	4733
857.263	4759
857.397	4774
857.53	4615
857.664	4733
857.797	4748
857.931	4774
858.064	4717
858.197	4748
858.331	4641
858.464	4569
858.597	4542
858.731	4622
858.864	4603
858.997	4607
859.13	4656
859.263	4649
859.396	4710
859.529	4478
859.662	4546
859.795	4573
859.928	4622
860.061	4725
860.194	4744
860.327	4622
860.46	4512
860.592	4710
860.725	4691
860.858	4714
860.99	4592
861.123	4489
861.256	4493
861.388	4611
861.521	5280
861.653	4436
861.786	4443
861.918	4455
862.05	4481
862.183	4554
862.315	4615
862.447	4637
862.58	4592
862.712	4417
862.844	4322
862.976	4455
863.108	4466
863.24	4782
863.372	4306
863.504	4413
863.636	4409
863.768	4519
863.9	4443
864.032	4405
864.164	4379
864.296	4493
864.428	4500
864.559	4573
864.691	4527
864.823	4531
864.954	4508
865.086	4527
865.217	4493
865.349	4447
865.48	4447
865.612	4489
865.743	4622
865.875	4455
866.006	4436
866.137	4466
866.269	4421
866.4	4402
866.531	4432
866.662	4447
866.793	4417
866.924	4428
867.055	4527
867.186	4428
867.317	4409
867.448	4367
867.579	4383
867.71	4421
867.841	4371
867.972	4478
868.103	4466
868.233	4466
868.364	4451
868.495	4466
868.625	4672
868.756	4774
868.886	4588
869.017	4656
869.147	4805
869.278	4801
869.408	4668
869.539	4630
869.669	4733
869.799	4675
869.929	4733
870.06	4714
870.19	4934
870.32	4953
870.45	4915
870.58	5006
870.71	5105
870.84	5056
870.97	4938
871.1	4866
871.23	5147
871.36	5132
871.489	4999
871.619	5102
871.749	5109
871.879	5117
872.008	5181
872.138	5029
872.267	4976
872.397	4889
872.526	4801
872.656	4763
872.785	4820
872.915	4930
873.044	5064
873.173	4927
873.303	4919
873.432	4915
873.561	4980
873.69	4877
873.819	4889
873.948	4923
874.077	4805
874.206	4812
874.335	4835
874.464	4900
874.593	5105
874.722	4961
874.851	5102
874.979	5045
875.108	5037
875.237	4961
875.365	4877
875.494	4889
875.623	4980
875.751	4790
875.88	4904
876.008	5014
876.136	5003
876.265	5204
876.393	5273
876.521	5280
876.65	5254
876.778	5155
876.906	5086
877.034	4995
877.162	5086
877.29	4949
877.418	5094
877.546	4980
877.674	5052
877.802	5079
877.93	5018
878.058	4911
878.185	4915
878.313	4953
878.441	5006
878.568	4805
878.696	4850
878.824	4968
878.951	5014
879.079	5113
879.206	5292
879.333	5060
879.461	4961
879.588	5048
879.715	5128
879.842	5178
879.97	5014
880.097	4835
880.224	4755
880.351	4812
880.478	4801
880.605	4812
880.732	4782
880.859	5079
880.986	4892
881.112	4919
881.239	4797
881.366	4706
881.493	4577
881.619	4603
881.746	4622
881.872	4649
881.999	4660
882.125	4698
882.252	4790
882.378	4805
882.505	4930
882.631	4793
882.757	4710
882.883	4736
883.01	4790
883.136	4664
883.262	4596
883.388	4615
883.514	4797
883.64	4873
883.766	4752
883.892	4653
884.018	4702
884.143	4877
884.269	4987
884.395	4637
884.52	4679
884.646	4641
884.772	4592
884.897	4542
885.023	4672
885.148	4721
885.274	4801
885.399	4782
885.524	4717
885.65	4706
885.775	4755
885.9	4759
886.025	4873
886.15	4797
886.275	4740
886.4	4664
886.525	4694
886.65	4733
886.775	4710
886.9	4862
887.025	5037
887.149	4831
887.274	4664
887.399	4615
887.523	4592
887.648	4565
887.773	4588
887.897	4786
888.021	4835
888.146	4755
888.27	4831
888.395	4965
888.519	4774
888.643	4816
888.767	4805
888.891	4672
889.015	4618
889.139	4637
889.263	4630
889.387	4729
889.511	4824
889.635	4809
889.759	4653
889.883	4641
890.006	4778
890.13	4835
890.254	4607
890.377	4653
890.501	4535
890.624	4462
890.748	4565
890.871	4531
890.995	4421
891.118	4417
891.241	4485
891.364	4546
891.488	4599
891.611	4519
891.734	4550
891.857	4615
891.98	4561
892.103	4660
892.226	4588
892.349	4519
892.471	4413
892.594	4504
892.717	4603
892.839	4569
892.962	4599
893.085	4664
893.207	4626
893.33	4478
893.452	4508
893.575	4653
893.697	4603
893.819	4801
893.941	4820
894.064	4763
894.186	4607
894.308	4569
894.43	4752
894.552	4835
894.674	4721
894.796	4554
894.918	4630
895.04	4550
895.161	4683
895.283	4679
895.405	4569
895.526	4626
895.648	4725
895.769	4717
895.891	4702
896.012	4721
896.134	4717
896.255	4679
896.376	4641
896.498	4596
896.619	4664
896.74	4634
896.861	4622
896.982	4892
897.103	5098
897.224	4816
897.345	4774
897.466	4653
897.587	4698
897.708	4843
897.828	4824
897.949	4637
898.07	4577
898.19	4672
898.311	4858
898.431	4645
898.552	4759
898.672	4831
898.792	4828
898.913	4740
899.033	4592
899.153	4478
899.273	4466
899.393	4470
899.513	4497
899.633	4569
899.753	4558
899.873	4489
899.993	4599
900.113	4561
900.232	4584
900.352	4542
900.472	4428
900.591	4402
900.711	4519
900.83	4409
900.95	4569
901.069	4672
901.189	4565
901.308	4341
901.427	4291
901.546	4390
901.665	4485
901.784	4519
901.904	4344
902.023	4318
902.141	4185
902.26	4204
902.379	4268
902.498	4265
902.617	4234
902.735	4333
902.854	4371
902.973	4379
903.091	4223
903.21	4204
903.328	4322
903.446	4291
903.565	4261
903.683	4363
903.801	4299
903.919	4428
904.038	4459
904.156	4291
904.274	4478
904.392	4417
904.51	4413
904.627	4478
904.745	4558
904.863	4626
904.981	4344
905.098	4344
905.216	4325
905.334	4390
905.451	4470
905.569	4405
905.686	4550
905.803	4592
905.921	4371
906.038	4569
906.155	4474
906.272	4348
906.389	4489
906.506	4367
906.623	4398
906.74	4443
906.857	4295
906.974	4356
907.091	4596
907.208	4653
907.324	4538
907.441	4481
907.557	4341
907.674	4291
907.79	4299
907.907	4337
908.023	4474
908.139	4546
908.256	4398
908.372	4485
908.488	4451
908.604	4337
908.72	4268
908.836	4367
908.952	4348
909.068	4451
909.184	4546
909.3	4500
909.415	4569
909.531	4584
909.647	4356
909.762	4310
909.878	4367
909.993	4432
910.108	4402
910.224	4440
910.339	4462
910.454	4398
910.57	4295
910.685	4280
910.8	4641
910.915	4584
911.03	4462
911.145	4325
911.259	4329
911.374	4329
911.489	4299
911.604	4249
911.718	4158
911.833	4150
911.947	4074
912.062	4063
912.176	4223
912.291	4242
912.405	4253
912.519	4493
912.633	4500
912.748	4379
912.862	4314
912.976	4211
913.09	4124
913.204	4181
913.318	4272
913.431	4375
913.545	4325
913.659	4409
913.772	4356
913.886	4234
914	4230
914.113	4383
914.226	4443
914.34	4390
914.453	4242
914.566	4375
914.68	4280
914.793	4337
914.906	4154
915.019	4128
915.132	4074
915.245	4177
915.358	4249
915.47	4227
915.583	4249
915.696	4272
915.809	4428
915.921	4424
916.034	4276
916.146	4253
916.259	4169
916.371	4314
916.483	4325
916.595	4242
916.708	4299
916.82	4318
916.932	4314
917.044	4299
917.156	4314
917.268	4230
917.38	4303
917.491	4291
917.603	4352
917.715	4459
917.826	4421
917.938	4310
918.049	4211
918.161	4386
918.272	4538
918.384	4527
918.495	4466
918.606	4299
918.717	4227
918.828	4322
918.939	4398
919.05	4219
919.161	4318
919.272	4097
919.383	4234
919.494	4466
919.604	4641
919.715	4451
919.826	4325
919.936	4383
920.047	4523
920.157	4432
920.267	4717
920.378	4573
920.488	4527
920.598	4714
920.708	4843
920.818	4736
920.928	4778
921.038	4942
921.148	4896
921.258	4603
921.368	4470
921.477	4478
921.587	4500
921.697	4379
921.806	4542
921.916	4402
922.025	4268
922.134	4238
922.244	4207
922.353	4314
922.462	4131
922.571	4124
922.68	4013
922.789	3960
922.898	3956
923.007	3994
923.116	4097
923.224	4078
923.333	4071
923.442	3998
923.55	3998
923.659	4025
923.767	4071
923.876	4036
923.984	4131
924.092	3975
924.201	4078
924.309	4071
924.417	4128
924.525	4059
924.633	4074
924.741	5064
924.849	3918
924.956	4124
925.064	3998
925.172	3922
925.279	3907
925.387	4078
925.494	4029
925.602	4204
925.709	4196
925.816	4029
925.924	4124
926.031	4242
926.138	4162
926.245	4181
926.352	4120
926.459	4230
926.566	4268
926.673	4143
926.779	4105
926.886	4071
926.993	4010
927.099	3911
927.206	3899
927.312	3956
927.419	4051
927.525	4025
927.631	4124
927.737	3983
927.843	3926
927.95	3861
928.056	3934
928.162	3983
928.267	4040
928.373	4664
928.479	4128
928.585	3857
928.69	4017
928.796	4044
928.901	3987
929.007	3842
929.112	3937
929.218	3968
929.323	3922
929.428	3903
929.533	4105
929.638	3899
929.743	3915
929.848	4048
929.953	3987
930.058	3918
930.163	3797
930.267	3808
930.372	3945
930.477	3766
930.581	4067
930.685	3926
930.79	3804
930.894	3899
930.998	3861
931.103	4036
931.207	3743
931.311	3667
931.415	3667
931.519	3534
931.623	3511
