Data from test_V78500241_1204.txt Node
Date: Fri Mar 25 16:57:22 CST 2022
User: usil
Spectrometer: V785-0024
Trigger mode: 0
Integration Time (sec): 4.000000E-1
Scans to average: 1
Nonlinearity correction enabled: false
Boxcar width: 0
Storing dark spectrum: false
XAxis mode: Wavelengths
Number of Pixels in Spectrum: 1024
>>>>>Begin Spectral Data<<<<<
801.071	7974
801.214	8088
801.356	7898
801.499	7818
801.641	7803
801.783	7788
801.926	7963
802.068	7921
802.211	7913
802.353	7902
802.496	7795
802.638	7887
802.78	7856
802.923	7883
803.065	7856
803.208	7909
803.35	7887
803.492	8092
803.635	8164
803.777	8073
803.919	8130
804.061	8446
804.204	8096
804.346	8065
804.488	7928
804.63	8103
804.773	7982
804.915	8107
805.057	8298
805.199	8123
805.341	8183
805.483	8229
805.626	8199
805.768	8050
805.91	8206
806.052	8210
806.194	8046
806.336	8286
806.478	8031
806.62	8069
806.762	8084
806.904	8294
807.046	8446
807.188	8305
807.33	8252
807.472	8263
807.614	8084
807.756	8100
807.898	8046
808.04	7925
808.182	7928
808.324	7879
808.465	7936
808.607	8142
808.749	8073
808.891	8142
809.033	8301
809.174	8210
809.316	8100
809.458	8027
809.6	7959
809.741	8031
809.883	7970
810.025	8081
810.166	8103
810.308	8008
810.45	8020
810.591	7826
810.733	7693
810.875	7586
811.016	7533
811.158	7468
811.299	7586
811.441	7727
811.582	7753
811.724	7616
811.865	7537
812.007	7548
812.148	7582
812.29	7567
812.431	7704
812.573	7894
812.714	8016
812.855	8069
812.997	8183
813.138	8271
813.279	8210
813.421	8164
813.562	8012
813.703	7879
813.845	7780
813.986	7499
814.127	7255
814.268	7175
814.41	7194
814.551	7160
814.692	7236
814.833	7118
814.974	7053
815.115	7053
815.256	6932
815.397	6913
815.539	6905
815.68	6787
815.821	6791
815.962	6878
816.103	6859
816.244	6726
816.385	6612
816.526	6612
816.666	6486
816.807	6323
816.948	6448
817.089	6410
817.23	6452
817.371	6372
817.512	6399
817.653	6372
817.793	6289
817.934	6399
818.075	6456
818.216	6433
818.356	6391
818.497	6235
818.638	6076
818.778	6175
818.919	6144
819.06	6163
819.2	6308
819.341	6273
819.481	6357
819.622	6528
819.762	6760
819.903	6734
820.043	6658
820.184	6540
820.324	6551
820.465	6662
820.605	6673
820.746	6631
820.886	6483
821.026	6627
821.167	6681
821.307	6798
821.447	6734
821.588	6692
821.728	6555
821.868	6464
822.008	6292
822.149	6365
822.289	6331
822.429	6087
822.569	6083
822.709	6045
822.849	5923
822.99	5908
823.13	5885
823.27	5863
823.41	5794
823.55	5790
823.69	5786
823.83	5779
823.97	5646
824.11	5512
824.25	5486
824.389	5570
824.529	5547
824.669	5516
824.809	5604
824.949	5661
825.089	5585
825.228	5566
825.368	5330
825.508	5315
825.648	5330
825.787	5383
825.927	5360
826.067	5242
826.206	5330
826.346	5395
826.485	5330
826.625	5391
826.765	5459
826.904	5463
827.044	5223
827.183	5223
827.323	5105
827.462	5246
827.601	5140
827.741	5235
827.88	5204
828.02	5086
828.159	5231
828.298	5235
828.437	5387
828.577	5246
828.716	5471
828.855	5322
828.994	5090
829.134	5128
829.273	5143
829.412	5162
829.551	5121
829.69	5086
829.829	5166
829.968	5376
830.107	5235
830.246	5273
830.385	5170
830.524	5143
830.663	5060
830.802	4953
830.941	4854
831.08	4831
831.219	4972
831.357	4968
831.496	5121
831.635	4904
831.774	4801
831.913	4820
832.051	4710
832.19	4721
832.329	4847
832.467	4645
832.606	4622
832.744	4755
832.883	4714
833.022	4714
833.16	4809
833.299	4797
833.437	4763
833.576	4797
833.714	4831
833.852	4843
833.991	4877
834.129	4972
834.267	4961
834.406	4949
834.544	4934
834.682	4927
834.821	4927
834.959	5140
835.097	5006
835.235	5113
835.373	5064
835.511	5117
835.65	5029
835.788	4984
835.926	4854
836.064	4843
836.202	4972
836.34	5181
836.478	5261
836.615	5105
836.753	5261
836.891	5311
837.029	5235
837.167	5151
837.305	5159
837.443	5079
837.58	5067
837.718	5231
837.856	5155
837.993	5124
838.131	5227
838.269	5197
838.406	5147
838.544	5216
838.681	5006
838.819	5018
838.956	4892
839.094	4858
839.231	4953
839.369	5010
839.506	5395
839.643	5235
839.781	5105
839.918	5006
840.055	5048
840.193	5056
840.33	5132
840.467	5159
840.604	5204
840.742	5433
840.879	5079
841.016	5098
841.153	5086
841.29	5337
841.427	5337
841.564	5246
841.701	5360
841.838	5326
841.975	5223
842.112	5269
842.249	5166
842.385	5056
842.522	5303
842.659	5216
842.796	5109
842.933	5223
843.069	5170
843.206	5113
843.343	5315
843.479	5292
843.616	5265
843.752	5067
843.889	4972
844.025	5185
844.162	5045
844.298	5197
844.435	5048
844.571	4999
844.708	5140
844.844	5254
844.98	5349
845.117	5201
845.253	5155
845.389	5117
845.525	5155
845.661	5185
845.798	4999
845.934	5098
846.07	5025
846.206	5170
846.342	5223
846.478	5197
846.614	5045
846.75	4892
846.886	4877
847.022	5117
847.158	5033
847.294	5014
847.429	5121
847.565	5022
847.701	5296
847.837	4862
847.972	4790
848.108	4987
848.244	4870
848.379	4774
848.515	4714
848.65	4691
848.786	4759
848.921	4797
849.057	4858
849.192	4877
849.328	4763
849.463	4805
849.598	4736
849.734	4755
849.869	4641
850.004	4622
850.14	4664
850.275	4637
850.41	4565
850.545	4542
850.68	4561
850.815	4622
850.95	4592
851.085	4812
851.22	4721
851.355	4675
851.49	4596
851.625	4618
851.76	4577
851.895	4561
852.03	4512
852.165	4675
852.299	4748
852.434	4782
852.569	4714
852.703	4744
852.838	4839
852.973	4923
853.107	4934
853.242	4748
853.376	4698
853.511	4523
853.645	4588
853.78	4797
853.914	4687
854.048	4668
854.183	4649
854.317	4687
854.451	4805
854.585	4641
854.72	4626
854.854	4710
854.988	4584
855.122	4649
855.256	4512
855.39	4668
855.524	4778
855.658	4687
855.792	4683
855.926	4679
856.06	4774
856.194	4801
856.327	4634
856.461	4641
856.595	4565
856.729	4649
856.862	4736
856.996	4687
857.13	4774
857.263	4752
857.397	4778
857.53	4637
857.664	4702
857.797	4698
857.931	4748
858.064	4683
858.197	4702
858.331	4656
858.464	4592
858.597	4592
858.731	4577
858.864	4656
858.997	4645
859.13	4660
859.263	4637
859.396	4698
859.529	4550
859.662	4565
859.795	4558
859.928	4622
860.061	4778
860.194	4759
860.327	4603
860.46	4580
860.592	4649
860.725	4664
860.858	4717
860.99	4565
861.123	4523
861.256	4519
861.388	4615
861.521	5288
861.653	4478
861.786	4436
861.918	4478
862.05	4531
862.183	4554
862.315	4535
862.447	4641
862.58	4561
862.712	4398
862.844	4325
862.976	4459
863.108	4440
863.24	4866
863.372	4341
863.504	4367
863.636	4363
863.768	4447
863.9	4428
864.032	4352
864.164	4363
864.296	4443
864.428	4550
864.559	4538
864.691	4474
864.823	4519
864.954	4519
865.086	4500
865.217	4451
865.349	4379
865.48	4443
865.612	4481
865.743	4607
865.875	4432
866.006	4390
866.137	4462
866.269	4436
866.4	4432
866.531	4424
866.662	4386
866.793	4356
866.924	4436
867.055	4466
867.186	4440
867.317	4413
867.448	4356
867.579	4390
867.71	4337
867.841	4341
867.972	4497
868.103	4402
868.233	4443
868.364	4394
868.495	4462
868.625	4687
868.756	4782
868.886	4577
869.017	4634
869.147	4759
869.278	4736
869.408	4664
869.539	4641
869.669	4691
869.799	4607
869.929	4733
870.06	4679
870.19	4911
870.32	4870
870.45	4934
870.58	5006
870.71	5102
870.84	5102
870.97	4927
871.1	4896
871.23	5124
871.36	5102
871.489	4999
871.619	5071
871.749	5090
871.879	5113
872.008	5216
872.138	5056
872.267	4972
872.397	4828
872.526	4805
872.656	4706
872.785	4820
872.915	4881
873.044	5014
873.173	4919
873.303	4949
873.432	4911
873.561	4923
873.69	4858
873.819	4866
873.948	4885
874.077	4835
874.206	4725
874.335	4748
874.464	4942
874.593	5041
874.722	4968
874.851	5052
874.979	5056
875.108	4980
875.237	4968
875.365	4904
875.494	4892
875.623	4953
875.751	4816
875.88	4896
876.008	4961
876.136	5014
876.265	5151
876.393	5299
876.521	5201
876.65	5178
876.778	5155
876.906	5075
877.034	4999
877.162	5037
877.29	4965
877.418	5022
877.546	5037
877.674	5003
877.802	5010
877.93	4987
878.058	4972
878.185	4847
878.313	4957
878.441	4873
878.568	4744
878.696	4873
878.824	4991
878.951	4957
879.079	5098
879.206	5258
879.333	5079
879.461	4953
879.588	4991
879.715	5067
879.842	5208
879.97	5006
880.097	4744
880.224	4744
880.351	4774
880.478	4816
880.605	4809
880.732	4831
880.859	5064
880.986	4835
881.112	4885
881.239	4801
881.366	4645
881.493	4588
881.619	4588
881.746	4603
881.872	4634
881.999	4630
882.125	4668
882.252	4797
882.378	4824
882.505	4942
882.631	4805
882.757	4645
882.883	4744
883.01	4698
883.136	4618
883.262	4558
883.388	4546
883.514	4805
883.64	4812
883.766	4778
883.892	4672
884.018	4687
884.143	4938
884.269	4999
884.395	4698
884.52	4618
884.646	4618
884.772	4554
884.897	4538
885.023	4641
885.148	4816
885.274	4858
885.399	4793
885.524	4717
885.65	4672
885.775	4725
885.9	4729
886.025	4797
886.15	4778
886.275	4702
886.4	4637
886.525	4721
886.65	4694
886.775	4649
886.9	4854
887.025	5067
887.149	4820
887.274	4656
887.399	4615
887.523	4580
887.648	4561
887.773	4588
887.897	4759
888.021	4748
888.146	4683
888.27	4771
888.395	4942
888.519	4774
888.643	4820
888.767	4828
888.891	4649
889.015	4599
889.139	4656
889.263	4523
889.387	4721
889.511	4877
889.635	4748
889.759	4634
889.883	4668
890.006	4706
890.13	4873
890.254	4573
890.377	4668
890.501	4538
890.624	4512
890.748	4607
890.871	4489
890.995	4462
891.118	4352
891.241	4508
891.364	4538
891.488	4607
891.611	4500
891.734	4538
891.857	4645
891.98	4558
892.103	4611
892.226	4622
892.349	4500
892.471	4432
892.594	4535
892.717	4554
892.839	4550
892.962	4550
893.085	4599
893.207	4599
893.33	4428
893.452	4512
893.575	4691
893.697	4596
893.819	4763
893.941	4835
894.064	4710
894.186	4569
894.308	4584
894.43	4744
894.552	4816
894.674	4771
894.796	4546
894.918	4615
895.04	4577
895.161	4698
895.283	4656
895.405	4584
895.526	4656
895.648	4672
895.769	4672
895.891	4694
896.012	4717
896.134	4683
896.255	4672
896.376	4645
896.498	4649
896.619	4626
896.74	4603
896.861	4641
896.982	4957
897.103	5056
897.224	4850
897.345	4717
897.466	4649
897.587	4702
897.708	4828
897.828	4809
897.949	4580
898.07	4584
898.19	4603
898.311	4847
898.431	4641
898.552	4744
898.672	4759
898.792	4820
898.913	4771
899.033	4573
899.153	4550
899.273	4413
899.393	4478
899.513	4481
899.633	4466
899.753	4527
899.873	4558
899.993	4565
900.113	4504
900.232	4615
900.352	4508
900.472	4443
900.591	4375
900.711	4489
900.83	4443
900.95	4588
901.069	4687
901.189	4531
901.308	4371
901.427	4303
901.546	4413
901.665	4493
901.784	4538
901.904	4379
902.023	4299
902.141	4154
902.26	4185
902.379	4333
902.498	4234
902.617	4227
902.735	4344
902.854	4405
902.973	4405
903.091	4227
903.21	4192
903.328	4291
903.446	4246
903.565	4261
903.683	4352
903.801	4257
903.919	4386
904.038	4474
904.156	4322
904.274	4459
904.392	4371
904.51	4440
904.627	4474
904.745	4603
904.863	4615
904.981	4363
905.098	4295
905.216	4344
905.334	4428
905.451	4451
905.569	4443
905.686	4535
905.803	4554
905.921	4432
906.038	4542
906.155	4478
906.272	4375
906.389	4478
906.506	4325
906.623	4363
906.74	4409
906.857	4284
906.974	4360
907.091	4554
907.208	4675
907.324	4630
907.441	4493
907.557	4360
907.674	4322
907.79	4299
907.907	4360
908.023	4512
908.139	4500
908.256	4447
908.372	4440
908.488	4443
908.604	4386
908.72	4287
908.836	4379
908.952	4383
909.068	4424
909.184	4565
909.3	4474
909.415	4584
909.531	4527
909.647	4322
909.762	4379
909.878	4295
909.993	4375
910.108	4386
910.224	4432
910.339	4504
910.454	4451
910.57	4390
910.685	4344
910.8	4592
910.915	4577
911.03	4440
911.145	4318
911.259	4322
911.374	4383
911.489	4295
911.604	4284
911.718	4158
911.833	4147
911.947	4128
912.062	3998
912.176	4204
912.291	4204
912.405	4249
912.519	4428
912.633	4462
912.748	4371
912.862	4265
912.976	4207
913.09	4071
913.204	4200
913.318	4268
913.431	4371
913.545	4337
913.659	4405
913.772	4344
913.886	4219
914	4227
914.113	4386
914.226	4478
914.34	4363
914.453	4219
914.566	4405
914.68	4280
914.793	4306
914.906	4139
915.019	4139
915.132	4093
915.245	4177
915.358	4162
915.47	4234
915.583	4211
915.696	4325
915.809	4417
915.921	4459
916.034	4223
916.146	4253
916.259	4257
916.371	4363
916.483	4314
916.595	4268
916.708	4314
916.82	4344
916.932	4310
917.044	4333
917.156	4314
917.268	4188
917.38	4261
917.491	4280
917.603	4299
917.715	4424
917.826	4417
917.938	4348
918.049	4287
918.161	4371
918.272	4546
918.384	4558
918.495	4455
918.606	4341
918.717	4227
918.828	4310
918.939	4375
919.05	4310
919.161	4272
919.272	4124
919.383	4234
919.494	4447
919.604	4615
919.715	4443
919.826	4367
919.936	4371
920.047	4538
920.157	4504
920.267	4744
920.378	4550
920.488	4459
920.598	4649
920.708	4904
920.818	4725
920.928	4771
921.038	4953
921.148	4908
921.258	4630
921.368	4561
921.477	4462
921.587	4500
921.697	4371
921.806	4481
921.916	4405
922.025	4257
922.134	4257
922.244	4227
922.353	4306
922.462	4207
922.571	4131
922.68	3991
922.789	3949
922.898	4036
923.007	4013
923.116	4059
923.224	4055
923.333	4071
923.442	3972
923.55	3975
923.659	4002
923.767	4078
923.876	4013
923.984	4078
924.092	3979
924.201	4071
924.309	4116
924.417	4078
924.525	4032
924.633	4101
924.741	5025
924.849	3899
924.956	4112
925.064	3987
925.172	3892
925.279	3956
925.387	4074
925.494	4071
925.602	4192
925.709	4177
925.816	3998
925.924	4139
926.031	4207
926.138	4158
926.245	4200
926.352	4090
926.459	4223
926.566	4348
926.673	4128
926.779	4036
926.886	4082
926.993	4006
927.099	3945
927.206	3918
927.312	3964
927.419	4055
927.525	4006
927.631	4124
927.737	3968
927.843	3960
927.95	3819
928.056	3983
928.162	3975
928.267	4006
928.373	4702
928.479	4090
928.585	3888
928.69	4025
928.796	4071
928.901	3975
929.007	3800
929.112	4006
929.218	3998
929.323	3918
929.428	3926
929.533	4078
929.638	3918
929.743	3972
929.848	4002
929.953	3991
930.058	3888
930.163	3781
930.267	3812
930.372	3983
930.477	3793
930.581	4093
930.685	3911
930.79	3823
930.894	3850
930.998	3869
931.103	4036
931.207	3728
931.311	3637
931.415	3694
931.519	3542
931.623	3530
