Data from test_V78500241_2086.txt Node
Date: Fri Mar 25 17:03:30 CST 2022
User: usil
Spectrometer: V785-0024
Trigger mode: 0
Integration Time (sec): 4.000000E-1
Scans to average: 1
Nonlinearity correction enabled: false
Boxcar width: 0
Storing dark spectrum: false
XAxis mode: Wavelengths
Number of Pixels in Spectrum: 1024
>>>>>Begin Spectral Data<<<<<
801.071	8054
801.214	7947
801.356	7860
801.499	7833
801.641	7776
801.783	7795
801.926	7989
802.068	7947
802.211	7989
802.353	7913
802.496	7871
802.638	7830
802.78	7928
802.923	7852
803.065	7864
803.208	7830
803.35	7963
803.492	8119
803.635	8119
803.777	7970
803.919	8115
804.061	8454
804.204	8202
804.346	8054
804.488	7967
804.63	8161
804.773	8050
804.915	8088
805.057	8317
805.199	8214
805.341	8210
805.483	8298
805.626	8180
805.768	8161
805.91	8161
806.052	8267
806.194	8088
806.336	8351
806.478	8107
806.62	8065
806.762	8195
806.904	8282
807.046	8408
807.188	8317
807.33	8381
807.472	8286
807.614	8153
807.756	8115
807.898	8031
808.04	7837
808.182	7875
808.324	7890
808.465	7928
808.607	8084
808.749	8092
808.891	8248
809.033	8328
809.174	8267
809.316	8050
809.458	8050
809.6	8001
809.741	8058
809.883	8012
810.025	8134
810.166	8111
810.308	8020
810.45	7978
810.591	7837
810.733	7666
810.875	7636
811.016	7468
811.158	7445
811.299	7590
811.441	7719
811.582	7670
811.724	7563
811.865	7499
812.007	7571
812.148	7537
812.29	7643
812.431	7799
812.573	7921
812.714	7951
812.855	8149
812.997	8149
813.138	8320
813.279	8214
813.421	8024
813.562	7940
813.703	7856
813.845	7723
813.986	7392
814.127	7240
814.268	7251
814.41	7164
814.551	7156
814.692	7225
814.833	7107
814.974	7091
815.115	7194
815.256	6951
815.397	6932
815.539	6928
815.68	6776
815.821	6745
815.962	6848
816.103	6844
816.244	6677
816.385	6646
816.526	6688
816.666	6525
816.807	6372
816.948	6429
817.089	6490
817.23	6460
817.371	6410
817.512	6350
817.653	6414
817.793	6376
817.934	6418
818.075	6460
818.216	6445
818.356	6433
818.497	6254
818.638	6155
818.778	6144
818.919	6175
819.06	6209
819.2	6331
819.341	6357
819.481	6361
819.622	6540
819.762	6730
819.903	6730
820.043	6650
820.184	6555
820.324	6601
820.465	6715
820.605	6642
820.746	6681
820.886	6498
821.026	6658
821.167	6673
821.307	6738
821.447	6734
821.588	6658
821.728	6566
821.868	6486
822.008	6391
822.149	6365
822.289	6315
822.429	6182
822.569	6076
822.709	6125
822.849	5954
822.99	5897
823.13	5920
823.27	5878
823.41	5809
823.55	5813
823.69	5714
823.83	5783
823.97	5623
824.11	5532
824.25	5532
824.389	5535
824.529	5512
824.669	5512
824.809	5638
824.949	5722
825.089	5577
825.228	5573
825.368	5429
825.508	5383
825.648	5357
825.787	5395
825.927	5425
826.067	5303
826.206	5265
826.346	5383
826.485	5387
826.625	5398
826.765	5528
826.904	5512
827.044	5261
827.183	5227
827.323	5132
827.462	5246
827.601	5174
827.741	5166
827.88	5166
828.02	5128
828.159	5318
828.298	5307
828.437	5349
828.577	5250
828.716	5516
828.855	5311
828.994	5174
829.134	5147
829.273	5181
829.412	5170
829.551	5155
829.69	5174
829.829	5212
829.968	5372
830.107	5246
830.246	5235
830.385	5143
830.524	5166
830.663	5025
830.802	4987
830.941	4862
831.08	4908
831.219	5029
831.357	4991
831.496	5151
831.635	4942
831.774	4850
831.913	4828
832.051	4763
832.19	4767
832.329	4847
832.467	4706
832.606	4637
832.744	4725
832.883	4744
833.022	4774
833.16	4725
833.299	4847
833.437	4797
833.576	4862
833.714	4828
833.852	4889
833.991	4915
834.129	4949
834.267	4934
834.406	4896
834.544	5006
834.682	4984
834.821	4984
834.959	5143
835.097	4953
835.235	5155
835.373	5086
835.511	5083
835.65	4942
835.788	5048
835.926	4919
836.064	4877
836.202	4957
836.34	5136
836.478	5193
836.615	5109
836.753	5162
836.891	5239
837.029	5250
837.167	5121
837.305	5220
837.443	5143
837.58	5064
837.718	5239
837.856	5178
837.993	5128
838.131	5265
838.269	5193
838.406	5220
838.544	5204
838.681	4999
838.819	4984
838.956	4919
839.094	4873
839.231	4927
839.369	5090
839.506	5391
839.643	5223
839.781	5075
839.918	5006
840.055	5098
840.193	5090
840.33	5079
840.467	5136
840.604	5193
840.742	5433
840.879	5102
841.016	5067
841.153	5185
841.29	5349
841.427	5307
841.564	5341
841.701	5357
841.838	5265
841.975	5277
842.112	5258
842.249	5140
842.385	5098
842.522	5330
842.659	5189
842.796	5140
842.933	5193
843.069	5109
843.206	5181
843.343	5326
843.479	5227
843.616	5280
843.752	5018
843.889	4991
844.025	5201
844.162	5029
844.298	5223
844.435	5052
844.571	5056
844.708	5220
844.844	5315
844.98	5330
845.117	5296
845.253	5105
845.389	5090
845.525	5189
845.661	5136
845.798	5029
845.934	5170
846.07	5079
846.206	5235
846.342	5277
846.478	5166
846.614	5064
846.75	4980
846.886	4915
847.022	5094
847.158	4938
847.294	5060
847.429	5098
847.565	5067
847.701	5299
847.837	4850
847.972	4812
848.108	4953
848.244	4934
848.379	4847
848.515	4710
848.65	4706
848.786	4706
848.921	4809
849.057	4862
849.192	4877
849.328	4847
849.463	4858
849.598	4786
849.734	4755
849.869	4634
850.004	4565
850.14	4649
850.275	4618
850.41	4592
850.545	4592
850.68	4618
850.815	4611
850.95	4618
851.085	4835
851.22	4706
851.355	4637
851.49	4645
851.625	4618
851.76	4615
851.895	4546
852.03	4569
852.165	4656
852.299	4714
852.434	4778
852.569	4767
852.703	4805
852.838	4873
852.973	4961
853.107	4946
853.242	4679
853.376	4664
853.511	4561
853.645	4645
853.78	4839
853.914	4698
854.048	4668
854.183	4622
854.317	4740
854.451	4801
854.585	4714
854.72	4649
854.854	4752
854.988	4607
855.122	4618
855.256	4485
855.39	4687
855.524	4778
855.658	4778
855.792	4691
855.926	4717
856.06	4748
856.194	4774
856.327	4653
856.461	4599
856.595	4596
856.729	4603
856.862	4790
856.996	4691
857.13	4721
857.263	4767
857.397	4778
857.53	4725
857.664	4672
857.797	4755
857.931	4778
858.064	4641
858.197	4793
858.331	4649
858.464	4584
858.597	4546
858.731	4637
858.864	4649
858.997	4615
859.13	4687
859.263	4668
859.396	4729
859.529	4569
859.662	4577
859.795	4550
859.928	4672
860.061	4786
860.194	4774
860.327	4592
860.46	4538
860.592	4710
860.725	4729
860.858	4698
860.99	4538
861.123	4546
861.256	4554
861.388	4660
861.521	5398
861.653	4538
861.786	4485
861.918	4478
862.05	4485
862.183	4535
862.315	4599
862.447	4615
862.58	4516
862.712	4390
862.844	4363
862.976	4489
863.108	4443
863.24	4748
863.372	4284
863.504	4436
863.636	4405
863.768	4478
863.9	4436
864.032	4314
864.164	4440
864.296	4516
864.428	4535
864.559	4550
864.691	4516
864.823	4538
864.954	4447
865.086	4497
865.217	4481
865.349	4352
865.48	4451
865.612	4485
865.743	4649
865.875	4478
866.006	4398
866.137	4428
866.269	4455
866.4	4432
866.531	4405
866.662	4386
866.793	4421
866.924	4386
867.055	4481
867.186	4451
867.317	4428
867.448	4394
867.579	4356
867.71	4371
867.841	4318
867.972	4417
868.103	4462
868.233	4455
868.364	4443
868.495	4478
868.625	4645
868.756	4790
868.886	4558
869.017	4618
869.147	4752
869.278	4755
869.408	4664
869.539	4675
869.669	4702
869.799	4664
869.929	4744
870.06	4714
870.19	4968
870.32	4873
870.45	4942
870.58	5022
870.71	5060
870.84	5083
870.97	4946
871.1	4889
871.23	5128
871.36	5094
871.489	5014
871.619	5045
871.749	5064
871.879	5147
872.008	5162
872.138	5025
872.267	5003
872.397	4839
872.526	4854
872.656	4733
872.785	4797
872.915	4968
873.044	5022
873.173	4946
873.303	5018
873.432	4972
873.561	4938
873.69	4881
873.819	4919
873.948	4900
874.077	4797
874.206	4736
874.335	4755
874.464	4896
874.593	5083
874.722	4961
874.851	5094
874.979	5056
875.108	5033
875.237	4919
875.365	4877
875.494	4885
875.623	4965
875.751	4763
875.88	4900
876.008	4984
876.136	5048
876.265	5189
876.393	5357
876.521	5246
876.65	5204
876.778	5075
876.906	5067
877.034	5048
877.162	5025
877.29	4980
877.418	5086
877.546	5025
877.674	5025
877.802	5064
877.93	5006
878.058	4946
878.185	4892
878.313	4911
878.441	4942
878.568	4824
878.696	4866
878.824	4987
878.951	4999
879.079	5124
879.206	5269
879.333	5113
879.461	4976
879.588	4976
879.715	5143
879.842	5197
879.97	5064
880.097	4797
880.224	4744
880.351	4778
880.478	4843
880.605	4710
880.732	4752
880.859	5090
880.986	4915
881.112	4949
881.239	4767
881.366	4668
881.493	4607
881.619	4618
881.746	4603
881.872	4637
881.999	4687
882.125	4656
882.252	4755
882.378	4816
882.505	4987
882.631	4854
882.757	4656
882.883	4744
883.01	4736
883.136	4710
883.262	4630
883.388	4569
883.514	4767
883.64	4858
883.766	4824
883.892	4679
884.018	4725
884.143	4873
884.269	4987
884.395	4679
884.52	4603
884.646	4630
884.772	4596
884.897	4573
885.023	4645
885.148	4790
885.274	4831
885.399	4843
885.524	4687
885.65	4710
885.775	4725
885.9	4691
886.025	4831
886.15	4774
886.275	4729
886.4	4679
886.525	4733
886.65	4717
886.775	4649
886.9	4892
887.025	5025
887.149	4828
887.274	4611
887.399	4527
887.523	4622
887.648	4592
887.773	4569
887.897	4759
888.021	4805
888.146	4630
888.27	4828
888.395	4858
888.519	4771
888.643	4816
888.767	4831
888.891	4702
889.015	4615
889.139	4683
889.263	4645
889.387	4763
889.511	4896
889.635	4812
889.759	4653
889.883	4634
890.006	4691
890.13	4839
890.254	4641
890.377	4698
890.501	4508
890.624	4440
890.748	4637
890.871	4523
890.995	4432
891.118	4367
891.241	4504
891.364	4531
891.488	4656
891.611	4519
891.734	4478
891.857	4637
891.98	4538
892.103	4656
892.226	4573
892.349	4523
892.471	4432
892.594	4550
892.717	4588
892.839	4577
892.962	4565
893.085	4721
893.207	4603
893.33	4493
893.452	4535
893.575	4653
893.697	4542
893.819	4748
893.941	4831
894.064	4767
894.186	4558
894.308	4596
894.43	4744
894.552	4820
894.674	4710
894.796	4512
894.918	4618
895.04	4596
895.161	4694
895.283	4687
895.405	4596
895.526	4679
895.648	4672
895.769	4721
895.891	4736
896.012	4752
896.134	4748
896.255	4675
896.376	4615
896.498	4649
896.619	4653
896.74	4558
896.861	4622
896.982	4904
897.103	5086
897.224	4850
897.345	4740
897.466	4634
897.587	4679
897.708	4835
897.828	4809
897.949	4668
898.07	4538
898.19	4611
898.311	4839
898.431	4714
898.552	4721
898.672	4763
898.792	4786
898.913	4736
899.033	4675
899.153	4516
899.273	4413
899.393	4462
899.513	4478
899.633	4554
899.753	4584
899.873	4554
899.993	4584
900.113	4542
900.232	4577
900.352	4508
900.472	4485
900.591	4363
900.711	4497
900.83	4432
900.95	4573
901.069	4694
901.189	4558
901.308	4337
901.427	4310
901.546	4375
901.665	4459
901.784	4512
901.904	4386
902.023	4306
902.141	4181
902.26	4204
902.379	4299
902.498	4207
902.617	4230
902.735	4314
902.854	4428
902.973	4371
903.091	4219
903.21	4188
903.328	4284
903.446	4306
903.565	4318
903.683	4356
903.801	4253
903.919	4417
904.038	4402
904.156	4318
904.274	4462
904.392	4379
904.51	4451
904.627	4508
904.745	4565
904.863	4615
904.981	4428
905.098	4306
905.216	4421
905.334	4424
905.451	4413
905.569	4500
905.686	4565
905.803	4493
905.921	4447
906.038	4531
906.155	4500
906.272	4390
906.389	4474
906.506	4360
906.623	4398
906.74	4371
906.857	4348
906.974	4314
907.091	4569
907.208	4664
907.324	4554
907.441	4523
907.557	4329
907.674	4299
907.79	4287
907.907	4409
908.023	4474
908.139	4481
908.256	4428
908.372	4470
908.488	4428
908.604	4371
908.72	4352
908.836	4386
908.952	4383
909.068	4409
909.184	4561
909.3	4478
909.415	4546
909.531	4584
909.647	4390
909.762	4375
909.878	4325
909.993	4390
910.108	4428
910.224	4341
910.339	4443
910.454	4383
910.57	4424
910.685	4265
910.8	4626
910.915	4634
911.03	4455
911.145	4291
911.259	4352
911.374	4363
911.489	4303
911.604	4280
911.718	4219
911.833	4227
911.947	4135
912.062	4010
912.176	4227
912.291	4215
912.405	4261
912.519	4459
912.633	4493
912.748	4318
912.862	4325
912.976	4173
913.09	4105
913.204	4116
913.318	4238
913.431	4394
913.545	4402
913.659	4428
913.772	4341
913.886	4253
914	4234
914.113	4360
914.226	4390
914.34	4390
914.453	4261
914.566	4432
914.68	4261
914.793	4352
914.906	4147
915.019	4131
915.132	4082
915.245	4128
915.358	4188
915.47	4227
915.583	4253
915.696	4242
915.809	4394
915.921	4421
916.034	4265
916.146	4234
916.259	4207
916.371	4390
916.483	4329
916.595	4261
916.708	4329
916.82	4344
916.932	4291
917.044	4265
917.156	4291
917.268	4200
917.38	4246
917.491	4276
917.603	4352
917.715	4383
917.826	4413
917.938	4314
918.049	4253
918.161	4417
918.272	4531
918.384	4497
918.495	4428
918.606	4295
918.717	4238
918.828	4299
918.939	4337
919.05	4287
919.161	4318
919.272	4116
919.383	4230
919.494	4428
919.604	4637
919.715	4424
919.826	4333
919.936	4432
920.047	4523
920.157	4447
920.267	4714
920.378	4538
920.488	4481
920.598	4714
920.708	4854
920.818	4805
920.928	4767
921.038	4961
921.148	4927
921.258	4637
921.368	4573
921.477	4481
921.587	4481
921.697	4386
921.806	4489
921.916	4432
922.025	4268
922.134	4219
922.244	4253
922.353	4329
922.462	4162
922.571	4120
922.68	4029
922.789	3991
922.898	4051
923.007	3949
923.116	4116
923.224	4044
923.333	4032
923.442	3983
923.55	3983
923.659	4017
923.767	4090
923.876	3964
923.984	4086
924.092	3956
924.201	4101
924.309	4067
924.417	4105
924.525	4048
924.633	4120
924.741	5048
924.849	3953
924.956	4128
925.064	3972
925.172	3937
925.279	3918
925.387	4086
925.494	4036
925.602	4268
925.709	4173
925.816	4082
925.924	4158
926.031	4192
926.138	4185
926.245	4158
926.352	4093
926.459	4257
926.566	4318
926.673	4154
926.779	4071
926.886	4059
926.993	3964
927.099	3930
927.206	3930
927.312	3922
927.419	4063
927.525	4021
927.631	4086
927.737	3968
927.843	3915
927.95	3865
928.056	3953
928.162	3975
928.267	4051
928.373	4611
928.479	4143
928.585	3896
928.69	4036
928.796	4059
928.901	3975
929.007	3846
929.112	3975
929.218	3994
929.323	3945
929.428	3945
929.533	4090
929.638	3899
929.743	3975
929.848	4025
929.953	3972
930.058	3934
930.163	3823
930.267	3797
930.372	3960
930.477	3854
930.581	4109
930.685	3907
930.79	3816
930.894	3918
930.998	3846
931.103	4051
931.207	3747
931.311	3724
931.415	3644
931.519	3504
931.623	3576
