Data from test_V78500241_2075.txt Node
Date: Fri Mar 25 17:03:25 CST 2022
User: usil
Spectrometer: V785-0024
Trigger mode: 0
Integration Time (sec): 4.000000E-1
Scans to average: 1
Nonlinearity correction enabled: false
Boxcar width: 0
Storing dark spectrum: false
XAxis mode: Wavelengths
Number of Pixels in Spectrum: 1024
>>>>>Begin Spectral Data<<<<<
801.071	8035
801.214	8024
801.356	7818
801.499	7902
801.641	7875
801.783	7769
801.926	8077
802.068	7986
802.211	7959
802.353	8065
802.496	7849
802.638	7875
802.78	7864
802.923	7898
803.065	7849
803.208	7932
803.35	7955
803.492	7993
803.635	8214
803.777	8020
803.919	8115
804.061	8454
804.204	8149
804.346	8134
804.488	7928
804.63	8130
804.773	8024
804.915	8088
805.057	8259
805.199	8157
805.341	8176
805.483	8313
805.626	8172
805.768	8134
805.91	8153
806.052	8252
806.194	8123
806.336	8301
806.478	8039
806.62	8016
806.762	8084
806.904	8320
807.046	8457
807.188	8362
807.33	8320
807.472	8290
807.614	8183
807.756	8100
807.898	7974
808.04	7898
808.182	7906
808.324	7894
808.465	7940
808.607	8062
808.749	8100
808.891	8248
809.033	8237
809.174	8210
809.316	8062
809.458	8111
809.6	8031
809.741	8027
809.883	8035
810.025	8115
810.166	8031
810.308	8016
810.45	8005
810.591	7860
810.733	7677
810.875	7605
811.016	7518
811.158	7457
811.299	7537
811.441	7712
811.582	7670
811.724	7552
811.865	7521
812.007	7586
812.148	7594
812.29	7658
812.431	7780
812.573	7845
812.714	8043
812.855	8172
812.997	8096
813.138	8294
813.279	8111
813.421	8024
813.562	7944
813.703	7879
813.845	7750
813.986	7365
814.127	7194
814.268	7232
814.41	7221
814.551	7126
814.692	7225
814.833	7107
814.974	7072
815.115	7152
815.256	6905
815.397	6905
815.539	6993
815.68	6829
815.821	6730
815.962	6856
816.103	6829
816.244	6719
816.385	6604
816.526	6612
816.666	6547
816.807	6308
816.948	6426
817.089	6494
817.23	6399
817.371	6407
817.512	6403
817.653	6429
817.793	6376
817.934	6391
818.075	6483
818.216	6471
818.356	6437
818.497	6239
818.638	6110
818.778	6121
818.919	6140
819.06	6197
819.2	6285
819.341	6304
819.481	6372
819.622	6555
819.762	6753
819.903	6707
820.043	6612
820.184	6627
820.324	6578
820.465	6696
820.605	6665
820.746	6620
820.886	6536
821.026	6696
821.167	6722
821.307	6829
821.447	6760
821.588	6642
821.728	6604
821.868	6525
822.008	6376
822.149	6353
822.289	6361
822.429	6175
822.569	6064
822.709	6163
822.849	5882
822.99	5920
823.13	5946
823.27	5882
823.41	5805
823.55	5794
823.69	5748
823.83	5817
823.97	5638
824.11	5520
824.25	5532
824.389	5524
824.529	5566
824.669	5543
824.809	5642
824.949	5707
825.089	5611
825.228	5577
825.368	5349
825.508	5372
825.648	5376
825.787	5334
825.927	5379
826.067	5318
826.206	5337
826.346	5337
826.485	5410
826.625	5429
826.765	5562
826.904	5554
827.044	5269
827.183	5204
827.323	5136
827.462	5201
827.601	5220
827.741	5181
827.88	5227
828.02	5079
828.159	5242
828.298	5269
828.437	5357
828.577	5235
828.716	5486
828.855	5303
828.994	5132
829.134	5170
829.273	5246
829.412	5136
829.551	5155
829.69	5143
829.829	5254
829.968	5341
830.107	5322
830.246	5334
830.385	5212
830.524	5143
830.663	5067
830.802	4972
830.941	4908
831.08	4885
831.219	5006
831.357	4972
831.496	5140
831.635	4870
831.774	4858
831.913	4820
832.051	4717
832.19	4744
832.329	4862
832.467	4679
832.606	4649
832.744	4702
832.883	4729
833.022	4736
833.16	4786
833.299	4812
833.437	4854
833.576	4858
833.714	4850
833.852	4866
833.991	4930
834.129	4991
834.267	4953
834.406	4892
834.544	4984
834.682	4972
834.821	4957
834.959	5181
835.097	5041
835.235	5140
835.373	5109
835.511	5132
835.65	5052
835.788	4984
835.926	4923
836.064	4915
836.202	4946
836.34	5170
836.478	5239
836.615	5136
836.753	5178
836.891	5383
837.029	5204
837.167	5227
837.305	5181
837.443	5151
837.58	5121
837.718	5261
837.856	5242
837.993	5136
838.131	5185
838.269	5216
838.406	5235
838.544	5197
838.681	5041
838.819	5045
838.956	4927
839.094	4885
839.231	4999
839.369	5037
839.506	5429
839.643	5254
839.781	5113
839.918	4980
840.055	5102
840.193	5071
840.33	5113
840.467	5098
840.604	5178
840.742	5452
840.879	5121
841.016	5124
841.153	5143
841.29	5379
841.427	5376
841.564	5337
841.701	5326
841.838	5250
841.975	5227
842.112	5216
842.249	5155
842.385	5109
842.522	5326
842.659	5128
842.796	5166
842.933	5151
843.069	5178
843.206	5185
843.343	5292
843.479	5250
843.616	5258
843.752	5033
843.889	5018
844.025	5216
844.162	5014
844.298	5181
844.435	5086
844.571	5090
844.708	5242
844.844	5299
844.98	5341
845.117	5330
845.253	5124
845.389	5048
845.525	5147
845.661	5178
845.798	5041
845.934	5132
846.07	5071
846.206	5204
846.342	5250
846.478	5143
846.614	5045
846.75	4934
846.886	4946
847.022	5128
847.158	5006
847.294	5094
847.429	5098
847.565	5045
847.701	5311
847.837	4820
847.972	4805
848.108	4953
848.244	4946
848.379	4790
848.515	4736
848.65	4733
848.786	4763
848.921	4763
849.057	4858
849.192	4934
849.328	4828
849.463	4847
849.598	4801
849.734	4782
849.869	4736
850.004	4664
850.14	4641
850.275	4615
850.41	4573
850.545	4538
850.68	4626
850.815	4653
850.95	4622
851.085	4828
851.22	4721
851.355	4717
851.49	4607
851.625	4660
851.76	4649
851.895	4592
852.03	4531
852.165	4691
852.299	4687
852.434	4759
852.569	4786
852.703	4805
852.838	4831
852.973	4934
853.107	4923
853.242	4729
853.376	4626
853.511	4565
853.645	4569
853.78	4843
853.914	4660
854.048	4649
854.183	4630
854.317	4706
854.451	4881
854.585	4687
854.72	4675
854.854	4763
854.988	4569
855.122	4649
855.256	4523
855.39	4641
855.524	4816
855.658	4706
855.792	4744
855.926	4687
856.06	4710
856.194	4786
856.327	4714
856.461	4584
856.595	4569
856.729	4626
856.862	4774
856.996	4717
857.13	4778
857.263	4767
857.397	4858
857.53	4672
857.664	4740
857.797	4755
857.931	4763
858.064	4694
858.197	4744
858.331	4622
858.464	4561
858.597	4523
858.731	4679
858.864	4649
858.997	4618
859.13	4664
859.263	4664
859.396	4706
859.529	4573
859.662	4580
859.795	4527
859.928	4603
860.061	4778
860.194	4778
860.327	4615
860.46	4573
860.592	4729
860.725	4748
860.858	4736
860.99	4615
861.123	4500
861.256	4569
861.388	4603
861.521	5307
861.653	4455
861.786	4485
861.918	4436
862.05	4542
862.183	4558
862.315	4603
862.447	4622
862.58	4588
862.712	4409
862.844	4322
862.976	4466
863.108	4440
863.24	4828
863.372	4291
863.504	4367
863.636	4394
863.768	4497
863.9	4402
864.032	4344
864.164	4413
864.296	4497
864.428	4523
864.559	4584
864.691	4504
864.823	4569
864.954	4523
865.086	4504
865.217	4443
865.349	4421
865.48	4470
865.612	4436
865.743	4660
865.875	4443
866.006	4371
866.137	4436
866.269	4405
866.4	4421
866.531	4405
866.662	4421
866.793	4428
866.924	4440
867.055	4466
867.186	4466
867.317	4360
867.448	4405
867.579	4413
867.71	4390
867.841	4299
867.972	4455
868.103	4440
868.233	4497
868.364	4424
868.495	4447
868.625	4706
868.756	4733
868.886	4618
869.017	4615
869.147	4790
869.278	4767
869.408	4714
869.539	4607
869.669	4683
869.799	4683
869.929	4725
870.06	4744
870.19	4980
870.32	4908
870.45	4965
870.58	5010
870.71	5064
870.84	5025
870.97	4923
871.1	4866
871.23	5185
871.36	5121
871.489	5041
871.619	5113
871.749	5037
871.879	5090
872.008	5166
872.138	5071
872.267	4968
872.397	4854
872.526	4736
872.656	4744
872.785	4763
872.915	4991
873.044	4984
873.173	4961
873.303	5006
873.432	4908
873.561	4938
873.69	4908
873.819	4835
873.948	4927
874.077	4790
874.206	4748
874.335	4782
874.464	4927
874.593	5014
874.722	4972
874.851	5162
874.979	5041
875.108	5033
875.237	4896
875.365	4896
875.494	4896
875.623	4934
875.751	4847
875.88	4858
876.008	5010
876.136	5018
876.265	5170
876.393	5315
876.521	5261
876.65	5216
876.778	5155
876.906	5056
877.034	5006
877.162	4995
877.29	4965
877.418	5071
877.546	5037
877.674	4984
877.802	5022
877.93	5010
878.058	4961
878.185	4892
878.313	4968
878.441	4961
878.568	4797
878.696	4904
878.824	4961
878.951	4938
879.079	5140
879.206	5299
879.333	5048
879.461	4949
879.588	5010
879.715	5113
879.842	5201
879.97	5048
880.097	4759
880.224	4717
880.351	4824
880.478	4843
880.605	4809
880.732	4759
880.859	5060
880.986	4896
881.112	4885
881.239	4805
881.366	4660
881.493	4637
881.619	4611
881.746	4637
881.872	4706
881.999	4641
882.125	4698
882.252	4801
882.378	4816
882.505	4949
882.631	4790
882.757	4645
882.883	4763
883.01	4736
883.136	4691
883.262	4558
883.388	4588
883.514	4805
883.64	4839
883.766	4755
883.892	4683
884.018	4706
884.143	4889
884.269	5037
884.395	4618
884.52	4618
884.646	4656
884.772	4603
884.897	4580
885.023	4710
885.148	4790
885.274	4847
885.399	4812
885.524	4698
885.65	4679
885.775	4740
885.9	4637
886.025	4873
886.15	4786
886.275	4675
886.4	4683
886.525	4752
886.65	4634
886.775	4679
886.9	4915
887.025	5010
887.149	4797
887.274	4660
887.399	4588
887.523	4573
887.648	4531
887.773	4615
887.897	4752
888.021	4801
888.146	4687
888.27	4809
888.395	4900
888.519	4759
888.643	4831
888.767	4824
888.891	4645
889.015	4599
889.139	4634
889.263	4573
889.387	4752
889.511	4839
889.635	4790
889.759	4641
889.883	4653
890.006	4721
890.13	4847
890.254	4599
890.377	4656
890.501	4527
890.624	4516
890.748	4611
890.871	4531
890.995	4447
891.118	4375
891.241	4535
891.364	4512
891.488	4641
891.611	4519
891.734	4508
891.857	4588
891.98	4538
892.103	4679
892.226	4573
892.349	4519
892.471	4447
892.594	4504
892.717	4603
892.839	4535
892.962	4588
893.085	4634
893.207	4561
893.33	4478
893.452	4478
893.575	4668
893.697	4554
893.819	4828
893.941	4828
894.064	4767
894.186	4622
894.308	4607
894.43	4748
894.552	4805
894.674	4706
894.796	4550
894.918	4592
895.04	4569
895.161	4710
895.283	4656
895.405	4542
895.526	4645
895.648	4641
895.769	4683
895.891	4710
896.012	4763
896.134	4736
896.255	4649
896.376	4675
896.498	4645
896.619	4664
896.74	4603
896.861	4603
896.982	4930
897.103	5071
897.224	4828
897.345	4714
897.466	4672
897.587	4759
897.708	4885
897.828	4771
897.949	4649
898.07	4542
898.19	4630
898.311	4847
898.431	4679
898.552	4721
898.672	4839
898.792	4816
898.913	4740
899.033	4645
899.153	4523
899.273	4436
899.393	4527
899.513	4508
899.633	4497
899.753	4554
899.873	4508
899.993	4596
900.113	4516
900.232	4618
900.352	4546
900.472	4481
900.591	4386
900.711	4489
900.83	4413
900.95	4607
901.069	4683
901.189	4554
901.308	4360
901.427	4325
901.546	4356
901.665	4443
901.784	4478
901.904	4413
902.023	4325
902.141	4192
902.26	4135
902.379	4287
902.498	4272
902.617	4211
902.735	4344
902.854	4428
902.973	4375
903.091	4185
903.21	4238
903.328	4287
903.446	4246
903.565	4287
903.683	4341
903.801	4287
903.919	4421
904.038	4443
904.156	4344
904.274	4459
904.392	4402
904.51	4462
904.627	4459
904.745	4577
904.863	4622
904.981	4394
905.098	4306
905.216	4325
905.334	4421
905.451	4409
905.569	4405
905.686	4546
905.803	4599
905.921	4421
906.038	4561
906.155	4462
906.272	4375
906.389	4470
906.506	4299
906.623	4379
906.74	4356
906.857	4348
906.974	4371
907.091	4569
907.208	4656
907.324	4592
907.441	4535
907.557	4337
907.674	4348
907.79	4337
907.907	4375
908.023	4497
908.139	4497
908.256	4421
908.372	4466
908.488	4462
908.604	4329
908.72	4329
908.836	4360
908.952	4383
909.068	4417
909.184	4580
909.3	4481
909.415	4565
909.531	4603
909.647	4363
909.762	4329
909.878	4291
909.993	4447
910.108	4402
910.224	4402
910.339	4485
910.454	4405
910.57	4386
910.685	4295
910.8	4694
910.915	4649
911.03	4481
911.145	4287
911.259	4337
911.374	4348
911.489	4291
911.604	4276
911.718	4173
911.833	4227
911.947	4048
912.062	4029
912.176	4238
912.291	4265
912.405	4280
912.519	4474
912.633	4512
912.748	4360
912.862	4314
912.976	4177
913.09	4051
913.204	4128
913.318	4246
913.431	4424
913.545	4318
913.659	4402
913.772	4371
913.886	4268
914	4227
914.113	4398
914.226	4402
914.34	4390
914.453	4215
914.566	4436
914.68	4314
914.793	4344
914.906	4181
915.019	4090
915.132	4063
915.245	4177
915.358	4215
915.47	4230
915.583	4246
915.696	4314
915.809	4428
915.921	4386
916.034	4284
916.146	4268
916.259	4181
916.371	4383
916.483	4333
916.595	4265
916.708	4341
916.82	4280
916.932	4386
917.044	4299
917.156	4314
917.268	4192
917.38	4299
917.491	4253
917.603	4325
917.715	4474
917.826	4413
917.938	4344
918.049	4287
918.161	4398
918.272	4519
918.384	4538
918.495	4424
918.606	4299
918.717	4261
918.828	4310
918.939	4409
919.05	4257
919.161	4333
919.272	4139
919.383	4230
919.494	4443
919.604	4622
919.715	4424
919.826	4360
919.936	4371
920.047	4489
920.157	4497
920.267	4672
920.378	4569
920.488	4519
920.598	4725
920.708	4904
920.818	4736
920.928	4778
921.038	4961
921.148	4900
921.258	4599
921.368	4546
921.477	4478
921.587	4436
921.697	4386
921.806	4542
921.916	4451
922.025	4261
922.134	4272
922.244	4230
922.353	4348
922.462	4166
922.571	4082
922.68	4032
922.789	3994
922.898	4036
923.007	3979
923.116	4093
923.224	4071
923.333	4078
923.442	4017
923.55	3911
923.659	4063
923.767	4067
923.876	3994
923.984	4082
924.092	3979
924.201	4101
924.309	4063
924.417	4139
924.525	4090
924.633	4120
924.741	5025
924.849	3918
924.956	4131
925.064	3968
925.172	3896
925.279	3983
925.387	4105
925.494	4044
925.602	4230
925.709	4112
925.816	4078
925.924	4135
926.031	4211
926.138	4211
926.245	4207
926.352	4071
926.459	4257
926.566	4268
926.673	4177
926.779	4051
926.886	4101
926.993	3983
927.099	3975
927.206	3907
927.312	3934
927.419	4048
927.525	4040
927.631	4097
927.737	3979
927.843	3918
927.95	3865
928.056	3926
928.162	3983
928.267	4032
928.373	4573
928.479	4124
928.585	3884
928.69	3972
928.796	4116
928.901	3964
929.007	3865
929.112	3983
929.218	3979
929.323	3915
929.428	3937
929.533	4074
929.638	3911
929.743	3964
929.848	4036
929.953	3998
930.058	3949
930.163	3789
930.267	3857
930.372	3987
930.477	3831
930.581	4063
930.685	3934
930.79	3823
930.894	3876
930.998	3819
931.103	4025
931.207	3736
931.311	3732
931.415	3667
931.519	3500
931.623	3564
