Data from test_V78500241_2841.txt Node
Date: Fri Mar 25 17:08:45 CST 2022
User: usil
Spectrometer: V785-0024
Trigger mode: 0
Integration Time (sec): 4.000000E-1
Scans to average: 1
Nonlinearity correction enabled: false
Boxcar width: 0
Storing dark spectrum: false
XAxis mode: Wavelengths
Number of Pixels in Spectrum: 1024
>>>>>Begin Spectral Data<<<<<
801.071	7989
801.214	7993
801.356	7879
801.499	7818
801.641	7826
801.783	7845
801.926	7978
802.068	7955
802.211	8016
802.353	7989
802.496	7909
802.638	7902
802.78	7928
802.923	7955
803.065	7849
803.208	7833
803.35	7970
803.492	8115
803.635	8221
803.777	8031
803.919	8168
804.061	8431
804.204	8153
804.346	8096
804.488	8012
804.63	8157
804.773	7974
804.915	8084
805.057	8320
805.199	8244
805.341	8187
805.483	8279
805.626	8195
805.768	8149
805.91	8214
806.052	8202
806.194	8065
806.336	8290
806.478	8103
806.62	8123
806.762	8161
806.904	8191
807.046	8427
807.188	8374
807.33	8355
807.472	8396
807.614	8176
807.756	8123
807.898	7989
808.04	7856
808.182	7852
808.324	7909
808.465	7883
808.607	8024
808.749	8172
808.891	8290
809.033	8370
809.174	8202
809.316	8077
809.458	8069
809.6	8001
809.741	8054
809.883	8050
810.025	8130
810.166	8084
810.308	8073
810.45	7982
810.591	7940
810.733	7666
810.875	7719
811.016	7506
811.158	7483
811.299	7582
811.441	7792
811.582	7685
811.724	7624
811.865	7575
812.007	7601
812.148	7639
812.29	7567
812.431	7700
812.573	7856
812.714	7974
812.855	8142
812.997	8233
813.138	8225
813.279	8145
813.421	8157
813.562	7932
813.703	7951
813.845	7814
813.986	7441
814.127	7301
814.268	7274
814.41	7156
814.551	7091
814.692	7175
814.833	7084
814.974	7095
815.115	7088
815.256	6973
815.397	6882
815.539	6932
815.68	6821
815.821	6711
815.962	6867
816.103	6825
816.244	6741
816.385	6665
816.526	6646
816.666	6490
816.807	6342
816.948	6433
817.089	6490
817.23	6403
817.371	6407
817.512	6399
817.653	6315
817.793	6346
817.934	6418
818.075	6464
818.216	6445
818.356	6422
818.497	6292
818.638	6136
818.778	6175
818.919	6121
819.06	6171
819.2	6319
819.341	6296
819.481	6315
819.622	6521
819.762	6684
819.903	6646
820.043	6570
820.184	6566
820.324	6620
820.465	6639
820.605	6730
820.746	6726
820.886	6506
821.026	6726
821.167	6753
821.307	6856
821.447	6753
821.588	6658
821.728	6563
821.868	6445
822.008	6342
822.149	6346
822.289	6338
822.429	6121
822.569	6083
822.709	6125
822.849	5977
822.99	5851
823.13	6007
823.27	5897
823.41	5756
823.55	5786
823.69	5775
823.83	5794
823.97	5710
824.11	5573
824.25	5566
824.389	5604
824.529	5592
824.669	5600
824.809	5657
824.949	5653
825.089	5649
825.228	5554
825.368	5421
825.508	5387
825.648	5368
825.787	5383
825.927	5383
826.067	5326
826.206	5315
826.346	5376
826.485	5387
826.625	5436
826.765	5585
826.904	5524
827.044	5341
827.183	5239
827.323	5208
827.462	5318
827.601	5231
827.741	5201
827.88	5280
828.02	5178
828.159	5292
828.298	5322
828.437	5406
828.577	5292
828.716	5493
828.855	5307
828.994	5193
829.134	5185
829.273	5269
829.412	5151
829.551	5162
829.69	5197
829.829	5288
829.968	5353
830.107	5337
830.246	5357
830.385	5250
830.524	5193
830.663	5064
830.802	5029
830.941	4976
831.08	4896
831.219	5025
831.357	5045
831.496	5185
831.635	4942
831.774	4850
831.913	4843
832.051	4831
832.19	4774
832.329	4877
832.467	4752
832.606	4630
832.744	4744
832.883	4790
833.022	4771
833.16	4812
833.299	4889
833.437	4908
833.576	4889
833.714	4858
833.852	4915
833.991	4904
834.129	5014
834.267	5006
834.406	4927
834.544	4999
834.682	5003
834.821	5018
834.959	5227
835.097	5041
835.235	5151
835.373	5136
835.511	5121
835.65	5079
835.788	5098
835.926	4904
836.064	4942
836.202	4984
836.34	5121
836.478	5239
836.615	5201
836.753	5185
836.891	5349
837.029	5235
837.167	5269
837.305	5212
837.443	5162
837.58	5124
837.718	5318
837.856	5227
837.993	5159
838.131	5258
838.269	5223
838.406	5303
838.544	5208
838.681	5048
838.819	5056
838.956	4927
839.094	4919
839.231	5022
839.369	5113
839.506	5395
839.643	5337
839.781	5155
839.918	5071
840.055	5151
840.193	5155
840.33	5159
840.467	5162
840.604	5166
840.742	5467
840.879	5102
841.016	5102
841.153	5189
841.29	5410
841.427	5307
841.564	5292
841.701	5353
841.838	5299
841.975	5265
842.112	5315
842.249	5189
842.385	5143
842.522	5334
842.659	5197
842.796	5140
842.933	5273
843.069	5197
843.206	5239
843.343	5311
843.479	5269
843.616	5322
843.752	5113
843.889	5025
844.025	5299
844.162	5067
844.298	5235
844.435	5075
844.571	5102
844.708	5265
844.844	5372
844.98	5349
845.117	5326
845.253	5197
845.389	5124
845.525	5204
845.661	5181
845.798	5090
845.934	5170
846.07	5064
846.206	5258
846.342	5280
846.478	5216
846.614	5045
846.75	5037
846.886	4965
847.022	5121
847.158	5079
847.294	5083
847.429	5121
847.565	5132
847.701	5345
847.837	4911
847.972	4824
848.108	4934
848.244	5014
848.379	4801
848.515	4717
848.65	4759
848.786	4759
848.921	4778
849.057	4904
849.192	4923
849.328	4824
849.463	4911
849.598	4850
849.734	4816
849.869	4759
850.004	4683
850.14	4687
850.275	4630
850.41	4554
850.545	4603
850.68	4607
850.815	4687
850.95	4668
851.085	4896
851.22	4752
851.355	4740
851.49	4675
851.625	4672
851.76	4698
851.895	4626
852.03	4535
852.165	4668
852.299	4782
852.434	4866
852.569	4782
852.703	4816
852.838	4854
852.973	4946
853.107	4927
853.242	4812
853.376	4683
853.511	4554
853.645	4645
853.78	4831
853.914	4714
854.048	4717
854.183	4653
854.317	4752
854.451	4870
854.585	4660
854.72	4679
854.854	4767
854.988	4622
855.122	4626
855.256	4546
855.39	4664
855.524	4774
855.658	4771
855.792	4702
855.926	4725
856.06	4793
856.194	4820
856.327	4736
856.461	4645
856.595	4622
856.729	4645
856.862	4820
856.996	4710
857.13	4793
857.263	4782
857.397	4881
857.53	4694
857.664	4725
857.797	4778
857.931	4873
858.064	4729
858.197	4740
858.331	4668
858.464	4596
858.597	4550
858.731	4672
858.864	4630
858.997	4660
859.13	4664
859.263	4675
859.396	4694
859.529	4634
859.662	4592
859.795	4527
859.928	4637
860.061	4744
860.194	4793
860.327	4679
860.46	4618
860.592	4778
860.725	4774
860.858	4725
860.99	4607
861.123	4596
861.256	4577
861.388	4630
861.521	5448
861.653	4508
861.786	4447
861.918	4466
862.05	4512
862.183	4580
862.315	4656
862.447	4740
862.58	4603
862.712	4424
862.844	4375
862.976	4455
863.108	4546
863.24	4831
863.372	4432
863.504	4470
863.636	4424
863.768	4500
863.9	4508
864.032	4390
864.164	4443
864.296	4497
864.428	4554
864.559	4592
864.691	4489
864.823	4550
864.954	4508
865.086	4497
865.217	4516
865.349	4421
865.48	4481
865.612	4489
865.743	4660
865.875	4504
866.006	4447
866.137	4466
866.269	4504
866.4	4451
866.531	4440
866.662	4405
866.793	4432
866.924	4466
867.055	4516
867.186	4500
867.317	4443
867.448	4413
867.579	4379
867.71	4398
867.841	4413
867.972	4489
868.103	4504
868.233	4451
868.364	4405
868.495	4523
868.625	4744
868.756	4755
868.886	4588
869.017	4683
869.147	4801
869.278	4816
869.408	4664
869.539	4668
869.669	4725
869.799	4683
869.929	4748
870.06	4778
870.19	4961
870.32	4908
870.45	4946
870.58	5045
870.71	5147
870.84	5105
870.97	4995
871.1	4930
871.23	5151
871.36	5151
871.489	5045
871.619	5075
871.749	5083
871.879	5105
872.008	5204
872.138	5132
872.267	4991
872.397	4873
872.526	4828
872.656	4767
872.785	4805
872.915	5006
873.044	5003
873.173	4946
873.303	5037
873.432	5018
873.561	5010
873.69	4889
873.819	4854
873.948	4930
874.077	4854
874.206	4759
874.335	4862
874.464	4885
874.593	5079
874.722	5018
874.851	5105
874.979	5105
875.108	5052
875.237	4957
875.365	4908
875.494	4904
875.623	5029
875.751	4847
875.88	4934
876.008	4942
876.136	5037
876.265	5223
876.393	5330
876.521	5242
876.65	5239
876.778	5178
876.906	5136
877.034	5018
877.162	5064
877.29	5022
877.418	5071
877.546	5037
877.674	5022
877.802	5075
877.93	4999
878.058	4999
878.185	4919
878.313	5010
878.441	4965
878.568	4828
878.696	4915
878.824	4946
878.951	4995
879.079	5105
879.206	5269
879.333	5090
879.461	5006
879.588	5037
879.715	5140
879.842	5265
879.97	4980
880.097	4831
880.224	4824
880.351	4809
880.478	4866
880.605	4854
880.732	4820
880.859	5151
880.986	4934
881.112	4942
881.239	4778
881.366	4672
881.493	4653
881.619	4634
881.746	4626
881.872	4656
881.999	4672
882.125	4721
882.252	4797
882.378	4847
882.505	4987
882.631	4793
882.757	4702
882.883	4748
883.01	4790
883.136	4656
883.262	4607
883.388	4603
883.514	4797
883.64	4870
883.766	4797
883.892	4691
884.018	4759
884.143	4881
884.269	4987
884.395	4630
884.52	4630
884.646	4656
884.772	4603
884.897	4607
885.023	4736
885.148	4797
885.274	4885
885.399	4816
885.524	4721
885.65	4706
885.775	4774
885.9	4717
886.025	4854
886.15	4774
886.275	4729
886.4	4675
886.525	4717
886.65	4698
886.775	4694
886.9	4870
887.025	5079
887.149	4809
887.274	4675
887.399	4626
887.523	4626
887.648	4569
887.773	4641
887.897	4771
888.021	4790
888.146	4683
888.27	4820
888.395	4862
888.519	4816
888.643	4877
888.767	4843
888.891	4683
889.015	4637
889.139	4626
889.263	4615
889.387	4748
889.511	4866
889.635	4858
889.759	4664
889.883	4694
890.006	4725
890.13	4889
890.254	4653
890.377	4714
890.501	4584
890.624	4550
890.748	4679
890.871	4550
890.995	4455
891.118	4386
891.241	4523
891.364	4523
891.488	4634
891.611	4523
891.734	4573
891.857	4599
891.98	4565
892.103	4626
892.226	4637
892.349	4497
892.471	4466
892.594	4565
892.717	4577
892.839	4592
892.962	4565
893.085	4706
893.207	4569
893.33	4516
893.452	4542
893.575	4653
893.697	4561
893.819	4759
893.941	4862
894.064	4771
894.186	4603
894.308	4592
894.43	4767
894.552	4828
894.674	4778
894.796	4577
894.918	4630
895.04	4584
895.161	4721
895.283	4683
895.405	4584
895.526	4637
895.648	4717
895.769	4679
895.891	4725
896.012	4752
896.134	4744
896.255	4679
896.376	4710
896.498	4637
896.619	4672
896.74	4656
896.861	4668
896.982	4949
897.103	5086
897.224	4843
897.345	4759
897.466	4694
897.587	4694
897.708	4870
897.828	4812
897.949	4706
898.07	4577
898.19	4679
898.311	4885
898.431	4645
898.552	4755
898.672	4797
898.792	4843
898.913	4759
899.033	4675
899.153	4497
899.273	4462
899.393	4516
899.513	4546
899.633	4615
899.753	4550
899.873	4573
899.993	4615
900.113	4535
900.232	4596
900.352	4554
900.472	4462
900.591	4398
900.711	4527
900.83	4455
900.95	4630
901.069	4672
901.189	4580
901.308	4386
901.427	4348
901.546	4379
901.665	4512
901.784	4493
901.904	4440
902.023	4329
902.141	4227
902.26	4166
902.379	4284
902.498	4284
902.617	4204
902.735	4405
902.854	4424
902.973	4367
903.091	4139
903.21	4230
903.328	4344
903.446	4295
903.565	4287
903.683	4371
903.801	4303
903.919	4432
904.038	4470
904.156	4360
904.274	4440
904.392	4405
904.51	4462
904.627	4485
904.745	4577
904.863	4618
904.981	4447
905.098	4287
905.216	4367
905.334	4421
905.451	4478
905.569	4432
905.686	4546
905.803	4599
905.921	4466
906.038	4618
906.155	4508
906.272	4379
906.389	4466
906.506	4383
906.623	4379
906.74	4379
906.857	4341
906.974	4390
907.091	4584
907.208	4637
907.324	4565
907.441	4497
907.557	4325
907.674	4306
907.79	4318
907.907	4409
908.023	4565
908.139	4459
908.256	4375
908.372	4459
908.488	4466
908.604	4367
908.72	4325
908.836	4360
908.952	4386
909.068	4455
909.184	4592
909.3	4497
909.415	4607
909.531	4531
909.647	4394
909.762	4424
909.878	4352
909.993	4413
910.108	4413
910.224	4447
910.339	4500
910.454	4443
910.57	4371
910.685	4310
910.8	4698
910.915	4653
911.03	4481
911.145	4299
911.259	4348
911.374	4424
911.489	4322
911.604	4341
911.718	4166
911.833	4211
911.947	4067
912.062	4017
912.176	4257
912.291	4276
912.405	4249
912.519	4516
912.633	4459
912.748	4379
912.862	4322
912.976	4219
913.09	4109
913.204	4173
913.318	4265
913.431	4390
913.545	4337
913.659	4428
913.772	4390
913.886	4272
914	4230
914.113	4367
914.226	4421
914.34	4443
914.453	4268
914.566	4432
914.68	4322
914.793	4341
914.906	4177
915.019	4093
915.132	4135
915.245	4177
915.358	4192
915.47	4196
915.583	4287
915.696	4329
915.809	4424
915.921	4413
916.034	4265
916.146	4287
916.259	4280
916.371	4436
916.483	4394
916.595	4284
916.708	4337
916.82	4318
916.932	4310
917.044	4348
917.156	4287
917.268	4249
917.38	4268
917.491	4253
917.603	4375
917.715	4466
917.826	4474
917.938	4363
918.049	4242
918.161	4394
918.272	4538
918.384	4542
918.495	4417
918.606	4325
918.717	4280
918.828	4360
918.939	4424
919.05	4314
919.161	4341
919.272	4147
919.383	4204
919.494	4481
919.604	4668
919.715	4432
919.826	4344
919.936	4409
920.047	4592
920.157	4474
920.267	4714
920.378	4527
920.488	4478
920.598	4744
920.708	4900
920.818	4767
920.928	4797
921.038	4953
921.148	4942
921.258	4630
921.368	4558
921.477	4481
921.587	4489
921.697	4394
921.806	4531
921.916	4398
922.025	4314
922.134	4257
922.244	4223
922.353	4322
922.462	4188
922.571	4169
922.68	3979
922.789	3949
922.898	4074
923.007	3975
923.116	4131
923.224	4044
923.333	4135
923.442	3994
923.55	3968
923.659	4048
923.767	4078
923.876	4021
923.984	4078
924.092	4025
924.201	4090
924.309	4150
924.417	4124
924.525	4071
924.633	4105
924.741	4889
924.849	3930
924.956	4093
925.064	3998
925.172	3930
925.279	3956
925.387	4074
925.494	4044
925.602	4227
925.709	4162
925.816	4051
925.924	4112
926.031	4287
926.138	4207
926.245	4185
926.352	4086
926.459	4280
926.566	4322
926.673	4158
926.779	4086
926.886	4109
926.993	3934
927.099	3945
927.206	3873
927.312	3899
927.419	4074
927.525	4048
927.631	4078
927.737	3968
927.843	3960
927.95	3854
928.056	3968
928.162	3987
928.267	4055
928.373	4626
928.479	4101
928.585	3922
928.69	4067
928.796	4112
928.901	3945
929.007	3835
929.112	3998
929.218	4010
929.323	3934
929.428	3899
929.533	4101
929.638	3899
929.743	3968
929.848	4074
929.953	4013
930.058	3926
930.163	3778
930.267	3835
930.372	3975
930.477	3823
930.581	4044
930.685	3934
930.79	3793
930.894	3926
930.998	3880
931.103	4051
931.207	3717
931.311	3686
931.415	3736
931.519	3530
931.623	3580
