Data from test_V78500241_1690.txt Node
Date: Fri Mar 25 17:00:45 CST 2022
User: usil
Spectrometer: V785-0024
Trigger mode: 0
Integration Time (sec): 4.000000E-1
Scans to average: 1
Nonlinearity correction enabled: false
Boxcar width: 0
Storing dark spectrum: false
XAxis mode: Wavelengths
Number of Pixels in Spectrum: 1024
>>>>>Begin Spectral Data<<<<<
801.071	7986
801.214	7925
801.356	7845
801.499	7814
801.641	7776
801.783	7833
801.926	7925
802.068	7955
802.211	8020
802.353	7970
802.496	7822
802.638	7769
802.78	7868
802.923	7940
803.065	7849
803.208	7811
803.35	7909
803.492	8039
803.635	8100
803.777	8005
803.919	8100
804.061	8400
804.204	8195
804.346	8035
804.488	7940
804.63	8111
804.773	8016
804.915	8123
805.057	8248
805.199	8199
805.341	8214
805.483	8210
805.626	8138
805.768	8073
805.91	8183
806.052	8138
806.194	8096
806.336	8290
806.478	8008
806.62	8107
806.762	8161
806.904	8301
807.046	8408
807.188	8377
807.33	8271
807.472	8286
807.614	8115
807.756	8130
807.898	7978
808.04	7902
808.182	7890
808.324	7894
808.465	7871
808.607	8115
808.749	8107
808.891	8168
809.033	8294
809.174	8206
809.316	8020
809.458	8084
809.6	8001
809.741	8024
809.883	8050
810.025	8088
810.166	8073
810.308	8024
810.45	7997
810.591	7818
810.733	7700
810.875	7620
811.016	7487
811.158	7521
811.299	7582
811.441	7647
811.582	7658
811.724	7563
811.865	7480
812.007	7567
812.148	7616
812.29	7571
812.431	7776
812.573	7849
812.714	7959
812.855	8043
812.997	8225
813.138	8290
813.279	8199
813.421	8107
813.562	7955
813.703	7818
813.845	7685
813.986	7472
814.127	7244
814.268	7213
814.41	7190
814.551	7160
814.692	7232
814.833	7114
814.974	7137
815.115	7072
815.256	6989
815.397	6920
815.539	6920
815.68	6829
815.821	6753
815.962	6848
816.103	6825
816.244	6719
816.385	6559
816.526	6566
816.666	6448
816.807	6251
816.948	6456
817.089	6471
817.23	6410
817.371	6315
817.512	6391
817.653	6361
817.793	6277
817.934	6350
818.075	6471
818.216	6418
818.356	6323
818.497	6285
818.638	6106
818.778	6114
818.919	6045
819.06	6190
819.2	6308
819.341	6277
819.481	6331
819.622	6544
819.762	6700
819.903	6665
820.043	6650
820.184	6563
820.324	6608
820.465	6688
820.605	6707
820.746	6635
820.886	6528
821.026	6631
821.167	6715
821.307	6791
821.447	6734
821.588	6658
821.728	6555
821.868	6422
822.008	6357
822.149	6311
822.289	6319
822.429	6117
822.569	6015
822.709	6110
822.849	5908
822.99	5897
823.13	5912
823.27	5901
823.41	5828
823.55	5752
823.69	5729
823.83	5748
823.97	5630
824.11	5554
824.25	5471
824.389	5532
824.529	5551
824.669	5505
824.809	5619
824.949	5676
825.089	5566
825.228	5581
825.368	5433
825.508	5299
825.648	5341
825.787	5436
825.927	5357
826.067	5322
826.206	5303
826.346	5353
826.485	5410
826.625	5444
826.765	5539
826.904	5512
827.044	5235
827.183	5189
827.323	5124
827.462	5239
827.601	5185
827.741	5178
827.88	5277
828.02	5143
828.159	5242
828.298	5303
828.437	5337
828.577	5280
828.716	5501
828.855	5341
828.994	5178
829.134	5124
829.273	5193
829.412	5143
829.551	5117
829.69	5204
829.829	5208
829.968	5360
830.107	5265
830.246	5284
830.385	5204
830.524	5162
830.663	5098
830.802	4987
830.941	4904
831.08	4889
831.219	5006
831.357	4984
831.496	5227
831.635	4976
831.774	4854
831.913	4877
832.051	4782
832.19	4759
832.329	4900
832.467	4733
832.606	4672
832.744	4748
832.883	4771
833.022	4782
833.16	4797
833.299	4847
833.437	4881
833.576	4828
833.714	4904
833.852	4915
833.991	4881
834.129	4984
834.267	4965
834.406	4919
834.544	5045
834.682	5083
834.821	4995
834.959	5178
835.097	4987
835.235	5132
835.373	5071
835.511	5136
835.65	5086
835.788	5033
835.926	4927
836.064	4870
836.202	4991
836.34	5178
836.478	5299
836.615	5143
836.753	5246
836.891	5318
837.029	5261
837.167	5242
837.305	5185
837.443	5212
837.58	5117
837.718	5299
837.856	5223
837.993	5185
838.131	5261
838.269	5223
838.406	5261
838.544	5231
838.681	5060
838.819	5079
838.956	4938
839.094	4904
839.231	4957
839.369	5128
839.506	5497
839.643	5280
839.781	5048
839.918	5075
840.055	5117
840.193	5075
840.33	5117
840.467	5147
840.604	5185
840.742	5463
840.879	5109
841.016	5117
841.153	5231
841.29	5414
841.427	5337
841.564	5345
841.701	5372
841.838	5334
841.975	5239
842.112	5284
842.249	5193
842.385	5143
842.522	5364
842.659	5170
842.796	5155
842.933	5212
843.069	5197
843.206	5140
843.343	5284
843.479	5284
843.616	5311
843.752	5075
843.889	4999
844.025	5254
844.162	5102
844.298	5212
844.435	5071
844.571	5041
844.708	5189
844.844	5311
844.98	5337
845.117	5341
845.253	5155
845.389	5140
845.525	5181
845.661	5140
845.798	5041
845.934	5166
846.07	5090
846.206	5208
846.342	5364
846.478	5181
846.614	5056
846.75	5022
846.886	5037
847.022	5174
847.158	5048
847.294	5098
847.429	5098
847.565	5083
847.701	5326
847.837	4915
847.972	4873
848.108	4927
848.244	4949
848.379	4797
848.515	4744
848.65	4744
848.786	4763
848.921	4820
849.057	4911
849.192	4873
849.328	4854
849.463	4873
849.598	4790
849.734	4805
849.869	4744
850.004	4702
850.14	4710
850.275	4603
850.41	4550
850.545	4565
850.68	4634
850.815	4675
850.95	4664
851.085	4831
851.22	4797
851.355	4717
851.49	4634
851.625	4641
851.76	4687
851.895	4599
852.03	4603
852.165	4698
852.299	4755
852.434	4778
852.569	4755
852.703	4824
852.838	4835
852.973	4923
853.107	4976
853.242	4771
853.376	4656
853.511	4573
853.645	4649
853.78	4824
853.914	4740
854.048	4675
854.183	4683
854.317	4706
854.451	4858
854.585	4717
854.72	4626
854.854	4793
854.988	4580
855.122	4672
855.256	4588
855.39	4717
855.524	4786
855.658	4755
855.792	4733
855.926	4736
856.06	4767
856.194	4812
856.327	4710
856.461	4592
856.595	4668
856.729	4645
856.862	4824
856.996	4714
857.13	4790
857.263	4790
857.397	4850
857.53	4672
857.664	4729
857.797	4767
857.931	4778
858.064	4710
858.197	4793
858.331	4694
858.464	4599
858.597	4512
858.731	4656
858.864	4580
858.997	4577
859.13	4714
859.263	4691
859.396	4748
859.529	4634
859.662	4580
859.795	4535
859.928	4691
860.061	4820
860.194	4790
860.327	4615
860.46	4535
860.592	4778
860.725	4790
860.858	4763
860.99	4630
861.123	4592
861.256	4554
861.388	4637
861.521	5227
861.653	4493
861.786	4508
861.918	4508
862.05	4558
862.183	4546
862.315	4664
862.447	4683
862.58	4558
862.712	4443
862.844	4405
862.976	4493
863.108	4493
863.24	4911
863.372	4360
863.504	4455
863.636	4424
863.768	4497
863.9	4466
864.032	4398
864.164	4424
864.296	4527
864.428	4558
864.559	4599
864.691	4538
864.823	4546
864.954	4500
865.086	4554
865.217	4485
865.349	4451
865.48	4508
865.612	4535
865.743	4683
865.875	4478
866.006	4474
866.137	4470
866.269	4485
866.4	4489
866.531	4443
866.662	4398
866.793	4432
866.924	4436
867.055	4546
867.186	4470
867.317	4424
867.448	4421
867.579	4436
867.71	4424
867.841	4379
867.972	4489
868.103	4466
868.233	4485
868.364	4466
868.495	4466
868.625	4752
868.756	4733
868.886	4538
869.017	4641
869.147	4759
869.278	4774
869.408	4660
869.539	4622
869.669	4717
869.799	4656
869.929	4774
870.06	4725
870.19	5003
870.32	4908
870.45	4953
870.58	5022
870.71	5124
870.84	5056
870.97	4984
871.1	4850
871.23	5166
871.36	5136
871.489	5079
871.619	5105
871.749	5132
871.879	5121
872.008	5174
872.138	5083
872.267	4995
872.397	4843
872.526	4854
872.656	4778
872.785	4778
872.915	4927
873.044	5071
873.173	4957
873.303	4968
873.432	4934
873.561	4953
873.69	4911
873.819	4896
873.948	4938
874.077	4805
874.206	4759
874.335	4828
874.464	4946
874.593	5045
874.722	4965
874.851	5124
874.979	5064
875.108	5022
875.237	4957
875.365	4911
875.494	4911
875.623	4938
875.751	4824
875.88	4904
876.008	5003
876.136	5041
876.265	5250
876.393	5334
876.521	5303
876.65	5246
876.778	5113
876.906	5098
877.034	5033
877.162	5113
877.29	4965
877.418	5056
877.546	5090
877.674	5010
877.802	5090
877.93	5064
878.058	4881
878.185	4877
878.313	4972
878.441	4957
878.568	4828
878.696	4820
878.824	4946
878.951	5029
879.079	5124
879.206	5273
879.333	5121
879.461	4991
879.588	5033
879.715	5159
879.842	5254
879.97	5037
880.097	4793
880.224	4778
880.351	4786
880.478	4809
880.605	4786
880.732	4805
880.859	5102
880.986	4873
881.112	4892
881.239	4816
881.366	4752
881.493	4603
881.619	4615
881.746	4641
881.872	4679
881.999	4599
882.125	4736
882.252	4801
882.378	4854
882.505	4995
882.631	4854
882.757	4668
882.883	4790
883.01	4733
883.136	4679
883.262	4626
883.388	4592
883.514	4809
883.64	4885
883.766	4748
883.892	4702
884.018	4736
884.143	4896
884.269	5014
884.395	4683
884.52	4618
884.646	4641
884.772	4580
884.897	4596
885.023	4714
885.148	4797
885.274	4847
885.399	4828
885.524	4710
885.65	4767
885.775	4744
885.9	4748
886.025	4843
886.15	4797
886.275	4748
886.4	4698
886.525	4736
886.65	4664
886.775	4626
886.9	4946
887.025	5010
887.149	4835
887.274	4683
887.399	4588
887.523	4634
887.648	4577
887.773	4630
887.897	4744
888.021	4793
888.146	4656
888.27	4824
888.395	4908
888.519	4820
888.643	4835
888.767	4816
888.891	4717
889.015	4679
889.139	4706
889.263	4599
889.387	4733
889.511	4892
889.635	4812
889.759	4656
889.883	4687
890.006	4752
890.13	4835
890.254	4660
890.377	4721
890.501	4584
890.624	4569
890.748	4649
890.871	4558
890.995	4447
891.118	4383
891.241	4538
891.364	4599
891.488	4675
891.611	4535
891.734	4527
891.857	4618
891.98	4588
892.103	4664
892.226	4603
892.349	4531
892.471	4481
892.594	4573
892.717	4596
892.839	4577
892.962	4596
893.085	4675
893.207	4588
893.33	4470
893.452	4519
893.575	4630
893.697	4584
893.819	4816
893.941	4862
894.064	4763
894.186	4615
894.308	4569
894.43	4725
894.552	4797
894.674	4774
894.796	4558
894.918	4592
895.04	4573
895.161	4778
895.283	4668
895.405	4588
895.526	4599
895.648	4649
895.769	4714
895.891	4660
896.012	4740
896.134	4687
896.255	4710
896.376	4664
896.498	4641
896.619	4668
896.74	4615
896.861	4637
896.982	4900
897.103	5041
897.224	4820
897.345	4721
897.466	4630
897.587	4763
897.708	4866
897.828	4812
897.949	4672
898.07	4622
898.19	4630
898.311	4866
898.431	4622
898.552	4744
898.672	4847
898.792	4767
898.913	4782
899.033	4626
899.153	4497
899.273	4459
899.393	4504
899.513	4512
899.633	4493
899.753	4565
899.873	4550
899.993	4588
900.113	4573
900.232	4622
900.352	4500
900.472	4512
900.591	4405
900.711	4493
900.83	4462
900.95	4607
901.069	4687
901.189	4508
901.308	4398
901.427	4356
901.546	4428
901.665	4474
901.784	4538
901.904	4363
902.023	4291
902.141	4200
902.26	4207
902.379	4291
902.498	4246
902.617	4261
902.735	4344
902.854	4409
902.973	4344
903.091	4219
903.21	4238
903.328	4299
903.446	4284
903.565	4291
903.683	4367
903.801	4261
903.919	4379
904.038	4451
904.156	4325
904.274	4432
904.392	4455
904.51	4421
904.627	4459
904.745	4611
904.863	4653
904.981	4424
905.098	4276
905.216	4379
905.334	4447
905.451	4402
905.569	4428
905.686	4554
905.803	4558
905.921	4402
906.038	4607
906.155	4497
906.272	4409
906.389	4459
906.506	4417
906.623	4379
906.74	4379
906.857	4303
906.974	4390
907.091	4580
907.208	4687
907.324	4584
907.441	4455
907.557	4360
907.674	4306
907.79	4348
907.907	4402
908.023	4489
908.139	4527
908.256	4455
908.372	4512
908.488	4485
908.604	4360
908.72	4318
908.836	4379
908.952	4383
909.068	4440
909.184	4592
909.3	4497
909.415	4577
909.531	4554
909.647	4371
909.762	4386
909.878	4344
909.993	4424
910.108	4417
910.224	4413
910.339	4519
910.454	4383
910.57	4371
910.685	4314
910.8	4653
910.915	4561
911.03	4489
911.145	4333
911.259	4318
911.374	4367
911.489	4272
911.604	4268
911.718	4188
911.833	4276
911.947	4044
912.062	4021
912.176	4204
912.291	4268
912.405	4272
912.519	4500
912.633	4558
912.748	4352
912.862	4325
912.976	4139
913.09	4090
913.204	4192
913.318	4310
913.431	4363
913.545	4428
913.659	4421
913.772	4318
913.886	4242
914	4181
914.113	4348
914.226	4428
914.34	4398
914.453	4200
914.566	4428
914.68	4341
914.793	4333
914.906	4192
915.019	4124
915.132	4078
915.245	4196
915.358	4230
915.47	4177
915.583	4272
915.696	4242
915.809	4356
915.921	4405
916.034	4249
916.146	4253
916.259	4185
916.371	4333
916.483	4341
916.595	4238
916.708	4310
916.82	4318
916.932	4303
917.044	4303
917.156	4291
917.268	4253
917.38	4287
917.491	4287
917.603	4371
917.715	4432
917.826	4409
917.938	4375
918.049	4246
918.161	4394
918.272	4550
918.384	4519
918.495	4436
918.606	4291
918.717	4192
918.828	4352
918.939	4337
919.05	4234
919.161	4329
919.272	4128
919.383	4261
919.494	4432
919.604	4611
919.715	4440
919.826	4333
919.936	4379
920.047	4538
920.157	4489
920.267	4691
920.378	4569
920.488	4489
920.598	4660
920.708	4885
920.818	4790
920.928	4755
921.038	4961
921.148	4854
921.258	4630
921.368	4569
921.477	4485
921.587	4413
921.697	4379
921.806	4546
921.916	4451
922.025	4303
922.134	4303
922.244	4219
922.353	4303
922.462	4169
922.571	4139
922.68	4048
922.789	3941
922.898	4071
923.007	4002
923.116	4105
923.224	4055
923.333	4105
923.442	4002
923.55	3998
923.659	4051
923.767	4093
923.876	4036
923.984	4162
924.092	3983
924.201	4074
924.309	4078
924.417	4181
924.525	4071
924.633	4128
924.741	4854
924.849	3922
924.956	4154
925.064	3949
925.172	3899
925.279	3972
925.387	4090
925.494	4044
925.602	4223
925.709	4192
925.816	3987
925.924	4131
926.031	4215
926.138	4192
926.245	4204
926.352	4143
926.459	4230
926.566	4318
926.673	4139
926.779	4036
926.886	4097
926.993	3968
927.099	3972
927.206	3937
927.312	3979
927.419	4010
927.525	3994
927.631	4116
927.737	3979
927.843	3949
927.95	3835
928.056	3949
928.162	3964
928.267	4059
928.373	4672
928.479	4105
928.585	3911
928.69	4025
928.796	4067
928.901	3983
929.007	3827
929.112	4025
929.218	3983
929.323	3915
929.428	3968
929.533	4093
929.638	3869
929.743	3975
929.848	4048
929.953	4021
930.058	3907
930.163	3770
930.267	3838
930.372	3964
930.477	3812
930.581	4101
930.685	3949
930.79	3838
930.894	3930
930.998	3899
931.103	3983
931.207	3724
931.311	3701
931.415	3660
931.519	3519
931.623	3549
