Data from test_V78500241_453.txt Node
Date: Fri Mar 25 16:52:09 CST 2022
User: usil
Spectrometer: V785-0024
Trigger mode: 0
Integration Time (sec): 4.000000E-1
Scans to average: 1
Nonlinearity correction enabled: false
Boxcar width: 0
Storing dark spectrum: false
XAxis mode: Wavelengths
Number of Pixels in Spectrum: 1024
>>>>>Begin Spectral Data<<<<<
801.071	8088
801.214	7997
801.356	7894
801.499	7792
801.641	7780
801.783	7860
801.926	8020
802.068	7936
802.211	8027
802.353	7970
802.496	7803
802.638	7864
802.78	7837
802.923	7944
803.065	7871
803.208	7822
803.35	7936
803.492	7982
803.635	8153
803.777	7906
803.919	8123
804.061	8339
804.204	8058
804.346	7963
804.488	7917
804.63	8130
804.773	7967
804.915	8020
805.057	8210
805.199	8172
805.341	8248
805.483	8229
805.626	8130
805.768	8043
805.91	8119
806.052	8142
806.194	8073
806.336	8275
806.478	8210
806.62	7982
806.762	8031
806.904	8294
807.046	8438
807.188	8282
807.33	8286
807.472	8172
807.614	8183
807.756	8176
807.898	8024
808.04	7860
808.182	7909
808.324	7906
808.465	7963
808.607	7974
808.749	8069
808.891	8259
809.033	8259
809.174	8168
809.316	8054
809.458	8065
809.6	8012
809.741	8084
809.883	8050
810.025	8035
810.166	8111
810.308	8065
810.45	8069
810.591	7822
810.733	7727
810.875	7662
811.016	7525
811.158	7548
811.299	7651
811.441	7750
811.582	7757
811.724	7651
811.865	7616
812.007	7636
812.148	7685
812.29	7685
812.431	7807
812.573	7970
812.714	8054
812.855	8183
812.997	8259
813.138	8362
813.279	8229
813.421	8153
813.562	8088
813.703	7925
813.845	7849
813.986	7559
814.127	7388
814.268	7324
814.41	7263
814.551	7194
814.692	7255
814.833	7023
814.974	7114
815.115	7145
815.256	6973
815.397	6981
815.539	7023
815.68	6852
815.821	6795
815.962	6905
816.103	6947
816.244	6783
816.385	6631
816.526	6692
816.666	6536
816.807	6395
816.948	6479
817.089	6532
817.23	6490
817.371	6369
817.512	6410
817.653	6456
817.793	6395
817.934	6410
818.075	6486
818.216	6475
818.356	6441
818.497	6239
818.638	6190
818.778	6235
818.919	6171
819.06	6182
819.2	6388
819.341	6350
819.481	6376
819.622	6506
819.762	6749
819.903	6734
820.043	6544
820.184	6597
820.324	6623
820.465	6719
820.605	6627
820.746	6570
820.886	6536
821.026	6719
821.167	6776
821.307	6802
821.447	6753
821.588	6669
821.728	6574
821.868	6559
822.008	6372
822.149	6369
822.289	6353
822.429	6209
822.569	6095
822.709	6232
822.849	5988
822.99	5885
823.13	5912
823.27	5954
823.41	5836
823.55	5828
823.69	5786
823.83	5783
823.97	5703
824.11	5558
824.25	5501
824.389	5634
824.529	5638
824.669	5573
824.809	5630
824.949	5688
825.089	5630
825.228	5604
825.368	5444
825.508	5322
825.648	5433
825.787	5421
825.927	5395
826.067	5334
826.206	5296
826.346	5391
826.485	5425
826.625	5436
826.765	5570
826.904	5520
827.044	5303
827.183	5254
827.323	5151
827.462	5277
827.601	5166
827.741	5239
827.88	5227
828.02	5140
828.159	5277
828.298	5334
828.437	5406
828.577	5299
828.716	5505
828.855	5383
828.994	5185
829.134	5204
829.273	5204
829.412	5151
829.551	5204
829.69	5181
829.829	5303
829.968	5376
830.107	5231
830.246	5284
830.385	5204
830.524	5181
830.663	5079
830.802	4995
830.941	4942
831.08	4889
831.219	4995
831.357	5010
831.496	5204
831.635	4915
831.774	4873
831.913	4866
832.051	4782
832.19	4778
832.329	4835
832.467	4767
832.606	4649
832.744	4763
832.883	4679
833.022	4748
833.16	4866
833.299	4850
833.437	4847
833.576	4847
833.714	4889
833.852	4881
833.991	4915
834.129	5014
834.267	4999
834.406	4965
834.544	5029
834.682	5022
834.821	5003
834.959	5174
835.097	5003
835.235	5174
835.373	5151
835.511	5147
835.65	5060
835.788	5056
835.926	4896
836.064	4900
836.202	4995
836.34	5201
836.478	5254
836.615	5140
836.753	5189
836.891	5307
837.029	5246
837.167	5223
837.305	5178
837.443	5151
837.58	5060
837.718	5269
837.856	5227
837.993	5166
838.131	5265
838.269	5242
838.406	5197
838.544	5162
838.681	5094
838.819	5033
838.956	4923
839.094	4896
839.231	4999
839.369	5067
839.506	5421
839.643	5284
839.781	5041
839.918	5025
840.055	5105
840.193	5132
840.33	5136
840.467	5151
840.604	5174
840.742	5398
840.879	5109
841.016	5067
841.153	5181
841.29	5402
841.427	5372
841.564	5322
841.701	5387
841.838	5254
841.975	5208
842.112	5296
842.249	5159
842.385	5113
842.522	5372
842.659	5227
842.796	5162
842.933	5235
843.069	5185
843.206	5155
843.343	5303
843.479	5288
843.616	5284
843.752	5006
843.889	5045
844.025	5242
844.162	5052
844.298	5284
844.435	5121
844.571	5071
844.708	5239
844.844	5311
844.98	5322
845.117	5280
845.253	5208
845.389	5121
845.525	5121
845.661	5185
845.798	5060
845.934	5181
846.07	5121
846.206	5254
846.342	5265
846.478	5166
846.614	5037
846.75	5022
846.886	5006
847.022	5140
847.158	5052
847.294	5090
847.429	5140
847.565	5071
847.701	5364
847.837	4870
847.972	4831
848.108	4942
848.244	4946
848.379	4820
848.515	4729
848.65	4782
848.786	4774
848.921	4790
849.057	4946
849.192	4911
849.328	4885
849.463	4881
849.598	4839
849.734	4740
849.869	4656
850.004	4664
850.14	4664
850.275	4683
850.41	4531
850.545	4596
850.68	4569
850.815	4653
850.95	4622
851.085	4862
851.22	4759
851.355	4660
851.49	4626
851.625	4656
851.76	4660
851.895	4516
852.03	4577
852.165	4649
852.299	4748
852.434	4771
852.569	4736
852.703	4782
852.838	4820
852.973	4942
853.107	4881
853.242	4725
853.376	4687
853.511	4516
853.645	4645
853.78	4835
853.914	4683
854.048	4664
854.183	4656
854.317	4664
854.451	4824
854.585	4733
854.72	4645
854.854	4710
854.988	4573
855.122	4653
855.256	4550
855.39	4668
855.524	4809
855.658	4687
855.792	4698
855.926	4706
856.06	4721
856.194	4828
856.327	4733
856.461	4641
856.595	4672
856.729	4615
856.862	4778
856.996	4698
857.13	4763
857.263	4748
857.397	4866
857.53	4630
857.664	4717
857.797	4797
857.931	4782
858.064	4694
858.197	4797
858.331	4691
858.464	4607
858.597	4538
858.731	4637
858.864	4641
858.997	4660
859.13	4702
859.263	4653
859.396	4714
859.529	4607
859.662	4569
859.795	4554
859.928	4698
860.061	4710
860.194	4805
860.327	4656
860.46	4577
860.592	4717
860.725	4706
860.858	4755
860.99	4634
861.123	4523
861.256	4569
861.388	4637
861.521	5425
861.653	4497
861.786	4409
861.918	4459
862.05	4546
862.183	4531
862.315	4618
862.447	4656
862.58	4523
862.712	4398
862.844	4363
862.976	4462
863.108	4493
863.24	4733
863.372	4306
863.504	4455
863.636	4383
863.768	4440
863.9	4440
864.032	4394
864.164	4398
864.296	4466
864.428	4603
864.559	4554
864.691	4546
864.823	4554
864.954	4447
865.086	4569
865.217	4485
865.349	4421
865.48	4489
865.612	4531
865.743	4645
865.875	4459
866.006	4451
866.137	4493
866.269	4421
866.4	4462
866.531	4436
866.662	4413
866.793	4432
866.924	4432
867.055	4542
867.186	4455
867.317	4417
867.448	4352
867.579	4371
867.71	4417
867.841	4363
867.972	4436
868.103	4436
868.233	4424
868.364	4478
868.495	4455
868.625	4694
868.756	4820
868.886	4538
869.017	4649
869.147	4763
869.278	4759
869.408	4668
869.539	4649
869.669	4759
869.799	4717
869.929	4748
870.06	4752
870.19	4949
870.32	4889
870.45	4908
870.58	5037
870.71	5124
870.84	5098
870.97	4953
871.1	4961
871.23	5159
871.36	5098
871.489	5029
871.619	5056
871.749	5105
871.879	5166
872.008	5151
872.138	5056
872.267	5006
872.397	4858
872.526	4831
872.656	4698
872.785	4843
872.915	4980
873.044	5037
873.173	4995
873.303	5003
873.432	4965
873.561	4957
873.69	4850
873.819	4850
873.948	4911
874.077	4816
874.206	4725
874.335	4805
874.464	4957
874.593	5052
874.722	4953
874.851	5143
874.979	5006
875.108	5014
875.237	4919
875.365	4889
875.494	4877
875.623	4961
875.751	4877
875.88	4877
876.008	4930
876.136	5033
876.265	5220
876.393	5307
876.521	5273
876.65	5216
876.778	5162
876.906	5045
877.034	5060
877.162	5060
877.29	5022
877.418	5041
877.546	5041
877.674	5071
877.802	5045
877.93	5006
878.058	4976
878.185	4892
878.313	4999
878.441	4957
878.568	4752
878.696	4915
878.824	4991
878.951	5003
879.079	5140
879.206	5296
879.333	5136
879.461	4991
879.588	5045
879.715	5113
879.842	5254
879.97	5006
880.097	4767
880.224	4767
880.351	4790
880.478	4820
880.605	4759
880.732	4782
880.859	5098
880.986	4866
881.112	4915
881.239	4816
881.366	4736
881.493	4645
881.619	4607
881.746	4691
881.872	4664
881.999	4637
882.125	4702
882.252	4820
882.378	4824
882.505	4938
882.631	4767
882.757	4710
882.883	4717
883.01	4767
883.136	4653
883.262	4596
883.388	4634
883.514	4805
883.64	4866
883.766	4790
883.892	4664
884.018	4755
884.143	4919
884.269	5018
884.395	4675
884.52	4653
884.646	4626
884.772	4580
884.897	4569
885.023	4649
885.148	4778
885.274	4847
885.399	4805
885.524	4733
885.65	4687
885.775	4790
885.9	4721
886.025	4877
886.15	4812
886.275	4748
886.4	4679
886.525	4721
886.65	4668
886.775	4675
886.9	4923
887.025	4972
887.149	4805
887.274	4706
887.399	4603
887.523	4630
887.648	4588
887.773	4603
887.897	4763
888.021	4736
888.146	4691
888.27	4805
888.395	4919
888.519	4790
888.643	4839
888.767	4778
888.891	4668
889.015	4611
889.139	4664
889.263	4607
889.387	4778
889.511	4854
889.635	4801
889.759	4630
889.883	4607
890.006	4725
890.13	4801
890.254	4596
890.377	4687
890.501	4504
890.624	4516
890.748	4615
890.871	4497
890.995	4466
891.118	4436
891.241	4508
891.364	4531
891.488	4641
891.611	4523
891.734	4546
891.857	4592
891.98	4565
892.103	4626
892.226	4622
892.349	4546
892.471	4424
892.594	4546
892.717	4573
892.839	4527
892.962	4596
893.085	4622
893.207	4584
893.33	4459
893.452	4531
893.575	4714
893.697	4592
893.819	4759
893.941	4850
894.064	4706
894.186	4599
894.308	4611
894.43	4714
894.552	4809
894.674	4767
894.796	4599
894.918	4641
895.04	4626
895.161	4702
895.283	4664
895.405	4569
895.526	4603
895.648	4672
895.769	4641
895.891	4725
896.012	4736
896.134	4752
896.255	4672
896.376	4653
896.498	4615
896.619	4721
896.74	4630
896.861	4618
896.982	4938
897.103	5079
897.224	4831
897.345	4748
897.466	4656
897.587	4710
897.708	4892
897.828	4805
897.949	4687
898.07	4531
898.19	4634
898.311	4847
898.431	4630
898.552	4744
898.672	4820
898.792	4744
898.913	4740
899.033	4615
899.153	4573
899.273	4447
899.393	4485
899.513	4542
899.633	4558
899.753	4542
899.873	4527
899.993	4588
900.113	4535
900.232	4580
900.352	4565
900.472	4470
900.591	4390
900.711	4504
900.83	4371
900.95	4611
901.069	4714
901.189	4504
901.308	4348
901.427	4352
901.546	4344
901.665	4462
901.784	4573
901.904	4390
902.023	4360
902.141	4166
902.26	4169
902.379	4314
902.498	4276
902.617	4253
902.735	4424
902.854	4413
902.973	4360
903.091	4234
903.21	4200
903.328	4291
903.446	4246
903.565	4230
903.683	4356
903.801	4295
903.919	4451
904.038	4466
904.156	4306
904.274	4455
904.392	4413
904.51	4394
904.627	4519
904.745	4607
904.863	4649
904.981	4394
905.098	4303
905.216	4383
905.334	4481
905.451	4459
905.569	4413
905.686	4550
905.803	4554
905.921	4390
906.038	4565
906.155	4470
906.272	4341
906.389	4466
906.506	4371
906.623	4428
906.74	4398
906.857	4303
906.974	4352
907.091	4538
907.208	4698
907.324	4565
907.441	4546
907.557	4394
907.674	4333
907.79	4314
907.907	4360
908.023	4440
908.139	4459
908.256	4436
908.372	4500
908.488	4451
908.604	4337
908.72	4344
908.836	4341
908.952	4390
909.068	4447
909.184	4611
909.3	4470
909.415	4588
909.531	4588
909.647	4367
909.762	4375
909.878	4322
909.993	4436
910.108	4424
910.224	4443
910.339	4451
910.454	4451
910.57	4360
910.685	4329
910.8	4649
910.915	4599
911.03	4455
911.145	4318
911.259	4284
911.374	4379
911.489	4341
911.604	4291
911.718	4211
911.833	4166
911.947	4116
912.062	4025
912.176	4166
912.291	4211
912.405	4242
912.519	4459
912.633	4462
912.748	4405
912.862	4318
912.976	4192
913.09	4116
913.204	4200
913.318	4284
913.431	4371
913.545	4386
913.659	4436
913.772	4306
913.886	4200
914	4200
914.113	4390
914.226	4436
914.34	4440
914.453	4265
914.566	4417
914.68	4287
914.793	4322
914.906	4150
915.019	4131
915.132	4086
915.245	4188
915.358	4200
915.47	4200
915.583	4238
915.696	4322
915.809	4394
915.921	4390
916.034	4261
916.146	4276
916.259	4200
916.371	4398
916.483	4337
916.595	4276
916.708	4322
916.82	4287
916.932	4325
917.044	4333
917.156	4371
917.268	4272
917.38	4268
917.491	4246
917.603	4333
917.715	4443
917.826	4398
917.938	4367
918.049	4257
918.161	4421
918.272	4531
918.384	4527
918.495	4466
918.606	4280
918.717	4261
918.828	4314
918.939	4386
919.05	4234
919.161	4329
919.272	4154
919.383	4261
919.494	4440
919.604	4637
919.715	4440
919.826	4356
919.936	4409
920.047	4535
920.157	4474
920.267	4672
920.378	4565
920.488	4527
920.598	4714
920.708	4847
920.818	4717
920.928	4752
921.038	4927
921.148	4896
921.258	4626
921.368	4527
921.477	4504
921.587	4478
921.697	4367
921.806	4565
921.916	4455
922.025	4310
922.134	4272
922.244	4230
922.353	4341
922.462	4204
922.571	4139
922.68	4013
922.789	4036
922.898	3987
923.007	4017
923.116	4086
923.224	4112
923.333	4101
923.442	4017
923.55	3987
923.659	4021
923.767	4090
923.876	3945
923.984	4101
924.092	3987
924.201	4044
924.309	4109
924.417	4131
924.525	4055
924.633	4128
924.741	5041
924.849	3930
924.956	4086
925.064	3949
925.172	3918
925.279	3972
925.387	4059
925.494	4036
925.602	4196
925.709	4185
925.816	4063
925.924	4124
926.031	4257
926.138	4185
926.245	4162
926.352	4097
926.459	4268
926.566	4333
926.673	4150
926.779	4040
926.886	4082
926.993	3907
927.099	3998
927.206	3983
927.312	3915
927.419	4025
927.525	4063
927.631	4097
927.737	3956
927.843	3987
927.95	3823
928.056	3964
928.162	3994
928.267	4093
928.373	4721
928.479	4128
928.585	3903
928.69	4036
928.796	4112
928.901	3953
929.007	3857
929.112	4025
929.218	3937
929.323	3918
929.428	3972
929.533	4101
929.638	3880
929.743	3941
929.848	4029
929.953	3998
930.058	3937
930.163	3823
930.267	3812
930.372	3968
930.477	3827
930.581	4082
930.685	3975
930.79	3816
930.894	3899
930.998	3842
931.103	4067
931.207	3698
931.311	3690
931.415	3660
931.519	3542
931.623	3572
