Data from test_V78500241_2109.txt Node
Date: Fri Mar 25 17:03:39 CST 2022
User: usil
Spectrometer: V785-0024
Trigger mode: 0
Integration Time (sec): 4.000000E-1
Scans to average: 1
Nonlinearity correction enabled: false
Boxcar width: 0
Storing dark spectrum: false
XAxis mode: Wavelengths
Number of Pixels in Spectrum: 1024
>>>>>Begin Spectral Data<<<<<
801.071	7974
801.214	7997
801.356	7814
801.499	7913
801.641	7734
801.783	7833
801.926	7944
802.068	7928
802.211	7947
802.353	7967
802.496	7814
802.638	7807
802.78	7898
802.923	7856
803.065	7841
803.208	7833
803.35	7921
803.492	8081
803.635	8092
803.777	8001
803.919	8069
804.061	8423
804.204	8157
804.346	8084
804.488	7986
804.63	8039
804.773	7986
804.915	8065
805.057	8199
805.199	8149
805.341	8168
805.483	8229
805.626	8225
805.768	8138
805.91	8164
806.052	8237
806.194	8123
806.336	8320
806.478	8058
806.62	8100
806.762	8172
806.904	8244
807.046	8492
807.188	8305
807.33	8286
807.472	8279
807.614	8149
807.756	8126
807.898	8035
808.04	7875
808.182	7890
808.324	7860
808.465	7902
808.607	8065
808.749	8134
808.891	8218
809.033	8347
809.174	8206
809.316	8065
809.458	8012
809.6	8001
809.741	8103
809.883	8020
810.025	8001
810.166	8039
810.308	7959
810.45	7997
810.591	7818
810.733	7723
810.875	7674
811.016	7464
811.158	7540
811.299	7578
811.441	7765
811.582	7651
811.724	7594
811.865	7537
812.007	7590
812.148	7575
812.29	7559
812.431	7731
812.573	7833
812.714	7982
812.855	8138
812.997	8237
813.138	8271
813.279	8115
813.421	8100
813.562	7967
813.703	7811
813.845	7731
813.986	7415
814.127	7259
814.268	7244
814.41	7149
814.551	7187
814.692	7285
814.833	7137
814.974	7099
815.115	7050
815.256	6913
815.397	6894
815.539	6932
815.68	6753
815.821	6776
815.962	6859
816.103	6802
816.244	6753
816.385	6593
816.526	6570
816.666	6467
816.807	6308
816.948	6448
817.089	6498
817.23	6441
817.371	6346
817.512	6384
817.653	6422
817.793	6376
817.934	6399
818.075	6517
818.216	6422
818.356	6437
818.497	6205
818.638	6083
818.778	6106
818.919	6114
819.06	6098
819.2	6342
819.341	6319
819.481	6331
819.622	6532
819.762	6730
819.903	6719
820.043	6589
820.184	6589
820.324	6566
820.465	6726
820.605	6669
820.746	6627
820.886	6502
821.026	6715
821.167	6711
821.307	6791
821.447	6787
821.588	6639
821.728	6528
821.868	6475
822.008	6273
822.149	6380
822.289	6353
822.429	6148
822.569	6136
822.709	6125
822.849	5942
822.99	5855
823.13	5920
823.27	5897
823.41	5764
823.55	5786
823.69	5707
823.83	5752
823.97	5688
824.11	5596
824.25	5524
824.389	5562
824.529	5562
824.669	5493
824.809	5646
824.949	5562
825.089	5558
825.228	5573
825.368	5345
825.508	5315
825.648	5337
825.787	5315
825.927	5299
826.067	5277
826.206	5318
826.346	5436
826.485	5395
826.625	5353
826.765	5486
826.904	5452
827.044	5246
827.183	5174
827.323	5132
827.462	5231
827.601	5185
827.741	5170
827.88	5204
828.02	5067
828.159	5277
828.298	5265
828.437	5353
828.577	5334
828.716	5482
828.855	5299
828.994	5121
829.134	5124
829.273	5159
829.412	5117
829.551	5155
829.69	5170
829.829	5201
829.968	5353
830.107	5231
830.246	5296
830.385	5166
830.524	5174
830.663	5086
830.802	5003
830.941	4877
831.08	4877
831.219	4980
831.357	4968
831.496	5155
831.635	4919
831.774	4805
831.913	4816
832.051	4744
832.19	4725
832.329	4862
832.467	4721
832.606	4641
832.744	4714
832.883	4729
833.022	4744
833.16	4744
833.299	4771
833.437	4854
833.576	4809
833.714	4812
833.852	4835
833.991	4885
834.129	4949
834.267	4949
834.406	4900
834.544	4934
834.682	4942
834.821	4953
834.959	5140
835.097	4976
835.235	5071
835.373	5109
835.511	5098
835.65	5018
835.788	5018
835.926	4870
836.064	4908
836.202	4972
836.34	5147
836.478	5216
836.615	5090
836.753	5178
836.891	5273
837.029	5223
837.167	5193
837.305	5166
837.443	5185
837.58	5048
837.718	5242
837.856	5140
837.993	5181
838.131	5265
838.269	5254
838.406	5231
838.544	5181
838.681	5025
838.819	5003
838.956	4908
839.094	4957
839.231	4938
839.369	5067
839.506	5387
839.643	5269
839.781	5022
839.918	5006
840.055	5117
840.193	5052
840.33	5102
840.467	5117
840.604	5128
840.742	5391
840.879	5067
841.016	5052
841.153	5132
841.29	5334
841.427	5277
841.564	5299
841.701	5364
841.838	5261
841.975	5193
842.112	5258
842.249	5102
842.385	5064
842.522	5334
842.659	5204
842.796	5128
842.933	5208
843.069	5086
843.206	5166
843.343	5318
843.479	5208
843.616	5307
843.752	4984
843.889	5022
844.025	5189
844.162	5010
844.298	5265
844.435	5064
844.571	5033
844.708	5239
844.844	5284
844.98	5379
845.117	5273
845.253	5132
845.389	5029
845.525	5147
845.661	5109
845.798	5033
845.934	5136
846.07	5113
846.206	5197
846.342	5311
846.478	5178
846.614	4965
846.75	4957
846.886	4927
847.022	5102
847.158	5064
847.294	5045
847.429	5128
847.565	5048
847.701	5303
847.837	4835
847.972	4805
848.108	4896
848.244	4927
848.379	4805
848.515	4694
848.65	4721
848.786	4763
848.921	4721
849.057	4843
849.192	4889
849.328	4847
849.463	4862
849.598	4805
849.734	4797
849.869	4717
850.004	4637
850.14	4645
850.275	4607
850.41	4546
850.545	4577
850.68	4626
850.815	4603
850.95	4615
851.085	4839
851.22	4729
851.355	4740
851.49	4618
851.625	4683
851.76	4603
851.895	4531
852.03	4500
852.165	4611
852.299	4653
852.434	4778
852.569	4721
852.703	4767
852.838	4828
852.973	4927
853.107	4892
853.242	4721
853.376	4641
853.511	4561
853.645	4634
853.78	4816
853.914	4710
854.048	4672
854.183	4599
854.317	4668
854.451	4812
854.585	4736
854.72	4622
854.854	4759
854.988	4554
855.122	4603
855.256	4512
855.39	4668
855.524	4759
855.658	4698
855.792	4698
855.926	4748
856.06	4801
856.194	4778
856.327	4675
856.461	4630
856.595	4611
856.729	4611
856.862	4679
856.996	4668
857.13	4767
857.263	4778
857.397	4835
857.53	4622
857.664	4714
857.797	4744
857.931	4805
858.064	4679
858.197	4748
858.331	4630
858.464	4573
858.597	4516
858.731	4653
858.864	4588
858.997	4596
859.13	4641
859.263	4698
859.396	4668
859.529	4641
859.662	4554
859.795	4470
859.928	4653
860.061	4736
860.194	4740
860.327	4580
860.46	4603
860.592	4710
860.725	4706
860.858	4736
860.99	4611
861.123	4470
861.256	4558
861.388	4577
861.521	5425
861.653	4447
861.786	4447
861.918	4390
862.05	4527
862.183	4569
862.315	4569
862.447	4607
862.58	4531
862.712	4344
862.844	4341
862.976	4440
863.108	4459
863.24	4767
863.372	4329
863.504	4409
863.636	4405
863.768	4405
863.9	4436
864.032	4367
864.164	4375
864.296	4398
864.428	4538
864.559	4554
864.691	4504
864.823	4527
864.954	4451
865.086	4512
865.217	4428
865.349	4394
865.48	4394
865.612	4428
865.743	4615
865.875	4432
866.006	4402
866.137	4451
866.269	4466
866.4	4440
866.531	4462
866.662	4352
866.793	4424
866.924	4432
867.055	4470
867.186	4436
867.317	4424
867.448	4363
867.579	4417
867.71	4386
867.841	4409
867.972	4462
868.103	4440
868.233	4436
868.364	4440
868.495	4455
868.625	4645
868.756	4752
868.886	4603
869.017	4615
869.147	4755
869.278	4771
869.408	4683
869.539	4615
869.669	4717
869.799	4694
869.929	4763
870.06	4786
870.19	5045
870.32	4930
870.45	5010
870.58	5037
870.71	5117
870.84	5117
870.97	4942
871.1	4965
871.23	5124
871.36	5216
871.489	5071
871.619	5128
871.749	5124
871.879	5140
872.008	5250
872.138	5094
872.267	4987
872.397	4831
872.526	4843
872.656	4755
872.785	4847
872.915	4942
873.044	5067
873.173	4995
873.303	4987
873.432	5006
873.561	5003
873.69	4896
873.819	4831
873.948	4961
874.077	4831
874.206	4771
874.335	4812
874.464	5003
874.593	5075
874.722	4961
874.851	5155
874.979	5079
875.108	5090
875.237	5003
875.365	4885
875.494	4889
875.623	5003
875.751	4881
875.88	4927
876.008	5045
876.136	5048
876.265	5204
876.393	5364
876.521	5307
876.65	5265
876.778	5201
876.906	5178
877.034	5064
877.162	5105
877.29	5048
877.418	5113
877.546	5052
877.674	5067
877.802	5090
877.93	5037
878.058	4961
878.185	4927
878.313	5018
878.441	4980
878.568	4873
878.696	4911
878.824	4961
878.951	5014
879.079	5140
879.206	5360
879.333	5098
879.461	5029
879.588	5006
879.715	5166
879.842	5239
879.97	5010
880.097	4828
880.224	4786
880.351	4847
880.478	4820
880.605	4820
880.732	4812
880.859	5124
880.986	4965
881.112	4915
881.239	4801
881.366	4717
881.493	4634
881.619	4626
881.746	4729
881.872	4683
881.999	4660
882.125	4660
882.252	4812
882.378	4885
882.505	4965
882.631	4866
882.757	4679
882.883	4767
883.01	4786
883.136	4675
883.262	4675
883.388	4634
883.514	4892
883.64	4854
883.766	4831
883.892	4694
884.018	4755
884.143	4896
884.269	4972
884.395	4733
884.52	4645
884.646	4683
884.772	4637
884.897	4569
885.023	4733
885.148	4843
885.274	4877
885.399	4793
885.524	4717
885.65	4755
885.775	4782
885.9	4706
886.025	4854
886.15	4805
886.275	4725
886.4	4660
886.525	4733
886.65	4748
886.775	4710
886.9	4908
887.025	5071
887.149	4828
887.274	4691
887.399	4618
887.523	4672
887.648	4577
887.773	4630
887.897	4778
888.021	4774
888.146	4714
888.27	4828
888.395	4938
888.519	4824
888.643	4809
888.767	4885
888.891	4694
889.015	4626
889.139	4710
889.263	4649
889.387	4828
889.511	4885
889.635	4828
889.759	4653
889.883	4637
890.006	4793
890.13	4877
890.254	4634
890.377	4733
890.501	4573
890.624	4554
890.748	4656
890.871	4535
890.995	4451
891.118	4398
891.241	4558
891.364	4603
891.488	4710
891.611	4546
891.734	4580
891.857	4634
891.98	4592
892.103	4641
892.226	4607
892.349	4569
892.471	4440
892.594	4599
892.717	4611
892.839	4637
892.962	4634
893.085	4694
893.207	4634
893.33	4485
893.452	4538
893.575	4687
893.697	4622
893.819	4839
893.941	4793
894.064	4812
894.186	4649
894.308	4630
894.43	4763
894.552	4835
894.674	4835
894.796	4577
894.918	4607
895.04	4588
895.161	4771
895.283	4634
895.405	4611
895.526	4634
895.648	4694
895.769	4733
895.891	4748
896.012	4752
896.134	4786
896.255	4668
896.376	4656
896.498	4641
896.619	4683
896.74	4653
896.861	4672
896.982	4957
897.103	5128
897.224	4885
897.345	4729
897.466	4664
897.587	4797
897.708	4911
897.828	4816
897.949	4691
898.07	4580
898.19	4675
898.311	4812
898.431	4714
898.552	4812
898.672	4820
898.792	4820
898.913	4755
899.033	4634
899.153	4561
899.273	4440
899.393	4508
899.513	4611
899.633	4516
899.753	4527
899.873	4565
899.993	4554
900.113	4546
900.232	4577
900.352	4558
900.472	4489
900.591	4379
900.711	4516
900.83	4466
900.95	4630
901.069	4683
901.189	4599
901.308	4375
901.427	4341
901.546	4398
901.665	4489
901.784	4519
901.904	4367
902.023	4352
902.141	4249
902.26	4200
902.379	4325
902.498	4284
902.617	4253
902.735	4337
902.854	4367
902.973	4337
903.091	4181
903.21	4257
903.328	4318
903.446	4299
903.565	4299
903.683	4398
903.801	4325
903.919	4379
904.038	4455
904.156	4291
904.274	4500
904.392	4398
904.51	4462
904.627	4455
904.745	4565
904.863	4618
904.981	4440
905.098	4333
905.216	4371
905.334	4497
905.451	4424
905.569	4447
905.686	4596
905.803	4561
905.921	4466
906.038	4615
906.155	4519
906.272	4432
906.389	4489
906.506	4386
906.623	4394
906.74	4451
906.857	4314
906.974	4428
907.091	4569
907.208	4679
907.324	4580
907.441	4546
907.557	4383
907.674	4398
907.79	4344
907.907	4402
908.023	4508
908.139	4474
908.256	4493
908.372	4504
908.488	4455
908.604	4375
908.72	4325
908.836	4363
908.952	4337
909.068	4470
909.184	4592
909.3	4485
909.415	4573
909.531	4596
909.647	4375
909.762	4383
909.878	4344
909.993	4436
910.108	4413
910.224	4398
910.339	4481
910.454	4413
910.57	4352
910.685	4356
910.8	4630
910.915	4611
911.03	4550
911.145	4352
911.259	4383
911.374	4379
911.489	4329
911.604	4276
911.718	4200
911.833	4215
911.947	4090
912.062	4044
912.176	4207
912.291	4257
912.405	4265
912.519	4504
912.633	4516
912.748	4413
912.862	4272
912.976	4207
913.09	4112
913.204	4181
913.318	4265
913.431	4344
913.545	4398
913.659	4409
913.772	4409
913.886	4261
914	4246
914.113	4398
914.226	4466
914.34	4371
914.453	4272
914.566	4443
914.68	4337
914.793	4329
914.906	4158
915.019	4120
915.132	4135
915.245	4246
915.358	4257
915.47	4280
915.583	4287
915.696	4360
915.809	4440
915.921	4432
916.034	4280
916.146	4265
916.259	4215
916.371	4405
916.483	4360
916.595	4261
916.708	4325
916.82	4341
916.932	4318
917.044	4341
917.156	4367
917.268	4249
917.38	4238
917.491	4303
917.603	4424
917.715	4455
917.826	4447
917.938	4413
918.049	4268
918.161	4428
918.272	4561
918.384	4538
918.495	4466
918.606	4299
918.717	4249
918.828	4299
918.939	4325
919.05	4287
919.161	4333
919.272	4112
919.383	4253
919.494	4436
919.604	4637
919.715	4451
919.826	4360
919.936	4436
920.047	4577
920.157	4485
920.267	4698
920.378	4565
920.488	4550
920.598	4733
920.708	4900
920.818	4759
920.928	4786
921.038	4968
921.148	4930
921.258	4660
921.368	4542
921.477	4489
921.587	4424
921.697	4344
921.806	4531
921.916	4443
922.025	4261
922.134	4306
922.244	4234
922.353	4348
922.462	4204
922.571	4112
922.68	4032
922.789	4010
922.898	4086
923.007	3972
923.116	4124
923.224	4097
923.333	4116
923.442	4029
923.55	3983
923.659	4101
923.767	4120
923.876	4013
923.984	4166
924.092	4036
924.201	4078
924.309	4090
924.417	4131
924.525	4116
924.633	4139
924.741	5006
924.849	3945
924.956	4162
925.064	3960
925.172	3896
925.279	3964
925.387	4078
925.494	4112
925.602	4265
925.709	4234
925.816	4040
925.924	4177
926.031	4177
926.138	4211
926.245	4200
926.352	4086
926.459	4211
926.566	4344
926.673	4154
926.779	4101
926.886	4067
926.993	4002
927.099	3930
927.206	3979
927.312	3915
927.419	4048
927.525	4044
927.631	4071
927.737	3956
927.843	3960
927.95	3869
928.056	3972
928.162	4006
928.267	4101
928.373	4588
928.479	4147
928.585	3922
928.69	4040
928.796	4048
928.901	3983
929.007	3854
929.112	4048
929.218	3953
929.323	3949
929.428	3937
929.533	4063
929.638	3964
929.743	4017
929.848	4059
929.953	4013
930.058	3949
930.163	3766
930.267	3827
930.372	3983
930.477	3842
930.581	4082
930.685	3983
930.79	3831
930.894	3922
930.998	3854
931.103	4048
931.207	3774
931.311	3690
931.415	3679
931.519	3477
931.623	3580
