Data from test_V78500241_527.txt Node
Date: Fri Mar 25 16:52:40 CST 2022
User: usil
Spectrometer: V785-0024
Trigger mode: 0
Integration Time (sec): 4.000000E-1
Scans to average: 1
Nonlinearity correction enabled: false
Boxcar width: 0
Storing dark spectrum: false
XAxis mode: Wavelengths
Number of Pixels in Spectrum: 1024
>>>>>Begin Spectral Data<<<<<
801.071	8084
801.214	7928
801.356	7856
801.499	7864
801.641	7837
801.783	7902
801.926	8031
802.068	8012
802.211	8031
802.353	7955
802.496	7871
802.638	7898
802.78	7890
802.923	7932
803.065	7784
803.208	7807
803.35	7955
803.492	8012
803.635	8134
803.777	7894
803.919	8145
804.061	8419
804.204	8111
804.346	7989
804.488	7868
804.63	8031
804.773	8031
804.915	8077
805.057	8298
805.199	8153
805.341	8199
805.483	8221
805.626	8168
805.768	8077
805.91	8153
806.052	8191
806.194	8065
806.336	8229
806.478	8123
806.62	8054
806.762	8126
806.904	8271
807.046	8408
807.188	8336
807.33	8252
807.472	8305
807.614	8138
807.756	8043
807.898	8016
808.04	7833
808.182	7868
808.324	7875
808.465	7841
808.607	7967
808.749	8092
808.891	8202
809.033	8271
809.174	8142
809.316	8069
809.458	8016
809.6	7906
809.741	8024
809.883	8001
810.025	8103
810.166	8054
810.308	7986
810.45	8027
810.591	7875
810.733	7776
810.875	7639
811.016	7499
811.158	7510
811.299	7620
811.441	7685
811.582	7719
811.724	7552
811.865	7537
812.007	7594
812.148	7620
812.29	7632
812.431	7727
812.573	7875
812.714	8020
812.855	8195
812.997	8218
813.138	8347
813.279	8267
813.421	8126
813.562	8012
813.703	7921
813.845	7795
813.986	7460
814.127	7354
814.268	7320
814.41	7175
814.551	7133
814.692	7217
814.833	7076
814.974	7072
815.115	7133
815.256	6958
815.397	6958
815.539	6966
815.68	6814
815.821	6802
815.962	6840
816.103	6837
816.244	6738
816.385	6635
816.526	6639
816.666	6498
816.807	6342
816.948	6445
817.089	6441
817.23	6418
817.371	6380
817.512	6346
817.653	6350
817.793	6331
817.934	6407
818.075	6448
818.216	6448
818.356	6418
818.497	6235
818.638	6106
818.778	6163
818.919	6110
819.06	6136
819.2	6308
819.341	6304
819.481	6353
819.622	6464
819.762	6703
819.903	6715
820.043	6540
820.184	6547
820.324	6566
820.465	6654
820.605	6597
820.746	6559
820.886	6464
821.026	6642
821.167	6730
821.307	6776
821.447	6719
821.588	6616
821.728	6620
821.868	6452
822.008	6319
822.149	6372
822.289	6380
822.429	6152
822.569	6057
822.709	6129
822.849	5935
822.99	5916
823.13	5893
823.27	5897
823.41	5741
823.55	5767
823.69	5726
823.83	5790
823.97	5699
824.11	5535
824.25	5497
824.389	5528
824.529	5562
824.669	5535
824.809	5661
824.949	5714
825.089	5562
825.228	5623
825.368	5391
825.508	5337
825.648	5322
825.787	5376
825.927	5402
826.067	5322
826.206	5258
826.346	5383
826.485	5337
826.625	5395
826.765	5509
826.904	5395
827.044	5212
827.183	5204
827.323	5140
827.462	5227
827.601	5178
827.741	5166
827.88	5231
828.02	5166
828.159	5185
828.298	5292
828.437	5307
828.577	5269
828.716	5509
828.855	5269
828.994	5147
829.134	5181
829.273	5174
829.412	5178
829.551	5090
829.69	5201
829.829	5258
829.968	5311
830.107	5261
830.246	5299
830.385	5105
830.524	5121
830.663	5033
830.802	4915
830.941	4862
831.08	4885
831.219	5006
831.357	4873
831.496	5151
831.635	4900
831.774	4820
831.913	4858
832.051	4694
832.19	4736
832.329	4866
832.467	4668
832.606	4580
832.744	4691
832.883	4717
833.022	4740
833.16	4694
833.299	4782
833.437	4809
833.576	4782
833.714	4862
833.852	4892
833.991	4881
834.129	5010
834.267	4938
834.406	4930
834.544	5018
834.682	5003
834.821	4949
834.959	5155
835.097	5006
835.235	5159
835.373	5083
835.511	5098
835.65	5045
835.788	5037
835.926	4881
836.064	4877
836.202	4942
836.34	5098
836.478	5197
836.615	5113
836.753	5181
836.891	5265
837.029	5269
837.167	5212
837.305	5189
837.443	5090
837.58	5041
837.718	5212
837.856	5143
837.993	5136
838.131	5197
838.269	5185
838.406	5159
838.544	5201
838.681	5025
838.819	4968
838.956	4831
839.094	4889
839.231	4949
839.369	5056
839.506	5364
839.643	5277
839.781	5022
839.918	5018
840.055	5102
840.193	5102
840.33	5094
840.467	5113
840.604	5159
840.742	5429
840.879	5067
841.016	5105
841.153	5136
841.29	5311
841.427	5299
841.564	5349
841.701	5360
841.838	5239
841.975	5231
842.112	5303
842.249	5132
842.385	5075
842.522	5341
842.659	5124
842.796	5151
842.933	5174
843.069	5098
843.206	5147
843.343	5303
843.479	5220
843.616	5307
843.752	4976
843.889	4984
844.025	5235
844.162	5033
844.298	5124
844.435	5071
844.571	4987
844.708	5178
844.844	5284
844.98	5311
845.117	5235
845.253	5102
845.389	5079
845.525	5155
845.661	5143
845.798	5041
845.934	5140
846.07	5056
846.206	5162
846.342	5258
846.478	5197
846.614	5003
846.75	4930
846.886	4930
847.022	5193
847.158	4999
847.294	5083
847.429	5094
847.565	5045
847.701	5326
847.837	4847
847.972	4847
848.108	4904
848.244	5010
848.379	4778
848.515	4755
848.65	4736
848.786	4774
848.921	4831
849.057	4915
849.192	4896
849.328	4797
849.463	4835
849.598	4797
849.734	4767
849.869	4767
850.004	4664
850.14	4672
850.275	4622
850.41	4577
850.545	4618
850.68	4641
850.815	4656
850.95	4683
851.085	4900
851.22	4767
851.355	4698
851.49	4675
851.625	4675
851.76	4672
851.895	4615
852.03	4546
852.165	4691
852.299	4717
852.434	4839
852.569	4759
852.703	4805
852.838	4927
852.973	4946
853.107	4972
853.242	4744
853.376	4706
853.511	4611
853.645	4634
853.78	4873
853.914	4698
854.048	4679
854.183	4679
854.317	4717
854.451	4889
854.585	4752
854.72	4691
854.854	4786
854.988	4603
855.122	4641
855.256	4554
855.39	4729
855.524	4828
855.658	4759
855.792	4733
855.926	4744
856.06	4843
856.194	4870
856.327	4683
856.461	4672
856.595	4634
856.729	4645
856.862	4797
856.996	4687
857.13	4698
857.263	4812
857.397	4831
857.53	4694
857.664	4763
857.797	4805
857.931	4820
858.064	4733
858.197	4831
858.331	4694
858.464	4645
858.597	4580
858.731	4660
858.864	4660
858.997	4653
859.13	4664
859.263	4691
859.396	4752
859.529	4634
859.662	4596
859.795	4569
859.928	4653
860.061	4797
860.194	4805
860.327	4653
860.46	4607
860.592	4698
860.725	4759
860.858	4744
860.99	4615
861.123	4497
861.256	4508
861.388	4672
861.521	5444
861.653	4554
861.786	4497
861.918	4523
862.05	4546
862.183	4516
862.315	4622
862.447	4649
862.58	4577
862.712	4440
862.844	4367
862.976	4451
863.108	4504
863.24	4889
863.372	4360
863.504	4428
863.636	4474
863.768	4485
863.9	4504
864.032	4383
864.164	4462
864.296	4474
864.428	4554
864.559	4592
864.691	4550
864.823	4580
864.954	4485
865.086	4550
865.217	4462
865.349	4436
865.48	4493
865.612	4561
865.743	4618
865.875	4478
866.006	4443
866.137	4489
866.269	4447
866.4	4531
866.531	4440
866.662	4432
866.793	4470
866.924	4451
867.055	4519
867.186	4478
867.317	4470
867.448	4417
867.579	4440
867.71	4421
867.841	4379
867.972	4451
868.103	4504
868.233	4504
868.364	4478
868.495	4542
868.625	4687
868.756	4748
868.886	4588
869.017	4634
869.147	4809
869.278	4812
869.408	4706
869.539	4725
869.669	4740
869.799	4717
869.929	4850
870.06	4725
870.19	4968
870.32	4976
870.45	4984
870.58	5006
870.71	5147
870.84	5155
870.97	4957
871.1	4930
871.23	5170
871.36	5170
871.489	5067
871.619	5147
871.749	5071
871.879	5143
872.008	5216
872.138	5045
872.267	5033
872.397	4900
872.526	4881
872.656	4694
872.785	4881
872.915	4984
873.044	5064
873.173	4987
873.303	4984
873.432	5006
873.561	4987
873.69	4923
873.819	4896
873.948	4919
874.077	4824
874.206	4858
874.335	4771
874.464	4980
874.593	5045
874.722	4953
874.851	5102
874.979	5086
875.108	5048
875.237	4953
875.365	4934
875.494	4930
875.623	4995
875.751	4828
875.88	4923
876.008	5010
876.136	5060
876.265	5201
876.393	5353
876.521	5204
876.65	5265
876.778	5159
876.906	5105
877.034	5098
877.162	5105
877.29	5003
877.418	5071
877.546	5041
877.674	5079
877.802	5029
877.93	5102
878.058	5006
878.185	4923
878.313	4984
878.441	4942
878.568	4862
878.696	4881
878.824	4968
878.951	5052
879.079	5155
879.206	5360
879.333	5113
879.461	5045
879.588	5033
879.715	5140
879.842	5288
879.97	4999
880.097	4809
880.224	4767
880.351	4854
880.478	4885
880.605	4828
880.732	4801
880.859	5109
880.986	4911
881.112	4930
881.239	4812
881.366	4710
881.493	4653
881.619	4626
881.746	4653
881.872	4702
881.999	4725
882.125	4691
882.252	4805
882.378	4866
882.505	5014
882.631	4850
882.757	4725
882.883	4733
883.01	4782
883.136	4706
883.262	4687
883.388	4626
883.514	4847
883.64	4877
883.766	4843
883.892	4694
884.018	4748
884.143	4965
884.269	5064
884.395	4725
884.52	4679
884.646	4641
884.772	4626
884.897	4599
885.023	4702
885.148	4870
885.274	4843
885.399	4835
885.524	4710
885.65	4740
885.775	4771
885.9	4820
886.025	4930
886.15	4854
886.275	4733
886.4	4729
886.525	4752
886.65	4691
886.775	4706
886.9	4953
887.025	5064
887.149	4824
887.274	4698
887.399	4626
887.523	4634
887.648	4637
887.773	4622
887.897	4744
888.021	4839
888.146	4744
888.27	4854
888.395	4957
888.519	4793
888.643	4831
888.767	4835
888.891	4706
889.015	4599
889.139	4683
889.263	4630
889.387	4793
889.511	4900
889.635	4805
889.759	4717
889.883	4702
890.006	4778
890.13	4892
890.254	4637
890.377	4717
890.501	4554
890.624	4519
890.748	4687
890.871	4493
890.995	4474
891.118	4402
891.241	4558
891.364	4588
891.488	4634
891.611	4523
891.734	4573
891.857	4630
891.98	4611
892.103	4660
892.226	4611
892.349	4588
892.471	4398
892.594	4573
892.717	4596
892.839	4577
892.962	4603
893.085	4660
893.207	4641
893.33	4550
893.452	4481
893.575	4675
893.697	4596
893.819	4866
893.941	4862
894.064	4801
894.186	4618
894.308	4611
894.43	4759
894.552	4824
894.674	4733
894.796	4573
894.918	4615
895.04	4630
895.161	4733
895.283	4721
895.405	4626
895.526	4691
895.648	4691
895.769	4744
895.891	4752
896.012	4759
896.134	4767
896.255	4687
896.376	4622
896.498	4603
896.619	4675
896.74	4649
896.861	4672
896.982	4919
897.103	5102
897.224	4812
897.345	4782
897.466	4717
897.587	4744
897.708	4942
897.828	4805
897.949	4706
898.07	4577
898.19	4634
898.311	4858
898.431	4679
898.552	4771
898.672	4877
898.792	4820
898.913	4786
899.033	4664
899.153	4542
899.273	4474
899.393	4508
899.513	4546
899.633	4542
899.753	4542
899.873	4527
899.993	4615
900.113	4542
900.232	4603
900.352	4573
900.472	4485
900.591	4443
900.711	4481
900.83	4470
900.95	4653
901.069	4706
901.189	4531
901.308	4386
901.427	4367
901.546	4394
901.665	4447
901.784	4558
901.904	4394
902.023	4329
902.141	4257
902.26	4139
902.379	4318
902.498	4238
902.617	4280
902.735	4417
902.854	4409
902.973	4356
903.091	4234
903.21	4276
903.328	4295
903.446	4322
903.565	4287
903.683	4379
903.801	4287
903.919	4402
904.038	4478
904.156	4352
904.274	4493
904.392	4462
904.51	4432
904.627	4443
904.745	4622
904.863	4634
904.981	4413
905.098	4348
905.216	4375
905.334	4447
905.451	4428
905.569	4432
905.686	4569
905.803	4622
905.921	4455
906.038	4596
906.155	4481
906.272	4440
906.389	4466
906.506	4333
906.623	4413
906.74	4424
906.857	4322
906.974	4405
907.091	4630
907.208	4683
907.324	4622
907.441	4504
907.557	4402
907.674	4341
907.79	4303
907.907	4436
908.023	4485
908.139	4497
908.256	4443
908.372	4512
908.488	4462
908.604	4428
908.72	4379
908.836	4443
908.952	4367
909.068	4447
909.184	4592
909.3	4527
909.415	4630
909.531	4527
909.647	4383
909.762	4432
909.878	4379
909.993	4428
910.108	4424
910.224	4421
910.339	4455
910.454	4459
910.57	4386
910.685	4329
910.8	4691
910.915	4599
911.03	4497
911.145	4348
911.259	4341
911.374	4379
911.489	4303
911.604	4303
911.718	4215
911.833	4234
911.947	4067
912.062	4074
912.176	4215
912.291	4280
912.405	4276
912.519	4455
912.633	4554
912.748	4409
912.862	4322
912.976	4219
913.09	4150
913.204	4219
913.318	4299
913.431	4363
913.545	4383
913.659	4478
913.772	4383
913.886	4246
914	4268
914.113	4348
914.226	4447
914.34	4436
914.453	4280
914.566	4424
914.68	4295
914.793	4322
914.906	4143
915.019	4147
915.132	4090
915.245	4177
915.358	4246
915.47	4223
915.583	4291
915.696	4344
915.809	4417
915.921	4470
916.034	4215
916.146	4272
916.259	4257
916.371	4367
916.483	4360
916.595	4257
916.708	4352
916.82	4352
916.932	4337
917.044	4341
917.156	4379
917.268	4242
917.38	4291
917.491	4306
917.603	4386
917.715	4459
917.826	4440
917.938	4409
918.049	4287
918.161	4394
918.272	4634
918.384	4561
918.495	4478
918.606	4367
918.717	4268
918.828	4360
918.939	4424
919.05	4299
919.161	4390
919.272	4204
919.383	4246
919.494	4485
919.604	4736
919.715	4459
919.826	4421
919.936	4432
920.047	4565
920.157	4512
920.267	4759
920.378	4577
920.488	4584
920.598	4774
920.708	4938
920.818	4805
920.928	4797
921.038	4968
921.148	4995
921.258	4668
921.368	4588
921.477	4493
921.587	4508
921.697	4383
921.806	4573
921.916	4558
922.025	4318
922.134	4337
922.244	4230
922.353	4386
922.462	4272
922.571	4150
922.68	4048
922.789	4048
922.898	4097
923.007	4032
923.116	4158
923.224	4112
923.333	4166
923.442	4040
923.55	4036
923.659	4116
923.767	4120
923.876	4063
923.984	4135
924.092	4021
924.201	4124
924.309	4135
924.417	4169
924.525	4135
924.633	4105
924.741	5064
924.849	3998
924.956	4188
925.064	3991
925.172	3949
925.279	4040
925.387	4059
925.494	4074
925.602	4242
925.709	4211
925.816	4078
925.924	4177
926.031	4276
926.138	4227
926.245	4242
926.352	4139
926.459	4242
926.566	4375
926.673	4181
926.779	4154
926.886	4135
926.993	4021
927.099	3934
927.206	3975
927.312	3960
927.419	4082
927.525	4048
927.631	4120
927.737	3991
927.843	4010
927.95	3918
928.056	3975
928.162	4025
928.267	4097
928.373	4706
928.479	4143
928.585	3934
928.69	4040
928.796	4131
928.901	4021
929.007	3869
929.112	4044
929.218	4055
929.323	3968
929.428	3953
929.533	4185
929.638	3941
929.743	4025
929.848	4029
929.953	4017
930.058	3934
930.163	3850
930.267	3861
930.372	3987
930.477	3850
930.581	4120
930.685	4036
930.79	3838
930.894	3915
930.998	3911
931.103	4124
931.207	3781
931.311	3720
931.415	3713
931.519	3606
931.623	3568
