Data from test_V78500241_996.txt Node
Date: Fri Mar 25 16:55:55 CST 2022
User: usil
Spectrometer: V785-0024
Trigger mode: 0
Integration Time (sec): 4.000000E-1
Scans to average: 1
Nonlinearity correction enabled: false
Boxcar width: 0
Storing dark spectrum: false
XAxis mode: Wavelengths
Number of Pixels in Spectrum: 1024
>>>>>Begin Spectral Data<<<<<
801.071	8069
801.214	8020
801.356	7913
801.499	7917
801.641	7826
801.783	7841
801.926	7963
802.068	7909
802.211	7993
802.353	7959
802.496	7826
802.638	7902
802.78	7932
802.923	7993
803.065	7883
803.208	7875
803.35	8062
803.492	8134
803.635	8187
803.777	8062
803.919	8180
804.061	8480
804.204	8187
804.346	8043
804.488	7974
804.63	8123
804.773	8046
804.915	8096
805.057	8313
805.199	8180
805.341	8256
805.483	8298
805.626	8180
805.768	8180
805.91	8256
806.052	8183
806.194	8115
806.336	8290
806.478	8123
806.62	8088
806.762	8103
806.904	8309
807.046	8518
807.188	8370
807.33	8336
807.472	8275
807.614	8100
807.756	8081
807.898	8050
808.04	7841
808.182	7955
808.324	7887
808.465	7879
808.607	8062
808.749	8065
808.891	8221
809.033	8309
809.174	8237
809.316	8168
809.458	8081
809.6	8058
809.741	8020
809.883	7997
810.025	8103
810.166	8157
810.308	7982
810.45	8020
810.591	7967
810.733	7750
810.875	7727
811.016	7491
811.158	7457
811.299	7590
811.441	7712
811.582	7662
811.724	7567
811.865	7502
812.007	7628
812.148	7578
812.29	7639
812.431	7742
812.573	7921
812.714	8012
812.855	8123
812.997	8195
813.138	8275
813.279	8142
813.421	8134
813.562	7993
813.703	7879
813.845	7814
813.986	7445
814.127	7324
814.268	7251
814.41	7133
814.551	7145
814.692	7175
814.833	7050
814.974	7057
815.115	7149
815.256	6947
815.397	6973
815.539	6989
815.68	6821
815.821	6795
815.962	6875
816.103	6810
816.244	6738
816.385	6696
816.526	6631
816.666	6547
816.807	6315
816.948	6426
817.089	6475
817.23	6410
817.371	6384
817.512	6464
817.653	6384
817.793	6456
817.934	6410
818.075	6407
818.216	6414
818.356	6372
818.497	6228
818.638	6175
818.778	6175
818.919	6114
819.06	6140
819.2	6342
819.341	6346
819.481	6365
819.622	6616
819.762	6791
819.903	6760
820.043	6578
820.184	6612
820.324	6544
820.465	6688
820.605	6730
820.746	6662
820.886	6563
821.026	6692
821.167	6738
821.307	6821
821.447	6764
821.588	6658
821.728	6551
821.868	6540
822.008	6350
822.149	6323
822.289	6350
822.429	6235
822.569	6079
822.709	6121
822.849	5942
822.99	5935
823.13	5939
823.27	5954
823.41	5752
823.55	5805
823.69	5741
823.83	5821
823.97	5710
824.11	5573
824.25	5543
824.389	5581
824.529	5558
824.669	5543
824.809	5653
824.949	5684
825.089	5615
825.228	5547
825.368	5379
825.508	5379
825.648	5292
825.787	5376
825.927	5326
826.067	5288
826.206	5277
826.346	5398
826.485	5436
826.625	5433
826.765	5604
826.904	5497
827.044	5307
827.183	5235
827.323	5098
827.462	5235
827.601	5166
827.741	5204
827.88	5181
828.02	5159
828.159	5254
828.298	5303
828.437	5379
828.577	5315
828.716	5516
828.855	5376
828.994	5155
829.134	5136
829.273	5197
829.412	5178
829.551	5147
829.69	5174
829.829	5254
829.968	5357
830.107	5296
830.246	5273
830.385	5162
830.524	5136
830.663	5037
830.802	5018
830.941	4908
831.08	4877
831.219	5003
831.357	4957
831.496	5147
831.635	4938
831.774	4885
831.913	4831
832.051	4748
832.19	4729
832.329	4843
832.467	4691
832.606	4668
832.744	4752
832.883	4755
833.022	4744
833.16	4763
833.299	4778
833.437	4850
833.576	4824
833.714	4820
833.852	4858
833.991	4877
834.129	4976
834.267	4927
834.406	4870
834.544	4980
834.682	4961
834.821	5025
834.959	5117
835.097	4968
835.235	5159
835.373	5140
835.511	5064
835.65	5064
835.788	5014
835.926	4923
836.064	4866
836.202	4968
836.34	5185
836.478	5220
836.615	5124
836.753	5242
836.891	5330
837.029	5239
837.167	5159
837.305	5136
837.443	5124
837.58	5037
837.718	5242
837.856	5204
837.993	5094
838.131	5231
838.269	5284
838.406	5204
838.544	5216
838.681	5056
838.819	5003
838.956	4927
839.094	4923
839.231	4987
839.369	5075
839.506	5379
839.643	5254
839.781	5083
839.918	4995
840.055	5105
840.193	5105
840.33	5132
840.467	5105
840.604	5189
840.742	5448
840.879	5094
841.016	5090
841.153	5155
841.29	5395
841.427	5353
841.564	5334
841.701	5417
841.838	5288
841.975	5178
842.112	5246
842.249	5151
842.385	5121
842.522	5315
842.659	5159
842.796	5143
842.933	5189
843.069	5143
843.206	5151
843.343	5269
843.479	5174
843.616	5269
843.752	5060
843.889	4987
844.025	5178
844.162	5067
844.298	5208
844.435	5064
844.571	4987
844.708	5181
844.844	5277
844.98	5330
845.117	5273
845.253	5155
845.389	5090
845.525	5204
845.661	5151
845.798	5109
845.934	5170
846.07	5037
846.206	5166
846.342	5250
846.478	5147
846.614	5033
846.75	4965
846.886	4995
847.022	5128
847.158	4987
847.294	5132
847.429	5109
847.565	5079
847.701	5368
847.837	4759
847.972	4831
848.108	4965
848.244	4930
848.379	4786
848.515	4691
848.65	4710
848.786	4755
848.921	4809
849.057	4904
849.192	4930
849.328	4763
849.463	4870
849.598	4790
849.734	4767
849.869	4752
850.004	4634
850.14	4634
850.275	4596
850.41	4527
850.545	4538
850.68	4546
850.815	4607
850.95	4611
851.085	4843
851.22	4740
851.355	4656
851.49	4607
851.625	4637
851.76	4607
851.895	4535
852.03	4542
852.165	4668
852.299	4748
852.434	4767
852.569	4778
852.703	4786
852.838	4854
852.973	4934
853.107	4930
853.242	4771
853.376	4607
853.511	4565
853.645	4611
853.78	4824
853.914	4698
854.048	4634
854.183	4664
854.317	4698
854.451	4828
854.585	4656
854.72	4698
854.854	4736
854.988	4592
855.122	4615
855.256	4527
855.39	4687
855.524	4725
855.658	4748
855.792	4714
855.926	4702
856.06	4755
856.194	4820
856.327	4706
856.461	4599
856.595	4596
856.729	4588
856.862	4771
856.996	4653
857.13	4725
857.263	4752
857.397	4752
857.53	4645
857.664	4733
857.797	4771
857.931	4767
858.064	4672
858.197	4755
858.331	4660
858.464	4615
858.597	4538
858.731	4630
858.864	4668
858.997	4592
859.13	4645
859.263	4615
859.396	4691
859.529	4580
859.662	4580
859.795	4558
859.928	4653
860.061	4759
860.194	4763
860.327	4577
860.46	4584
860.592	4649
860.725	4694
860.858	4706
860.99	4516
861.123	4519
861.256	4592
861.388	4622
861.521	5288
861.653	4497
861.786	4436
861.918	4432
862.05	4535
862.183	4584
862.315	4569
862.447	4683
862.58	4523
862.712	4409
862.844	4295
862.976	4478
863.108	4474
863.24	4885
863.372	4318
863.504	4398
863.636	4398
863.768	4470
863.9	4405
864.032	4341
864.164	4356
864.296	4436
864.428	4535
864.559	4580
864.691	4523
864.823	4527
864.954	4455
865.086	4485
865.217	4451
865.349	4405
865.48	4459
865.612	4497
865.743	4656
865.875	4474
866.006	4428
866.137	4443
866.269	4462
866.4	4398
866.531	4421
866.662	4363
866.793	4413
866.924	4481
867.055	4493
867.186	4436
867.317	4405
867.448	4337
867.579	4360
867.71	4413
867.841	4405
867.972	4440
868.103	4466
868.233	4440
868.364	4413
868.495	4516
868.625	4626
868.756	4725
868.886	4607
869.017	4573
869.147	4759
869.278	4782
869.408	4675
869.539	4645
869.669	4733
869.799	4634
869.929	4744
870.06	4721
870.19	4965
870.32	4923
870.45	4961
870.58	5075
870.71	5086
870.84	5083
870.97	4870
871.1	4892
871.23	5105
871.36	5121
871.489	5018
871.619	5098
871.749	5083
871.879	5079
872.008	5162
872.138	5064
872.267	4995
872.397	4824
872.526	4744
872.656	4694
872.785	4812
872.915	4927
873.044	5003
873.173	4953
873.303	5010
873.432	5006
873.561	4961
873.69	4908
873.819	4873
873.948	4892
874.077	4824
874.206	4752
874.335	4824
874.464	4938
874.593	5033
874.722	4965
874.851	5079
874.979	5003
875.108	5041
875.237	4885
875.365	4805
875.494	4858
875.623	5022
875.751	4812
875.88	4850
876.008	4987
876.136	5025
876.265	5227
876.393	5311
876.521	5284
876.65	5227
876.778	5143
876.906	5037
877.034	5048
877.162	5041
877.29	4965
877.418	5033
877.546	5064
877.674	5014
877.802	5010
877.93	4965
878.058	4858
878.185	4843
878.313	4972
878.441	4915
878.568	4812
878.696	4843
878.824	5006
878.951	4965
879.079	5174
879.206	5318
879.333	5121
879.461	4942
879.588	4999
879.715	5083
879.842	5220
879.97	4972
880.097	4797
880.224	4755
880.351	4805
880.478	4805
880.605	4790
880.732	4740
880.859	5090
880.986	4873
881.112	4877
881.239	4744
881.366	4649
881.493	4637
881.619	4573
881.746	4664
881.872	4698
881.999	4664
882.125	4698
882.252	4763
882.378	4824
882.505	4980
882.631	4820
882.757	4645
882.883	4717
883.01	4694
883.136	4694
883.262	4565
883.388	4618
883.514	4801
883.64	4850
883.766	4759
883.892	4675
884.018	4736
884.143	4892
884.269	4980
884.395	4626
884.52	4622
884.646	4626
884.772	4538
884.897	4550
885.023	4683
885.148	4752
885.274	4877
885.399	4816
885.524	4736
885.65	4717
885.775	4736
885.9	4702
886.025	4843
886.15	4805
886.275	4691
886.4	4660
886.525	4683
886.65	4694
886.775	4706
886.9	4839
887.025	5045
887.149	4828
887.274	4656
887.399	4565
887.523	4603
887.648	4618
887.773	4607
887.897	4736
888.021	4774
888.146	4649
888.27	4820
888.395	4915
888.519	4793
888.643	4816
888.767	4801
888.891	4637
889.015	4596
889.139	4653
889.263	4588
889.387	4729
889.511	4862
889.635	4820
889.759	4679
889.883	4615
890.006	4702
890.13	4877
890.254	4580
890.377	4691
890.501	4527
890.624	4493
890.748	4630
890.871	4497
890.995	4466
891.118	4363
891.241	4512
891.364	4504
891.488	4603
891.611	4436
891.734	4558
891.857	4580
891.98	4538
892.103	4637
892.226	4577
892.349	4474
892.471	4379
892.594	4561
892.717	4580
892.839	4573
892.962	4599
893.085	4649
893.207	4603
893.33	4497
893.452	4466
893.575	4637
893.697	4554
893.819	4797
893.941	4786
894.064	4729
894.186	4565
894.308	4538
894.43	4710
894.552	4797
894.674	4763
894.796	4580
894.918	4558
895.04	4615
895.161	4672
895.283	4668
895.405	4580
895.526	4603
895.648	4698
895.769	4698
895.891	4717
896.012	4740
896.134	4714
896.255	4668
896.376	4615
896.498	4599
896.619	4649
896.74	4588
896.861	4668
896.982	4904
897.103	4961
897.224	4831
897.345	4748
897.466	4660
897.587	4714
897.708	4839
897.828	4759
897.949	4672
898.07	4580
898.19	4675
898.311	4759
898.431	4626
898.552	4721
898.672	4782
898.792	4793
898.913	4687
899.033	4561
899.153	4485
899.273	4455
899.393	4508
899.513	4546
899.633	4527
899.753	4504
899.873	4500
899.993	4592
900.113	4493
900.232	4630
900.352	4489
900.472	4462
900.591	4367
900.711	4478
900.83	4405
900.95	4603
901.069	4668
901.189	4478
901.308	4360
901.427	4314
901.546	4394
901.665	4451
901.784	4500
901.904	4371
902.023	4276
902.141	4158
902.26	4196
902.379	4276
902.498	4230
902.617	4196
902.735	4356
902.854	4375
902.973	4325
903.091	4188
903.21	4204
903.328	4310
903.446	4242
903.565	4211
903.683	4337
903.801	4253
903.919	4375
904.038	4383
904.156	4344
904.274	4424
904.392	4348
904.51	4398
904.627	4443
904.745	4573
904.863	4596
904.981	4348
905.098	4291
905.216	4348
905.334	4383
905.451	4409
905.569	4424
905.686	4558
905.803	4573
905.921	4375
906.038	4546
906.155	4489
906.272	4417
906.389	4455
906.506	4341
906.623	4356
906.74	4386
906.857	4306
906.974	4352
907.091	4527
907.208	4679
907.324	4580
907.441	4489
907.557	4306
907.674	4348
907.79	4329
907.907	4352
908.023	4443
908.139	4489
908.256	4417
908.372	4478
908.488	4466
908.604	4344
908.72	4268
908.836	4341
908.952	4325
909.068	4409
909.184	4542
909.3	4474
909.415	4577
909.531	4538
909.647	4363
909.762	4329
909.878	4348
909.993	4455
910.108	4402
910.224	4390
910.339	4447
910.454	4360
910.57	4383
910.685	4333
910.8	4649
910.915	4584
911.03	4493
911.145	4306
911.259	4337
911.374	4363
911.489	4295
911.604	4284
911.718	4196
911.833	4204
911.947	4067
912.062	4048
912.176	4204
912.291	4227
912.405	4261
912.519	4440
912.633	4489
912.748	4398
912.862	4329
912.976	4246
913.09	4074
913.204	4131
913.318	4227
913.431	4367
913.545	4383
913.659	4447
913.772	4344
913.886	4238
914	4249
914.113	4344
914.226	4413
914.34	4379
914.453	4211
914.566	4413
914.68	4287
914.793	4280
914.906	4120
915.019	4124
915.132	4078
915.245	4150
915.358	4181
915.47	4185
915.583	4238
915.696	4318
915.809	4413
915.921	4394
916.034	4253
916.146	4238
916.259	4173
916.371	4356
916.483	4356
916.595	4238
916.708	4318
916.82	4287
916.932	4325
917.044	4325
917.156	4295
917.268	4265
917.38	4272
917.491	4234
917.603	4344
917.715	4375
917.826	4440
917.938	4322
918.049	4215
918.161	4386
918.272	4485
918.384	4512
918.495	4474
918.606	4314
918.717	4246
918.828	4291
918.939	4348
919.05	4204
919.161	4284
919.272	4173
919.383	4272
919.494	4432
919.604	4637
919.715	4436
919.826	4363
919.936	4375
920.047	4550
920.157	4466
920.267	4706
920.378	4546
920.488	4497
920.598	4721
920.708	4873
920.818	4733
920.928	4767
921.038	4946
921.148	4923
921.258	4584
921.368	4584
921.477	4535
921.587	4497
921.697	4360
921.806	4500
921.916	4428
922.025	4257
922.134	4280
922.244	4196
922.353	4341
922.462	4154
922.571	4128
922.68	4006
922.789	3987
922.898	4010
923.007	3968
923.116	4101
923.224	4044
923.333	4036
923.442	3983
923.55	3937
923.659	4017
923.767	4093
923.876	4021
923.984	4116
924.092	4006
924.201	4051
924.309	4093
924.417	4124
924.525	4090
924.633	4078
924.741	5029
924.849	3896
924.956	4109
925.064	3899
925.172	3854
925.279	3953
925.387	4021
925.494	4017
925.602	4192
925.709	4169
925.816	4029
925.924	4090
926.031	4261
926.138	4185
926.245	4154
926.352	4097
926.459	4223
926.566	4341
926.673	4139
926.779	4059
926.886	4051
926.993	3994
927.099	3968
927.206	3922
927.312	3922
927.419	4055
927.525	4029
927.631	4090
927.737	4006
927.843	3968
927.95	3850
928.056	3949
928.162	3975
928.267	4032
928.373	4656
928.479	4097
928.585	3884
928.69	4029
928.796	4021
928.901	3945
929.007	3880
929.112	4010
929.218	3960
929.323	3926
929.428	3941
929.533	4082
929.638	3934
929.743	3953
929.848	4036
929.953	3937
930.058	3911
930.163	3736
930.267	3785
930.372	3949
930.477	3854
930.581	4071
930.685	3937
930.79	3842
930.894	3896
930.998	3827
931.103	4040
931.207	3686
931.311	3686
931.415	3648
931.519	3523
931.623	3534
