Data from test_V78500241_2605.txt Node
Date: Fri Mar 25 17:07:06 CST 2022
User: usil
Spectrometer: V785-0024
Trigger mode: 0
Integration Time (sec): 4.000000E-1
Scans to average: 1
Nonlinearity correction enabled: false
Boxcar width: 0
Storing dark spectrum: false
XAxis mode: Wavelengths
Number of Pixels in Spectrum: 1024
>>>>>Begin Spectral Data<<<<<
801.071	8069
801.214	8069
801.356	7932
801.499	7967
801.641	7818
801.783	7837
801.926	7989
802.068	7921
802.211	8008
802.353	8039
802.496	7898
802.638	7875
802.78	7894
802.923	7944
803.065	7906
803.208	7902
803.35	8008
803.492	8107
803.635	8183
803.777	8081
803.919	8130
804.061	8389
804.204	8164
804.346	8058
804.488	8092
804.63	8081
804.773	8001
804.915	8142
805.057	8355
805.199	8183
805.341	8210
805.483	8328
805.626	8271
805.768	8149
805.91	8244
806.052	8252
806.194	8119
806.336	8412
806.478	8153
806.62	8077
806.762	8164
806.904	8286
807.046	8469
807.188	8431
807.33	8328
807.472	8271
807.614	8130
807.756	8145
807.898	8043
808.04	7868
808.182	7906
808.324	7940
808.465	7906
808.607	8016
808.749	8176
808.891	8301
809.033	8298
809.174	8221
809.316	8062
809.458	8050
809.6	8024
809.741	8012
809.883	8050
810.025	8115
810.166	8107
810.308	7955
810.45	8001
810.591	7856
810.733	7750
810.875	7731
811.016	7533
811.158	7464
811.299	7590
811.441	7769
811.582	7670
811.724	7597
811.865	7540
812.007	7651
812.148	7601
812.29	7674
812.431	7746
812.573	7852
812.714	8001
812.855	8134
812.997	8263
813.138	8282
813.279	8069
813.421	8123
813.562	7944
813.703	7837
813.845	7769
813.986	7460
814.127	7270
814.268	7179
814.41	7240
814.551	7244
814.692	7217
814.833	7129
814.974	7152
815.115	7141
815.256	7023
815.397	6966
815.539	6924
815.68	6795
815.821	6814
815.962	6901
816.103	6920
816.244	6696
816.385	6654
816.526	6650
816.666	6502
816.807	6391
816.948	6456
817.089	6483
817.23	6429
817.371	6433
817.512	6391
817.653	6391
817.793	6384
817.934	6426
818.075	6460
818.216	6490
818.356	6456
818.497	6243
818.638	6121
818.778	6182
818.919	6159
819.06	6197
819.2	6372
819.341	6304
819.481	6323
819.622	6544
819.762	6711
819.903	6688
820.043	6642
820.184	6631
820.324	6627
820.465	6734
820.605	6772
820.746	6673
820.886	6574
821.026	6692
821.167	6757
821.307	6829
821.447	6859
821.588	6703
821.728	6620
821.868	6464
822.008	6384
822.149	6361
822.289	6353
822.429	6224
822.569	6076
822.709	6216
822.849	5931
822.99	5904
823.13	5904
823.27	5977
823.41	5821
823.55	5813
823.69	5775
823.83	5760
823.97	5699
824.11	5543
824.25	5543
824.389	5566
824.529	5630
824.669	5554
824.809	5611
824.949	5672
825.089	5680
825.228	5562
825.368	5364
825.508	5322
825.648	5334
825.787	5402
825.927	5311
826.067	5299
826.206	5288
826.346	5398
826.485	5395
826.625	5421
826.765	5592
826.904	5516
827.044	5277
827.183	5208
827.323	5162
827.462	5254
827.601	5174
827.741	5181
827.88	5235
828.02	5132
828.159	5311
828.298	5315
828.437	5364
828.577	5345
828.716	5528
828.855	5330
828.994	5170
829.134	5113
829.273	5220
829.412	5159
829.551	5170
829.69	5231
829.829	5246
829.968	5410
830.107	5292
830.246	5280
830.385	5204
830.524	5170
830.663	5067
830.802	4965
830.941	4930
831.08	4839
831.219	4995
831.357	4961
831.496	5140
831.635	4942
831.774	4889
831.913	4889
832.051	4702
832.19	4767
832.329	4854
832.467	4767
832.606	4675
832.744	4729
832.883	4771
833.022	4717
833.16	4820
833.299	4854
833.437	4824
833.576	4858
833.714	4885
833.852	4889
833.991	4900
834.129	4961
834.267	5014
834.406	4904
834.544	4961
834.682	4927
834.821	4968
834.959	5147
835.097	4976
835.235	5189
835.373	5109
835.511	5105
835.65	5041
835.788	5045
835.926	4919
836.064	4934
836.202	4957
836.34	5151
836.478	5208
836.615	5147
836.753	5216
836.891	5277
837.029	5334
837.167	5208
837.305	5132
837.443	5140
837.58	5094
837.718	5273
837.856	5197
837.993	5147
838.131	5277
838.269	5201
838.406	5162
838.544	5197
838.681	5037
838.819	4953
838.956	4942
839.094	4889
839.231	5006
839.369	5113
839.506	5433
839.643	5261
839.781	5094
839.918	5079
840.055	5117
840.193	5064
840.33	5109
840.467	5174
840.604	5159
840.742	5433
840.879	5094
841.016	5105
841.153	5124
841.29	5379
841.427	5337
841.564	5303
841.701	5379
841.838	5250
841.975	5235
842.112	5288
842.249	5174
842.385	5109
842.522	5334
842.659	5147
842.796	5117
842.933	5208
843.069	5105
843.206	5147
843.343	5307
843.479	5231
843.616	5288
843.752	5033
843.889	4995
844.025	5227
844.162	5029
844.298	5235
844.435	5143
844.571	5010
844.708	5174
844.844	5280
844.98	5345
845.117	5307
845.253	5166
845.389	5060
845.525	5189
845.661	5132
845.798	4987
845.934	5155
846.07	5018
846.206	5193
846.342	5265
846.478	5166
846.614	5064
846.75	4972
846.886	4984
847.022	5155
847.158	5052
847.294	5075
847.429	5124
847.565	5018
847.701	5349
847.837	4839
847.972	4831
848.108	4953
848.244	4934
848.379	4824
848.515	4691
848.65	4782
848.786	4793
848.921	4687
849.057	4858
849.192	4927
849.328	4828
849.463	4873
849.598	4801
849.734	4786
849.869	4668
850.004	4653
850.14	4660
850.275	4615
850.41	4523
850.545	4554
850.68	4584
850.815	4603
850.95	4637
851.085	4896
851.22	4771
851.355	4683
851.49	4637
851.625	4580
851.76	4599
851.895	4558
852.03	4519
852.165	4641
852.299	4740
852.434	4782
852.569	4759
852.703	4820
852.838	4839
852.973	4987
853.107	4892
853.242	4717
853.376	4675
853.511	4565
853.645	4615
853.78	4805
853.914	4672
854.048	4683
854.183	4668
854.317	4748
854.451	4854
854.585	4683
854.72	4649
854.854	4714
854.988	4607
855.122	4626
855.256	4546
855.39	4668
855.524	4771
855.658	4786
855.792	4706
855.926	4763
856.06	4797
856.194	4778
856.327	4675
856.461	4596
856.595	4607
856.729	4580
856.862	4774
856.996	4687
857.13	4668
857.263	4752
857.397	4816
857.53	4645
857.664	4706
857.797	4778
857.931	4782
858.064	4729
858.197	4752
858.331	4649
858.464	4664
858.597	4485
858.731	4672
858.864	4653
858.997	4561
859.13	4679
859.263	4656
859.396	4660
859.529	4588
859.662	4569
859.795	4584
859.928	4634
860.061	4740
860.194	4774
860.327	4584
860.46	4607
860.592	4702
860.725	4733
860.858	4725
860.99	4588
861.123	4542
861.256	4546
861.388	4622
861.521	5440
861.653	4493
861.786	4474
861.918	4436
862.05	4489
862.183	4565
862.315	4603
862.447	4611
862.58	4546
862.712	4390
862.844	4333
862.976	4459
863.108	4500
863.24	4793
863.372	4306
863.504	4428
863.636	4428
863.768	4485
863.9	4428
864.032	4390
864.164	4451
864.296	4451
864.428	4527
864.559	4519
864.691	4550
864.823	4538
864.954	4466
865.086	4504
865.217	4447
865.349	4455
865.48	4440
865.612	4459
865.743	4615
865.875	4421
866.006	4421
866.137	4455
866.269	4443
866.4	4428
866.531	4390
866.662	4424
866.793	4432
866.924	4443
867.055	4478
867.186	4481
867.317	4451
867.448	4375
867.579	4402
867.71	4409
867.841	4379
867.972	4421
868.103	4459
868.233	4432
868.364	4417
868.495	4470
868.625	4656
868.756	4801
868.886	4546
869.017	4634
869.147	4790
869.278	4782
869.408	4656
869.539	4641
869.669	4736
869.799	4645
869.929	4793
870.06	4755
870.19	4957
870.32	4972
870.45	4957
870.58	5006
870.71	5109
870.84	5083
870.97	4919
871.1	4927
871.23	5140
871.36	5181
871.489	5022
871.619	5037
871.749	5132
871.879	5067
872.008	5242
872.138	5098
872.267	4987
872.397	4843
872.526	4786
872.656	4702
872.785	4793
872.915	4957
873.044	5037
873.173	4904
873.303	4930
873.432	4972
873.561	4957
873.69	4870
873.819	4866
873.948	4915
874.077	4812
874.206	4771
874.335	4812
874.464	4911
874.593	5075
874.722	4934
874.851	5128
874.979	5041
875.108	5029
875.237	4927
875.365	4881
875.494	4911
875.623	4927
875.751	4850
875.88	4858
876.008	4995
876.136	4999
876.265	5223
876.393	5376
876.521	5242
876.65	5181
876.778	5140
876.906	5060
877.034	5033
877.162	5056
877.29	5010
877.418	5025
877.546	5075
877.674	5086
877.802	5014
877.93	5041
878.058	4904
878.185	4858
878.313	4995
878.441	4934
878.568	4793
878.696	4911
878.824	5022
878.951	5006
879.079	5132
879.206	5235
879.333	5090
879.461	4980
879.588	4995
879.715	5109
879.842	5185
879.97	4995
880.097	4752
880.224	4721
880.351	4812
880.478	4839
880.605	4839
880.732	4774
880.859	5060
880.986	4949
881.112	4923
881.239	4767
881.366	4649
881.493	4649
881.619	4592
881.746	4645
881.872	4687
881.999	4679
882.125	4710
882.252	4812
882.378	4809
882.505	4957
882.631	4790
882.757	4637
882.883	4748
883.01	4736
883.136	4672
883.262	4577
883.388	4622
883.514	4820
883.64	4915
883.766	4790
883.892	4660
884.018	4694
884.143	4843
884.269	4976
884.395	4649
884.52	4611
884.646	4672
884.772	4588
884.897	4569
885.023	4607
885.148	4778
885.274	4930
885.399	4847
885.524	4778
885.65	4706
885.775	4755
885.9	4694
886.025	4858
886.15	4805
886.275	4763
886.4	4622
886.525	4752
886.65	4736
886.775	4748
886.9	4892
887.025	4999
887.149	4854
887.274	4641
887.399	4580
887.523	4615
887.648	4577
887.773	4580
887.897	4725
888.021	4786
888.146	4721
888.27	4850
888.395	4919
888.519	4790
888.643	4782
888.767	4786
888.891	4675
889.015	4584
889.139	4714
889.263	4611
889.387	4778
889.511	4923
889.635	4805
889.759	4691
889.883	4592
890.006	4755
890.13	4873
890.254	4618
890.377	4694
890.501	4577
890.624	4550
890.748	4626
890.871	4493
890.995	4417
891.118	4337
891.241	4550
891.364	4512
891.488	4577
891.611	4516
891.734	4546
891.857	4599
891.98	4550
892.103	4634
892.226	4577
892.349	4565
892.471	4436
892.594	4512
892.717	4599
892.839	4573
892.962	4584
893.085	4702
893.207	4596
893.33	4455
893.452	4497
893.575	4641
893.697	4592
893.819	4778
893.941	4866
894.064	4786
894.186	4573
894.308	4550
894.43	4771
894.552	4809
894.674	4736
894.796	4504
894.918	4603
895.04	4561
895.161	4725
895.283	4679
895.405	4519
895.526	4675
895.648	4660
895.769	4675
895.891	4702
896.012	4710
896.134	4664
896.255	4622
896.376	4634
896.498	4592
896.619	4687
896.74	4603
896.861	4630
896.982	4892
897.103	5121
897.224	4843
897.345	4725
897.466	4668
897.587	4683
897.708	4847
897.828	4744
897.949	4691
898.07	4554
898.19	4637
898.311	4786
898.431	4656
898.552	4774
898.672	4793
898.792	4839
898.913	4748
899.033	4656
899.153	4489
899.273	4497
899.393	4519
899.513	4512
899.633	4565
899.753	4569
899.873	4516
899.993	4561
900.113	4531
900.232	4550
900.352	4542
900.472	4466
900.591	4394
900.711	4508
900.83	4405
900.95	4618
901.069	4675
901.189	4516
901.308	4333
901.427	4360
901.546	4367
901.665	4474
901.784	4535
901.904	4356
902.023	4299
902.141	4143
902.26	4154
902.379	4310
902.498	4242
902.617	4219
902.735	4371
902.854	4398
902.973	4348
903.091	4185
903.21	4215
903.328	4291
903.446	4265
903.565	4268
903.683	4360
903.801	4268
903.919	4379
904.038	4413
904.156	4325
904.274	4443
904.392	4424
904.51	4421
904.627	4455
904.745	4580
904.863	4630
904.981	4398
905.098	4291
905.216	4344
905.334	4394
905.451	4421
905.569	4459
905.686	4531
905.803	4523
905.921	4417
906.038	4561
906.155	4519
906.272	4402
906.389	4421
906.506	4367
906.623	4398
906.74	4383
906.857	4314
906.974	4329
907.091	4603
907.208	4653
907.324	4622
907.441	4508
907.557	4367
907.674	4348
907.79	4303
907.907	4402
908.023	4489
908.139	4462
908.256	4451
908.372	4466
908.488	4390
908.604	4363
908.72	4329
908.836	4379
908.952	4356
909.068	4424
909.184	4535
909.3	4478
909.415	4584
909.531	4535
909.647	4360
909.762	4375
909.878	4333
909.993	4485
910.108	4394
910.224	4428
910.339	4485
910.454	4402
910.57	4371
910.685	4325
910.8	4675
910.915	4565
911.03	4493
911.145	4310
911.259	4318
911.374	4371
911.489	4291
911.604	4322
911.718	4200
911.833	4223
911.947	4097
912.062	4071
912.176	4223
912.291	4223
912.405	4253
912.519	4508
912.633	4531
912.748	4398
912.862	4287
912.976	4215
913.09	4074
913.204	4166
913.318	4227
913.431	4421
913.545	4375
913.659	4440
913.772	4314
913.886	4204
914	4207
914.113	4383
914.226	4402
914.34	4360
914.453	4291
914.566	4405
914.68	4280
914.793	4367
914.906	4185
915.019	4150
915.132	4128
915.245	4188
915.358	4169
915.47	4253
915.583	4230
915.696	4249
915.809	4352
915.921	4417
916.034	4257
916.146	4242
916.259	4219
916.371	4413
916.483	4344
916.595	4242
916.708	4318
916.82	4299
916.932	4344
917.044	4337
917.156	4284
917.268	4314
917.38	4303
917.491	4268
917.603	4352
917.715	4432
917.826	4436
917.938	4352
918.049	4253
918.161	4428
918.272	4546
918.384	4546
918.495	4462
918.606	4276
918.717	4207
918.828	4303
918.939	4356
919.05	4257
919.161	4303
919.272	4181
919.383	4234
919.494	4394
919.604	4634
919.715	4440
919.826	4367
919.936	4409
920.047	4535
920.157	4500
920.267	4721
920.378	4535
920.488	4462
920.598	4694
920.708	4885
920.818	4752
920.928	4759
921.038	4942
921.148	4866
921.258	4637
921.368	4512
921.477	4459
921.587	4440
921.697	4402
921.806	4519
921.916	4436
922.025	4268
922.134	4272
922.244	4223
922.353	4352
922.462	4181
922.571	4131
922.68	4010
922.789	3994
922.898	4093
923.007	4002
923.116	4112
923.224	4055
923.333	4067
923.442	3991
923.55	3991
923.659	4040
923.767	4051
923.876	4013
923.984	4143
924.092	3918
924.201	4101
924.309	4101
924.417	4101
924.525	4086
924.633	4109
924.741	5010
924.849	3896
924.956	4124
925.064	3972
925.172	3949
925.279	3968
925.387	4032
925.494	4063
925.602	4181
925.709	4207
925.816	4059
925.924	4105
926.031	4211
926.138	4196
926.245	4215
926.352	4071
926.459	4276
926.566	4314
926.673	4147
926.779	4078
926.886	4120
926.993	3968
927.099	3915
927.206	3930
927.312	3899
927.419	4074
927.525	4006
927.631	4082
927.737	3975
927.843	3972
927.95	3857
928.056	3968
928.162	3960
928.267	4036
928.373	4615
928.479	4105
928.585	3911
928.69	4063
928.796	4101
928.901	3998
929.007	3838
929.112	4059
929.218	3960
929.323	3956
929.428	3972
929.533	4071
929.638	3941
929.743	3941
929.848	4063
929.953	3991
930.058	3953
930.163	3797
930.267	3850
930.372	3949
930.477	3797
930.581	4082
930.685	3953
930.79	3800
930.894	3850
930.998	3842
931.103	4025
931.207	3713
931.311	3694
931.415	3667
931.519	3500
931.623	3561
