Data from test_V78500241_1533.txt Node
Date: Fri Mar 25 16:59:39 CST 2022
User: usil
Spectrometer: V785-0024
Trigger mode: 0
Integration Time (sec): 4.000000E-1
Scans to average: 1
Nonlinearity correction enabled: false
Boxcar width: 0
Storing dark spectrum: false
XAxis mode: Wavelengths
Number of Pixels in Spectrum: 1024
>>>>>Begin Spectral Data<<<<<
801.071	7982
801.214	8027
801.356	7902
801.499	7871
801.641	7772
801.783	7807
801.926	7963
802.068	7955
802.211	7894
802.353	7879
802.496	7788
802.638	7833
802.78	7917
802.923	7875
803.065	7849
803.208	7868
803.35	7894
803.492	8039
803.635	8138
803.777	7982
803.919	8130
804.061	8377
804.204	8107
804.346	8043
804.488	7906
804.63	8084
804.773	8027
804.915	8115
805.057	8290
805.199	8123
805.341	8187
805.483	8199
805.626	8214
805.768	8027
805.91	8214
806.052	8176
806.194	8123
806.336	8294
806.478	8054
806.62	8031
806.762	8168
806.904	8206
807.046	8473
807.188	8446
807.33	8298
807.472	8305
807.614	8035
807.756	8073
807.898	7936
808.04	7887
808.182	7898
808.324	7894
808.465	7913
808.607	8058
808.749	8119
808.891	8130
809.033	8347
809.174	8145
809.316	8077
809.458	8043
809.6	7982
809.741	7970
809.883	8012
810.025	8134
810.166	8096
810.308	7997
810.45	8016
810.591	7803
810.733	7750
810.875	7609
811.016	7487
811.158	7476
811.299	7559
811.441	7689
811.582	7700
811.724	7613
811.865	7449
812.007	7540
812.148	7540
812.29	7620
812.431	7757
812.573	7883
812.714	8016
812.855	8123
812.997	8199
813.138	8351
813.279	8237
813.421	8031
813.562	8012
813.703	7845
813.845	7746
813.986	7407
814.127	7236
814.268	7228
814.41	7190
814.551	7164
814.692	7221
814.833	7034
814.974	7103
815.115	7034
815.256	7023
815.397	6856
815.539	6970
815.68	6829
815.821	6719
815.962	6852
816.103	6802
816.244	6623
816.385	6582
816.526	6570
816.666	6437
816.807	6285
816.948	6388
817.089	6448
817.23	6407
817.371	6365
817.512	6369
817.653	6391
817.793	6346
817.934	6441
818.075	6433
818.216	6391
818.356	6388
818.497	6247
818.638	6129
818.778	6194
818.919	6117
819.06	6140
819.2	6273
819.341	6311
819.481	6376
819.622	6456
819.762	6722
819.903	6726
820.043	6589
820.184	6582
820.324	6544
820.465	6715
820.605	6707
820.746	6669
820.886	6456
821.026	6604
821.167	6719
821.307	6753
821.447	6711
821.588	6627
821.728	6540
821.868	6498
822.008	6285
822.149	6395
822.289	6319
822.429	6144
822.569	6026
822.709	6152
822.849	5874
822.99	5878
823.13	5889
823.27	5923
823.41	5790
823.55	5714
823.69	5745
823.83	5817
823.97	5714
824.11	5524
824.25	5433
824.389	5512
824.529	5581
824.669	5512
824.809	5600
824.949	5657
825.089	5581
825.228	5490
825.368	5372
825.508	5299
825.648	5341
825.787	5337
825.927	5376
826.067	5341
826.206	5261
826.346	5376
826.485	5436
826.625	5433
826.765	5539
826.904	5459
827.044	5239
827.183	5193
827.323	5105
827.462	5216
827.601	5178
827.741	5254
827.88	5242
828.02	5090
828.159	5201
828.298	5277
828.437	5307
828.577	5311
828.716	5486
828.855	5330
828.994	5147
829.134	5155
829.273	5128
829.412	5117
829.551	5132
829.69	5143
829.829	5201
829.968	5398
830.107	5280
830.246	5231
830.385	5162
830.524	5147
830.663	5064
830.802	4934
830.941	4930
831.08	4904
831.219	4995
831.357	4965
831.496	5143
831.635	4923
831.774	4839
831.913	4839
832.051	4706
832.19	4714
832.329	4828
832.467	4717
832.606	4622
832.744	4683
832.883	4710
833.022	4714
833.16	4748
833.299	4763
833.437	4763
833.576	4820
833.714	4889
833.852	4805
833.991	4870
834.129	4957
834.267	4889
834.406	4938
834.544	4968
834.682	4927
834.821	4987
834.959	5151
835.097	4987
835.235	5113
835.373	5067
835.511	5109
835.65	5006
835.788	4984
835.926	4866
836.064	4828
836.202	4904
836.34	5151
836.478	5189
836.615	5128
836.753	5166
836.891	5284
837.029	5280
837.167	5220
837.305	5155
837.443	5140
837.58	5094
837.718	5181
837.856	5181
837.993	5166
838.131	5235
838.269	5189
838.406	5132
838.544	5174
838.681	5041
838.819	5018
838.956	4885
839.094	4892
839.231	4953
839.369	5075
839.506	5387
839.643	5284
839.781	5025
839.918	5006
840.055	5098
840.193	5086
840.33	5083
840.467	5094
840.604	5185
840.742	5421
840.879	5098
841.016	5071
841.153	5159
841.29	5391
841.427	5376
841.564	5246
841.701	5349
841.838	5242
841.975	5231
842.112	5220
842.249	5052
842.385	5094
842.522	5307
842.659	5151
842.796	5113
842.933	5197
843.069	5147
843.206	5155
843.343	5292
843.479	5216
843.616	5231
843.752	5041
843.889	5041
844.025	5178
844.162	5006
844.298	5231
844.435	5052
844.571	5060
844.708	5227
844.844	5258
844.98	5345
845.117	5296
845.253	5166
845.389	5022
845.525	5121
845.661	5117
845.798	5052
845.934	5060
846.07	5022
846.206	5216
846.342	5261
846.478	5132
846.614	4968
846.75	5003
846.886	4949
847.022	5064
847.158	4984
847.294	4984
847.429	5105
847.565	5029
847.701	5303
847.837	4816
847.972	4805
848.108	4942
848.244	4946
848.379	4809
848.515	4679
848.65	4668
848.786	4687
848.921	4748
849.057	4839
849.192	4923
849.328	4820
849.463	4805
849.598	4782
849.734	4702
849.869	4691
850.004	4546
850.14	4626
850.275	4630
850.41	4565
850.545	4500
850.68	4622
850.815	4561
850.95	4592
851.085	4793
851.22	4698
851.355	4675
851.49	4615
851.625	4615
851.76	4584
851.895	4542
852.03	4500
852.165	4679
852.299	4683
852.434	4752
852.569	4729
852.703	4778
852.838	4870
852.973	4927
853.107	4915
853.242	4736
853.376	4634
853.511	4542
853.645	4630
853.78	4778
853.914	4634
854.048	4668
854.183	4679
854.317	4637
854.451	4877
854.585	4656
854.72	4577
854.854	4721
854.988	4584
855.122	4626
855.256	4504
855.39	4645
855.524	4736
855.658	4675
855.792	4687
855.926	4729
856.06	4752
856.194	4778
856.327	4668
856.461	4603
856.595	4599
856.729	4599
856.862	4733
856.996	4668
857.13	4706
857.263	4714
857.397	4790
857.53	4656
857.664	4645
857.797	4755
857.931	4771
858.064	4706
858.197	4710
858.331	4660
858.464	4561
858.597	4535
858.731	4607
858.864	4679
858.997	4592
859.13	4584
859.263	4660
859.396	4691
859.529	4580
859.662	4569
859.795	4577
859.928	4611
860.061	4755
860.194	4755
860.327	4580
860.46	4527
860.592	4729
860.725	4733
860.858	4740
860.99	4569
861.123	4542
861.256	4535
861.388	4603
861.521	5288
861.653	4432
861.786	4421
861.918	4466
862.05	4523
862.183	4535
862.315	4565
862.447	4706
862.58	4474
862.712	4409
862.844	4348
862.976	4470
863.108	4432
863.24	4744
863.372	4337
863.504	4394
863.636	4428
863.768	4462
863.9	4405
864.032	4398
864.164	4356
864.296	4413
864.428	4550
864.559	4565
864.691	4599
864.823	4455
864.954	4447
865.086	4500
865.217	4424
865.349	4398
865.48	4443
865.612	4474
865.743	4599
865.875	4459
866.006	4375
866.137	4481
866.269	4459
866.4	4436
866.531	4413
866.662	4371
866.793	4394
866.924	4394
867.055	4443
867.186	4443
867.317	4428
867.448	4375
867.579	4363
867.71	4360
867.841	4409
867.972	4462
868.103	4474
868.233	4443
868.364	4443
868.495	4451
868.625	4660
868.756	4702
868.886	4500
869.017	4630
869.147	4748
869.278	4717
869.408	4653
869.539	4615
869.669	4733
869.799	4630
869.929	4721
870.06	4702
870.19	4904
870.32	4957
870.45	4892
870.58	5010
870.71	5041
870.84	5064
870.97	4927
871.1	4923
871.23	5113
871.36	5079
871.489	4987
871.619	5064
871.749	5056
871.879	5117
872.008	5109
872.138	5018
872.267	5014
872.397	4816
872.526	4782
872.656	4687
872.785	4778
872.915	4942
873.044	5010
873.173	4923
873.303	4934
873.432	4930
873.561	4930
873.69	4885
873.819	4839
873.948	4881
874.077	4790
874.206	4736
874.335	4774
874.464	4885
874.593	5037
874.722	4900
874.851	5075
874.979	5075
875.108	4984
875.237	4892
875.365	4877
875.494	4911
875.623	5006
875.751	4831
875.88	4889
876.008	4987
876.136	5045
876.265	5227
876.393	5364
876.521	5341
876.65	5216
876.778	5159
876.906	5033
877.034	5033
877.162	5037
877.29	5033
877.418	5075
877.546	5022
877.674	5029
877.802	5041
877.93	5010
878.058	4976
878.185	4904
878.313	5018
878.441	4965
878.568	4847
878.696	4877
878.824	4961
878.951	5025
879.079	5102
879.206	5334
879.333	5143
879.461	5003
879.588	4999
879.715	5185
879.842	5201
879.97	5071
880.097	4824
880.224	4763
880.351	4824
880.478	4854
880.605	4812
880.732	4839
880.859	5136
880.986	4911
881.112	4972
881.239	4858
881.366	4656
881.493	4668
881.619	4611
881.746	4687
881.872	4668
881.999	4691
882.125	4691
882.252	4854
882.378	4824
882.505	5014
882.631	4824
882.757	4687
882.883	4793
883.01	4801
883.136	4717
883.262	4675
883.388	4611
883.514	4805
883.64	4892
883.766	4828
883.892	4725
884.018	4748
884.143	4927
884.269	5045
884.395	4687
884.52	4653
884.646	4622
884.772	4615
884.897	4622
885.023	4702
885.148	4809
885.274	4881
885.399	4843
885.524	4752
885.65	4691
885.775	4786
885.9	4694
886.025	4873
886.15	4805
886.275	4740
886.4	4706
886.525	4759
886.65	4717
886.775	4717
886.9	4976
887.025	5022
887.149	4835
887.274	4714
887.399	4626
887.523	4603
887.648	4618
887.773	4626
887.897	4790
888.021	4790
888.146	4675
888.27	4839
888.395	4942
888.519	4812
888.643	4870
888.767	4839
888.891	4717
889.015	4618
889.139	4706
889.263	4672
889.387	4767
889.511	4923
889.635	4805
889.759	4660
889.883	4675
890.006	4759
890.13	4870
890.254	4649
890.377	4706
890.501	4580
890.624	4531
890.748	4710
890.871	4512
890.995	4478
891.118	4413
891.241	4512
891.364	4577
891.488	4626
891.611	4497
891.734	4611
891.857	4607
891.98	4558
892.103	4626
892.226	4599
892.349	4538
892.471	4424
892.594	4607
892.717	4607
892.839	4599
892.962	4634
893.085	4714
893.207	4634
893.33	4478
893.452	4558
893.575	4698
893.697	4603
893.819	4763
893.941	4854
894.064	4755
894.186	4561
894.308	4573
894.43	4748
894.552	4809
894.674	4771
894.796	4607
894.918	4634
895.04	4558
895.161	4763
895.283	4645
895.405	4588
895.526	4637
895.648	4660
895.769	4668
895.891	4706
896.012	4763
896.134	4725
896.255	4634
896.376	4687
896.498	4603
896.619	4691
896.74	4618
896.861	4691
896.982	4934
897.103	5102
897.224	4862
897.345	4786
897.466	4645
897.587	4748
897.708	4892
897.828	4820
897.949	4698
898.07	4588
898.19	4679
898.311	4862
898.431	4683
898.552	4767
898.672	4862
898.792	4854
898.913	4809
899.033	4683
899.153	4531
899.273	4440
899.393	4538
899.513	4519
899.633	4523
899.753	4573
899.873	4474
899.993	4615
900.113	4577
900.232	4607
900.352	4554
900.472	4504
900.591	4497
900.711	4516
900.83	4440
900.95	4622
901.069	4672
901.189	4565
901.308	4447
901.427	4363
901.546	4375
901.665	4451
901.784	4497
901.904	4405
902.023	4341
902.141	4246
902.26	4207
902.379	4325
902.498	4253
902.617	4261
902.735	4424
902.854	4421
902.973	4375
903.091	4265
903.21	4272
903.328	4341
903.446	4284
903.565	4303
903.683	4394
903.801	4265
903.919	4398
904.038	4466
904.156	4352
904.274	4489
904.392	4405
904.51	4459
904.627	4440
904.745	4577
904.863	4668
904.981	4352
905.098	4333
905.216	4409
905.334	4443
905.451	4462
905.569	4455
905.686	4573
905.803	4634
905.921	4417
906.038	4516
906.155	4481
906.272	4413
906.389	4470
906.506	4398
906.623	4360
906.74	4409
906.857	4363
906.974	4367
907.091	4599
907.208	4664
907.324	4607
907.441	4546
907.557	4394
907.674	4333
907.79	4329
907.907	4424
908.023	4527
908.139	4474
908.256	4421
908.372	4440
908.488	4493
908.604	4386
908.72	4306
908.836	4451
908.952	4386
909.068	4455
909.184	4565
909.3	4500
909.415	4584
909.531	4615
909.647	4375
909.762	4383
909.878	4367
909.993	4447
910.108	4398
910.224	4466
910.339	4519
910.454	4390
910.57	4356
910.685	4344
910.8	4660
910.915	4637
911.03	4523
911.145	4306
911.259	4352
911.374	4379
911.489	4348
911.604	4310
911.718	4181
911.833	4223
911.947	4101
912.062	4063
912.176	4223
912.291	4257
912.405	4272
912.519	4504
912.633	4516
912.748	4402
912.862	4318
912.976	4257
913.09	4116
913.204	4219
913.318	4268
913.431	4405
913.545	4436
913.659	4402
913.772	4363
913.886	4249
914	4207
914.113	4383
914.226	4493
914.34	4398
914.453	4249
914.566	4485
914.68	4325
914.793	4390
914.906	4154
915.019	4169
915.132	4078
915.245	4192
915.358	4207
915.47	4261
915.583	4280
915.696	4325
915.809	4462
915.921	4379
916.034	4295
916.146	4253
916.259	4223
916.371	4356
916.483	4375
916.595	4276
916.708	4367
916.82	4333
916.932	4360
917.044	4310
917.156	4360
917.268	4242
917.38	4318
917.491	4314
917.603	4371
917.715	4462
917.826	4421
917.938	4409
918.049	4257
918.161	4379
918.272	4546
918.384	4531
918.495	4497
918.606	4310
918.717	4261
918.828	4363
918.939	4329
919.05	4291
919.161	4299
919.272	4177
919.383	4276
919.494	4478
919.604	4694
919.715	4470
919.826	4360
919.936	4440
920.047	4531
920.157	4538
920.267	4694
920.378	4519
920.488	4497
920.598	4698
920.708	4843
920.818	4729
920.928	4801
921.038	4980
921.148	4915
921.258	4641
921.368	4558
921.477	4508
921.587	4516
921.697	4428
921.806	4561
921.916	4421
922.025	4287
922.134	4265
922.244	4246
922.353	4356
922.462	4204
922.571	4143
922.68	4078
922.789	3998
922.898	4036
923.007	4029
923.116	4112
923.224	4112
923.333	4078
923.442	4025
923.55	4010
923.659	4017
923.767	4139
923.876	4036
923.984	4105
924.092	3991
924.201	4097
924.309	4112
924.417	4162
924.525	4063
924.633	4078
924.741	4881
924.849	3972
924.956	4173
925.064	4013
925.172	3922
925.279	3987
925.387	4029
925.494	4105
925.602	4230
925.709	4162
925.816	4021
925.924	4112
926.031	4257
926.138	4204
926.245	4215
926.352	4082
926.459	4261
926.566	4272
926.673	4150
926.779	4067
926.886	4032
926.993	3994
927.099	3960
927.206	3987
927.312	3903
927.419	4063
927.525	4044
927.631	4135
927.737	3964
927.843	3983
927.95	3884
928.056	3945
928.162	4006
928.267	4051
928.373	4645
928.479	4124
928.585	3903
928.69	4101
928.796	4067
928.901	4002
929.007	3899
929.112	4086
929.218	3991
929.323	3911
929.428	3972
929.533	4120
929.638	3911
929.743	3964
929.848	4048
929.953	4021
930.058	3945
930.163	3740
930.267	3835
930.372	3994
930.477	3850
930.581	4101
930.685	3964
930.79	3831
930.894	3934
930.998	3838
931.103	4021
931.207	3709
931.311	3694
931.415	3663
931.519	3553
931.623	3606
