Data from test_V78500241_1312.txt Node
Date: Fri Mar 25 16:58:07 CST 2022
User: usil
Spectrometer: V785-0024
Trigger mode: 0
Integration Time (sec): 4.000000E-1
Scans to average: 1
Nonlinearity correction enabled: false
Boxcar width: 0
Storing dark spectrum: false
XAxis mode: Wavelengths
Number of Pixels in Spectrum: 1024
>>>>>Begin Spectral Data<<<<<
801.071	8031
801.214	7970
801.356	7887
801.499	7849
801.641	7727
801.783	7795
801.926	7940
802.068	7925
802.211	7959
802.353	8027
802.496	7826
802.638	7890
802.78	7940
802.923	7978
803.065	7898
803.208	7868
803.35	7986
803.492	7978
803.635	8142
803.777	8039
803.919	8176
804.061	8408
804.204	8183
804.346	8020
804.488	7955
804.63	8077
804.773	8043
804.915	8153
805.057	8309
805.199	8183
805.341	8244
805.483	8240
805.626	8199
805.768	8142
805.91	8164
806.052	8195
806.194	8050
806.336	8229
806.478	8058
806.62	8043
806.762	8081
806.904	8233
807.046	8457
807.188	8332
807.33	8282
807.472	8309
807.614	8218
807.756	8149
807.898	7932
808.04	7947
808.182	7894
808.324	7898
808.465	7928
808.607	8065
808.749	8123
808.891	8088
809.033	8267
809.174	8107
809.316	8050
809.458	8058
809.6	7982
809.741	8024
809.883	7978
810.025	8043
810.166	8058
810.308	7986
810.45	7986
810.591	7913
810.733	7712
810.875	7742
811.016	7563
811.158	7521
811.299	7609
811.441	7636
811.582	7651
811.724	7609
811.865	7567
812.007	7582
812.148	7578
812.29	7639
812.431	7769
812.573	7890
812.714	7959
812.855	8126
812.997	8267
813.138	8393
813.279	8221
813.421	8111
813.562	8005
813.703	7887
813.845	7769
813.986	7453
814.127	7240
814.268	7171
814.41	7228
814.551	7213
814.692	7232
814.833	7114
814.974	7046
815.115	7103
815.256	6973
815.397	6932
815.539	6935
815.68	6871
815.821	6863
815.962	6859
816.103	6829
816.244	6703
816.385	6620
816.526	6612
816.666	6448
816.807	6273
816.948	6433
817.089	6441
817.23	6429
817.371	6399
817.512	6338
817.653	6433
817.793	6323
817.934	6342
818.075	6414
818.216	6441
818.356	6357
818.497	6213
818.638	6098
818.778	6072
818.919	6125
819.06	6197
819.2	6300
819.341	6308
819.481	6304
819.622	6528
819.762	6696
819.903	6688
820.043	6578
820.184	6563
820.324	6578
820.465	6703
820.605	6658
820.746	6597
820.886	6456
821.026	6639
821.167	6707
821.307	6795
821.447	6707
821.588	6582
821.728	6540
821.868	6513
822.008	6357
822.149	6350
822.289	6311
822.429	6144
822.569	6087
822.709	6114
822.849	5859
822.99	5939
823.13	5942
823.27	5878
823.41	5767
823.55	5817
823.69	5760
823.83	5771
823.97	5661
824.11	5611
824.25	5535
824.389	5512
824.529	5524
824.669	5505
824.809	5619
824.949	5714
825.089	5608
825.228	5604
825.368	5364
825.508	5406
825.648	5284
825.787	5360
825.927	5360
826.067	5250
826.206	5288
826.346	5368
826.485	5406
826.625	5421
826.765	5532
826.904	5463
827.044	5231
827.183	5223
827.323	5098
827.462	5132
827.601	5124
827.741	5155
827.88	5181
828.02	5147
828.159	5208
828.298	5353
828.437	5387
828.577	5284
828.716	5497
828.855	5307
828.994	5109
829.134	5170
829.273	5155
829.412	5117
829.551	5124
829.69	5208
829.829	5239
829.968	5330
830.107	5258
830.246	5254
830.385	5235
830.524	5136
830.663	5079
830.802	4949
830.941	4820
831.08	4919
831.219	4972
831.357	4976
831.496	5201
831.635	4854
831.774	4831
831.913	4850
832.051	4736
832.19	4725
832.329	4839
832.467	4637
832.606	4611
832.744	4740
832.883	4759
833.022	4721
833.16	4763
833.299	4831
833.437	4805
833.576	4850
833.714	4854
833.852	4873
833.991	4896
834.129	4911
834.267	4942
834.406	4889
834.544	5014
834.682	4938
834.821	4965
834.959	5185
835.097	4972
835.235	5121
835.373	5029
835.511	5086
835.65	5022
835.788	5033
835.926	4877
836.064	4873
836.202	4900
836.34	5174
836.478	5280
836.615	5075
836.753	5181
836.891	5288
837.029	5212
837.167	5178
837.305	5189
837.443	5174
837.58	5037
837.718	5227
837.856	5178
837.993	5098
838.131	5269
838.269	5170
838.406	5201
838.544	5166
838.681	5045
838.819	5025
838.956	4839
839.094	4908
839.231	5006
839.369	5071
839.506	5471
839.643	5231
839.781	5083
839.918	4999
840.055	5067
840.193	5102
840.33	5102
840.467	5094
840.604	5216
840.742	5406
840.879	5105
841.016	5056
841.153	5113
841.29	5353
841.427	5311
841.564	5277
841.701	5322
841.838	5235
841.975	5197
842.112	5269
842.249	5151
842.385	5079
842.522	5273
842.659	5124
842.796	5117
842.933	5170
843.069	5098
843.206	5143
843.343	5315
843.479	5242
843.616	5231
843.752	4991
843.889	4987
844.025	5143
844.162	4984
844.298	5174
844.435	5067
844.571	5022
844.708	5178
844.844	5273
844.98	5334
845.117	5265
845.253	5098
845.389	5067
845.525	5143
845.661	5162
845.798	4987
845.934	5094
846.07	5079
846.206	5185
846.342	5330
846.478	5159
846.614	5010
846.75	4946
846.886	4892
847.022	5121
847.158	5025
847.294	5090
847.429	5094
847.565	5067
847.701	5299
847.837	4870
847.972	4771
848.108	4919
848.244	4900
848.379	4793
848.515	4714
848.65	4714
848.786	4729
848.921	4740
849.057	4843
849.192	4919
849.328	4839
849.463	4858
849.598	4763
849.734	4778
849.869	4706
850.004	4584
850.14	4645
850.275	4577
850.41	4565
850.545	4538
850.68	4569
850.815	4637
850.95	4634
851.085	4782
851.22	4717
851.355	4618
851.49	4618
851.625	4577
851.76	4611
851.895	4531
852.03	4512
852.165	4637
852.299	4679
852.434	4782
852.569	4717
852.703	4752
852.838	4847
852.973	4892
853.107	4896
853.242	4710
853.376	4630
853.511	4550
853.645	4573
853.78	4782
853.914	4691
854.048	4653
854.183	4637
854.317	4611
854.451	4847
854.585	4683
854.72	4607
854.854	4710
854.988	4626
855.122	4660
855.256	4481
855.39	4672
855.524	4767
855.658	4691
855.792	4694
855.926	4702
856.06	4767
856.194	4809
856.327	4668
856.461	4630
856.595	4641
856.729	4611
856.862	4706
856.996	4664
857.13	4702
857.263	4744
857.397	4771
857.53	4622
857.664	4729
857.797	4748
857.931	4771
858.064	4679
858.197	4744
858.331	4634
858.464	4611
858.597	4493
858.731	4592
858.864	4634
858.997	4577
859.13	4668
859.263	4630
859.396	4656
859.529	4577
859.662	4527
859.795	4527
859.928	4569
860.061	4805
860.194	4740
860.327	4569
860.46	4554
860.592	4717
860.725	4733
860.858	4721
860.99	4565
861.123	4519
861.256	4500
861.388	4577
861.521	5178
861.653	4485
861.786	4451
861.918	4432
862.05	4554
862.183	4527
862.315	4596
862.447	4660
862.58	4485
862.712	4360
862.844	4318
862.976	4428
863.108	4421
863.24	4809
863.372	4318
863.504	4421
863.636	4428
863.768	4497
863.9	4386
864.032	4333
864.164	4337
864.296	4459
864.428	4512
864.559	4554
864.691	4531
864.823	4493
864.954	4478
865.086	4497
865.217	4440
865.349	4360
865.48	4443
865.612	4497
865.743	4607
865.875	4443
866.006	4409
866.137	4436
866.269	4409
866.4	4455
866.531	4390
866.662	4432
866.793	4371
866.924	4440
867.055	4436
867.186	4451
867.317	4405
867.448	4428
867.579	4344
867.71	4383
867.841	4360
867.972	4447
868.103	4474
868.233	4424
868.364	4417
868.495	4466
868.625	4637
868.756	4733
868.886	4554
869.017	4615
869.147	4797
869.278	4771
869.408	4599
869.539	4653
869.669	4698
869.799	4656
869.929	4736
870.06	4755
870.19	4885
870.32	4957
870.45	4896
870.58	5048
870.71	5086
870.84	5094
870.97	4965
871.1	4892
871.23	5151
871.36	5071
871.489	5014
871.619	5102
871.749	5037
871.879	5083
872.008	5151
872.138	5033
872.267	4919
872.397	4847
872.526	4801
872.656	4752
872.785	4812
872.915	4930
873.044	5056
873.173	4889
873.303	4938
873.432	4923
873.561	4961
873.69	4862
873.819	4854
873.948	4889
874.077	4790
874.206	4725
874.335	4801
874.464	4927
874.593	5056
874.722	4942
874.851	5105
874.979	5060
875.108	5029
875.237	4938
875.365	4873
875.494	4877
875.623	4965
875.751	4793
875.88	4828
876.008	4972
876.136	5003
876.265	5197
876.393	5292
876.521	5212
876.65	5204
876.778	5155
876.906	5064
877.034	5045
877.162	5071
877.29	4961
877.418	5064
877.546	5113
877.674	5064
877.802	4965
877.93	5014
878.058	4900
878.185	4870
878.313	4949
878.441	4889
878.568	4782
878.696	4858
878.824	4885
878.951	4953
879.079	5151
879.206	5265
879.333	5075
879.461	4942
879.588	4961
879.715	5117
879.842	5227
879.97	4999
880.097	4748
880.224	4752
880.351	4755
880.478	4782
880.605	4812
880.732	4790
880.859	5056
880.986	4866
881.112	4850
881.239	4786
881.366	4672
881.493	4554
881.619	4584
881.746	4656
881.872	4691
881.999	4637
882.125	4649
882.252	4748
882.378	4835
882.505	4949
882.631	4793
882.757	4672
882.883	4615
883.01	4694
883.136	4683
883.262	4565
883.388	4599
883.514	4828
883.64	4858
883.766	4786
883.892	4660
884.018	4698
884.143	4858
884.269	5022
884.395	4656
884.52	4599
884.646	4683
884.772	4588
884.897	4542
885.023	4706
885.148	4763
885.274	4858
885.399	4790
885.524	4694
885.65	4668
885.775	4679
885.9	4668
886.025	4835
886.15	4767
886.275	4683
886.4	4672
886.525	4752
886.65	4672
886.775	4702
886.9	4919
887.025	4999
887.149	4801
887.274	4675
887.399	4538
887.523	4588
887.648	4561
887.773	4607
887.897	4698
888.021	4755
888.146	4714
888.27	4793
888.395	4862
888.519	4763
888.643	4774
888.767	4858
888.891	4668
889.015	4596
889.139	4634
889.263	4641
889.387	4748
889.511	4850
889.635	4752
889.759	4634
889.883	4615
890.006	4710
890.13	4835
890.254	4622
890.377	4694
890.501	4497
890.624	4493
890.748	4599
890.871	4497
890.995	4489
891.118	4337
891.241	4504
891.364	4535
891.488	4611
891.611	4531
891.734	4512
891.857	4577
891.98	4573
892.103	4599
892.226	4615
892.349	4531
892.471	4424
892.594	4573
892.717	4634
892.839	4554
892.962	4550
893.085	4637
893.207	4607
893.33	4409
893.452	4519
893.575	4653
893.697	4573
893.819	4759
893.941	4847
894.064	4714
894.186	4577
894.308	4592
894.43	4691
894.552	4809
894.674	4748
894.796	4535
894.918	4592
895.04	4558
895.161	4691
895.283	4630
895.405	4573
895.526	4626
895.648	4714
895.769	4675
895.891	4694
896.012	4725
896.134	4748
896.255	4656
896.376	4622
896.498	4618
896.619	4687
896.74	4580
896.861	4622
896.982	4911
897.103	5029
897.224	4824
897.345	4816
897.466	4645
897.587	4736
897.708	4740
897.828	4774
897.949	4645
898.07	4573
898.19	4611
898.311	4835
898.431	4706
898.552	4691
898.672	4828
898.792	4782
898.913	4729
899.033	4683
899.153	4512
899.273	4432
899.393	4478
899.513	4443
899.633	4500
899.753	4546
899.873	4493
899.993	4558
900.113	4508
900.232	4592
900.352	4542
900.472	4481
900.591	4375
900.711	4523
900.83	4428
900.95	4607
901.069	4660
901.189	4542
901.308	4341
901.427	4344
901.546	4375
901.665	4436
901.784	4478
901.904	4348
902.023	4344
902.141	4169
902.26	4188
902.379	4276
902.498	4219
902.617	4215
902.735	4398
902.854	4386
902.973	4257
903.091	4257
903.21	4230
903.328	4268
903.446	4261
903.565	4234
903.683	4344
903.801	4268
903.919	4455
904.038	4462
904.156	4291
904.274	4398
904.392	4379
904.51	4409
904.627	4493
904.745	4561
904.863	4622
904.981	4417
905.098	4318
905.216	4405
905.334	4421
905.451	4432
905.569	4459
905.686	4542
905.803	4584
905.921	4398
906.038	4565
906.155	4436
906.272	4405
906.389	4424
906.506	4375
906.623	4352
906.74	4428
906.857	4268
906.974	4356
907.091	4538
907.208	4675
907.324	4569
907.441	4535
907.557	4337
907.674	4363
907.79	4276
907.907	4371
908.023	4485
908.139	4459
908.256	4436
908.372	4508
908.488	4443
908.604	4341
908.72	4295
908.836	4398
908.952	4424
909.068	4428
909.184	4573
909.3	4474
909.415	4550
909.531	4516
909.647	4356
909.762	4363
909.878	4322
909.993	4459
910.108	4360
910.224	4341
910.339	4493
910.454	4352
910.57	4371
910.685	4322
910.8	4618
910.915	4565
911.03	4523
911.145	4314
911.259	4295
911.374	4375
911.489	4261
911.604	4291
911.718	4173
911.833	4207
911.947	4067
912.062	4021
912.176	4219
912.291	4192
912.405	4238
912.519	4443
912.633	4493
912.748	4360
912.862	4306
912.976	4192
913.09	4093
913.204	4150
913.318	4291
913.431	4341
913.545	4417
913.659	4462
913.772	4356
913.886	4227
914	4188
914.113	4360
914.226	4409
914.34	4428
914.453	4249
914.566	4436
914.68	4295
914.793	4303
914.906	4173
915.019	4147
915.132	4074
915.245	4162
915.358	4188
915.47	4211
915.583	4249
915.696	4325
915.809	4424
915.921	4371
916.034	4261
916.146	4234
916.259	4192
916.371	4371
916.483	4356
916.595	4261
916.708	4310
916.82	4314
916.932	4363
917.044	4310
917.156	4295
917.268	4215
917.38	4238
917.491	4322
917.603	4337
917.715	4428
917.826	4443
917.938	4314
918.049	4234
918.161	4360
918.272	4523
918.384	4478
918.495	4424
918.606	4261
918.717	4257
918.828	4333
918.939	4352
919.05	4230
919.161	4329
919.272	4116
919.383	4192
919.494	4375
919.604	4618
919.715	4455
919.826	4383
919.936	4386
920.047	4554
920.157	4466
920.267	4664
920.378	4519
920.488	4519
920.598	4675
920.708	4870
920.818	4706
920.928	4790
921.038	4961
921.148	4934
921.258	4656
921.368	4558
921.477	4512
921.587	4440
921.697	4421
921.806	4546
921.916	4405
922.025	4268
922.134	4234
922.244	4227
922.353	4303
922.462	4169
922.571	4166
922.68	4025
922.789	3922
922.898	4029
923.007	4006
923.116	4090
923.224	4051
923.333	4071
923.442	4002
923.55	3937
923.659	4036
923.767	4112
923.876	3991
923.984	4131
924.092	4010
924.201	4109
924.309	4093
924.417	4128
924.525	4048
924.633	4112
924.741	4885
924.849	3899
924.956	4139
925.064	3983
925.172	3857
925.279	4002
925.387	4063
925.494	4063
925.602	4211
925.709	4158
925.816	3975
925.924	4131
926.031	4242
926.138	4204
926.245	4177
926.352	4086
926.459	4227
926.566	4329
926.673	4158
926.779	4109
926.886	4063
926.993	3994
927.099	3979
927.206	3915
927.312	3941
927.419	4032
927.525	4013
927.631	4093
927.737	3968
927.843	3937
927.95	3835
928.056	3991
928.162	3991
928.267	4067
928.373	4672
928.479	4093
928.585	3850
928.69	4032
928.796	4032
928.901	3979
929.007	3850
929.112	4101
929.218	3941
929.323	3903
929.428	3956
929.533	4112
929.638	3918
929.743	3945
929.848	4082
929.953	3979
930.058	3907
930.163	3793
930.267	3797
930.372	3945
930.477	3800
930.581	4074
930.685	3979
930.79	3804
930.894	3896
930.998	3873
931.103	4017
931.207	3709
931.311	3717
931.415	3667
931.519	3466
931.623	3523
