Data from test_V78500241_1460.txt Node
Date: Fri Mar 25 16:59:09 CST 2022
User: usil
Spectrometer: V785-0024
Trigger mode: 0
Integration Time (sec): 4.000000E-1
Scans to average: 1
Nonlinearity correction enabled: false
Boxcar width: 0
Storing dark spectrum: false
XAxis mode: Wavelengths
Number of Pixels in Spectrum: 1024
>>>>>Begin Spectral Data<<<<<
801.071	8043
801.214	8065
801.356	7864
801.499	7894
801.641	7799
801.783	7822
801.926	7883
802.068	7860
802.211	8001
802.353	8012
802.496	7852
802.638	7894
802.78	7864
802.923	7898
803.065	7906
803.208	7856
803.35	7902
803.492	8035
803.635	8153
803.777	7974
803.919	8103
804.061	8446
804.204	8084
804.346	8031
804.488	7917
804.63	8081
804.773	8046
804.915	8043
805.057	8317
805.199	8206
805.341	8191
805.483	8298
805.626	8153
805.768	8081
805.91	8195
806.052	8237
806.194	8096
806.336	8263
806.478	8058
806.62	8031
806.762	8138
806.904	8263
807.046	8495
807.188	8381
807.33	8244
807.472	8309
807.614	8202
807.756	8202
807.898	7970
808.04	7852
808.182	7898
808.324	7909
808.465	7883
808.607	8111
808.749	8187
808.891	8172
809.033	8336
809.174	8130
809.316	8065
809.458	8024
809.6	7955
809.741	8069
809.883	8012
810.025	8084
810.166	8001
810.308	8043
810.45	7970
810.591	7868
810.733	7696
810.875	7647
811.016	7529
811.158	7529
811.299	7628
811.441	7708
811.582	7727
811.724	7575
811.865	7495
812.007	7552
812.148	7582
812.29	7563
812.431	7753
812.573	7871
812.714	7982
812.855	8077
812.997	8218
813.138	8298
813.279	8119
813.421	8199
813.562	8005
813.703	7871
813.845	7742
813.986	7457
814.127	7225
814.268	7190
814.41	7228
814.551	7156
814.692	7244
814.833	7091
814.974	7072
815.115	7076
815.256	6935
815.397	6935
815.539	6958
815.68	6837
815.821	6764
815.962	6825
816.103	6753
816.244	6696
816.385	6570
816.526	6589
816.666	6528
816.807	6266
816.948	6384
817.089	6452
817.23	6475
817.371	6346
817.512	6391
817.653	6372
817.793	6353
817.934	6369
818.075	6479
818.216	6418
818.356	6331
818.497	6232
818.638	6106
818.778	6140
818.919	6159
819.06	6129
819.2	6292
819.341	6338
819.481	6365
819.622	6509
819.762	6722
819.903	6677
820.043	6574
820.184	6563
820.324	6608
820.465	6658
820.605	6684
820.746	6669
820.886	6513
821.026	6658
821.167	6589
821.307	6783
821.447	6734
821.588	6681
821.728	6509
821.868	6460
822.008	6308
822.149	6342
822.289	6315
822.429	6095
822.569	6110
822.709	6076
822.849	5885
822.99	5832
823.13	5889
823.27	5908
823.41	5760
823.55	5798
823.69	5779
823.83	5737
823.97	5627
824.11	5562
824.25	5566
824.389	5512
824.529	5562
824.669	5524
824.809	5585
824.949	5642
825.089	5615
825.228	5562
825.368	5357
825.508	5307
825.648	5353
825.787	5345
825.927	5345
826.067	5318
826.206	5261
826.346	5376
826.485	5364
826.625	5357
826.765	5501
826.904	5474
827.044	5223
827.183	5246
827.323	5121
827.462	5174
827.601	5181
827.741	5185
827.88	5246
828.02	5090
828.159	5261
828.298	5341
828.437	5357
828.577	5231
828.716	5486
828.855	5353
828.994	5189
829.134	5147
829.273	5181
829.412	5185
829.551	5128
829.69	5132
829.829	5212
829.968	5337
830.107	5284
830.246	5254
830.385	5136
830.524	5102
830.663	5060
830.802	4987
830.941	4885
831.08	4862
831.219	4968
831.357	4946
831.496	5132
831.635	4892
831.774	4839
831.913	4816
832.051	4717
832.19	4748
832.329	4896
832.467	4698
832.606	4641
832.744	4725
832.883	4694
833.022	4706
833.16	4782
833.299	4767
833.437	4812
833.576	4778
833.714	4820
833.852	4881
833.991	4892
834.129	4961
834.267	4976
834.406	4877
834.544	4946
834.682	4965
834.821	4953
834.959	5086
835.097	4984
835.235	5140
835.373	5094
835.511	5075
835.65	4927
835.788	4984
835.926	4858
836.064	4862
836.202	4923
836.34	5147
836.478	5254
836.615	5121
836.753	5181
836.891	5296
837.029	5197
837.167	5189
837.305	5124
837.443	5155
837.58	5083
837.718	5208
837.856	5193
837.993	5117
838.131	5250
838.269	5174
838.406	5174
838.544	5166
838.681	5025
838.819	4980
838.956	4892
839.094	4870
839.231	4965
839.369	5048
839.506	5406
839.643	5242
839.781	5029
839.918	5018
840.055	5086
840.193	5056
840.33	5098
840.467	5147
840.604	5181
840.742	5391
840.879	5102
841.016	5098
841.153	5162
841.29	5357
841.427	5322
841.564	5292
841.701	5349
841.838	5349
841.975	5216
842.112	5265
842.249	5121
842.385	5067
842.522	5334
842.659	5155
842.796	5105
842.933	5166
843.069	5113
843.206	5147
843.343	5296
843.479	5208
843.616	5288
843.752	5033
843.889	5003
844.025	5178
844.162	4991
844.298	5208
844.435	4991
844.571	5064
844.708	5189
844.844	5307
844.98	5322
845.117	5254
845.253	5140
845.389	5064
845.525	5166
845.661	5124
845.798	5033
845.934	5083
846.07	5029
846.206	5212
846.342	5239
846.478	5128
846.614	5014
846.75	4968
846.886	4934
847.022	5075
847.158	5033
847.294	5052
847.429	5147
847.565	5022
847.701	5330
847.837	4824
847.972	4809
848.108	4908
848.244	4923
848.379	4763
848.515	4740
848.65	4691
848.786	4725
848.921	4748
849.057	4881
849.192	4858
849.328	4809
849.463	4873
849.598	4790
849.734	4679
849.869	4672
850.004	4611
850.14	4687
850.275	4611
850.41	4485
850.545	4531
850.68	4637
850.815	4569
850.95	4615
851.085	4835
851.22	4782
851.355	4660
851.49	4573
851.625	4569
851.76	4672
851.895	4554
852.03	4558
852.165	4622
852.299	4706
852.434	4759
852.569	4714
852.703	4774
852.838	4828
852.973	4930
853.107	4877
853.242	4698
853.376	4672
853.511	4546
853.645	4565
853.78	4782
853.914	4668
854.048	4641
854.183	4634
854.317	4691
854.451	4801
854.585	4698
854.72	4622
854.854	4710
854.988	4561
855.122	4622
855.256	4546
855.39	4634
855.524	4790
855.658	4698
855.792	4687
855.926	4691
856.06	4740
856.194	4805
856.327	4729
856.461	4607
856.595	4618
856.729	4546
856.862	4725
856.996	4702
857.13	4759
857.263	4786
857.397	4782
857.53	4618
857.664	4729
857.797	4752
857.931	4793
858.064	4634
858.197	4710
858.331	4634
858.464	4561
858.597	4474
858.731	4660
858.864	4615
858.997	4561
859.13	4660
859.263	4649
859.396	4717
859.529	4554
859.662	4550
859.795	4489
859.928	4668
860.061	4721
860.194	4755
860.327	4626
860.46	4523
860.592	4717
860.725	4710
860.858	4774
860.99	4565
861.123	4508
861.256	4542
861.388	4550
861.521	5425
861.653	4440
861.786	4455
861.918	4451
862.05	4493
862.183	4504
862.315	4603
862.447	4649
862.58	4546
862.712	4386
862.844	4333
862.976	4462
863.108	4436
863.24	4862
863.372	4386
863.504	4394
863.636	4371
863.768	4512
863.9	4443
864.032	4367
864.164	4428
864.296	4436
864.428	4565
864.559	4546
864.691	4508
864.823	4470
864.954	4481
865.086	4466
865.217	4432
865.349	4421
865.48	4443
865.612	4474
865.743	4603
865.875	4493
866.006	4383
866.137	4470
866.269	4390
866.4	4409
866.531	4421
866.662	4413
866.793	4413
866.924	4421
867.055	4470
867.186	4478
867.317	4398
867.448	4371
867.579	4371
867.71	4356
867.841	4363
867.972	4432
868.103	4432
868.233	4405
868.364	4462
868.495	4424
868.625	4660
868.756	4725
868.886	4611
869.017	4649
869.147	4767
869.278	4744
869.408	4679
869.539	4641
869.669	4702
869.799	4656
869.929	4812
870.06	4717
870.19	4923
870.32	4873
870.45	4892
870.58	5029
870.71	5029
870.84	5025
870.97	4953
871.1	4862
871.23	5151
871.36	5075
871.489	5010
871.619	5014
871.749	5052
871.879	5117
872.008	5147
872.138	5067
872.267	4984
872.397	4877
872.526	4763
872.656	4717
872.785	4786
872.915	4934
873.044	5025
873.173	4889
873.303	4942
873.432	4953
873.561	4965
873.69	4911
873.819	4877
873.948	4892
874.077	4771
874.206	4767
874.335	4801
874.464	4896
874.593	5056
874.722	4995
874.851	5090
874.979	5045
875.108	5041
875.237	4904
875.365	4877
875.494	4892
875.623	4999
875.751	4870
875.88	4839
876.008	4987
876.136	5014
876.265	5181
876.393	5391
876.521	5208
876.65	5174
876.778	5155
876.906	5094
877.034	5037
877.162	4984
877.29	4942
877.418	5025
877.546	5045
877.674	5086
877.802	5018
877.93	4995
878.058	4946
878.185	4881
878.313	4911
878.441	4946
878.568	4797
878.696	4881
878.824	4938
878.951	4980
879.079	5094
879.206	5227
879.333	5086
879.461	5006
879.588	4972
879.715	5094
879.842	5197
879.97	4957
880.097	4771
880.224	4759
880.351	4816
880.478	4828
880.605	4843
880.732	4752
880.859	5083
880.986	4896
881.112	4927
881.239	4755
881.366	4714
881.493	4622
881.619	4588
881.746	4592
881.872	4618
881.999	4649
882.125	4664
882.252	4805
882.378	4790
882.505	4946
882.631	4763
882.757	4683
882.883	4714
883.01	4748
883.136	4611
883.262	4577
883.388	4596
883.514	4771
883.64	4831
883.766	4793
883.892	4675
884.018	4683
884.143	4915
884.269	4965
884.395	4634
884.52	4607
884.646	4611
884.772	4596
884.897	4512
885.023	4630
885.148	4809
885.274	4843
885.399	4759
885.524	4702
885.65	4675
885.775	4694
885.9	4694
886.025	4805
886.15	4759
886.275	4687
886.4	4653
886.525	4744
886.65	4683
886.775	4660
886.9	4870
887.025	5014
887.149	4767
887.274	4653
887.399	4569
887.523	4580
887.648	4565
887.773	4565
887.897	4725
888.021	4778
888.146	4664
888.27	4805
888.395	4892
888.519	4752
888.643	4820
888.767	4801
888.891	4683
889.015	4569
889.139	4691
889.263	4580
889.387	4725
889.511	4896
889.635	4809
889.759	4596
889.883	4622
890.006	4698
890.13	4805
890.254	4592
890.377	4740
890.501	4500
890.624	4531
890.748	4630
890.871	4470
890.995	4432
891.118	4417
891.241	4485
891.364	4531
891.488	4637
891.611	4478
891.734	4538
891.857	4565
891.98	4550
892.103	4641
892.226	4611
892.349	4554
892.471	4424
892.594	4546
892.717	4592
892.839	4573
892.962	4561
893.085	4664
893.207	4634
893.33	4508
893.452	4519
893.575	4603
893.697	4542
893.819	4786
893.941	4828
894.064	4755
894.186	4603
894.308	4622
894.43	4767
894.552	4854
894.674	4763
894.796	4596
894.918	4615
895.04	4622
895.161	4752
895.283	4675
895.405	4592
895.526	4634
895.648	4714
895.769	4706
895.891	4725
896.012	4774
896.134	4759
896.255	4702
896.376	4664
896.498	4656
896.619	4710
896.74	4668
896.861	4702
896.982	4919
897.103	5147
897.224	4862
897.345	4790
897.466	4672
897.587	4782
897.708	4870
897.828	4824
897.949	4729
898.07	4653
898.19	4660
898.311	4877
898.431	4698
898.552	4725
898.672	4866
898.792	4816
898.913	4801
899.033	4687
899.153	4554
899.273	4466
899.393	4535
899.513	4531
899.633	4569
899.753	4622
899.873	4550
899.993	4641
900.113	4523
900.232	4580
900.352	4580
900.472	4481
900.591	4428
900.711	4527
900.83	4451
900.95	4675
901.069	4755
901.189	4580
901.308	4443
901.427	4333
901.546	4375
901.665	4470
901.784	4546
901.904	4375
902.023	4348
902.141	4207
902.26	4200
902.379	4291
902.498	4325
902.617	4234
902.735	4402
902.854	4462
902.973	4329
903.091	4246
903.21	4265
903.328	4348
903.446	4268
903.565	4299
903.683	4390
903.801	4333
903.919	4451
904.038	4432
904.156	4398
904.274	4497
904.392	4383
904.51	4512
904.627	4558
904.745	4561
904.863	4687
904.981	4451
905.098	4325
905.216	4386
905.334	4436
905.451	4440
905.569	4466
905.686	4565
905.803	4577
905.921	4516
906.038	4577
906.155	4519
906.272	4455
906.389	4504
906.506	4421
906.623	4440
906.74	4417
906.857	4318
906.974	4413
907.091	4546
907.208	4771
907.324	4592
907.441	4500
907.557	4405
907.674	4390
907.79	4310
907.907	4424
908.023	4508
908.139	4519
908.256	4443
908.372	4523
908.488	4424
908.604	4383
908.72	4341
908.836	4360
908.952	4402
909.068	4485
909.184	4637
909.3	4478
909.415	4580
909.531	4569
909.647	4405
909.762	4413
909.878	4348
909.993	4489
910.108	4409
910.224	4421
910.339	4462
910.454	4421
910.57	4417
910.685	4375
910.8	4710
910.915	4592
911.03	4451
911.145	4379
911.259	4363
911.374	4424
911.489	4329
911.604	4318
911.718	4211
911.833	4227
911.947	4131
912.062	4071
912.176	4215
912.291	4261
912.405	4303
912.519	4466
912.633	4565
912.748	4367
912.862	4333
912.976	4265
913.09	4093
913.204	4207
913.318	4284
913.431	4383
913.545	4363
913.659	4478
913.772	4360
913.886	4272
914	4265
914.113	4413
914.226	4455
914.34	4443
914.453	4238
914.566	4432
914.68	4383
914.793	4394
914.906	4211
915.019	4105
915.132	4105
915.245	4223
915.358	4223
915.47	4188
915.583	4284
915.696	4367
915.809	4466
915.921	4447
916.034	4306
916.146	4276
916.259	4227
916.371	4413
916.483	4367
916.595	4303
916.708	4367
916.82	4371
916.932	4325
917.044	4390
917.156	4356
917.268	4306
917.38	4337
917.491	4303
917.603	4356
917.715	4459
917.826	4508
917.938	4371
918.049	4295
918.161	4402
918.272	4558
918.384	4550
918.495	4485
918.606	4306
918.717	4253
918.828	4318
918.939	4367
919.05	4314
919.161	4314
919.272	4158
919.383	4257
919.494	4436
919.604	4637
919.715	4455
919.826	4402
919.936	4428
920.047	4622
920.157	4527
920.267	4698
920.378	4561
920.488	4531
920.598	4683
920.708	4927
920.818	4763
920.928	4824
921.038	4984
921.148	4991
921.258	4649
921.368	4615
921.477	4489
921.587	4451
921.697	4394
921.806	4584
921.916	4470
922.025	4284
922.134	4276
922.244	4230
922.353	4344
922.462	4207
922.571	4166
922.68	4029
922.789	3998
922.898	4101
923.007	4021
923.116	4120
923.224	4082
923.333	4071
923.442	4002
923.55	4002
923.659	4002
923.767	4112
923.876	4002
923.984	4128
924.092	3998
924.201	4086
924.309	4135
924.417	4135
924.525	4116
924.633	4154
924.741	5071
924.849	3964
924.956	4154
925.064	4006
925.172	3937
925.279	3945
925.387	4063
925.494	4082
925.602	4242
925.709	4192
925.816	4071
925.924	4166
926.031	4230
926.138	4234
926.245	4227
926.352	4105
926.459	4284
926.566	4329
926.673	4135
926.779	4086
926.886	4090
926.993	4002
927.099	3991
927.206	3972
927.312	3968
927.419	4093
927.525	4093
927.631	4105
927.737	4040
927.843	3945
927.95	3846
928.056	3941
928.162	3972
928.267	4086
928.373	4584
928.479	4177
928.585	3911
928.69	4044
928.796	4090
928.901	4006
929.007	3865
929.112	4032
929.218	4021
929.323	4006
929.428	3991
929.533	4158
929.638	3907
929.743	4013
929.848	4090
929.953	4032
930.058	3926
930.163	3804
930.267	3838
930.372	4013
930.477	3838
930.581	4071
930.685	3964
930.79	3842
930.894	3896
930.998	3884
931.103	4063
931.207	3720
931.311	3736
931.415	3637
931.519	3561
931.623	3576
