Data from test_V78500241_493.txt Node
Date: Fri Mar 25 16:52:25 CST 2022
User: usil
Spectrometer: V785-0024
Trigger mode: 0
Integration Time (sec): 4.000000E-1
Scans to average: 1
Nonlinearity correction enabled: false
Boxcar width: 0
Storing dark spectrum: false
XAxis mode: Wavelengths
Number of Pixels in Spectrum: 1024
>>>>>Begin Spectral Data<<<<<
801.071	8096
801.214	8050
801.356	7826
801.499	7852
801.641	7830
801.783	7826
801.926	8016
802.068	7955
802.211	7955
802.353	7993
802.496	7898
802.638	7944
802.78	7932
802.923	7925
803.065	7852
803.208	7811
803.35	7837
803.492	8001
803.635	8176
803.777	8005
803.919	8134
804.061	8419
804.204	8157
804.346	7982
804.488	7921
804.63	8111
804.773	8016
804.915	8050
805.057	8252
805.199	8180
805.341	8229
805.483	8244
805.626	8206
805.768	7997
805.91	8149
806.052	8096
806.194	8069
806.336	8218
806.478	8126
806.62	8069
806.762	8092
806.904	8218
807.046	8332
807.188	8313
807.33	8237
807.472	8256
807.614	8126
807.756	8107
807.898	7940
808.04	7845
808.182	7894
808.324	7864
808.465	7856
808.607	8001
808.749	8092
808.891	8168
809.033	8229
809.174	8153
809.316	7997
809.458	8039
809.6	7959
809.741	8001
809.883	8016
810.025	8115
810.166	8050
810.308	7963
810.45	7936
810.591	7811
810.733	7761
810.875	7628
811.016	7556
811.158	7544
811.299	7647
811.441	7677
811.582	7677
811.724	7628
811.865	7578
812.007	7609
812.148	7586
812.29	7571
812.431	7723
812.573	7936
812.714	7993
812.855	8176
812.997	8221
813.138	8339
813.279	8256
813.421	8142
813.562	7986
813.703	7887
813.845	7765
813.986	7518
814.127	7403
814.268	7263
814.41	7236
814.551	7145
814.692	7209
814.833	7149
814.974	7038
815.115	7118
815.256	7004
815.397	6954
815.539	6951
815.68	6738
815.821	6798
815.962	6878
816.103	6875
816.244	6741
816.385	6669
816.526	6612
816.666	6528
816.807	6331
816.948	6433
817.089	6540
817.23	6407
817.371	6311
817.512	6338
817.653	6429
817.793	6388
817.934	6437
818.075	6433
818.216	6441
818.356	6388
818.497	6224
818.638	6133
818.778	6155
818.919	6159
819.06	6129
819.2	6323
819.341	6285
819.481	6296
819.622	6513
819.762	6722
819.903	6662
820.043	6532
820.184	6528
820.324	6494
820.465	6681
820.605	6635
820.746	6593
820.886	6498
821.026	6612
821.167	6681
821.307	6848
821.447	6772
821.588	6646
821.728	6502
821.868	6486
822.008	6308
822.149	6380
822.289	6315
822.429	6114
822.569	6087
822.709	6148
822.849	5965
822.99	5904
823.13	5893
823.27	5844
823.41	5779
823.55	5771
823.69	5756
823.83	5779
823.97	5668
824.11	5524
824.25	5455
824.389	5482
824.529	5577
824.669	5558
824.809	5634
824.949	5699
825.089	5619
825.228	5524
825.368	5402
825.508	5372
825.648	5349
825.787	5433
825.927	5383
826.067	5258
826.206	5311
826.346	5406
826.485	5429
826.625	5455
826.765	5543
826.904	5467
827.044	5242
827.183	5193
827.323	5105
827.462	5193
827.601	5178
827.741	5239
827.88	5208
828.02	5109
828.159	5231
828.298	5311
828.437	5345
828.577	5265
828.716	5463
828.855	5299
828.994	5181
829.134	5178
829.273	5136
829.412	5102
829.551	5178
829.69	5189
829.829	5208
829.968	5368
830.107	5307
830.246	5269
830.385	5155
830.524	5117
830.663	5083
830.802	4946
830.941	4881
831.08	4870
831.219	4972
831.357	4942
831.496	5174
831.635	4953
831.774	4866
831.913	4850
832.051	4729
832.19	4706
832.329	4805
832.467	4691
832.606	4668
832.744	4733
832.883	4748
833.022	4721
833.16	4790
833.299	4820
833.437	4828
833.576	4839
833.714	4828
833.852	4927
833.991	4854
834.129	4930
834.267	4934
834.406	4892
834.544	4965
834.682	4968
834.821	4965
834.959	5166
835.097	4953
835.235	5105
835.373	5071
835.511	5124
835.65	5067
835.788	5037
835.926	4873
836.064	4862
836.202	4862
836.34	5143
836.478	5258
836.615	5132
836.753	5193
836.891	5292
837.029	5216
837.167	5189
837.305	5143
837.443	5143
837.58	5067
837.718	5246
837.856	5189
837.993	5136
838.131	5235
838.269	5204
838.406	5174
838.544	5181
838.681	5029
838.819	4984
838.956	4850
839.094	4850
839.231	4965
839.369	5079
839.506	5341
839.643	5254
839.781	5041
839.918	5010
840.055	5071
840.193	5083
840.33	5117
840.467	5121
840.604	5155
840.742	5398
840.879	5033
841.016	5052
841.153	5208
841.29	5311
841.427	5334
841.564	5292
841.701	5334
841.838	5235
841.975	5223
842.112	5265
842.249	5159
842.385	5094
842.522	5349
842.659	5197
842.796	5162
842.933	5166
843.069	5193
843.206	5170
843.343	5296
843.479	5223
843.616	5250
843.752	5018
843.889	4976
844.025	5193
844.162	4972
844.298	5166
844.435	5094
844.571	5045
844.708	5216
844.844	5299
844.98	5303
845.117	5265
845.253	5147
845.389	5056
845.525	5170
845.661	5162
845.798	5033
845.934	5143
846.07	4984
846.206	5212
846.342	5280
846.478	5132
846.614	5025
846.75	4953
846.886	4946
847.022	5136
847.158	4999
847.294	5094
847.429	5079
847.565	5029
847.701	5322
847.837	4831
847.972	4797
848.108	4961
848.244	4961
848.379	4793
848.515	4729
848.65	4710
848.786	4748
848.921	4805
849.057	4889
849.192	4957
849.328	4805
849.463	4835
849.598	4809
849.734	4793
849.869	4729
850.004	4618
850.14	4664
850.275	4611
850.41	4512
850.545	4596
850.68	4580
850.815	4607
850.95	4630
851.085	4809
851.22	4721
851.355	4618
851.49	4626
851.625	4592
851.76	4641
851.895	4580
852.03	4500
852.165	4664
852.299	4714
852.434	4755
852.569	4729
852.703	4793
852.838	4801
852.973	4843
853.107	4843
853.242	4736
853.376	4679
853.511	4546
853.645	4637
853.78	4839
853.914	4675
854.048	4634
854.183	4611
854.317	4702
854.451	4805
854.585	4637
854.72	4626
854.854	4831
854.988	4512
855.122	4645
855.256	4531
855.39	4653
855.524	4797
855.658	4740
855.792	4717
855.926	4721
856.06	4748
856.194	4793
856.327	4664
856.461	4679
856.595	4622
856.729	4637
856.862	4736
856.996	4672
857.13	4733
857.263	4767
857.397	4805
857.53	4675
857.664	4706
857.797	4736
857.931	4759
858.064	4664
858.197	4736
858.331	4645
858.464	4706
858.597	4470
858.731	4615
858.864	4580
858.997	4584
859.13	4660
859.263	4634
859.396	4736
859.529	4592
859.662	4565
859.795	4535
859.928	4641
860.061	4714
860.194	4782
860.327	4618
860.46	4554
860.592	4714
860.725	4675
860.858	4706
860.99	4577
861.123	4554
861.256	4508
861.388	4573
861.521	5292
861.653	4447
861.786	4413
861.918	4432
862.05	4504
862.183	4508
862.315	4580
862.447	4675
862.58	4493
862.712	4417
862.844	4287
862.976	4481
863.108	4504
863.24	4721
863.372	4360
863.504	4432
863.636	4413
863.768	4474
863.9	4436
864.032	4367
864.164	4356
864.296	4455
864.428	4592
864.559	4519
864.691	4535
864.823	4508
864.954	4470
865.086	4474
865.217	4432
865.349	4386
865.48	4470
865.612	4481
865.743	4580
865.875	4481
866.006	4409
866.137	4451
866.269	4485
866.4	4421
866.531	4409
866.662	4383
866.793	4440
866.924	4409
867.055	4519
867.186	4474
867.317	4424
867.448	4394
867.579	4379
867.71	4367
867.841	4375
867.972	4466
868.103	4478
868.233	4421
868.364	4470
868.495	4527
868.625	4618
868.756	4778
868.886	4607
869.017	4630
869.147	4809
869.278	4809
869.408	4710
869.539	4668
869.669	4736
869.799	4691
869.929	4763
870.06	4767
870.19	4946
870.32	4953
870.45	4972
870.58	5041
870.71	5086
870.84	5170
870.97	4949
871.1	4949
871.23	5174
871.36	5189
871.489	5067
871.619	5113
871.749	5132
871.879	5136
872.008	5197
872.138	5151
872.267	5060
872.397	4854
872.526	4850
872.656	4748
872.785	4850
872.915	4965
873.044	5052
873.173	4991
873.303	4953
873.432	4991
873.561	5003
873.69	4957
873.819	4904
873.948	4995
874.077	4850
874.206	4797
874.335	4881
874.464	4972
874.593	5071
874.722	5056
874.851	5208
874.979	5128
875.108	5094
875.237	4946
875.365	4930
875.494	4923
875.623	5041
875.751	4877
875.88	4927
876.008	5003
876.136	5075
876.265	5277
876.393	5383
876.521	5296
876.65	5258
876.778	5250
876.906	5105
877.034	5121
877.162	5037
877.29	5037
877.418	5075
877.546	5109
877.674	5109
877.802	5067
877.93	5029
878.058	4976
878.185	4946
878.313	5003
878.441	4987
878.568	4873
878.696	4938
878.824	4991
878.951	5067
879.079	5155
879.206	5273
879.333	5159
879.461	5003
879.588	4999
879.715	5117
879.842	5223
879.97	5033
880.097	4774
880.224	4812
880.351	4877
880.478	4839
880.605	4839
880.732	4877
880.859	5094
880.986	4984
881.112	4938
881.239	4759
881.366	4668
881.493	4679
881.619	4630
881.746	4653
881.872	4664
881.999	4653
882.125	4740
882.252	4847
882.378	4816
882.505	5018
882.631	4866
882.757	4752
882.883	4721
883.01	4736
883.136	4710
883.262	4656
883.388	4664
883.514	4858
883.64	4873
883.766	4816
883.892	4733
884.018	4717
884.143	4953
884.269	5045
884.395	4683
884.52	4691
884.646	4706
884.772	4637
884.897	4573
885.023	4740
885.148	4820
885.274	4915
885.399	4850
885.524	4702
885.65	4721
885.775	4763
885.9	4717
886.025	4866
886.15	4820
886.275	4740
886.4	4729
886.525	4782
886.65	4721
886.775	4702
886.9	4972
887.025	5121
887.149	4843
887.274	4714
887.399	4607
887.523	4637
887.648	4569
887.773	4599
887.897	4790
888.021	4786
888.146	4702
888.27	4866
888.395	4942
888.519	4866
888.643	4839
888.767	4858
888.891	4714
889.015	4611
889.139	4702
889.263	4668
889.387	4820
889.511	4877
889.635	4843
889.759	4668
889.883	4698
890.006	4793
890.13	4850
890.254	4603
890.377	4744
890.501	4550
890.624	4554
890.748	4649
890.871	4531
890.995	4466
891.118	4447
891.241	4607
891.364	4588
891.488	4668
891.611	4535
891.734	4565
891.857	4573
891.98	4596
892.103	4717
892.226	4649
892.349	4554
892.471	4455
892.594	4573
892.717	4573
892.839	4630
892.962	4569
893.085	4702
893.207	4596
893.33	4470
893.452	4577
893.575	4733
893.697	4584
893.819	4797
893.941	4847
894.064	4835
894.186	4577
894.308	4630
894.43	4786
894.552	4873
894.674	4812
894.796	4569
894.918	4618
895.04	4588
895.161	4736
895.283	4710
895.405	4554
895.526	4637
895.648	4694
895.769	4706
895.891	4774
896.012	4797
896.134	4733
896.255	4675
896.376	4637
896.498	4702
896.619	4702
896.74	4653
896.861	4660
896.982	4965
897.103	5117
897.224	4862
897.345	4771
897.466	4717
897.587	4748
897.708	4873
897.828	4801
897.949	4706
898.07	4584
898.19	4725
898.311	4896
898.431	4679
898.552	4717
898.672	4835
898.792	4812
898.913	4767
899.033	4675
899.153	4527
899.273	4504
899.393	4485
899.513	4538
899.633	4542
899.753	4573
899.873	4512
899.993	4618
900.113	4558
900.232	4622
900.352	4615
900.472	4599
900.591	4428
900.711	4500
900.83	4489
900.95	4645
901.069	4733
901.189	4599
901.308	4417
901.427	4367
901.546	4383
901.665	4504
901.784	4535
901.904	4447
902.023	4394
902.141	4219
902.26	4200
902.379	4329
902.498	4265
902.617	4261
902.735	4386
902.854	4417
902.973	4398
903.091	4246
903.21	4246
903.328	4367
903.446	4287
903.565	4257
903.683	4386
903.801	4276
903.919	4440
904.038	4455
904.156	4386
904.274	4470
904.392	4436
904.51	4443
904.627	4470
904.745	4615
904.863	4683
904.981	4375
905.098	4314
905.216	4375
905.334	4481
905.451	4459
905.569	4500
905.686	4599
905.803	4622
905.921	4424
906.038	4615
906.155	4485
906.272	4443
906.389	4474
906.506	4367
906.623	4383
906.74	4443
906.857	4333
906.974	4398
907.091	4596
907.208	4691
907.324	4607
907.441	4535
907.557	4348
907.674	4329
907.79	4375
907.907	4436
908.023	4516
908.139	4519
908.256	4459
908.372	4481
908.488	4451
908.604	4363
908.72	4360
908.836	4447
908.952	4405
909.068	4466
909.184	4615
909.3	4561
909.415	4584
909.531	4615
909.647	4394
909.762	4383
909.878	4371
909.993	4493
910.108	4447
910.224	4398
910.339	4535
910.454	4417
910.57	4394
910.685	4337
910.8	4645
910.915	4649
911.03	4481
911.145	4341
911.259	4375
911.374	4390
911.489	4333
911.604	4303
911.718	4249
911.833	4253
911.947	4109
912.062	4059
912.176	4223
912.291	4268
912.405	4306
912.519	4478
912.633	4538
912.748	4348
912.862	4344
912.976	4215
913.09	4112
913.204	4227
913.318	4303
913.431	4371
913.545	4352
913.659	4440
913.772	4375
913.886	4310
914	4242
914.113	4417
914.226	4470
914.34	4417
914.453	4272
914.566	4451
914.68	4295
914.793	4325
914.906	4166
915.019	4090
915.132	4177
915.245	4204
915.358	4215
915.47	4268
915.583	4257
915.696	4356
915.809	4428
915.921	4459
916.034	4306
916.146	4291
916.259	4303
916.371	4417
916.483	4447
916.595	4325
916.708	4341
916.82	4356
916.932	4375
917.044	4363
917.156	4375
917.268	4280
917.38	4280
917.491	4333
917.603	4379
917.715	4504
917.826	4493
917.938	4329
918.049	4257
918.161	4421
918.272	4561
918.384	4535
918.495	4485
918.606	4360
918.717	4246
918.828	4348
918.939	4421
919.05	4268
919.161	4329
919.272	4166
919.383	4268
919.494	4470
919.604	4675
919.715	4466
919.826	4379
919.936	4409
920.047	4527
920.157	4538
920.267	4691
920.378	4550
920.488	4565
920.598	4767
920.708	4904
920.818	4759
920.928	4721
921.038	4961
921.148	4961
921.258	4622
921.368	4569
921.477	4527
921.587	4481
921.697	4398
921.806	4584
921.916	4428
922.025	4337
922.134	4306
922.244	4238
922.353	4325
922.462	4200
922.571	4162
922.68	4048
922.789	4017
922.898	4032
923.007	4063
923.116	4090
923.224	4109
923.333	4101
923.442	3994
923.55	4021
923.659	4067
923.767	4192
923.876	4010
923.984	4154
924.092	3987
924.201	4097
924.309	4078
924.417	4162
924.525	4105
924.633	4150
924.741	5102
924.849	3991
924.956	4150
925.064	3956
925.172	3896
925.279	3994
925.387	4071
925.494	4036
925.602	4227
925.709	4173
925.816	4116
925.924	4131
926.031	4257
926.138	4173
926.245	4253
926.352	4067
926.459	4280
926.566	4318
926.673	4143
926.779	4150
926.886	4101
926.993	4006
927.099	4021
927.206	3979
927.312	3953
927.419	4097
927.525	4067
927.631	4109
927.737	3979
927.843	3983
927.95	3888
928.056	4017
928.162	3987
928.267	4090
928.373	4706
928.479	4105
928.585	3934
928.69	4013
928.796	4074
928.901	4006
929.007	3854
929.112	4006
929.218	4002
929.323	3922
929.428	3949
929.533	4120
929.638	3922
929.743	4002
929.848	4074
929.953	4013
930.058	3922
930.163	3785
930.267	3880
930.372	3949
930.477	3850
930.581	4082
930.685	3964
930.79	3869
930.894	3899
930.998	3911
931.103	4071
931.207	3720
931.311	3736
931.415	3686
931.519	3523
931.623	3530
