Data from test_V78500241_1755.txt Node
Date: Fri Mar 25 17:01:12 CST 2022
User: usil
Spectrometer: V785-0024
Trigger mode: 0
Integration Time (sec): 4.000000E-1
Scans to average: 1
Nonlinearity correction enabled: false
Boxcar width: 0
Storing dark spectrum: false
XAxis mode: Wavelengths
Number of Pixels in Spectrum: 1024
>>>>>Begin Spectral Data<<<<<
801.071	7986
801.214	7967
801.356	7833
801.499	7852
801.641	7780
801.783	7826
801.926	8031
802.068	7925
802.211	7993
802.353	7974
802.496	7894
802.638	7860
802.78	7925
802.923	7936
803.065	7814
803.208	7852
803.35	7959
803.492	8024
803.635	8142
803.777	8024
803.919	8138
804.061	8450
804.204	8195
804.346	8020
804.488	7928
804.63	8103
804.773	8046
804.915	8115
805.057	8267
805.199	8142
805.341	8153
805.483	8225
805.626	8153
805.768	8035
805.91	8244
806.052	8164
806.194	8145
806.336	8225
806.478	8077
806.62	7974
806.762	8153
806.904	8309
807.046	8511
807.188	8412
807.33	8366
807.472	8286
807.614	8123
807.756	8096
807.898	7967
808.04	7906
808.182	7894
808.324	7871
808.465	7925
808.607	8081
808.749	8046
808.891	8138
809.033	8267
809.174	8180
809.316	8069
809.458	8062
809.6	8031
809.741	8069
809.883	8001
810.025	8062
810.166	8016
810.308	7993
810.45	8020
810.591	7909
810.733	7658
810.875	7693
811.016	7426
811.158	7449
811.299	7594
811.441	7712
811.582	7685
811.724	7544
811.865	7483
812.007	7571
812.148	7533
812.29	7613
812.431	7803
812.573	7852
812.714	7963
812.855	8130
812.997	8145
813.138	8248
813.279	8206
813.421	8024
813.562	7932
813.703	7784
813.845	7723
813.986	7396
814.127	7247
814.268	7160
814.41	7221
814.551	7145
814.692	7240
814.833	7069
814.974	7088
815.115	7103
815.256	6996
815.397	6970
815.539	6901
815.68	6798
815.821	6757
815.962	6852
816.103	6791
816.244	6665
816.385	6585
816.526	6559
816.666	6483
816.807	6304
816.948	6414
817.089	6479
817.23	6448
817.371	6361
817.512	6365
817.653	6395
817.793	6334
817.934	6437
818.075	6437
818.216	6422
818.356	6407
818.497	6266
818.638	6091
818.778	6155
818.919	6159
819.06	6087
819.2	6277
819.341	6247
819.481	6376
819.622	6517
819.762	6700
819.903	6707
820.043	6604
820.184	6563
820.324	6604
820.465	6665
820.605	6677
820.746	6658
820.886	6452
821.026	6688
821.167	6684
821.307	6818
821.447	6745
821.588	6627
821.728	6620
821.868	6460
822.008	6334
822.149	6292
822.289	6350
822.429	6102
822.569	6098
822.709	6083
822.849	5870
822.99	5878
823.13	5885
823.27	5916
823.41	5741
823.55	5783
823.69	5748
823.83	5786
823.97	5661
824.11	5482
824.25	5512
824.389	5554
824.529	5581
824.669	5501
824.809	5634
824.949	5608
825.089	5608
825.228	5547
825.368	5376
825.508	5288
825.648	5318
825.787	5345
825.927	5345
826.067	5315
826.206	5299
826.346	5364
826.485	5379
826.625	5406
826.765	5509
826.904	5436
827.044	5220
827.183	5174
827.323	5162
827.462	5239
827.601	5174
827.741	5197
827.88	5181
828.02	5102
828.159	5235
828.298	5334
828.437	5318
828.577	5277
828.716	5474
828.855	5315
828.994	5132
829.134	5147
829.273	5132
829.412	5159
829.551	5128
829.69	5140
829.829	5181
829.968	5440
830.107	5261
830.246	5288
830.385	5166
830.524	5155
830.663	5067
830.802	4987
830.941	4835
831.08	4862
831.219	4965
831.357	4980
831.496	5174
831.635	4911
831.774	4820
831.913	4801
832.051	4710
832.19	4763
832.329	4843
832.467	4664
832.606	4611
832.744	4721
832.883	4740
833.022	4714
833.16	4744
833.299	4778
833.437	4816
833.576	4816
833.714	4877
833.852	4862
833.991	4930
834.129	4968
834.267	4953
834.406	4927
834.544	4972
834.682	4946
834.821	4949
834.959	5178
835.097	4980
835.235	5162
835.373	5052
835.511	5151
835.65	5029
835.788	5006
835.926	4881
836.064	4873
836.202	4946
836.34	5201
836.478	5223
836.615	5151
836.753	5155
836.891	5265
837.029	5246
837.167	5151
837.305	5193
837.443	5178
837.58	5105
837.718	5220
837.856	5193
837.993	5124
838.131	5227
838.269	5201
838.406	5193
838.544	5159
838.681	5086
838.819	4965
838.956	4873
839.094	4896
839.231	4976
839.369	5048
839.506	5391
839.643	5189
839.781	5037
839.918	4999
840.055	5033
840.193	5102
840.33	5113
840.467	5128
840.604	5136
840.742	5410
840.879	5048
841.016	5075
841.153	5124
841.29	5318
841.427	5303
841.564	5292
841.701	5368
841.838	5269
841.975	5273
842.112	5220
842.249	5170
842.385	5086
842.522	5299
842.659	5174
842.796	5155
842.933	5204
843.069	5113
843.206	5174
843.343	5284
843.479	5204
843.616	5261
843.752	4984
843.889	5014
844.025	5223
844.162	5048
844.298	5258
844.435	5102
844.571	5037
844.708	5132
844.844	5303
844.98	5337
845.117	5315
845.253	5159
845.389	5102
845.525	5151
845.661	5128
845.798	5033
845.934	5094
846.07	5075
846.206	5201
846.342	5261
846.478	5193
846.614	5022
846.75	4957
846.886	4923
847.022	5109
847.158	5060
847.294	5060
847.429	5064
847.565	5067
847.701	5284
847.837	4866
847.972	4824
848.108	4968
848.244	4991
848.379	4771
848.515	4755
848.65	4740
848.786	4759
848.921	4755
849.057	4843
849.192	4877
849.328	4790
849.463	4847
849.598	4755
849.734	4782
849.869	4687
850.004	4599
850.14	4694
850.275	4561
850.41	4531
850.545	4588
850.68	4637
850.815	4615
850.95	4637
851.085	4828
851.22	4755
851.355	4691
851.49	4596
851.625	4645
851.76	4653
851.895	4558
852.03	4519
852.165	4641
852.299	4702
852.434	4778
852.569	4702
852.703	4774
852.838	4824
852.973	4915
853.107	4862
853.242	4763
853.376	4691
853.511	4569
853.645	4603
853.78	4797
853.914	4687
854.048	4634
854.183	4653
854.317	4630
854.451	4835
854.585	4714
854.72	4599
854.854	4793
854.988	4561
855.122	4672
855.256	4508
855.39	4656
855.524	4790
855.658	4740
855.792	4687
855.926	4721
856.06	4748
856.194	4812
856.327	4679
856.461	4592
856.595	4615
856.729	4626
856.862	4725
856.996	4626
857.13	4710
857.263	4793
857.397	4786
857.53	4615
857.664	4725
857.797	4767
857.931	4778
858.064	4721
858.197	4698
858.331	4664
858.464	4542
858.597	4535
858.731	4672
858.864	4603
858.997	4580
859.13	4672
859.263	4683
859.396	4664
859.529	4542
859.662	4554
859.795	4485
859.928	4615
860.061	4733
860.194	4759
860.327	4615
860.46	4596
860.592	4710
860.725	4672
860.858	4679
860.99	4569
861.123	4550
861.256	4478
861.388	4607
861.521	5311
861.653	4508
861.786	4421
861.918	4462
862.05	4519
862.183	4542
862.315	4580
862.447	4645
862.58	4580
862.712	4383
862.844	4322
862.976	4489
863.108	4440
863.24	4847
863.372	4314
863.504	4462
863.636	4428
863.768	4466
863.9	4481
864.032	4379
864.164	4379
864.296	4451
864.428	4519
864.559	4542
864.691	4554
864.823	4493
864.954	4455
865.086	4451
865.217	4421
865.349	4417
865.48	4409
865.612	4478
865.743	4626
865.875	4478
866.006	4398
866.137	4489
866.269	4417
866.4	4424
866.531	4363
866.662	4447
866.793	4409
866.924	4398
867.055	4489
867.186	4462
867.317	4436
867.448	4386
867.579	4383
867.71	4363
867.841	4371
867.972	4432
868.103	4489
868.233	4432
868.364	4443
868.495	4451
868.625	4649
868.756	4717
868.886	4618
869.017	4672
869.147	4778
869.278	4752
869.408	4626
869.539	4626
869.669	4706
869.799	4653
869.929	4744
870.06	4771
870.19	4961
870.32	4930
870.45	4927
870.58	5045
870.71	5045
870.84	5071
870.97	4946
871.1	4900
871.23	5105
871.36	5155
871.489	5067
871.619	5094
871.749	5102
871.879	5128
872.008	5170
872.138	5025
872.267	4953
872.397	4782
872.526	4748
872.656	4691
872.785	4870
872.915	4930
873.044	5029
873.173	4923
873.303	4972
873.432	4927
873.561	4946
873.69	4831
873.819	4828
873.948	4915
874.077	4755
874.206	4790
874.335	4805
874.464	4946
874.593	5029
874.722	4968
874.851	5086
874.979	5010
875.108	5006
875.237	4870
875.365	4870
875.494	4843
875.623	4995
875.751	4870
875.88	4870
876.008	4961
876.136	5029
876.265	5223
876.393	5349
876.521	5242
876.65	5216
876.778	5159
876.906	5090
877.034	5010
877.162	4987
877.29	4972
877.418	5048
877.546	5064
877.674	5018
877.802	5022
877.93	5075
878.058	4953
878.185	4911
878.313	4984
878.441	4919
878.568	4778
878.696	4896
878.824	4949
878.951	4995
879.079	5132
879.206	5296
879.333	5037
879.461	4957
879.588	4968
879.715	5098
879.842	5242
879.97	4987
880.097	4771
880.224	4717
880.351	4801
880.478	4831
880.605	4790
880.732	4759
880.859	5071
880.986	4904
881.112	4873
881.239	4790
881.366	4691
881.493	4580
881.619	4615
881.746	4626
881.872	4641
881.999	4679
882.125	4668
882.252	4729
882.378	4828
882.505	4923
882.631	4858
882.757	4664
882.883	4729
883.01	4694
883.136	4645
883.262	4573
883.388	4630
883.514	4767
883.64	4900
883.766	4793
883.892	4649
884.018	4725
884.143	4900
884.269	5014
884.395	4664
884.52	4641
884.646	4634
884.772	4561
884.897	4584
885.023	4641
885.148	4774
885.274	4866
885.399	4771
885.524	4691
885.65	4691
885.775	4733
885.9	4725
886.025	4889
886.15	4831
886.275	4729
886.4	4626
886.525	4702
886.65	4660
886.775	4721
886.9	4892
887.025	5083
887.149	4816
887.274	4656
887.399	4622
887.523	4660
887.648	4573
887.773	4588
887.897	4744
888.021	4774
888.146	4675
888.27	4824
888.395	4957
888.519	4771
888.643	4816
888.767	4778
888.891	4683
889.015	4596
889.139	4622
889.263	4584
889.387	4698
889.511	4843
889.635	4824
889.759	4618
889.883	4584
890.006	4702
890.13	4782
890.254	4603
890.377	4637
890.501	4531
890.624	4519
890.748	4618
890.871	4455
890.995	4394
891.118	4344
891.241	4440
891.364	4550
891.488	4660
891.611	4508
891.734	4531
891.857	4573
891.98	4550
892.103	4691
892.226	4584
892.349	4538
892.471	4424
892.594	4550
892.717	4542
892.839	4535
892.962	4569
893.085	4675
893.207	4675
893.33	4474
893.452	4519
893.575	4656
893.697	4580
893.819	4828
893.941	4820
894.064	4748
894.186	4603
894.308	4615
894.43	4767
894.552	4839
894.674	4740
894.796	4577
894.918	4618
895.04	4611
895.161	4691
895.283	4645
895.405	4558
895.526	4615
895.648	4664
895.769	4721
895.891	4714
896.012	4679
896.134	4740
896.255	4622
896.376	4634
896.498	4603
896.619	4664
896.74	4580
896.861	4649
896.982	4904
897.103	5037
897.224	4774
897.345	4752
897.466	4649
897.587	4733
897.708	4843
897.828	4748
897.949	4634
898.07	4504
898.19	4694
898.311	4839
898.431	4710
898.552	4725
898.672	4767
898.792	4778
898.913	4755
899.033	4637
899.153	4447
899.273	4436
899.393	4527
899.513	4523
899.633	4546
899.753	4519
899.873	4459
899.993	4554
900.113	4512
900.232	4569
900.352	4584
900.472	4519
900.591	4413
900.711	4462
900.83	4428
900.95	4599
901.069	4679
901.189	4508
901.308	4379
901.427	4314
901.546	4367
901.665	4497
901.784	4519
901.904	4360
902.023	4322
902.141	4200
902.26	4154
902.379	4341
902.498	4249
902.617	4200
902.735	4409
902.854	4432
902.973	4344
903.091	4177
903.21	4200
903.328	4310
903.446	4234
903.565	4295
903.683	4360
903.801	4284
903.919	4402
904.038	4436
904.156	4295
904.274	4428
904.392	4360
904.51	4398
904.627	4470
904.745	4531
904.863	4603
904.981	4390
905.098	4299
905.216	4352
905.334	4424
905.451	4409
905.569	4474
905.686	4516
905.803	4630
905.921	4470
906.038	4531
906.155	4508
906.272	4360
906.389	4462
906.506	4306
906.623	4363
906.74	4428
906.857	4318
906.974	4386
907.091	4538
907.208	4656
907.324	4592
907.441	4489
907.557	4280
907.674	4383
907.79	4291
907.907	4333
908.023	4470
908.139	4462
908.256	4421
908.372	4451
908.488	4462
908.604	4341
908.72	4325
908.836	4379
908.952	4352
909.068	4405
909.184	4592
909.3	4516
909.415	4607
909.531	4508
909.647	4337
909.762	4333
909.878	4348
909.993	4436
910.108	4428
910.224	4405
910.339	4451
910.454	4394
910.57	4405
910.685	4329
910.8	4664
910.915	4558
911.03	4493
911.145	4310
911.259	4291
911.374	4379
911.489	4295
911.604	4246
911.718	4177
911.833	4154
911.947	4071
912.062	4029
912.176	4192
912.291	4268
912.405	4249
912.519	4478
912.633	4493
912.748	4390
912.862	4284
912.976	4196
913.09	4067
913.204	4177
913.318	4287
913.431	4341
913.545	4402
913.659	4451
913.772	4394
913.886	4253
914	4265
914.113	4386
914.226	4375
914.34	4421
914.453	4227
914.566	4436
914.68	4310
914.793	4310
914.906	4128
915.019	4120
915.132	4071
915.245	4192
915.358	4230
915.47	4196
915.583	4268
915.696	4291
915.809	4424
915.921	4386
916.034	4257
916.146	4253
916.259	4185
916.371	4371
916.483	4360
916.595	4276
916.708	4356
916.82	4322
916.932	4291
917.044	4276
917.156	4325
917.268	4242
917.38	4295
917.491	4265
917.603	4310
917.715	4428
917.826	4436
917.938	4306
918.049	4227
918.161	4360
918.272	4546
918.384	4512
918.495	4451
918.606	4287
918.717	4227
918.828	4325
918.939	4299
919.05	4268
919.161	4291
919.272	4090
919.383	4192
919.494	4421
919.604	4622
919.715	4405
919.826	4371
919.936	4424
920.047	4478
920.157	4485
920.267	4717
920.378	4561
920.488	4516
920.598	4725
920.708	4816
920.818	4725
920.928	4774
921.038	4934
921.148	4915
921.258	4592
921.368	4569
921.477	4485
921.587	4497
921.697	4421
921.806	4569
921.916	4440
922.025	4272
922.134	4261
922.244	4249
922.353	4348
922.462	4169
922.571	4082
922.68	4040
922.789	3960
922.898	4074
923.007	3998
923.116	4120
923.224	4032
923.333	4074
923.442	4002
923.55	3998
923.659	4059
923.767	4086
923.876	4006
923.984	4124
924.092	4006
924.201	4059
924.309	4101
924.417	4131
924.525	4063
924.633	4105
924.741	5006
924.849	3949
924.956	4139
925.064	3972
925.172	3876
925.279	3991
925.387	4032
925.494	4086
925.602	4166
925.709	4143
925.816	4002
925.924	4082
926.031	4185
926.138	4135
926.245	4204
926.352	4093
926.459	4272
926.566	4284
926.673	4147
926.779	4101
926.886	4082
926.993	3979
927.099	3968
927.206	3926
927.312	3892
927.419	4059
927.525	4048
927.631	4116
927.737	3956
927.843	3937
927.95	3850
928.056	3968
928.162	3987
928.267	4074
928.373	4675
928.479	4128
928.585	3857
928.69	4048
928.796	4021
928.901	4017
929.007	3804
929.112	3979
929.218	3994
929.323	3953
929.428	3941
929.533	4112
929.638	3926
929.743	3945
929.848	4063
929.953	4013
930.058	3937
930.163	3766
930.267	3804
930.372	3994
930.477	3835
930.581	4105
930.685	3945
930.79	3827
930.894	3915
930.998	3857
931.103	4006
931.207	3728
931.311	3698
931.415	3682
931.519	3523
931.623	3561
