Data from test_V78500241_1167.txt Node
Date: Fri Mar 25 16:57:06 CST 2022
User: usil
Spectrometer: V785-0024
Trigger mode: 0
Integration Time (sec): 4.000000E-1
Scans to average: 1
Nonlinearity correction enabled: false
Boxcar width: 0
Storing dark spectrum: false
XAxis mode: Wavelengths
Number of Pixels in Spectrum: 1024
>>>>>Begin Spectral Data<<<<<
801.071	8088
801.214	8065
801.356	7883
801.499	7811
801.641	7792
801.783	7833
801.926	7947
802.068	7913
802.211	8027
802.353	8001
802.496	7879
802.638	7887
802.78	7982
802.923	7936
803.065	7902
803.208	7909
803.35	7993
803.492	8176
803.635	8199
803.777	8043
803.919	8164
804.061	8507
804.204	8191
804.346	8024
804.488	7967
804.63	8096
804.773	8020
804.915	8164
805.057	8374
805.199	8237
805.341	8248
805.483	8294
805.626	8195
805.768	8123
805.91	8221
806.052	8218
806.194	8092
806.336	8339
806.478	8115
806.62	8024
806.762	8210
806.904	8206
807.046	8476
807.188	8324
807.33	8290
807.472	8332
807.614	8142
807.756	8161
807.898	8016
808.04	7906
808.182	7906
808.324	7890
808.465	7871
808.607	8130
808.749	8149
808.891	8202
809.033	8263
809.174	8221
809.316	8058
809.458	8016
809.6	7955
809.741	7989
809.883	8043
810.025	8088
810.166	8073
810.308	8073
810.45	7940
810.591	7921
810.733	7734
810.875	7624
811.016	7491
811.158	7514
811.299	7613
811.441	7700
811.582	7689
811.724	7594
811.865	7582
812.007	7609
812.148	7628
812.29	7639
812.431	7742
812.573	7860
812.714	7967
812.855	8123
812.997	8199
813.138	8332
813.279	8233
813.421	8111
813.562	7947
813.703	7871
813.845	7814
813.986	7468
814.127	7308
814.268	7244
814.41	7171
814.551	7156
814.692	7175
814.833	7065
814.974	7129
815.115	7076
815.256	6973
815.397	6897
815.539	6977
815.68	6798
815.821	6776
815.962	6829
816.103	6833
816.244	6688
816.385	6646
816.526	6654
816.666	6448
816.807	6331
816.948	6521
817.089	6467
817.23	6452
817.371	6338
817.512	6353
817.653	6346
817.793	6384
817.934	6391
818.075	6407
818.216	6506
818.356	6399
818.497	6323
818.638	6121
818.778	6205
818.919	6152
819.06	6190
819.2	6319
819.341	6346
819.481	6361
819.622	6513
819.762	6711
819.903	6711
820.043	6623
820.184	6559
820.324	6566
820.465	6673
820.605	6650
820.746	6597
820.886	6536
821.026	6669
821.167	6677
821.307	6764
821.447	6730
821.588	6703
821.728	6593
821.868	6509
822.008	6289
822.149	6395
822.289	6315
822.429	6167
822.569	6038
822.709	6125
822.849	5973
822.99	5912
823.13	5931
823.27	5889
823.41	5707
823.55	5783
823.69	5821
823.83	5748
823.97	5695
824.11	5543
824.25	5512
824.389	5573
824.529	5600
824.669	5463
824.809	5657
824.949	5649
825.089	5551
825.228	5532
825.368	5421
825.508	5330
825.648	5341
825.787	5444
825.927	5353
826.067	5322
826.206	5322
826.346	5402
826.485	5326
826.625	5406
826.765	5528
826.904	5501
827.044	5254
827.183	5185
827.323	5090
827.462	5250
827.601	5155
827.741	5189
827.88	5235
828.02	5159
828.159	5235
828.298	5265
828.437	5372
828.577	5254
828.716	5463
828.855	5322
828.994	5212
829.134	5159
829.273	5185
829.412	5121
829.551	5174
829.69	5162
829.829	5197
829.968	5379
830.107	5318
830.246	5288
830.385	5174
830.524	5121
830.663	5113
830.802	4968
830.941	4866
831.08	4915
831.219	4968
831.357	4965
831.496	5102
831.635	4915
831.774	4877
831.913	4885
832.051	4656
832.19	4687
832.329	4835
832.467	4740
832.606	4637
832.744	4702
832.883	4721
833.022	4740
833.16	4786
833.299	4805
833.437	4790
833.576	4843
833.714	4892
833.852	4828
833.991	4889
834.129	4968
834.267	4942
834.406	4942
834.544	4976
834.682	4976
834.821	4976
834.959	5166
835.097	4965
835.235	5102
835.373	5037
835.511	5083
835.65	5064
835.788	4984
835.926	4858
836.064	4866
836.202	4930
836.34	5121
836.478	5197
836.615	5124
836.753	5181
836.891	5254
837.029	5250
837.167	5197
837.305	5208
837.443	5178
837.58	5064
837.718	5250
837.856	5235
837.993	5124
838.131	5223
838.269	5155
838.406	5189
838.544	5185
838.681	5010
838.819	5003
838.956	4900
839.094	4873
839.231	4949
839.369	5048
839.506	5345
839.643	5265
839.781	5033
839.918	4984
840.055	5083
840.193	5136
840.33	5098
840.467	5155
840.604	5185
840.742	5444
840.879	5075
841.016	5060
841.153	5124
841.29	5391
841.427	5341
841.564	5280
841.701	5383
841.838	5261
841.975	5197
842.112	5265
842.249	5124
842.385	5048
842.522	5296
842.659	5143
842.796	5109
842.933	5162
843.069	5128
843.206	5140
843.343	5280
843.479	5254
843.616	5296
843.752	5048
843.889	4984
844.025	5201
844.162	4987
844.298	5162
844.435	5113
844.571	5060
844.708	5185
844.844	5277
844.98	5334
845.117	5303
845.253	5162
845.389	5105
845.525	5170
845.661	5102
845.798	5014
845.934	5098
846.07	5071
846.206	5246
846.342	5242
846.478	5189
846.614	4976
846.75	4980
846.886	4961
847.022	5136
847.158	5037
847.294	5022
847.429	5140
847.565	5067
847.701	5269
847.837	4843
847.972	4771
848.108	4946
848.244	4915
848.379	4774
848.515	4729
848.65	4714
848.786	4717
848.921	4797
849.057	4850
849.192	4900
849.328	4858
849.463	4839
849.598	4759
849.734	4736
849.869	4706
850.004	4668
850.14	4694
850.275	4599
850.41	4558
850.545	4573
850.68	4626
850.815	4588
850.95	4596
851.085	4847
851.22	4725
851.355	4706
851.49	4611
851.625	4634
851.76	4634
851.895	4569
852.03	4550
852.165	4653
852.299	4721
852.434	4755
852.569	4725
852.703	4725
852.838	4820
852.973	4938
853.107	4885
853.242	4729
853.376	4664
853.511	4531
853.645	4599
853.78	4782
853.914	4710
854.048	4653
854.183	4607
854.317	4694
854.451	4812
854.585	4668
854.72	4580
854.854	4778
854.988	4588
855.122	4596
855.256	4516
855.39	4630
855.524	4752
855.658	4702
855.792	4660
855.926	4717
856.06	4721
856.194	4793
856.327	4710
856.461	4611
856.595	4615
856.729	4603
856.862	4736
856.996	4679
857.13	4710
857.263	4748
857.397	4793
857.53	4630
857.664	4683
857.797	4717
857.931	4759
858.064	4653
858.197	4691
858.331	4603
858.464	4649
858.597	4531
858.731	4603
858.864	4626
858.997	4596
859.13	4664
859.263	4675
859.396	4660
859.529	4561
859.662	4569
859.795	4512
859.928	4645
860.061	4725
860.194	4755
860.327	4584
860.46	4592
860.592	4717
860.725	4660
860.858	4694
860.99	4603
861.123	4546
861.256	4508
861.388	4584
861.521	5223
861.653	4466
861.786	4424
861.918	4462
862.05	4497
862.183	4516
862.315	4637
862.447	4569
862.58	4565
862.712	4379
862.844	4329
862.976	4481
863.108	4474
863.24	4892
863.372	4310
863.504	4398
863.636	4367
863.768	4478
863.9	4424
864.032	4360
864.164	4447
864.296	4447
864.428	4569
864.559	4523
864.691	4508
864.823	4546
864.954	4489
865.086	4512
865.217	4466
865.349	4394
865.48	4462
865.612	4481
865.743	4588
865.875	4455
866.006	4417
866.137	4428
866.269	4436
866.4	4402
866.531	4409
866.662	4417
866.793	4413
866.924	4424
867.055	4497
867.186	4447
867.317	4417
867.448	4360
867.579	4398
867.71	4379
867.841	4360
867.972	4390
868.103	4440
868.233	4428
868.364	4466
868.495	4459
868.625	4649
868.756	4759
868.886	4535
869.017	4584
869.147	4778
869.278	4740
869.408	4626
869.539	4622
869.669	4733
869.799	4675
869.929	4725
870.06	4767
870.19	4942
870.32	4919
870.45	4942
870.58	4980
870.71	5052
870.84	5109
870.97	4938
871.1	4835
871.23	5140
871.36	5090
871.489	5045
871.619	5064
871.749	5052
871.879	5124
872.008	5178
872.138	5014
872.267	4968
872.397	4797
872.526	4782
872.656	4710
872.785	4778
872.915	4953
873.044	5052
873.173	4942
873.303	4972
873.432	4946
873.561	4923
873.69	4866
873.819	4889
873.948	4927
874.077	4790
874.206	4767
874.335	4805
874.464	4946
874.593	4995
874.722	4976
874.851	5067
874.979	5083
875.108	5029
875.237	4889
875.365	4870
875.494	4877
875.623	4927
875.751	4809
875.88	4892
876.008	4938
876.136	5033
876.265	5197
876.393	5303
876.521	5204
876.65	5273
876.778	5124
876.906	5018
877.034	5048
877.162	5086
877.29	4987
877.418	5052
877.546	5018
877.674	5067
877.802	5010
877.93	5083
878.058	4927
878.185	4824
878.313	4949
878.441	4953
878.568	4755
878.696	4908
878.824	4934
878.951	4976
879.079	5128
879.206	5250
879.333	5048
879.461	5003
879.588	4991
879.715	5075
879.842	5212
879.97	5006
880.097	4778
880.224	4721
880.351	4831
880.478	4828
880.605	4816
880.732	4790
880.859	5075
880.986	4896
881.112	4896
881.239	4793
881.366	4675
881.493	4637
881.619	4569
881.746	4580
881.872	4649
881.999	4668
882.125	4717
882.252	4748
882.378	4759
882.505	4915
882.631	4774
882.757	4626
882.883	4717
883.01	4702
883.136	4641
883.262	4554
883.388	4592
883.514	4793
883.64	4793
883.766	4809
883.892	4656
884.018	4683
884.143	4862
884.269	4976
884.395	4679
884.52	4615
884.646	4603
884.772	4577
884.897	4519
885.023	4714
885.148	4725
885.274	4854
885.399	4805
885.524	4683
885.65	4675
885.775	4721
885.9	4698
886.025	4873
886.15	4797
886.275	4675
886.4	4656
886.525	4717
886.65	4653
886.775	4702
886.9	4889
887.025	4999
887.149	4801
887.274	4668
887.399	4588
887.523	4618
887.648	4607
887.773	4618
887.897	4744
888.021	4755
888.146	4637
888.27	4839
888.395	4885
888.519	4782
888.643	4828
888.767	4828
888.891	4698
889.015	4580
889.139	4622
889.263	4615
889.387	4744
889.511	4877
889.635	4805
889.759	4607
889.883	4649
890.006	4744
890.13	4850
890.254	4569
890.377	4683
890.501	4569
890.624	4512
890.748	4634
890.871	4489
890.995	4443
891.118	4352
891.241	4504
891.364	4478
891.488	4615
891.611	4554
891.734	4538
891.857	4561
891.98	4558
892.103	4668
892.226	4588
892.349	4527
892.471	4443
892.594	4512
892.717	4615
892.839	4523
892.962	4630
893.085	4580
893.207	4618
893.33	4497
893.452	4527
893.575	4679
893.697	4561
893.819	4778
893.941	4771
894.064	4748
894.186	4542
894.308	4573
894.43	4736
894.552	4824
894.674	4736
894.796	4531
894.918	4675
895.04	4546
895.161	4714
895.283	4698
895.405	4546
895.526	4611
895.648	4679
895.769	4706
895.891	4698
896.012	4721
896.134	4725
896.255	4630
896.376	4615
896.498	4607
896.619	4729
896.74	4615
896.861	4634
896.982	4911
897.103	5056
897.224	4793
897.345	4714
897.466	4626
897.587	4744
897.708	4843
897.828	4744
897.949	4596
898.07	4592
898.19	4592
898.311	4801
898.431	4630
898.552	4755
898.672	4778
898.792	4767
898.913	4736
899.033	4607
899.153	4512
899.273	4409
899.393	4519
899.513	4550
899.633	4508
899.753	4516
899.873	4493
899.993	4565
900.113	4542
900.232	4592
900.352	4497
900.472	4459
900.591	4405
900.711	4470
900.83	4428
900.95	4561
901.069	4653
901.189	4535
901.308	4333
901.427	4329
901.546	4367
901.665	4474
901.784	4474
901.904	4363
902.023	4322
902.141	4185
902.26	4185
902.379	4268
902.498	4204
902.617	4223
902.735	4356
902.854	4375
902.973	4344
903.091	4223
903.21	4196
903.328	4303
903.446	4211
903.565	4295
903.683	4367
903.801	4234
903.919	4383
904.038	4409
904.156	4329
904.274	4432
904.392	4375
904.51	4436
904.627	4455
904.745	4588
904.863	4637
904.981	4390
905.098	4318
905.216	4329
905.334	4424
905.451	4470
905.569	4424
905.686	4535
905.803	4542
905.921	4417
906.038	4508
906.155	4470
906.272	4424
906.389	4436
906.506	4314
906.623	4348
906.74	4360
906.857	4280
906.974	4299
907.091	4588
907.208	4637
907.324	4542
907.441	4516
907.557	4344
907.674	4371
907.79	4306
907.907	4367
908.023	4481
908.139	4485
908.256	4462
908.372	4466
908.488	4462
908.604	4360
908.72	4314
908.836	4348
908.952	4348
909.068	4447
909.184	4546
909.3	4466
909.415	4550
909.531	4554
909.647	4360
909.762	4402
909.878	4348
909.993	4451
910.108	4428
910.224	4398
910.339	4497
910.454	4390
910.57	4318
910.685	4348
910.8	4660
910.915	4603
911.03	4466
911.145	4322
911.259	4280
911.374	4352
911.489	4318
911.604	4287
911.718	4192
911.833	4223
911.947	4071
912.062	4051
912.176	4253
912.291	4227
912.405	4215
912.519	4478
912.633	4470
912.748	4386
912.862	4291
912.976	4196
913.09	4097
913.204	4124
913.318	4246
913.431	4337
913.545	4363
913.659	4447
913.772	4318
913.886	4234
914	4246
914.113	4367
914.226	4379
914.34	4386
914.453	4215
914.566	4447
914.68	4272
914.793	4333
914.906	4093
915.019	4181
915.132	4093
915.245	4177
915.358	4188
915.47	4207
915.583	4257
915.696	4322
915.809	4390
915.921	4421
916.034	4223
916.146	4303
916.259	4219
916.371	4417
916.483	4360
916.595	4310
916.708	4310
916.82	4322
916.932	4367
917.044	4291
917.156	4306
917.268	4162
917.38	4299
917.491	4265
917.603	4322
917.715	4409
917.826	4440
917.938	4325
918.049	4219
918.161	4405
918.272	4527
918.384	4493
918.495	4440
918.606	4295
918.717	4215
918.828	4318
918.939	4367
919.05	4268
919.161	4337
919.272	4112
919.383	4230
919.494	4375
919.604	4618
919.715	4485
919.826	4367
919.936	4424
920.047	4569
920.157	4497
920.267	4691
920.378	4531
920.488	4440
920.598	4706
920.708	4911
920.818	4736
920.928	4771
921.038	4972
921.148	4866
921.258	4611
921.368	4577
921.477	4478
921.587	4474
921.697	4405
921.806	4554
921.916	4481
922.025	4284
922.134	4291
922.244	4223
922.353	4344
922.462	4166
922.571	4112
922.68	4025
922.789	3956
922.898	4017
923.007	3964
923.116	4101
923.224	4051
923.333	4078
923.442	3941
923.55	3994
923.659	4006
923.767	4116
923.876	4006
923.984	4116
924.092	3991
924.201	4097
924.309	4128
924.417	4097
924.525	4036
924.633	4109
924.741	5029
924.849	3915
924.956	4101
925.064	3934
925.172	3861
925.279	3979
925.387	4040
925.494	4071
925.602	4192
925.709	4185
925.816	4032
925.924	4139
926.031	4211
926.138	4200
926.245	4230
926.352	4078
926.459	4215
926.566	4303
926.673	4143
926.779	4086
926.886	4097
926.993	3991
927.099	3968
927.206	3968
927.312	3930
927.419	4021
927.525	4071
927.631	4093
927.737	3972
927.843	3930
927.95	3819
928.056	3907
928.162	3979
928.267	4090
928.373	4672
928.479	4093
928.585	3896
928.69	4055
928.796	4067
928.901	3964
929.007	3865
929.112	4032
929.218	3968
929.323	3896
929.428	3953
929.533	4059
929.638	3888
929.743	3972
929.848	4059
929.953	4002
930.058	3953
930.163	3816
930.267	3861
930.372	3979
930.477	3838
930.581	4097
930.685	3968
930.79	3850
930.894	3869
930.998	3857
931.103	4006
931.207	3720
931.311	3690
931.415	3652
931.519	3504
931.623	3564
