Data from test_V78500241_1280.txt Node
Date: Fri Mar 25 16:57:54 CST 2022
User: usil
Spectrometer: V785-0024
Trigger mode: 0
Integration Time (sec): 4.000000E-1
Scans to average: 1
Nonlinearity correction enabled: false
Boxcar width: 0
Storing dark spectrum: false
XAxis mode: Wavelengths
Number of Pixels in Spectrum: 1024
>>>>>Begin Spectral Data<<<<<
801.071	7982
801.214	8073
801.356	7925
801.499	7887
801.641	7772
801.783	7868
801.926	7978
802.068	7925
802.211	7989
802.353	7963
802.496	7890
802.638	7917
802.78	7967
802.923	7925
803.065	7898
803.208	7845
803.35	7970
803.492	8138
803.635	8130
803.777	7982
803.919	8153
804.061	8484
804.204	8176
804.346	7997
804.488	7947
804.63	8157
804.773	8050
804.915	8103
805.057	8275
805.199	8103
805.341	8240
805.483	8286
805.626	8199
805.768	8092
805.91	8142
806.052	8187
806.194	8149
806.336	8248
806.478	8142
806.62	8020
806.762	8138
806.904	8332
807.046	8511
807.188	8396
807.33	8267
807.472	8286
807.614	8138
807.756	8103
807.898	8050
808.04	7868
808.182	7871
808.324	7883
808.465	7928
808.607	8130
808.749	8187
808.891	8126
809.033	8290
809.174	8206
809.316	8058
809.458	8054
809.6	7982
809.741	8016
809.883	8073
810.025	8119
810.166	8107
810.308	8115
810.45	8008
810.591	7856
810.733	7761
810.875	7655
811.016	7521
811.158	7457
811.299	7586
811.441	7822
811.582	7715
811.724	7537
811.865	7578
812.007	7571
812.148	7540
812.29	7609
812.431	7784
812.573	7894
812.714	7997
812.855	8073
812.997	8221
813.138	8328
813.279	8244
813.421	8134
813.562	7925
813.703	7887
813.845	7700
813.986	7430
814.127	7285
814.268	7221
814.41	7175
814.551	7149
814.692	7217
814.833	7107
814.974	7103
815.115	7141
815.256	6966
815.397	6932
815.539	6977
815.68	6806
815.821	6837
815.962	6856
816.103	6741
816.244	6776
816.385	6677
816.526	6601
816.666	6490
816.807	6289
816.948	6437
817.089	6544
817.23	6471
817.371	6338
817.512	6376
817.653	6399
817.793	6403
817.934	6422
818.075	6456
818.216	6388
818.356	6395
818.497	6270
818.638	6083
818.778	6121
818.919	6152
819.06	6159
819.2	6315
819.341	6346
819.481	6334
819.622	6521
819.762	6749
819.903	6745
820.043	6620
820.184	6566
820.324	6662
820.465	6703
820.605	6665
820.746	6608
820.886	6460
821.026	6639
821.167	6726
821.307	6745
821.447	6806
821.588	6623
821.728	6525
821.868	6456
822.008	6289
822.149	6384
822.289	6311
822.429	6152
822.569	6087
822.709	6098
822.849	5889
822.99	5965
823.13	5931
823.27	5939
823.41	5760
823.55	5847
823.69	5786
823.83	5794
823.97	5592
824.11	5532
824.25	5528
824.389	5539
824.529	5585
824.669	5520
824.809	5608
824.949	5703
825.089	5581
825.228	5551
825.368	5368
825.508	5349
825.648	5357
825.787	5334
825.927	5296
826.067	5288
826.206	5296
826.346	5337
826.485	5357
826.625	5436
826.765	5543
826.904	5471
827.044	5201
827.183	5197
827.323	5098
827.462	5273
827.601	5216
827.741	5185
827.88	5220
828.02	5121
828.159	5220
828.298	5334
828.437	5330
828.577	5280
828.716	5520
828.855	5288
828.994	5170
829.134	5143
829.273	5178
829.412	5102
829.551	5151
829.69	5193
829.829	5288
829.968	5364
830.107	5284
830.246	5269
830.385	5113
830.524	5140
830.663	5006
830.802	4961
830.941	4923
831.08	4927
831.219	4946
831.357	4976
831.496	5090
831.635	4953
831.774	4854
831.913	4828
832.051	4702
832.19	4717
832.329	4793
832.467	4649
832.606	4622
832.744	4675
832.883	4725
833.022	4683
833.16	4763
833.299	4858
833.437	4809
833.576	4854
833.714	4870
833.852	4854
833.991	4889
834.129	4942
834.267	4949
834.406	4923
834.544	5006
834.682	4934
834.821	4976
834.959	5132
835.097	4987
835.235	5140
835.373	5071
835.511	5147
835.65	4987
835.788	5029
835.926	4949
836.064	4881
836.202	4885
836.34	5143
836.478	5178
836.615	5128
836.753	5155
836.891	5250
837.029	5254
837.167	5242
837.305	5189
837.443	5090
837.58	5067
837.718	5242
837.856	5159
837.993	5170
838.131	5239
838.269	5254
838.406	5189
838.544	5178
838.681	5060
838.819	4995
838.956	4870
839.094	4908
839.231	4972
839.369	5052
839.506	5357
839.643	5273
839.781	5102
839.918	5041
840.055	5060
840.193	5079
840.33	5041
840.467	5140
840.604	5212
840.742	5414
840.879	5083
841.016	5102
841.153	5155
841.29	5353
841.427	5357
841.564	5280
841.701	5341
841.838	5292
841.975	5204
842.112	5280
842.249	5162
842.385	5071
842.522	5383
842.659	5159
842.796	5124
842.933	5189
843.069	5117
843.206	5128
843.343	5322
843.479	5189
843.616	5261
843.752	5041
843.889	5003
844.025	5216
844.162	5010
844.298	5235
844.435	5117
844.571	5041
844.708	5162
844.844	5292
844.98	5410
845.117	5250
845.253	5121
845.389	5094
845.525	5159
845.661	5124
845.798	5025
845.934	5109
846.07	5045
846.206	5174
846.342	5307
846.478	5185
846.614	5014
846.75	4938
846.886	4938
847.022	5094
847.158	4984
847.294	5086
847.429	5124
847.565	5022
847.701	5330
847.837	4866
847.972	4778
848.108	4949
848.244	4927
848.379	4786
848.515	4706
848.65	4748
848.786	4744
848.921	4755
849.057	4873
849.192	4858
849.328	4786
849.463	4885
849.598	4793
849.734	4729
849.869	4649
850.004	4660
850.14	4653
850.275	4603
850.41	4542
850.545	4558
850.68	4615
850.815	4596
850.95	4630
851.085	4831
851.22	4733
851.355	4645
851.49	4622
851.625	4634
851.76	4618
851.895	4573
852.03	4527
852.165	4611
852.299	4687
852.434	4755
852.569	4790
852.703	4763
852.838	4805
852.973	4942
853.107	4896
853.242	4725
853.376	4641
853.511	4546
853.645	4584
853.78	4778
853.914	4714
854.048	4687
854.183	4630
854.317	4664
854.451	4820
854.585	4641
854.72	4596
854.854	4729
854.988	4550
855.122	4588
855.256	4512
855.39	4653
855.524	4744
855.658	4660
855.792	4653
855.926	4694
856.06	4744
856.194	4748
856.327	4694
856.461	4599
856.595	4599
856.729	4603
856.862	4767
856.996	4691
857.13	4634
857.263	4717
857.397	4729
857.53	4618
857.664	4714
857.797	4744
857.931	4759
858.064	4706
858.197	4778
858.331	4622
858.464	4603
858.597	4523
858.731	4550
858.864	4603
858.997	4626
859.13	4649
859.263	4679
859.396	4687
859.529	4546
859.662	4569
859.795	4577
859.928	4561
860.061	4763
860.194	4793
860.327	4573
860.46	4535
860.592	4721
860.725	4694
860.858	4702
860.99	4596
861.123	4519
861.256	4592
861.388	4618
861.521	5181
861.653	4512
861.786	4394
861.918	4443
862.05	4519
862.183	4535
862.315	4630
862.447	4634
862.58	4554
862.712	4390
862.844	4310
862.976	4455
863.108	4432
863.24	4881
863.372	4325
863.504	4360
863.636	4409
863.768	4451
863.9	4417
864.032	4348
864.164	4390
864.296	4493
864.428	4580
864.559	4542
864.691	4538
864.823	4546
864.954	4516
865.086	4508
865.217	4424
865.349	4352
865.48	4417
865.612	4447
865.743	4626
865.875	4462
866.006	4424
866.137	4466
866.269	4485
866.4	4447
866.531	4409
866.662	4360
866.793	4363
866.924	4402
867.055	4485
867.186	4417
867.317	4394
867.448	4356
867.579	4417
867.71	4413
867.841	4394
867.972	4474
868.103	4428
868.233	4443
868.364	4424
868.495	4497
868.625	4626
868.756	4755
868.886	4546
869.017	4603
869.147	4786
869.278	4755
869.408	4679
869.539	4641
869.669	4687
869.799	4641
869.929	4782
870.06	4759
870.19	4908
870.32	4892
870.45	4949
870.58	4972
870.71	5048
870.84	5064
870.97	4923
871.1	4927
871.23	5105
871.36	5151
871.489	5010
871.619	5056
871.749	5048
871.879	5098
872.008	5159
872.138	5033
872.267	5006
872.397	4835
872.526	4824
872.656	4645
872.785	4831
872.915	4919
873.044	5029
873.173	4930
873.303	4968
873.432	4957
873.561	4946
873.69	4896
873.819	4854
873.948	4881
874.077	4812
874.206	4797
874.335	4831
874.464	4900
874.593	5052
874.722	4930
874.851	5117
874.979	5045
875.108	5025
875.237	4854
875.365	4862
875.494	4885
875.623	4938
875.751	4831
875.88	4881
876.008	4953
876.136	5064
876.265	5174
876.393	5341
876.521	5277
876.65	5204
876.778	5155
876.906	5102
877.034	5010
877.162	5025
877.29	5006
877.418	5014
877.546	5064
877.674	5079
877.802	5045
877.93	5048
878.058	4930
878.185	4873
878.313	4961
878.441	4938
878.568	4816
878.696	4854
878.824	4942
878.951	4991
879.079	5079
879.206	5273
879.333	5105
879.461	4976
879.588	4991
879.715	5098
879.842	5204
879.97	4965
880.097	4782
880.224	4729
880.351	4824
880.478	4820
880.605	4797
880.732	4778
880.859	5094
880.986	4923
881.112	4889
881.239	4763
881.366	4672
881.493	4611
881.619	4546
881.746	4634
881.872	4641
881.999	4618
882.125	4645
882.252	4771
882.378	4805
882.505	4957
882.631	4759
882.757	4679
882.883	4721
883.01	4679
883.136	4660
883.262	4596
883.388	4588
883.514	4801
883.64	4820
883.766	4790
883.892	4672
884.018	4717
884.143	4919
884.269	4995
884.395	4683
884.52	4618
884.646	4649
884.772	4573
884.897	4519
885.023	4672
885.148	4805
885.274	4866
885.399	4809
885.524	4740
885.65	4694
885.775	4717
885.9	4733
886.025	4828
886.15	4793
886.275	4725
886.4	4637
886.525	4729
886.65	4702
886.775	4645
886.9	4889
887.025	5006
887.149	4843
887.274	4634
887.399	4531
887.523	4558
887.648	4599
887.773	4550
887.897	4782
888.021	4759
888.146	4645
888.27	4816
888.395	4885
888.519	4820
888.643	4793
888.767	4831
888.891	4714
889.015	4596
889.139	4656
889.263	4561
889.387	4748
889.511	4854
889.635	4733
889.759	4577
889.883	4641
890.006	4721
890.13	4809
890.254	4603
890.377	4675
890.501	4561
890.624	4550
890.748	4630
890.871	4497
890.995	4432
891.118	4386
891.241	4527
891.364	4558
891.488	4622
891.611	4478
891.734	4531
891.857	4592
891.98	4546
892.103	4668
892.226	4607
892.349	4573
892.471	4455
892.594	4538
892.717	4622
892.839	4561
892.962	4584
893.085	4664
893.207	4565
893.33	4485
893.452	4474
893.575	4626
893.697	4580
893.819	4793
893.941	4801
894.064	4805
894.186	4550
894.308	4531
894.43	4698
894.552	4797
894.674	4733
894.796	4558
894.918	4584
895.04	4561
895.161	4714
895.283	4664
895.405	4538
895.526	4641
895.648	4656
895.769	4668
895.891	4706
896.012	4729
896.134	4714
896.255	4641
896.376	4618
896.498	4599
896.619	4649
896.74	4637
896.861	4668
896.982	4889
897.103	5060
897.224	4790
897.345	4774
897.466	4649
897.587	4744
897.708	4839
897.828	4786
897.949	4611
898.07	4512
898.19	4584
898.311	4767
898.431	4679
898.552	4736
898.672	4790
898.792	4850
898.913	4710
899.033	4607
899.153	4478
899.273	4447
899.393	4485
899.513	4504
899.633	4474
899.753	4478
899.873	4519
899.993	4535
900.113	4523
900.232	4622
900.352	4554
900.472	4421
900.591	4405
900.711	4542
900.83	4428
900.95	4558
901.069	4645
901.189	4504
901.308	4383
901.427	4310
901.546	4363
901.665	4417
901.784	4466
901.904	4367
902.023	4306
902.141	4154
902.26	4207
902.379	4337
902.498	4230
902.617	4181
902.735	4322
902.854	4405
902.973	4333
903.091	4204
903.21	4196
903.328	4276
903.446	4234
903.565	4219
903.683	4333
903.801	4276
903.919	4371
904.038	4390
904.156	4341
904.274	4421
904.392	4432
904.51	4447
904.627	4436
904.745	4565
904.863	4645
904.981	4383
905.098	4284
905.216	4386
905.334	4394
905.451	4379
905.569	4428
905.686	4535
905.803	4569
905.921	4417
906.038	4527
906.155	4489
906.272	4405
906.389	4451
906.506	4303
906.623	4348
906.74	4363
906.857	4295
906.974	4390
907.091	4561
907.208	4694
907.324	4588
907.441	4451
907.557	4333
907.674	4390
907.79	4310
907.907	4352
908.023	4462
908.139	4455
908.256	4447
908.372	4470
908.488	4462
908.604	4325
908.72	4318
908.836	4386
908.952	4386
909.068	4447
909.184	4577
909.3	4485
909.415	4554
909.531	4558
909.647	4329
909.762	4344
909.878	4303
909.993	4409
910.108	4413
910.224	4390
910.339	4447
910.454	4367
910.57	4352
910.685	4325
910.8	4649
910.915	4573
911.03	4489
911.145	4329
911.259	4325
911.374	4341
911.489	4284
911.604	4272
911.718	4166
911.833	4223
911.947	4063
912.062	4025
912.176	4207
912.291	4238
912.405	4196
912.519	4409
912.633	4493
912.748	4268
912.862	4314
912.976	4223
913.09	4074
913.204	4162
913.318	4295
913.431	4337
913.545	4348
913.659	4421
913.772	4344
913.886	4230
914	4196
914.113	4360
914.226	4402
914.34	4402
914.453	4261
914.566	4417
914.68	4337
914.793	4325
914.906	4158
915.019	4128
915.132	4067
915.245	4185
915.358	4215
915.47	4234
915.583	4238
915.696	4227
915.809	4363
915.921	4402
916.034	4238
916.146	4272
916.259	4261
916.371	4356
916.483	4295
916.595	4230
916.708	4333
916.82	4322
916.932	4325
917.044	4314
917.156	4314
917.268	4223
917.38	4230
917.491	4227
917.603	4367
917.715	4417
917.826	4455
917.938	4325
918.049	4227
918.161	4356
918.272	4516
918.384	4516
918.495	4417
918.606	4287
918.717	4257
918.828	4333
918.939	4329
919.05	4230
919.161	4291
919.272	4112
919.383	4257
919.494	4432
919.604	4611
919.715	4455
919.826	4356
919.936	4421
920.047	4561
920.157	4497
920.267	4645
920.378	4569
920.488	4443
920.598	4736
920.708	4835
920.818	4748
920.928	4729
921.038	4961
921.148	4915
921.258	4660
921.368	4596
921.477	4455
921.587	4474
921.697	4386
921.806	4558
921.916	4440
922.025	4257
922.134	4268
922.244	4230
922.353	4341
922.462	4177
922.571	4131
922.68	4021
922.789	3922
922.898	4032
923.007	3972
923.116	4105
923.224	4071
923.333	4097
923.442	3987
923.55	3968
923.659	4059
923.767	4109
923.876	4017
923.984	4166
924.092	3975
924.201	4078
924.309	4078
924.417	4112
924.525	4090
924.633	4063
924.741	5037
924.849	3888
924.956	4101
925.064	3953
925.172	3899
925.279	3949
925.387	4036
925.494	4059
925.602	4207
925.709	4181
925.816	4071
925.924	4105
926.031	4207
926.138	4162
926.245	4177
926.352	4120
926.459	4272
926.566	4333
926.673	4143
926.779	4032
926.886	4063
926.993	3964
927.099	4010
927.206	3880
927.312	3964
927.419	4067
927.525	4002
927.631	4109
927.737	3941
927.843	3945
927.95	3854
928.056	3964
928.162	3998
928.267	4040
928.373	4653
928.479	4131
928.585	3880
928.69	4025
928.796	4067
928.901	4002
929.007	3816
929.112	3983
929.218	3991
929.323	3979
929.428	3926
929.533	4074
929.638	3903
929.743	3941
929.848	4021
929.953	4025
930.058	3941
930.163	3808
930.267	3827
930.372	4002
930.477	3770
930.581	4078
930.685	3918
930.79	3835
930.894	3869
930.998	3842
931.103	4044
931.207	3724
931.311	3690
931.415	3679
931.519	3553
931.623	3549
