Data from test_V78500241_2323.txt Node
Date: Fri Mar 25 17:05:09 CST 2022
User: usil
Spectrometer: V785-0024
Trigger mode: 0
Integration Time (sec): 4.000000E-1
Scans to average: 1
Nonlinearity correction enabled: false
Boxcar width: 0
Storing dark spectrum: false
XAxis mode: Wavelengths
Number of Pixels in Spectrum: 1024
>>>>>Begin Spectral Data<<<<<
801.071	8073
801.214	8043
801.356	7852
801.499	7875
801.641	7746
801.783	7822
801.926	7932
802.068	7841
802.211	7986
802.353	7940
802.496	7860
802.638	7940
802.78	7898
802.923	7909
803.065	7883
803.208	7890
803.35	7944
803.492	8043
803.635	8168
803.777	7993
803.919	8027
804.061	8412
804.204	8164
804.346	8062
804.488	7951
804.63	8100
804.773	7974
804.915	8130
805.057	8309
805.199	8187
805.341	8130
805.483	8240
805.626	8229
805.768	8107
805.91	8229
806.052	8138
806.194	8111
806.336	8301
806.478	8119
806.62	8084
806.762	8088
806.904	8263
807.046	8400
807.188	8339
807.33	8351
807.472	8358
807.614	8206
807.756	8111
807.898	7970
808.04	7826
808.182	7837
808.324	7879
808.465	7833
808.607	8012
808.749	8138
808.891	8221
809.033	8370
809.174	8240
809.316	8115
809.458	8073
809.6	7982
809.741	8016
809.883	8077
810.025	8142
810.166	8039
810.308	8001
810.45	7959
810.591	7852
810.733	7753
810.875	7681
811.016	7518
811.158	7499
811.299	7590
811.441	7681
811.582	7704
811.724	7601
811.865	7502
812.007	7540
812.148	7586
812.29	7681
812.431	7757
812.573	7864
812.714	7921
812.855	8115
812.997	8229
813.138	8256
813.279	8100
813.421	8065
813.562	7932
813.703	7803
813.845	7772
813.986	7373
814.127	7282
814.268	7206
814.41	7164
814.551	7198
814.692	7217
814.833	7126
814.974	7149
815.115	7164
815.256	6939
815.397	6935
815.539	6924
815.68	6791
815.821	6764
815.962	6890
816.103	6829
816.244	6730
816.385	6662
816.526	6601
816.666	6456
816.807	6292
816.948	6490
817.089	6528
817.23	6498
817.371	6388
817.512	6418
817.653	6414
817.793	6357
817.934	6445
818.075	6414
818.216	6384
818.356	6448
818.497	6213
818.638	6106
818.778	6159
818.919	6216
819.06	6125
819.2	6270
819.341	6323
819.481	6334
819.622	6494
819.762	6711
819.903	6749
820.043	6601
820.184	6612
820.324	6589
820.465	6745
820.605	6688
820.746	6662
820.886	6521
821.026	6684
821.167	6722
821.307	6818
821.447	6798
821.588	6673
821.728	6574
821.868	6494
822.008	6399
822.149	6338
822.289	6372
822.429	6102
822.569	6098
822.709	6129
822.849	5931
822.99	5863
823.13	5939
823.27	5939
823.41	5771
823.55	5764
823.69	5802
823.83	5805
823.97	5653
824.11	5577
824.25	5501
824.389	5562
824.529	5627
824.669	5543
824.809	5630
824.949	5615
825.089	5615
825.228	5608
825.368	5406
825.508	5406
825.648	5368
825.787	5353
825.927	5459
826.067	5337
826.206	5280
826.346	5372
826.485	5334
826.625	5429
826.765	5539
826.904	5459
827.044	5246
827.183	5208
827.323	5151
827.462	5227
827.601	5185
827.741	5189
827.88	5201
828.02	5094
828.159	5242
828.298	5303
828.437	5357
828.577	5261
828.716	5482
828.855	5288
828.994	5212
829.134	5162
829.273	5170
829.412	5166
829.551	5117
829.69	5105
829.829	5269
829.968	5395
830.107	5273
830.246	5231
830.385	5193
830.524	5140
830.663	5067
830.802	4953
830.941	4892
831.08	4904
831.219	4984
831.357	4995
831.496	5143
831.635	4881
831.774	4873
831.913	4824
832.051	4774
832.19	4752
832.329	4858
832.467	4679
832.606	4630
832.744	4729
832.883	4710
833.022	4729
833.16	4744
833.299	4778
833.437	4801
833.576	4850
833.714	4831
833.852	4862
833.991	4938
834.129	4972
834.267	4889
834.406	4923
834.544	4987
834.682	4930
834.821	5006
834.959	5155
835.097	5014
835.235	5147
835.373	5056
835.511	5090
835.65	5029
835.788	4995
835.926	4866
836.064	4850
836.202	4957
836.34	5136
836.478	5246
836.615	5132
836.753	5170
836.891	5242
837.029	5216
837.167	5185
837.305	5166
837.443	5136
837.58	5098
837.718	5231
837.856	5170
837.993	5117
838.131	5216
838.269	5201
838.406	5189
838.544	5185
838.681	5003
838.819	4953
838.956	4885
839.094	4850
839.231	4949
839.369	5056
839.506	5398
839.643	5265
839.781	5094
839.918	5003
840.055	5117
840.193	5132
840.33	5147
840.467	5174
840.604	5121
840.742	5436
840.879	5094
841.016	5083
841.153	5140
841.29	5357
841.427	5284
841.564	5322
841.701	5391
841.838	5280
841.975	5223
842.112	5231
842.249	5132
842.385	5136
842.522	5254
842.659	5178
842.796	5124
842.933	5246
843.069	5079
843.206	5109
843.343	5284
843.479	5239
843.616	5261
843.752	4987
843.889	5064
844.025	5166
844.162	5014
844.298	5178
844.435	5067
844.571	5037
844.708	5189
844.844	5277
844.98	5368
845.117	5322
845.253	5151
845.389	5064
845.525	5178
845.661	5140
845.798	5052
845.934	5056
846.07	5014
846.206	5159
846.342	5223
846.478	5159
846.614	4999
846.75	4980
846.886	4942
847.022	5159
847.158	4972
847.294	5083
847.429	5132
847.565	5083
847.701	5364
847.837	4873
847.972	4782
848.108	4923
848.244	4949
848.379	4767
848.515	4736
848.65	4668
848.786	4725
848.921	4759
849.057	4839
849.192	4858
849.328	4816
849.463	4870
849.598	4759
849.734	4752
849.869	4649
850.004	4569
850.14	4622
850.275	4565
850.41	4527
850.545	4577
850.68	4573
850.815	4615
850.95	4645
851.085	4839
851.22	4786
851.355	4729
851.49	4546
851.625	4645
851.76	4649
851.895	4531
852.03	4554
852.165	4660
852.299	4668
852.434	4744
852.569	4725
852.703	4763
852.838	4858
852.973	4904
853.107	4881
853.242	4714
853.376	4611
853.511	4565
853.645	4630
853.78	4816
853.914	4668
854.048	4675
854.183	4637
854.317	4683
854.451	4809
854.585	4675
854.72	4599
854.854	4790
854.988	4599
855.122	4626
855.256	4558
855.39	4653
855.524	4767
855.658	4702
855.792	4706
855.926	4763
856.06	4744
856.194	4759
856.327	4675
856.461	4554
856.595	4584
856.729	4611
856.862	4729
856.996	4778
857.13	4774
857.263	4702
857.397	4809
857.53	4626
857.664	4702
857.797	4706
857.931	4774
858.064	4649
858.197	4752
858.331	4607
858.464	4649
858.597	4512
858.731	4565
858.864	4634
858.997	4592
859.13	4641
859.263	4634
859.396	4740
859.529	4550
859.662	4516
859.795	4500
859.928	4607
860.061	4755
860.194	4767
860.327	4607
860.46	4561
860.592	4714
860.725	4698
860.858	4672
860.99	4554
861.123	4523
861.256	4516
861.388	4641
861.521	5353
861.653	4455
861.786	4432
861.918	4459
862.05	4508
862.183	4538
862.315	4599
862.447	4645
862.58	4508
862.712	4383
862.844	4272
862.976	4451
863.108	4409
863.24	4831
863.372	4375
863.504	4421
863.636	4398
863.768	4459
863.9	4428
864.032	4325
864.164	4363
864.296	4413
864.428	4519
864.559	4580
864.691	4573
864.823	4497
864.954	4474
865.086	4466
865.217	4443
865.349	4405
865.48	4424
865.612	4470
865.743	4637
865.875	4459
866.006	4428
866.137	4462
866.269	4421
866.4	4405
866.531	4390
866.662	4436
866.793	4402
866.924	4386
867.055	4516
867.186	4432
867.317	4451
867.448	4341
867.579	4375
867.71	4390
867.841	4375
867.972	4436
868.103	4485
868.233	4409
868.364	4485
868.495	4500
868.625	4634
868.756	4786
868.886	4546
869.017	4565
869.147	4702
869.278	4752
869.408	4656
869.539	4630
869.669	4717
869.799	4618
869.929	4729
870.06	4755
870.19	4934
870.32	4873
870.45	4968
870.58	5014
870.71	5064
870.84	5132
870.97	4934
871.1	4915
871.23	5109
871.36	5117
871.489	5010
871.619	5033
871.749	5025
871.879	5067
872.008	5178
872.138	5124
872.267	4999
872.397	4858
872.526	4786
872.656	4687
872.785	4782
872.915	5029
873.044	5025
873.173	4942
873.303	5010
873.432	4976
873.561	4972
873.69	4881
873.819	4885
873.948	4953
874.077	4812
874.206	4812
874.335	4843
874.464	4953
874.593	5124
874.722	4991
874.851	5132
874.979	5132
875.108	5033
875.237	4972
875.365	4938
875.494	4904
875.623	5003
875.751	4900
875.88	4919
876.008	5037
876.136	5052
876.265	5242
876.393	5349
876.521	5239
876.65	5261
876.778	5201
876.906	5128
877.034	5064
877.162	5121
877.29	5094
877.418	5045
877.546	5025
877.674	5098
877.802	5075
877.93	5056
878.058	4987
878.185	4877
878.313	5033
878.441	5033
878.568	4866
878.696	4968
878.824	4987
878.951	5006
879.079	5197
879.206	5284
879.333	5121
879.461	5052
879.588	4999
879.715	5155
879.842	5269
879.97	5064
880.097	4858
880.224	4778
880.351	4858
880.478	4831
880.605	4831
880.732	4820
880.859	5166
880.986	4946
881.112	4911
881.239	4790
881.366	4710
881.493	4630
881.619	4622
881.746	4656
881.872	4645
881.999	4679
882.125	4767
882.252	4820
882.378	4862
882.505	4999
882.631	4831
882.757	4664
882.883	4763
883.01	4778
883.136	4675
883.262	4649
883.388	4603
883.514	4805
883.64	4892
883.766	4816
883.892	4725
884.018	4786
884.143	4870
884.269	5067
884.395	4748
884.52	4645
884.646	4683
884.772	4607
884.897	4615
885.023	4698
885.148	4812
885.274	4881
885.399	4820
885.524	4736
885.65	4717
885.775	4759
885.9	4744
886.025	4908
886.15	4828
886.275	4774
886.4	4698
886.525	4714
886.65	4721
886.775	4729
886.9	4911
887.025	5105
887.149	4873
887.274	4683
887.399	4656
887.523	4687
887.648	4584
887.773	4584
887.897	4752
888.021	4854
888.146	4694
888.27	4850
888.395	4923
888.519	4816
888.643	4843
888.767	4805
888.891	4736
889.015	4675
889.139	4660
889.263	4637
889.387	4752
889.511	4949
889.635	4790
889.759	4672
889.883	4691
890.006	4748
890.13	4858
890.254	4603
890.377	4706
890.501	4592
890.624	4569
890.748	4668
890.871	4535
890.995	4455
891.118	4417
891.241	4527
891.364	4584
891.488	4675
891.611	4512
891.734	4558
891.857	4615
891.98	4592
892.103	4679
892.226	4577
892.349	4577
892.471	4485
892.594	4584
892.717	4649
892.839	4584
892.962	4618
893.085	4691
893.207	4577
893.33	4478
893.452	4527
893.575	4679
893.697	4588
893.819	4812
893.941	4820
894.064	4771
894.186	4630
894.308	4592
894.43	4771
894.552	4831
894.674	4809
894.796	4607
894.918	4611
895.04	4607
895.161	4786
895.283	4668
895.405	4603
895.526	4702
895.648	4740
895.769	4694
895.891	4752
896.012	4721
896.134	4736
896.255	4687
896.376	4698
896.498	4668
896.619	4759
896.74	4641
896.861	4675
896.982	4949
897.103	5071
897.224	4847
897.345	4771
897.466	4748
897.587	4771
897.708	4870
897.828	4797
897.949	4698
898.07	4561
898.19	4694
898.311	4877
898.431	4687
898.552	4752
898.672	4858
898.792	4828
898.913	4759
899.033	4675
899.153	4500
899.273	4489
899.393	4516
899.513	4573
899.633	4561
899.753	4569
899.873	4523
899.993	4607
900.113	4485
900.232	4634
900.352	4592
900.472	4516
900.591	4443
900.711	4516
900.83	4508
900.95	4618
901.069	4683
901.189	4569
901.308	4383
901.427	4363
901.546	4394
901.665	4481
901.784	4485
901.904	4451
902.023	4360
902.141	4234
902.26	4169
902.379	4356
902.498	4303
902.617	4238
902.735	4383
902.854	4405
902.973	4379
903.091	4215
903.21	4223
903.328	4337
903.446	4295
903.565	4287
903.683	4405
903.801	4306
903.919	4466
904.038	4432
904.156	4356
904.274	4409
904.392	4398
904.51	4455
904.627	4519
904.745	4561
904.863	4656
904.981	4398
905.098	4314
905.216	4367
905.334	4462
905.451	4451
905.569	4481
905.686	4554
905.803	4577
905.921	4398
906.038	4603
906.155	4493
906.272	4459
906.389	4489
906.506	4402
906.623	4386
906.74	4451
906.857	4303
906.974	4383
907.091	4577
907.208	4649
907.324	4611
907.441	4485
907.557	4363
907.674	4371
907.79	4337
907.907	4402
908.023	4512
908.139	4493
908.256	4462
908.372	4504
908.488	4493
908.604	4417
908.72	4333
908.836	4417
908.952	4363
909.068	4447
909.184	4611
909.3	4497
909.415	4588
909.531	4561
909.647	4386
909.762	4436
909.878	4341
909.993	4466
910.108	4440
910.224	4440
910.339	4493
910.454	4424
910.57	4474
910.685	4325
910.8	4683
910.915	4622
911.03	4508
911.145	4322
911.259	4371
911.374	4363
911.489	4371
911.604	4306
911.718	4188
911.833	4234
911.947	4101
912.062	4036
912.176	4227
912.291	4287
912.405	4253
912.519	4478
912.633	4493
912.748	4348
912.862	4329
912.976	4238
913.09	4124
913.204	4238
913.318	4227
913.431	4432
913.545	4386
913.659	4421
913.772	4360
913.886	4207
914	4257
914.113	4363
914.226	4440
914.34	4428
914.453	4272
914.566	4516
914.68	4367
914.793	4367
914.906	4150
915.019	4124
915.132	4082
915.245	4219
915.358	4227
915.47	4295
915.583	4268
915.696	4333
915.809	4432
915.921	4417
916.034	4265
916.146	4242
916.259	4238
916.371	4379
916.483	4367
916.595	4234
916.708	4341
916.82	4337
916.932	4386
917.044	4363
917.156	4303
917.268	4272
917.38	4367
917.491	4322
917.603	4436
917.715	4405
917.826	4451
917.938	4367
918.049	4230
918.161	4383
918.272	4592
918.384	4592
918.495	4459
918.606	4295
918.717	4272
918.828	4356
918.939	4409
919.05	4249
919.161	4341
919.272	4173
919.383	4242
919.494	4462
919.604	4645
919.715	4413
919.826	4341
919.936	4386
920.047	4573
920.157	4478
920.267	4717
920.378	4565
920.488	4504
920.598	4710
920.708	4847
920.818	4755
920.928	4729
921.038	4961
921.148	4942
921.258	4580
921.368	4542
921.477	4478
921.587	4478
921.697	4348
921.806	4573
921.916	4409
922.025	4325
922.134	4257
922.244	4188
922.353	4394
922.462	4211
922.571	4185
922.68	4021
922.789	3998
922.898	4044
923.007	4006
923.116	4101
923.224	4074
923.333	4109
923.442	4029
923.55	3991
923.659	4044
923.767	4154
923.876	3964
923.984	4185
924.092	4010
924.201	4105
924.309	4109
924.417	4143
924.525	4071
924.633	4147
924.741	5083
924.849	3907
924.956	4116
925.064	4017
925.172	3915
925.279	3994
925.387	4067
925.494	4105
925.602	4227
925.709	4188
925.816	4078
925.924	4105
926.031	4238
926.138	4196
926.245	4219
926.352	4101
926.459	4257
926.566	4303
926.673	4143
926.779	4101
926.886	4090
926.993	4002
927.099	3968
927.206	3991
927.312	3972
927.419	4044
927.525	4082
927.631	4109
927.737	3972
927.843	3960
927.95	3846
928.056	3964
928.162	4013
928.267	4090
928.373	4675
928.479	4120
928.585	3903
928.69	4074
928.796	4048
928.901	3968
929.007	3880
929.112	4021
929.218	3979
929.323	3987
929.428	3892
929.533	4128
929.638	3918
929.743	3983
929.848	4044
929.953	3991
930.058	3960
930.163	3808
930.267	3857
930.372	3972
930.477	3812
930.581	4101
930.685	3949
930.79	3838
930.894	3949
930.998	3861
931.103	4044
931.207	3740
931.311	3732
931.415	3713
931.519	3549
931.623	3572
