Data from test_V78500241_397.txt Node
Date: Fri Mar 25 16:51:45 CST 2022
User: usil
Spectrometer: V785-0024
Trigger mode: 0
Integration Time (sec): 4.000000E-1
Scans to average: 1
Nonlinearity correction enabled: false
Boxcar width: 0
Storing dark spectrum: false
XAxis mode: Wavelengths
Number of Pixels in Spectrum: 1024
>>>>>Begin Spectral Data<<<<<
801.071	8062
801.214	8081
801.356	7932
801.499	7868
801.641	7814
801.783	7883
801.926	7967
802.068	8020
802.211	8005
802.353	8005
802.496	7879
802.638	7951
802.78	7951
802.923	7913
803.065	7852
803.208	7795
803.35	7928
803.492	8039
803.635	8123
803.777	7967
803.919	8107
804.061	8465
804.204	8180
804.346	8039
804.488	7936
804.63	8100
804.773	7974
804.915	8107
805.057	8313
805.199	8244
805.341	8225
805.483	8263
805.626	8168
805.768	8020
805.91	8069
806.052	8168
806.194	8153
806.336	8267
806.478	8153
806.62	8126
806.762	8176
806.904	8240
807.046	8507
807.188	8332
807.33	8294
807.472	8336
807.614	8149
807.756	8145
807.898	8065
808.04	7974
808.182	8005
808.324	7932
808.465	7944
808.607	8012
808.749	8103
808.891	8282
809.033	8343
809.174	8161
809.316	8073
809.458	8039
809.6	7997
809.741	8035
809.883	8100
810.025	8092
810.166	8191
810.308	8050
810.45	8020
810.591	7898
810.733	7738
810.875	7689
811.016	7567
811.158	7499
811.299	7685
811.441	7738
811.582	7769
811.724	7677
811.865	7616
812.007	7708
812.148	7590
812.29	7639
812.431	7822
812.573	7932
812.714	7864
812.855	8130
812.997	8248
813.138	8298
813.279	8195
813.421	8107
813.562	8020
813.703	7894
813.845	7784
813.986	7506
814.127	7365
814.268	7301
814.41	7244
814.551	7171
814.692	7244
814.833	7019
814.974	7091
815.115	7164
815.256	6939
815.397	6966
815.539	6977
815.68	6818
815.821	6760
815.962	6916
816.103	6856
816.244	6818
816.385	6631
816.526	6677
816.666	6517
816.807	6319
816.948	6483
817.089	6483
817.23	6437
817.371	6418
817.512	6403
817.653	6494
817.793	6376
817.934	6388
818.075	6448
818.216	6460
818.356	6399
818.497	6281
818.638	6140
818.778	6091
818.919	6194
819.06	6155
819.2	6327
819.341	6372
819.481	6346
819.622	6578
819.762	6802
819.903	6722
820.043	6627
820.184	6547
820.324	6646
820.465	6642
820.605	6757
820.746	6658
820.886	6540
821.026	6734
821.167	6749
821.307	6871
821.447	6776
821.588	6673
821.728	6608
821.868	6494
822.008	6357
822.149	6445
822.289	6388
822.429	6136
822.569	6087
822.709	6140
822.849	5950
822.99	5912
823.13	5893
823.27	5935
823.41	5893
823.55	5794
823.69	5786
823.83	5767
823.97	5649
824.11	5558
824.25	5558
824.389	5577
824.529	5596
824.669	5520
824.809	5630
824.949	5634
825.089	5657
825.228	5566
825.368	5425
825.508	5345
825.648	5341
825.787	5387
825.927	5322
826.067	5269
826.206	5288
826.346	5376
826.485	5421
826.625	5368
826.765	5562
826.904	5482
827.044	5265
827.183	5208
827.323	5113
827.462	5254
827.601	5178
827.741	5174
827.88	5254
828.02	5128
828.159	5265
828.298	5265
828.437	5353
828.577	5296
828.716	5539
828.855	5303
828.994	5170
829.134	5132
829.273	5185
829.412	5121
829.551	5083
829.69	5174
829.829	5280
829.968	5376
830.107	5231
830.246	5280
830.385	5193
830.524	5155
830.663	5136
830.802	4991
830.941	4911
831.08	4870
831.219	4987
831.357	4968
831.496	5201
831.635	4927
831.774	4889
831.913	4866
832.051	4744
832.19	4736
832.329	4862
832.467	4698
832.606	4634
832.744	4729
832.883	4786
833.022	4774
833.16	4824
833.299	4805
833.437	4835
833.576	4824
833.714	4854
833.852	4866
833.991	4873
834.129	4930
834.267	4961
834.406	4949
834.544	4987
834.682	4984
834.821	4976
834.959	5151
835.097	4995
835.235	5121
835.373	5105
835.511	5075
835.65	5010
835.788	5045
835.926	4873
836.064	4835
836.202	4968
836.34	5117
836.478	5242
836.615	5128
836.753	5208
836.891	5250
837.029	5242
837.167	5197
837.305	5140
837.443	5159
837.58	5060
837.718	5201
837.856	5220
837.993	5174
838.131	5292
838.269	5208
838.406	5250
838.544	5181
838.681	5041
838.819	5018
838.956	4957
839.094	4900
839.231	5022
839.369	5086
839.506	5459
839.643	5284
839.781	5048
839.918	5048
840.055	5109
840.193	5060
840.33	5132
840.467	5159
840.604	5216
840.742	5425
840.879	5079
841.016	5128
841.153	5151
841.29	5341
841.427	5372
841.564	5383
841.701	5318
841.838	5269
841.975	5269
842.112	5242
842.249	5147
842.385	5094
842.522	5398
842.659	5128
842.796	5128
842.933	5201
843.069	5174
843.206	5159
843.343	5277
843.479	5250
843.616	5254
843.752	5041
843.889	5022
844.025	5231
844.162	4991
844.298	5254
844.435	5128
844.571	4995
844.708	5239
844.844	5303
844.98	5330
845.117	5307
845.253	5121
845.389	5052
845.525	5159
845.661	5159
845.798	5071
845.934	5185
846.07	5045
846.206	5220
846.342	5280
846.478	5132
846.614	5075
846.75	4995
846.886	4953
847.022	5193
847.158	5037
847.294	5090
847.429	5071
847.565	5075
847.701	5299
847.837	4900
847.972	4862
848.108	4911
848.244	4930
848.379	4782
848.515	4767
848.65	4767
848.786	4790
848.921	4740
849.057	4896
849.192	4866
849.328	4797
849.463	4828
849.598	4793
849.734	4767
849.869	4691
850.004	4599
850.14	4653
850.275	4618
850.41	4550
850.545	4573
850.68	4626
850.815	4607
850.95	4637
851.085	4870
851.22	4790
851.355	4679
851.49	4664
851.625	4660
851.76	4660
851.895	4611
852.03	4577
852.165	4641
852.299	4729
852.434	4801
852.569	4771
852.703	4763
852.838	4843
852.973	4938
853.107	4953
853.242	4771
853.376	4740
853.511	4592
853.645	4603
853.78	4835
853.914	4668
854.048	4683
854.183	4618
854.317	4660
854.451	4847
854.585	4679
854.72	4672
854.854	4782
854.988	4603
855.122	4615
855.256	4523
855.39	4649
855.524	4759
855.658	4778
855.792	4710
855.926	4767
856.06	4748
856.194	4839
856.327	4702
856.461	4618
856.595	4668
856.729	4653
856.862	4752
856.996	4687
857.13	4729
857.263	4733
857.397	4824
857.53	4653
857.664	4759
857.797	4748
857.931	4812
858.064	4675
858.197	4767
858.331	4664
858.464	4637
858.597	4535
858.731	4622
858.864	4656
858.997	4611
859.13	4660
859.263	4675
859.396	4717
859.529	4603
859.662	4523
859.795	4554
859.928	4660
860.061	4755
860.194	4793
860.327	4592
860.46	4584
860.592	4694
860.725	4706
860.858	4771
860.99	4546
861.123	4538
861.256	4558
861.388	4607
861.521	5288
861.653	4523
861.786	4402
861.918	4527
862.05	4546
862.183	4527
862.315	4675
862.447	4672
862.58	4554
862.712	4402
862.844	4386
862.976	4470
863.108	4428
863.24	4797
863.372	4367
863.504	4386
863.636	4428
863.768	4519
863.9	4386
864.032	4356
864.164	4390
864.296	4519
864.428	4561
864.559	4554
864.691	4558
864.823	4542
864.954	4531
865.086	4485
865.217	4489
865.349	4451
865.48	4428
865.612	4481
865.743	4630
865.875	4451
866.006	4398
866.137	4527
866.269	4459
866.4	4459
866.531	4447
866.662	4405
866.793	4398
866.924	4405
867.055	4478
867.186	4443
867.317	4402
867.448	4383
867.579	4386
867.71	4360
867.841	4398
867.972	4478
868.103	4443
868.233	4443
868.364	4451
868.495	4554
868.625	4687
868.756	4740
868.886	4577
869.017	4656
869.147	4763
869.278	4767
869.408	4706
869.539	4691
869.669	4698
869.799	4687
869.929	4748
870.06	4778
870.19	4972
870.32	4949
870.45	4938
870.58	4991
870.71	5121
870.84	5079
870.97	4919
871.1	4889
871.23	5151
871.36	5128
871.489	4972
871.619	5045
871.749	5086
871.879	5178
872.008	5201
872.138	5067
872.267	4984
872.397	4847
872.526	4870
872.656	4698
872.785	4790
872.915	4965
873.044	5022
873.173	5014
873.303	4972
873.432	4961
873.561	4972
873.69	4877
873.819	4904
873.948	4930
874.077	4778
874.206	4778
874.335	4790
874.464	4904
874.593	5071
874.722	4938
874.851	5117
874.979	5025
875.108	5037
875.237	4915
875.365	4919
875.494	4889
875.623	4980
875.751	4847
875.88	4847
876.008	5006
876.136	5060
876.265	5185
876.393	5345
876.521	5307
876.65	5239
876.778	5178
876.906	5075
877.034	4999
877.162	5022
877.29	4968
877.418	5075
877.546	5064
877.674	5075
877.802	4968
877.93	5029
878.058	4942
878.185	4870
878.313	4953
878.441	4949
878.568	4790
878.696	4866
878.824	4991
878.951	4984
879.079	5136
879.206	5326
879.333	5048
879.461	4976
879.588	4999
879.715	5113
879.842	5212
879.97	5014
880.097	4778
880.224	4782
880.351	4835
880.478	4866
880.605	4805
880.732	4812
880.859	5090
880.986	4885
881.112	4900
881.239	4774
881.366	4721
881.493	4622
881.619	4580
881.746	4622
881.872	4634
881.999	4675
882.125	4675
882.252	4755
882.378	4835
882.505	4953
882.631	4774
882.757	4672
882.883	4752
883.01	4755
883.136	4660
883.262	4611
883.388	4592
883.514	4843
883.64	4873
883.766	4767
883.892	4687
884.018	4710
884.143	4911
884.269	5033
884.395	4740
884.52	4664
884.646	4656
884.772	4592
884.897	4584
885.023	4679
885.148	4801
885.274	4862
885.399	4839
885.524	4668
885.65	4675
885.775	4755
885.9	4778
886.025	4866
886.15	4759
886.275	4698
886.4	4710
886.525	4710
886.65	4717
886.775	4729
886.9	4854
887.025	5029
887.149	4771
887.274	4634
887.399	4577
887.523	4603
887.648	4603
887.773	4641
887.897	4733
888.021	4729
888.146	4668
888.27	4801
888.395	4885
888.519	4828
888.643	4843
888.767	4809
888.891	4691
889.015	4637
889.139	4656
889.263	4592
889.387	4778
889.511	4843
889.635	4797
889.759	4702
889.883	4664
890.006	4782
890.13	4824
890.254	4626
890.377	4706
890.501	4558
890.624	4508
890.748	4607
890.871	4580
890.995	4409
891.118	4405
891.241	4504
891.364	4558
891.488	4637
891.611	4538
891.734	4577
891.857	4596
891.98	4527
892.103	4622
892.226	4565
892.349	4558
892.471	4405
892.594	4561
892.717	4603
892.839	4535
892.962	4603
893.085	4649
893.207	4683
893.33	4470
893.452	4554
893.575	4675
893.697	4607
893.819	4759
893.941	4847
894.064	4744
894.186	4599
894.308	4615
894.43	4736
894.552	4824
894.674	4755
894.796	4580
894.918	4649
895.04	4554
895.161	4721
895.283	4664
895.405	4565
895.526	4615
895.648	4702
895.769	4691
895.891	4660
896.012	4733
896.134	4755
896.255	4615
896.376	4653
896.498	4596
896.619	4675
896.74	4584
896.861	4656
896.982	4919
897.103	5056
897.224	4820
897.345	4763
897.466	4683
897.587	4778
897.708	4885
897.828	4786
897.949	4630
898.07	4580
898.19	4641
898.311	4862
898.431	4656
898.552	4763
898.672	4820
898.792	4816
898.913	4748
899.033	4611
899.153	4504
899.273	4428
899.393	4497
899.513	4546
899.633	4512
899.753	4527
899.873	4523
899.993	4599
900.113	4588
900.232	4603
900.352	4523
900.472	4466
900.591	4348
900.711	4489
900.83	4405
900.95	4634
901.069	4714
901.189	4542
901.308	4371
901.427	4318
901.546	4360
901.665	4493
901.784	4516
901.904	4394
902.023	4363
902.141	4181
902.26	4192
902.379	4268
902.498	4268
902.617	4246
902.735	4394
902.854	4436
902.973	4344
903.091	4196
903.21	4223
903.328	4322
903.446	4303
903.565	4227
903.683	4386
903.801	4242
903.919	4390
904.038	4417
904.156	4280
904.274	4424
904.392	4356
904.51	4432
904.627	4474
904.745	4611
904.863	4683
904.981	4413
905.098	4306
905.216	4329
905.334	4440
905.451	4455
905.569	4409
905.686	4573
905.803	4584
905.921	4409
906.038	4558
906.155	4443
906.272	4390
906.389	4481
906.506	4413
906.623	4394
906.74	4402
906.857	4394
906.974	4367
907.091	4558
907.208	4683
907.324	4599
907.441	4508
907.557	4360
907.674	4333
907.79	4344
907.907	4386
908.023	4489
908.139	4523
908.256	4390
908.372	4485
908.488	4459
908.604	4394
908.72	4325
908.836	4379
908.952	4341
909.068	4447
909.184	4550
909.3	4428
909.415	4603
909.531	4580
909.647	4322
909.762	4379
909.878	4344
909.993	4421
910.108	4470
910.224	4440
910.339	4466
910.454	4390
910.57	4405
910.685	4284
910.8	4611
910.915	4577
911.03	4527
911.145	4367
911.259	4280
911.374	4363
911.489	4318
911.604	4287
911.718	4185
911.833	4162
911.947	4074
912.062	3983
912.176	4204
912.291	4234
912.405	4272
912.519	4424
912.633	4497
912.748	4352
912.862	4333
912.976	4219
913.09	4090
913.204	4177
913.318	4284
913.431	4348
913.545	4371
913.659	4383
913.772	4363
913.886	4284
914	4291
914.113	4405
914.226	4474
914.34	4398
914.453	4291
914.566	4447
914.68	4303
914.793	4295
914.906	4131
915.019	4128
915.132	4040
915.245	4188
915.358	4215
915.47	4196
915.583	4299
915.696	4322
915.809	4421
915.921	4421
916.034	4215
916.146	4253
916.259	4204
916.371	4386
916.483	4383
916.595	4280
916.708	4322
916.82	4265
916.932	4329
917.044	4299
917.156	4272
917.268	4234
917.38	4322
917.491	4310
917.603	4303
917.715	4443
917.826	4421
917.938	4318
918.049	4265
918.161	4379
918.272	4573
918.384	4538
918.495	4436
918.606	4291
918.717	4261
918.828	4314
918.939	4390
919.05	4306
919.161	4333
919.272	4166
919.383	4223
919.494	4443
919.604	4599
919.715	4428
919.826	4329
919.936	4413
920.047	4527
920.157	4493
920.267	4717
920.378	4554
920.488	4489
920.598	4668
920.708	4858
920.818	4767
920.928	4767
921.038	4942
921.148	4896
921.258	4592
921.368	4554
921.477	4508
921.587	4451
921.697	4348
921.806	4523
921.916	4478
922.025	4295
922.134	4291
922.244	4242
922.353	4337
922.462	4158
922.571	4139
922.68	4040
922.789	4002
922.898	4055
923.007	3968
923.116	4135
923.224	4048
923.333	4044
923.442	3949
923.55	3991
923.659	4025
923.767	4135
923.876	3994
923.984	4074
924.092	3991
924.201	4071
924.309	4101
924.417	4147
924.525	4074
924.633	4112
924.741	5037
924.849	3934
924.956	4150
925.064	4002
925.172	3915
925.279	3983
925.387	4051
925.494	4048
925.602	4207
925.709	4192
925.816	4071
925.924	4185
926.031	4227
926.138	4181
926.245	4185
926.352	4048
926.459	4234
926.566	4322
926.673	4150
926.779	4051
926.886	4071
926.993	3964
927.099	3983
927.206	3918
927.312	3922
927.419	4036
927.525	4021
927.631	4101
927.737	3998
927.843	3964
927.95	3857
928.056	3968
928.162	3994
928.267	4063
928.373	4645
928.479	4154
928.585	3869
928.69	4032
928.796	4109
928.901	3960
929.007	3846
929.112	4010
929.218	3972
929.323	3930
929.428	3998
929.533	4086
929.638	3918
929.743	3983
929.848	4017
929.953	3998
930.058	3956
930.163	3774
930.267	3797
930.372	3991
930.477	3823
930.581	4101
930.685	3915
930.79	3842
930.894	3865
930.998	3857
931.103	4055
931.207	3709
931.311	3717
931.415	3663
931.519	3504
931.623	3534
