Data from test_V78500241_2269.txt Node
Date: Fri Mar 25 17:04:46 CST 2022
User: usil
Spectrometer: V785-0024
Trigger mode: 0
Integration Time (sec): 4.000000E-1
Scans to average: 1
Nonlinearity correction enabled: false
Boxcar width: 0
Storing dark spectrum: false
XAxis mode: Wavelengths
Number of Pixels in Spectrum: 1024
>>>>>Begin Spectral Data<<<<<
801.071	8001
801.214	7963
801.356	7814
801.499	7826
801.641	7769
801.783	7837
801.926	8027
802.068	7967
802.211	7963
802.353	8005
802.496	7807
802.638	7845
802.78	7887
802.923	7940
803.065	7860
803.208	7833
803.35	7921
803.492	8016
803.635	8138
803.777	8016
803.919	8111
804.061	8431
804.204	8176
804.346	8065
804.488	7967
804.63	8088
804.773	7959
804.915	8073
805.057	8339
805.199	8157
805.341	8161
805.483	8267
805.626	8119
805.768	8107
805.91	8176
806.052	8244
806.194	8043
806.336	8218
806.478	8062
806.62	8084
806.762	8111
806.904	8233
807.046	8457
807.188	8328
807.33	8290
807.472	8347
807.614	8130
807.756	8138
807.898	7944
808.04	7928
808.182	7928
808.324	7875
808.465	7894
808.607	8107
808.749	8107
808.891	8206
809.033	8328
809.174	8153
809.316	8039
809.458	8077
809.6	7974
809.741	8084
809.883	8050
810.025	8119
810.166	8065
810.308	8058
810.45	8016
810.591	7799
810.733	7700
810.875	7670
811.016	7499
811.158	7430
811.299	7575
811.441	7723
811.582	7666
811.724	7529
811.865	7518
812.007	7605
812.148	7616
812.29	7601
812.431	7674
812.573	7811
812.714	7940
812.855	8206
812.997	8229
813.138	8298
813.279	8119
813.421	8077
813.562	7921
813.703	7826
813.845	7765
813.986	7445
814.127	7247
814.268	7171
814.41	7179
814.551	7164
814.692	7179
814.833	7126
814.974	7095
815.115	7110
815.256	7008
815.397	6920
815.539	6951
815.68	6848
815.821	6810
815.962	6897
816.103	6802
816.244	6696
816.385	6669
816.526	6623
816.666	6521
816.807	6292
816.948	6433
817.089	6486
817.23	6388
817.371	6372
817.512	6380
817.653	6376
817.793	6365
817.934	6376
818.075	6437
818.216	6433
818.356	6391
818.497	6186
818.638	6102
818.778	6155
818.919	6178
819.06	6125
819.2	6296
819.341	6357
819.481	6357
819.622	6506
819.762	6703
819.903	6692
820.043	6669
820.184	6627
820.324	6574
820.465	6703
820.605	6715
820.746	6673
820.886	6525
821.026	6601
821.167	6764
821.307	6810
821.447	6810
821.588	6616
821.728	6525
821.868	6441
822.008	6285
822.149	6323
822.289	6384
822.429	6121
822.569	6106
822.709	6125
822.849	5908
822.99	5847
823.13	5969
823.27	5908
823.41	5783
823.55	5779
823.69	5767
823.83	5817
823.97	5668
824.11	5547
824.25	5455
824.389	5528
824.529	5566
824.669	5520
824.809	5604
824.949	5619
825.089	5585
825.228	5566
825.368	5353
825.508	5330
825.648	5387
825.787	5387
825.927	5349
826.067	5303
826.206	5296
826.346	5337
826.485	5387
826.625	5349
826.765	5604
826.904	5452
827.044	5239
827.183	5216
827.323	5143
827.462	5261
827.601	5185
827.741	5223
827.88	5220
828.02	5147
828.159	5269
828.298	5303
828.437	5372
828.577	5315
828.716	5528
828.855	5357
828.994	5193
829.134	5147
829.273	5223
829.412	5090
829.551	5094
829.69	5159
829.829	5204
829.968	5391
830.107	5265
830.246	5269
830.385	5159
830.524	5143
830.663	5045
830.802	4953
830.941	4858
831.08	4835
831.219	4968
831.357	5014
831.496	5151
831.635	4923
831.774	4809
831.913	4850
832.051	4763
832.19	4729
832.329	4839
832.467	4710
832.606	4592
832.744	4736
832.883	4736
833.022	4702
833.16	4782
833.299	4801
833.437	4828
833.576	4839
833.714	4870
833.852	4881
833.991	4889
834.129	4949
834.267	4953
834.406	4877
834.544	5006
834.682	4980
834.821	4980
834.959	5128
835.097	4980
835.235	5098
835.373	5083
835.511	5132
835.65	5018
835.788	5037
835.926	4961
836.064	4858
836.202	4919
836.34	5189
836.478	5178
836.615	5105
836.753	5189
836.891	5311
837.029	5235
837.167	5143
837.305	5162
837.443	5102
837.58	5109
837.718	5242
837.856	5220
837.993	5162
838.131	5231
838.269	5178
838.406	5231
838.544	5132
838.681	5010
838.819	5003
838.956	4885
839.094	4923
839.231	4976
839.369	5052
839.506	5379
839.643	5269
839.781	5056
839.918	4984
840.055	5090
840.193	5113
840.33	5098
840.467	5143
840.604	5208
840.742	5406
840.879	5102
841.016	5025
841.153	5083
841.29	5379
841.427	5292
841.564	5326
841.701	5379
841.838	5261
841.975	5246
842.112	5189
842.249	5132
842.385	5105
842.522	5334
842.659	5151
842.796	5178
842.933	5189
843.069	5159
843.206	5132
843.343	5296
843.479	5193
843.616	5334
843.752	5033
843.889	4965
844.025	5185
844.162	5010
844.298	5197
844.435	5060
844.571	5014
844.708	5178
844.844	5292
844.98	5292
845.117	5296
845.253	5159
845.389	5033
845.525	5159
845.661	5090
845.798	5022
845.934	5117
846.07	5048
846.206	5193
846.342	5326
846.478	5140
846.614	5025
846.75	4984
846.886	4938
847.022	5098
847.158	5022
847.294	5052
847.429	5075
847.565	4999
847.701	5360
847.837	4831
847.972	4755
848.108	4953
848.244	4938
848.379	4767
848.515	4725
848.65	4725
848.786	4755
848.921	4816
849.057	4854
849.192	4889
849.328	4782
849.463	4820
849.598	4793
849.734	4797
849.869	4649
850.004	4634
850.14	4721
850.275	4603
850.41	4527
850.545	4527
850.68	4649
850.815	4592
850.95	4618
851.085	4839
851.22	4740
851.355	4637
851.49	4626
851.625	4653
851.76	4672
851.895	4561
852.03	4519
852.165	4634
852.299	4710
852.434	4801
852.569	4771
852.703	4809
852.838	4820
852.973	4900
853.107	4904
853.242	4721
853.376	4691
853.511	4538
853.645	4656
853.78	4793
853.914	4683
854.048	4672
854.183	4649
854.317	4694
854.451	4858
854.585	4733
854.72	4599
854.854	4755
854.988	4637
855.122	4649
855.256	4538
855.39	4664
855.524	4759
855.658	4675
855.792	4645
855.926	4672
856.06	4752
856.194	4805
856.327	4691
856.461	4603
856.595	4618
856.729	4653
856.862	4721
856.996	4675
857.13	4675
857.263	4755
857.397	4847
857.53	4588
857.664	4672
857.797	4721
857.931	4748
858.064	4649
858.197	4721
858.331	4584
858.464	4596
858.597	4504
858.731	4611
858.864	4588
858.997	4592
859.13	4611
859.263	4596
859.396	4710
859.529	4558
859.662	4569
859.795	4504
859.928	4645
860.061	4729
860.194	4702
860.327	4577
860.46	4596
860.592	4721
860.725	4649
860.858	4729
860.99	4512
861.123	4485
861.256	4538
861.388	4641
861.521	5292
861.653	4474
861.786	4485
861.918	4417
862.05	4481
862.183	4577
862.315	4603
862.447	4603
862.58	4519
862.712	4405
862.844	4299
862.976	4493
863.108	4474
863.24	4873
863.372	4325
863.504	4398
863.636	4386
863.768	4504
863.9	4428
864.032	4417
864.164	4383
864.296	4470
864.428	4531
864.559	4573
864.691	4527
864.823	4523
864.954	4466
865.086	4485
865.217	4436
865.349	4421
865.48	4405
865.612	4512
865.743	4599
865.875	4500
866.006	4398
866.137	4497
866.269	4485
866.4	4428
866.531	4417
866.662	4402
866.793	4428
866.924	4428
867.055	4447
867.186	4481
867.317	4424
867.448	4371
867.579	4417
867.71	4394
867.841	4367
867.972	4485
868.103	4455
868.233	4474
868.364	4436
868.495	4523
868.625	4615
868.756	4793
868.886	4584
869.017	4584
869.147	4805
869.278	4744
869.408	4653
869.539	4634
869.669	4698
869.799	4641
869.929	4733
870.06	4698
870.19	4866
870.32	4900
870.45	4930
870.58	5006
870.71	5105
870.84	5143
870.97	4942
871.1	4896
871.23	5098
871.36	5136
871.489	5025
871.619	5083
871.749	5083
871.879	5128
872.008	5140
872.138	5014
872.267	4991
872.397	4782
872.526	4870
872.656	4740
872.785	4812
872.915	4911
873.044	5045
873.173	4915
873.303	4946
873.432	4957
873.561	4930
873.69	4908
873.819	4911
873.948	4858
874.077	4870
874.206	4679
874.335	4793
874.464	4923
874.593	5105
874.722	4976
874.851	5056
874.979	5056
875.108	5045
875.237	4915
875.365	4896
875.494	4847
875.623	4968
875.751	4809
875.88	4873
876.008	4957
876.136	4991
876.265	5204
876.393	5353
876.521	5250
876.65	5189
876.778	5136
876.906	5071
877.034	5022
877.162	5029
877.29	4972
877.418	5045
877.546	5025
877.674	5006
877.802	5025
877.93	5045
878.058	4892
878.185	4824
878.313	4896
878.441	4923
878.568	4816
878.696	4877
878.824	4946
878.951	4984
879.079	5098
879.206	5258
879.333	5067
879.461	4930
879.588	5041
879.715	5052
879.842	5178
879.97	4995
880.097	4782
880.224	4767
880.351	4812
880.478	4774
880.605	4771
880.732	4767
880.859	5048
880.986	4866
881.112	4862
881.239	4782
881.366	4622
881.493	4618
881.619	4542
881.746	4641
881.872	4592
881.999	4672
882.125	4683
882.252	4839
882.378	4820
882.505	4923
882.631	4797
882.757	4649
882.883	4622
883.01	4710
883.136	4672
883.262	4615
883.388	4554
883.514	4820
883.64	4889
883.766	4793
883.892	4664
884.018	4740
884.143	4911
884.269	4972
884.395	4683
884.52	4618
884.646	4691
884.772	4592
884.897	4592
885.023	4653
885.148	4778
885.274	4877
885.399	4801
885.524	4687
885.65	4679
885.775	4744
885.9	4717
886.025	4862
886.15	4771
886.275	4694
886.4	4634
886.525	4691
886.65	4675
886.775	4679
886.9	4885
887.025	5010
887.149	4847
887.274	4691
887.399	4558
887.523	4573
887.648	4546
887.773	4580
887.897	4744
888.021	4748
888.146	4691
888.27	4763
888.395	4870
888.519	4797
888.643	4793
888.767	4778
888.891	4694
889.015	4607
889.139	4656
889.263	4588
889.387	4706
889.511	4858
889.635	4778
889.759	4599
889.883	4611
890.006	4721
890.13	4801
890.254	4641
890.377	4710
890.501	4573
890.624	4493
890.748	4584
890.871	4504
890.995	4390
891.118	4394
891.241	4531
891.364	4504
891.488	4656
891.611	4485
891.734	4523
891.857	4649
891.98	4512
892.103	4634
892.226	4592
892.349	4554
892.471	4398
892.594	4542
892.717	4603
892.839	4577
892.962	4596
893.085	4679
893.207	4603
893.33	4470
893.452	4504
893.575	4664
893.697	4561
893.819	4759
893.941	4801
894.064	4816
894.186	4596
894.308	4561
894.43	4706
894.552	4771
894.674	4752
894.796	4527
894.918	4618
895.04	4538
895.161	4710
895.283	4668
895.405	4596
895.526	4630
895.648	4683
895.769	4653
895.891	4698
896.012	4694
896.134	4717
896.255	4641
896.376	4626
896.498	4603
896.619	4622
896.74	4603
896.861	4683
896.982	4927
897.103	5060
897.224	4850
897.345	4744
897.466	4683
897.587	4759
897.708	4866
897.828	4774
897.949	4641
898.07	4527
898.19	4664
898.311	4812
898.431	4653
898.552	4725
898.672	4812
898.792	4824
898.913	4721
899.033	4618
899.153	4500
899.273	4443
899.393	4516
899.513	4546
899.633	4504
899.753	4538
899.873	4474
899.993	4611
900.113	4497
900.232	4561
900.352	4508
900.472	4451
900.591	4413
900.711	4428
900.83	4424
900.95	4596
901.069	4675
901.189	4516
901.308	4356
901.427	4303
901.546	4402
901.665	4462
901.784	4493
901.904	4371
902.023	4287
902.141	4150
902.26	4105
902.379	4303
902.498	4219
902.617	4192
902.735	4348
902.854	4390
902.973	4352
903.091	4177
903.21	4181
903.328	4299
903.446	4257
903.565	4280
903.683	4360
903.801	4249
903.919	4398
904.038	4417
904.156	4276
904.274	4405
904.392	4402
904.51	4421
904.627	4455
904.745	4584
904.863	4580
904.981	4402
905.098	4303
905.216	4337
905.334	4394
905.451	4402
905.569	4436
905.686	4592
905.803	4550
905.921	4402
906.038	4554
906.155	4451
906.272	4360
906.389	4447
906.506	4333
906.623	4375
906.74	4363
906.857	4280
906.974	4333
907.091	4523
907.208	4660
907.324	4538
907.441	4478
907.557	4333
907.674	4348
907.79	4306
907.907	4379
908.023	4424
908.139	4497
908.256	4462
908.372	4474
908.488	4428
908.604	4295
908.72	4299
908.836	4344
908.952	4363
909.068	4409
909.184	4577
909.3	4455
909.415	4561
909.531	4500
909.647	4348
909.762	4405
909.878	4341
909.993	4451
910.108	4443
910.224	4428
910.339	4493
910.454	4436
910.57	4367
910.685	4306
910.8	4615
910.915	4637
911.03	4512
911.145	4341
911.259	4299
911.374	4363
911.489	4261
911.604	4246
911.718	4192
911.833	4253
911.947	4162
912.062	4055
912.176	4238
912.291	4227
912.405	4257
912.519	4493
912.633	4550
912.748	4413
912.862	4375
912.976	4211
913.09	4131
913.204	4181
913.318	4314
913.431	4428
913.545	4402
913.659	4470
913.772	4379
913.886	4268
914	4242
914.113	4402
914.226	4451
914.34	4466
914.453	4287
914.566	4508
914.68	4341
914.793	4386
914.906	4223
915.019	4185
915.132	4101
915.245	4227
915.358	4246
915.47	4242
915.583	4291
915.696	4310
915.809	4432
915.921	4432
916.034	4295
916.146	4318
916.259	4280
916.371	4424
916.483	4405
916.595	4310
916.708	4337
916.82	4363
916.932	4363
917.044	4383
917.156	4360
917.268	4344
917.38	4314
917.491	4325
917.603	4379
917.715	4432
917.826	4489
917.938	4421
918.049	4306
918.161	4459
918.272	4519
918.384	4592
918.495	4470
918.606	4333
918.717	4284
918.828	4379
918.939	4443
919.05	4253
919.161	4375
919.272	4158
919.383	4280
919.494	4489
919.604	4656
919.715	4470
919.826	4356
919.936	4451
920.047	4535
920.157	4508
920.267	4710
920.378	4626
920.488	4546
920.598	4752
920.708	4923
920.818	4809
920.928	4774
921.038	4991
921.148	4938
921.258	4656
921.368	4599
921.477	4523
921.587	4535
921.697	4405
921.806	4577
921.916	4466
922.025	4341
922.134	4318
922.244	4299
922.353	4409
922.462	4181
922.571	4166
922.68	4040
922.789	4010
922.898	4078
923.007	3998
923.116	4139
923.224	4139
923.333	4105
923.442	4006
923.55	4025
923.659	4025
923.767	4120
923.876	4032
923.984	4158
924.092	4051
924.201	4082
924.309	4139
924.417	4204
924.525	4139
924.633	4109
924.741	5075
924.849	3949
924.956	4120
925.064	3975
925.172	3934
925.279	3968
925.387	4071
925.494	4086
925.602	4200
925.709	4204
925.816	4074
925.924	4147
926.031	4207
926.138	4234
926.245	4249
926.352	4090
926.459	4318
926.566	4341
926.673	4185
926.779	4131
926.886	4101
926.993	4029
927.099	3975
927.206	3960
927.312	3975
927.419	4105
927.525	4044
927.631	4143
927.737	4002
927.843	3983
927.95	3854
928.056	3991
928.162	4063
928.267	4105
928.373	4744
928.479	4147
928.585	3918
928.69	4044
928.796	4093
928.901	4017
929.007	3899
929.112	4013
929.218	4002
929.323	4013
929.428	3945
929.533	4143
929.638	3903
929.743	3991
929.848	4109
929.953	4021
930.058	3937
930.163	3812
930.267	3838
930.372	4040
930.477	3831
930.581	4109
930.685	3953
930.79	3854
930.894	3934
930.998	3857
931.103	4059
931.207	3759
931.311	3724
931.415	3736
931.519	3561
931.623	3584
