Data from test_V78500241_1778.txt Node
Date: Fri Mar 25 17:01:21 CST 2022
User: usil
Spectrometer: V785-0024
Trigger mode: 0
Integration Time (sec): 4.000000E-1
Scans to average: 1
Nonlinearity correction enabled: false
Boxcar width: 0
Storing dark spectrum: false
XAxis mode: Wavelengths
Number of Pixels in Spectrum: 1024
>>>>>Begin Spectral Data<<<<<
801.071	7944
801.214	8046
801.356	7917
801.499	7845
801.641	7807
801.783	7921
801.926	7932
802.068	7974
802.211	8050
802.353	8031
802.496	7845
802.638	7921
802.78	7940
802.923	7932
803.065	7811
803.208	7883
803.35	8024
803.492	8069
803.635	8111
803.777	8005
803.919	8107
804.061	8499
804.204	8206
804.346	8077
804.488	7974
804.63	8054
804.773	7997
804.915	8142
805.057	8313
805.199	8221
805.341	8123
805.483	8275
805.626	8256
805.768	8096
805.91	8149
806.052	8244
806.194	8176
806.336	8336
806.478	8111
806.62	8111
806.762	8065
806.904	8263
807.046	8469
807.188	8374
807.33	8351
807.472	8374
807.614	8168
807.756	8130
807.898	8035
808.04	7894
808.182	7940
808.324	7928
808.465	7909
808.607	8088
808.749	8096
808.891	8153
809.033	8313
809.174	8199
809.316	8031
809.458	8100
809.6	8088
809.741	8069
809.883	7974
810.025	8092
810.166	8077
810.308	8024
810.45	7936
810.591	7845
810.733	7746
810.875	7677
811.016	7548
811.158	7453
811.299	7563
811.441	7776
811.582	7700
811.724	7559
811.865	7521
812.007	7616
812.148	7628
812.29	7639
812.431	7784
812.573	7871
812.714	8005
812.855	8187
812.997	8210
813.138	8332
813.279	8206
813.421	8126
813.562	7947
813.703	7795
813.845	7708
813.986	7415
814.127	7228
814.268	7263
814.41	7160
814.551	7213
814.692	7217
814.833	7095
814.974	7107
815.115	7122
815.256	6939
815.397	6951
815.539	7019
815.68	6833
815.821	6791
815.962	6878
816.103	6810
816.244	6646
816.385	6627
816.526	6631
816.666	6547
816.807	6300
816.948	6433
817.089	6433
817.23	6448
817.371	6338
817.512	6399
817.653	6369
817.793	6353
817.934	6429
818.075	6448
818.216	6460
818.356	6399
818.497	6209
818.638	6133
818.778	6239
818.919	6190
819.06	6182
819.2	6323
819.341	6304
819.481	6361
819.622	6517
819.762	6684
819.903	6760
820.043	6650
820.184	6589
820.324	6623
820.465	6711
820.605	6631
820.746	6642
820.886	6544
821.026	6681
821.167	6658
821.307	6802
821.447	6760
821.588	6578
821.728	6547
821.868	6498
822.008	6331
822.149	6372
822.289	6350
822.429	6144
822.569	6087
822.709	6167
822.849	5912
822.99	5920
823.13	5931
823.27	5923
823.41	5786
823.55	5836
823.69	5733
823.83	5699
823.97	5661
824.11	5570
824.25	5509
824.389	5532
824.529	5589
824.669	5581
824.809	5634
824.949	5589
825.089	5600
825.228	5634
825.368	5383
825.508	5379
825.648	5353
825.787	5376
825.927	5391
826.067	5246
826.206	5269
826.346	5444
826.485	5368
826.625	5459
826.765	5543
826.904	5433
827.044	5235
827.183	5223
827.323	5143
827.462	5231
827.601	5242
827.741	5212
827.88	5223
828.02	5117
828.159	5235
828.298	5296
828.437	5383
828.577	5235
828.716	5474
828.855	5318
828.994	5159
829.134	5147
829.273	5166
829.412	5121
829.551	5124
829.69	5185
829.829	5223
829.968	5360
830.107	5284
830.246	5303
830.385	5155
830.524	5105
830.663	5132
830.802	4961
830.941	4915
831.08	4892
831.219	5022
831.357	4953
831.496	5143
831.635	4949
831.774	4858
831.913	4839
832.051	4717
832.19	4786
832.329	4862
832.467	4740
832.606	4664
832.744	4755
832.883	4733
833.022	4733
833.16	4710
833.299	4812
833.437	4908
833.576	4873
833.714	4843
833.852	4885
833.991	4892
834.129	4957
834.267	4942
834.406	4930
834.544	5003
834.682	4953
834.821	4930
834.959	5155
835.097	4999
835.235	5090
835.373	5121
835.511	5067
835.65	5052
835.788	5022
835.926	4892
836.064	4896
836.202	4919
836.34	5124
836.478	5201
836.615	5155
836.753	5201
836.891	5231
837.029	5220
837.167	5258
837.305	5151
837.443	5128
837.58	5105
837.718	5239
837.856	5212
837.993	5166
838.131	5204
838.269	5204
838.406	5201
838.544	5178
838.681	5022
838.819	4976
838.956	4904
839.094	4889
839.231	4991
839.369	5060
839.506	5433
839.643	5265
839.781	5052
839.918	5083
840.055	5079
840.193	5071
840.33	5098
840.467	5113
840.604	5223
840.742	5425
840.879	5067
841.016	5075
841.153	5128
841.29	5337
841.427	5330
841.564	5307
841.701	5357
841.838	5307
841.975	5185
842.112	5288
842.249	5086
842.385	5102
842.522	5315
842.659	5197
842.796	5155
842.933	5220
843.069	5174
843.206	5155
843.343	5296
843.479	5223
843.616	5242
843.752	5033
843.889	4991
844.025	5174
844.162	4995
844.298	5227
844.435	5067
844.571	5064
844.708	5204
844.844	5368
844.98	5307
845.117	5280
845.253	5170
845.389	5098
845.525	5159
845.661	5128
845.798	5033
845.934	5105
846.07	5086
846.206	5193
846.342	5220
846.478	5162
846.614	4987
846.75	4949
846.886	4957
847.022	5105
847.158	5022
847.294	5113
847.429	5094
847.565	5079
847.701	5292
847.837	4835
847.972	4774
848.108	4911
848.244	4911
848.379	4782
848.515	4740
848.65	4733
848.786	4767
848.921	4736
849.057	4881
849.192	4892
849.328	4835
849.463	4824
849.598	4839
849.734	4759
849.869	4710
850.004	4618
850.14	4618
850.275	4641
850.41	4512
850.545	4565
850.68	4584
850.815	4577
850.95	4569
851.085	4858
851.22	4809
851.355	4645
851.49	4592
851.625	4634
851.76	4641
851.895	4569
852.03	4527
852.165	4672
852.299	4721
852.434	4767
852.569	4725
852.703	4793
852.838	4820
852.973	4930
853.107	4877
853.242	4748
853.376	4660
853.511	4599
853.645	4588
853.78	4862
853.914	4675
854.048	4694
854.183	4683
854.317	4660
854.451	4847
854.585	4664
854.72	4637
854.854	4835
854.988	4599
855.122	4630
855.256	4542
855.39	4660
855.524	4797
855.658	4698
855.792	4672
855.926	4763
856.06	4694
856.194	4774
856.327	4698
856.461	4615
856.595	4618
856.729	4626
856.862	4717
856.996	4748
857.13	4714
857.263	4752
857.397	4809
857.53	4622
857.664	4725
857.797	4733
857.931	4771
858.064	4710
858.197	4714
858.331	4653
858.464	4573
858.597	4535
858.731	4691
858.864	4618
858.997	4607
859.13	4622
859.263	4664
859.396	4736
859.529	4607
859.662	4569
859.795	4500
859.928	4588
860.061	4706
860.194	4778
860.327	4584
860.46	4573
860.592	4679
860.725	4729
860.858	4744
860.99	4546
861.123	4504
861.256	4527
861.388	4607
861.521	5246
861.653	4470
861.786	4466
861.918	4451
862.05	4508
862.183	4527
862.315	4630
862.447	4679
862.58	4542
862.712	4394
862.844	4363
862.976	4474
863.108	4459
863.24	4900
863.372	4265
863.504	4421
863.636	4428
863.768	4504
863.9	4455
864.032	4295
864.164	4417
864.296	4493
864.428	4531
864.559	4542
864.691	4554
864.823	4531
864.954	4531
865.086	4459
865.217	4478
865.349	4371
865.48	4455
865.612	4443
865.743	4596
865.875	4481
866.006	4394
866.137	4405
866.269	4447
866.4	4421
866.531	4455
866.662	4398
866.793	4367
866.924	4413
867.055	4489
867.186	4447
867.317	4409
867.448	4394
867.579	4390
867.71	4398
867.841	4341
867.972	4508
868.103	4436
868.233	4451
868.364	4432
868.495	4466
868.625	4603
868.756	4755
868.886	4588
869.017	4634
869.147	4774
869.278	4717
869.408	4683
869.539	4561
869.669	4725
869.799	4618
869.929	4763
870.06	4706
870.19	5003
870.32	4900
870.45	4904
870.58	5037
870.71	5094
870.84	5086
870.97	4946
871.1	4885
871.23	5124
871.36	5174
871.489	4991
871.619	5052
871.749	5075
871.879	5102
872.008	5193
872.138	5041
872.267	4934
872.397	4858
872.526	4820
872.656	4767
872.785	4835
872.915	4972
873.044	5037
873.173	4934
873.303	4930
873.432	4995
873.561	4949
873.69	4870
873.819	4873
873.948	4968
874.077	4854
874.206	4740
874.335	4748
874.464	4927
874.593	5086
874.722	4949
874.851	5098
874.979	5064
875.108	5006
875.237	4915
875.365	4866
875.494	4911
875.623	4965
875.751	4831
875.88	4877
876.008	4976
876.136	5014
876.265	5151
876.393	5322
876.521	5242
876.65	5235
876.778	5162
876.906	5018
877.034	5033
877.162	5045
877.29	5025
877.418	5033
877.546	5045
877.674	5048
877.802	5003
877.93	5029
878.058	4965
878.185	4904
878.313	4953
878.441	4949
878.568	4786
878.696	4904
878.824	4930
878.951	5022
879.079	5113
879.206	5254
879.333	5143
879.461	4911
879.588	4965
879.715	5128
879.842	5212
879.97	5041
880.097	4763
880.224	4740
880.351	4831
880.478	4820
880.605	4812
880.732	4786
880.859	5098
880.986	4892
881.112	4911
881.239	4748
881.366	4641
881.493	4599
881.619	4584
881.746	4599
881.872	4656
881.999	4660
882.125	4679
882.252	4744
882.378	4809
882.505	4949
882.631	4786
882.757	4645
882.883	4721
883.01	4725
883.136	4637
883.262	4584
883.388	4599
883.514	4828
883.64	4870
883.766	4809
883.892	4664
884.018	4771
884.143	4877
884.269	4980
884.395	4618
884.52	4634
884.646	4626
884.772	4577
884.897	4565
885.023	4706
885.148	4767
885.274	4877
885.399	4816
885.524	4675
885.65	4687
885.775	4714
885.9	4740
886.025	4870
886.15	4774
886.275	4744
886.4	4725
886.525	4755
886.65	4679
886.775	4729
886.9	4889
887.025	4972
887.149	4831
887.274	4679
887.399	4558
887.523	4573
887.648	4626
887.773	4580
887.897	4759
888.021	4778
888.146	4630
888.27	4839
888.395	4896
888.519	4812
888.643	4824
888.767	4839
888.891	4664
889.015	4626
889.139	4641
889.263	4618
889.387	4755
889.511	4877
889.635	4778
889.759	4679
889.883	4649
890.006	4702
890.13	4824
890.254	4618
890.377	4618
890.501	4577
890.624	4500
890.748	4637
890.871	4497
890.995	4459
891.118	4386
891.241	4497
891.364	4546
891.488	4622
891.611	4504
891.734	4550
891.857	4607
891.98	4508
892.103	4664
892.226	4588
892.349	4535
892.471	4417
892.594	4538
892.717	4561
892.839	4535
892.962	4580
893.085	4721
893.207	4630
893.33	4489
893.452	4538
893.575	4653
893.697	4599
893.819	4767
893.941	4812
894.064	4763
894.186	4561
894.308	4550
894.43	4714
894.552	4801
894.674	4717
894.796	4531
894.918	4569
895.04	4500
895.161	4630
895.283	4649
895.405	4599
895.526	4622
895.648	4664
895.769	4649
895.891	4698
896.012	4767
896.134	4748
896.255	4645
896.376	4637
896.498	4637
896.619	4672
896.74	4580
896.861	4630
896.982	4923
897.103	5109
897.224	4793
897.345	4733
897.466	4706
897.587	4744
897.708	4801
897.828	4782
897.949	4653
898.07	4542
898.19	4694
898.311	4839
898.431	4694
898.552	4698
898.672	4801
898.792	4820
898.913	4740
899.033	4611
899.153	4485
899.273	4367
899.393	4512
899.513	4481
899.633	4489
899.753	4542
899.873	4504
899.993	4558
900.113	4535
900.232	4584
900.352	4470
900.472	4481
900.591	4352
900.711	4497
900.83	4402
900.95	4596
901.069	4691
901.189	4523
901.308	4363
901.427	4333
901.546	4367
901.665	4455
901.784	4504
901.904	4386
902.023	4291
902.141	4150
902.26	4147
902.379	4322
902.498	4227
902.617	4299
902.735	4398
902.854	4409
902.973	4402
903.091	4230
903.21	4204
903.328	4322
903.446	4310
903.565	4207
903.683	4352
903.801	4325
903.919	4390
904.038	4398
904.156	4337
904.274	4405
904.392	4432
904.51	4451
904.627	4466
904.745	4599
904.863	4653
904.981	4413
905.098	4329
905.216	4341
905.334	4432
905.451	4508
905.569	4367
905.686	4558
905.803	4561
905.921	4421
906.038	4550
906.155	4474
906.272	4375
906.389	4459
906.506	4337
906.623	4409
906.74	4363
906.857	4284
906.974	4329
907.091	4558
907.208	4687
907.324	4565
907.441	4554
907.557	4402
907.674	4352
907.79	4299
907.907	4333
908.023	4455
908.139	4474
908.256	4443
908.372	4470
908.488	4508
908.604	4306
908.72	4310
908.836	4402
908.952	4386
909.068	4394
909.184	4542
909.3	4447
909.415	4577
909.531	4546
909.647	4360
909.762	4367
909.878	4375
909.993	4493
910.108	4402
910.224	4379
910.339	4466
910.454	4424
910.57	4341
910.685	4295
910.8	4675
910.915	4577
911.03	4478
911.145	4333
911.259	4261
911.374	4337
911.489	4295
911.604	4272
911.718	4135
911.833	4177
911.947	4078
912.062	4017
912.176	4204
912.291	4234
912.405	4265
912.519	4478
912.633	4493
912.748	4413
912.862	4265
912.976	4253
913.09	4090
913.204	4143
913.318	4227
913.431	4367
913.545	4379
913.659	4447
913.772	4367
913.886	4238
914	4261
914.113	4398
914.226	4390
914.34	4367
914.453	4211
914.566	4481
914.68	4287
914.793	4356
914.906	4147
915.019	4143
915.132	4112
915.245	4192
915.358	4147
915.47	4257
915.583	4272
915.696	4284
915.809	4394
915.921	4436
916.034	4295
916.146	4265
916.259	4211
916.371	4325
916.483	4371
916.595	4284
916.708	4299
916.82	4314
916.932	4386
917.044	4295
917.156	4306
917.268	4211
917.38	4295
917.491	4276
917.603	4329
917.715	4417
917.826	4447
917.938	4352
918.049	4238
918.161	4363
918.272	4512
918.384	4542
918.495	4436
918.606	4299
918.717	4246
918.828	4371
918.939	4379
919.05	4246
919.161	4299
919.272	4139
919.383	4223
919.494	4440
919.604	4618
919.715	4405
919.826	4363
919.936	4436
920.047	4542
920.157	4493
920.267	4729
920.378	4561
920.488	4474
920.598	4721
920.708	4900
920.818	4793
920.928	4706
921.038	4930
921.148	4919
921.258	4660
921.368	4535
921.477	4542
921.587	4470
921.697	4363
921.806	4618
921.916	4440
922.025	4246
922.134	4265
922.244	4215
922.353	4337
922.462	4166
922.571	4124
922.68	3983
922.789	3975
922.898	4059
923.007	3979
923.116	4120
923.224	4021
923.333	4105
923.442	4006
923.55	4006
923.659	4017
923.767	4078
923.876	4055
923.984	4166
924.092	3960
924.201	4082
924.309	4082
924.417	4105
924.525	4013
924.633	4105
924.741	5010
924.849	3911
924.956	4139
925.064	3949
925.172	3884
925.279	3922
925.387	4071
925.494	3998
925.602	4166
925.709	4158
925.816	4017
925.924	4101
926.031	4215
926.138	4185
926.245	4215
926.352	4090
926.459	4227
926.566	4303
926.673	4135
926.779	4067
926.886	4040
926.993	3994
927.099	3953
927.206	3937
927.312	3945
927.419	4090
927.525	4055
927.631	4093
927.737	3911
927.843	3915
927.95	3846
928.056	3926
928.162	3968
928.267	4055
928.373	4588
928.479	4128
928.585	3873
928.69	4021
928.796	4124
928.901	3949
929.007	3869
929.112	3968
929.218	3991
929.323	3949
929.428	3937
929.533	4071
929.638	3911
929.743	3911
929.848	4029
929.953	3983
930.058	3930
930.163	3755
930.267	3854
930.372	3991
930.477	3850
930.581	4082
930.685	3915
930.79	3778
930.894	3911
930.998	3857
931.103	4048
931.207	3682
931.311	3641
931.415	3667
931.519	3523
931.623	3564
