Data from test_V78500241_146.txt Node
Date: Fri Mar 25 16:50:01 CST 2022
User: usil
Spectrometer: V785-0024
Trigger mode: 0
Integration Time (sec): 4.000000E-1
Scans to average: 1
Nonlinearity correction enabled: false
Boxcar width: 0
Storing dark spectrum: false
XAxis mode: Wavelengths
Number of Pixels in Spectrum: 1024
>>>>>Begin Spectral Data<<<<<
801.071	7997
801.214	7997
801.356	7856
801.499	7879
801.641	7902
801.783	7799
801.926	7970
802.068	7978
802.211	8035
802.353	8035
802.496	7940
802.638	7890
802.78	7959
802.923	7887
803.065	7868
803.208	7852
803.35	7936
803.492	8020
803.635	8172
803.777	7982
803.919	8062
804.061	8381
804.204	8043
804.346	8069
804.488	7936
804.63	8073
804.773	7955
804.915	8115
805.057	8290
805.199	8123
805.341	8218
805.483	8324
805.626	8229
805.768	8134
805.91	8123
806.052	8206
806.194	8126
806.336	8320
806.478	8054
806.62	8126
806.762	8153
806.904	8298
807.046	8423
807.188	8324
807.33	8279
807.472	8381
807.614	8180
807.756	8142
807.898	8016
808.04	7917
808.182	7940
808.324	7906
808.465	7921
808.607	8100
808.749	8081
808.891	8267
809.033	8347
809.174	8290
809.316	8092
809.458	8062
809.6	7963
809.741	8065
809.883	8054
810.025	8138
810.166	8145
810.308	8069
810.45	8008
810.591	7906
810.733	7792
810.875	7624
811.016	7518
811.158	7571
811.299	7658
811.441	7742
811.582	7693
811.724	7575
811.865	7590
812.007	7655
812.148	7609
812.29	7674
812.431	7795
812.573	7955
812.714	8020
812.855	8256
812.997	8320
813.138	8454
813.279	8279
813.421	8157
813.562	7989
813.703	7947
813.845	7799
813.986	7521
814.127	7327
814.268	7305
814.41	7221
814.551	7293
814.692	7285
814.833	7137
814.974	7137
815.115	7194
815.256	7050
815.397	6970
815.539	7038
815.68	6856
815.821	6844
815.962	6848
816.103	6859
816.244	6757
816.385	6684
816.526	6631
816.666	6566
816.807	6395
816.948	6502
817.089	6494
817.23	6486
817.371	6357
817.512	6357
817.653	6407
817.793	6399
817.934	6418
818.075	6460
818.216	6460
818.356	6460
818.497	6232
818.638	6129
818.778	6194
818.919	6129
819.06	6209
819.2	6331
819.341	6300
819.481	6391
819.622	6540
819.762	6741
819.903	6669
820.043	6578
820.184	6528
820.324	6566
820.465	6715
820.605	6616
820.746	6608
820.886	6563
821.026	6738
821.167	6726
821.307	6798
821.447	6764
821.588	6635
821.728	6620
821.868	6532
822.008	6308
822.149	6410
822.289	6353
822.429	6251
822.569	6095
822.709	6129
822.849	5984
822.99	5958
823.13	5931
823.27	5893
823.41	5874
823.55	5790
823.69	5779
823.83	5802
823.97	5741
824.11	5573
824.25	5543
824.389	5634
824.529	5592
824.669	5554
824.809	5649
824.949	5752
825.089	5688
825.228	5634
825.368	5482
825.508	5398
825.648	5383
825.787	5417
825.927	5452
826.067	5337
826.206	5326
826.346	5436
826.485	5512
826.625	5391
826.765	5554
826.904	5570
827.044	5357
827.183	5288
827.323	5136
827.462	5322
827.601	5265
827.741	5223
827.88	5280
828.02	5212
828.159	5277
828.298	5315
828.437	5383
828.577	5277
828.716	5551
828.855	5402
828.994	5223
829.134	5239
829.273	5231
829.412	5216
829.551	5220
829.69	5189
829.829	5360
829.968	5486
830.107	5307
830.246	5345
830.385	5223
830.524	5132
830.663	5121
830.802	5010
830.941	4911
831.08	4942
831.219	5064
831.357	4984
831.496	5220
831.635	4968
831.774	4900
831.913	4946
832.051	4786
832.19	4809
832.329	4870
832.467	4717
832.606	4687
832.744	4774
832.883	4778
833.022	4835
833.16	4828
833.299	4828
833.437	4858
833.576	4854
833.714	4896
833.852	4911
833.991	4999
834.129	5029
834.267	4972
834.406	4949
834.544	5025
834.682	5033
834.821	5033
834.959	5288
835.097	5033
835.235	5223
835.373	5140
835.511	5121
835.65	5109
835.788	5064
835.926	4995
836.064	4972
836.202	4980
836.34	5223
836.478	5261
836.615	5185
836.753	5288
836.891	5345
837.029	5258
837.167	5273
837.305	5212
837.443	5197
837.58	5162
837.718	5261
837.856	5239
837.993	5178
838.131	5280
838.269	5311
838.406	5269
838.544	5223
838.681	5109
838.819	5006
838.956	4923
839.094	4942
839.231	5014
839.369	5086
839.506	5429
839.643	5288
839.781	5128
839.918	5102
840.055	5113
840.193	5155
840.33	5178
840.467	5155
840.604	5280
840.742	5532
840.879	5140
841.016	5140
841.153	5208
841.29	5417
841.427	5376
841.564	5311
841.701	5448
841.838	5296
841.975	5277
842.112	5280
842.249	5193
842.385	5117
842.522	5433
842.659	5280
842.796	5147
842.933	5189
843.069	5242
843.206	5189
843.343	5349
843.479	5284
843.616	5353
843.752	5105
843.889	5022
844.025	5239
844.162	5067
844.298	5204
844.435	5124
844.571	5083
844.708	5254
844.844	5360
844.98	5387
845.117	5311
845.253	5212
845.389	5166
845.525	5204
845.661	5235
845.798	5105
845.934	5193
846.07	5124
846.206	5242
846.342	5334
846.478	5269
846.614	5083
846.75	5003
846.886	4976
847.022	5140
847.158	5071
847.294	5132
847.429	5155
847.565	5098
847.701	5372
847.837	4919
847.972	4858
848.108	5003
848.244	4991
848.379	4866
848.515	4816
848.65	4725
848.786	4816
848.921	4835
849.057	4915
849.192	4934
849.328	4866
849.463	4862
849.598	4816
849.734	4828
849.869	4763
850.004	4706
850.14	4706
850.275	4618
850.41	4577
850.545	4577
850.68	4660
850.815	4675
850.95	4660
851.085	4896
851.22	4793
851.355	4694
851.49	4626
851.625	4637
851.76	4717
851.895	4584
852.03	4592
852.165	4660
852.299	4755
852.434	4786
852.569	4843
852.703	4793
852.838	4892
852.973	4995
853.107	4968
853.242	4797
853.376	4729
853.511	4622
853.645	4645
853.78	4854
853.914	4744
854.048	4714
854.183	4653
854.317	4740
854.451	4972
854.585	4706
854.72	4721
854.854	4828
854.988	4641
855.122	4664
855.256	4561
855.39	4717
855.524	4793
855.658	4736
855.792	4706
855.926	4736
856.06	4759
856.194	4831
856.327	4778
856.461	4683
856.595	4645
856.729	4675
856.862	4824
856.996	4752
857.13	4793
857.263	4786
857.397	4877
857.53	4721
857.664	4797
857.797	4831
857.931	4824
858.064	4763
858.197	4763
858.331	4691
858.464	4641
858.597	4565
858.731	4683
858.864	4687
858.997	4660
859.13	4710
859.263	4752
859.396	4725
859.529	4687
859.662	4607
859.795	4588
859.928	4660
860.061	4763
860.194	4778
860.327	4668
860.46	4630
860.592	4744
860.725	4752
860.858	4748
860.99	4679
861.123	4504
861.256	4538
861.388	4653
861.521	5368
861.653	4508
861.786	4497
861.918	4432
862.05	4546
862.183	4565
862.315	4702
862.447	4710
862.58	4603
862.712	4386
862.844	4367
862.976	4508
863.108	4462
863.24	4873
863.372	4371
863.504	4500
863.636	4421
863.768	4542
863.9	4455
864.032	4405
864.164	4497
864.296	4550
864.428	4626
864.559	4618
864.691	4550
864.823	4580
864.954	4527
865.086	4542
865.217	4493
865.349	4440
865.48	4531
865.612	4546
865.743	4687
865.875	4478
866.006	4474
866.137	4493
866.269	4443
866.4	4481
866.531	4428
866.662	4489
866.793	4436
866.924	4459
867.055	4542
867.186	4519
867.317	4386
867.448	4402
867.579	4451
867.71	4470
867.841	4432
867.972	4493
868.103	4523
868.233	4485
868.364	4493
868.495	4546
868.625	4672
868.756	4820
868.886	4618
869.017	4649
869.147	4816
869.278	4816
869.408	4733
869.539	4664
869.669	4752
869.799	4698
869.929	4748
870.06	4752
870.19	4999
870.32	4980
870.45	5003
870.58	5090
870.71	5105
870.84	5140
870.97	4965
871.1	4949
871.23	5147
871.36	5208
871.489	5090
871.619	5128
871.749	5151
871.879	5193
872.008	5208
872.138	5105
872.267	5079
872.397	4885
872.526	4839
872.656	4778
872.785	4843
872.915	4938
873.044	5060
873.173	4946
873.303	4984
873.432	4965
873.561	4995
873.69	4930
873.819	4915
873.948	4949
874.077	4812
874.206	4767
874.335	4835
874.464	4923
874.593	5086
874.722	4987
874.851	5121
874.979	5113
875.108	5083
875.237	4949
875.365	4892
875.494	4938
875.623	5045
875.751	4862
875.88	4953
876.008	4984
876.136	5105
876.265	5227
876.393	5387
876.521	5330
876.65	5250
876.778	5227
876.906	5140
877.034	5067
877.162	5075
877.29	4968
877.418	5105
877.546	5136
877.674	5048
877.802	5037
877.93	4984
878.058	4999
878.185	4873
878.313	4987
878.441	4991
878.568	4828
878.696	4908
878.824	5029
878.951	5052
879.079	5159
879.206	5280
879.333	5109
879.461	5067
879.588	5067
879.715	5220
879.842	5299
879.97	5010
880.097	4831
880.224	4809
880.351	4858
880.478	4881
880.605	4820
880.732	4858
880.859	5075
880.986	4915
881.112	4934
881.239	4828
881.366	4721
881.493	4618
881.619	4580
881.746	4641
881.872	4683
881.999	4649
882.125	4748
882.252	4854
882.378	4877
882.505	4968
882.631	4790
882.757	4706
882.883	4736
883.01	4752
883.136	4721
883.262	4653
883.388	4630
883.514	4854
883.64	4881
883.766	4839
883.892	4706
884.018	4778
884.143	4881
884.269	5025
884.395	4698
884.52	4687
884.646	4717
884.772	4626
884.897	4611
885.023	4691
885.148	4820
885.274	4854
885.399	4839
885.524	4767
885.65	4721
885.775	4755
885.9	4733
886.025	4873
886.15	4850
886.275	4774
886.4	4740
886.525	4767
886.65	4725
886.775	4717
886.9	4930
887.025	5045
887.149	4835
887.274	4729
887.399	4611
887.523	4573
887.648	4592
887.773	4645
887.897	4797
888.021	4831
888.146	4729
888.27	4847
888.395	4930
888.519	4835
888.643	4805
888.767	4892
888.891	4759
889.015	4588
889.139	4668
889.263	4634
889.387	4748
889.511	4980
889.635	4843
889.759	4656
889.883	4649
890.006	4744
890.13	4828
890.254	4637
890.377	4771
890.501	4592
890.624	4550
890.748	4664
890.871	4527
890.995	4470
891.118	4413
891.241	4580
891.364	4599
891.488	4637
891.611	4535
891.734	4603
891.857	4679
891.98	4607
892.103	4626
892.226	4615
892.349	4538
892.471	4405
892.594	4554
892.717	4622
892.839	4615
892.962	4656
893.085	4672
893.207	4599
893.33	4497
893.452	4588
893.575	4679
893.697	4599
893.819	4828
893.941	4801
894.064	4782
894.186	4588
894.308	4649
894.43	4771
894.552	4881
894.674	4793
894.796	4618
894.918	4641
895.04	4550
895.161	4736
895.283	4698
895.405	4637
895.526	4664
895.648	4721
895.769	4725
895.891	4774
896.012	4793
896.134	4793
896.255	4763
896.376	4668
896.498	4645
896.619	4694
896.74	4645
896.861	4664
896.982	4968
897.103	5052
897.224	4877
897.345	4752
897.466	4664
897.587	4736
897.708	4866
897.828	4831
897.949	4630
898.07	4599
898.19	4637
898.311	4904
898.431	4694
898.552	4767
898.672	4862
898.792	4793
898.913	4793
899.033	4664
899.153	4493
899.273	4451
899.393	4500
899.513	4565
899.633	4538
899.753	4538
899.873	4558
899.993	4626
900.113	4569
900.232	4596
900.352	4592
900.472	4542
900.591	4417
900.711	4561
900.83	4451
900.95	4656
901.069	4706
901.189	4546
901.308	4371
901.427	4360
901.546	4398
901.665	4519
901.784	4542
901.904	4402
902.023	4356
902.141	4200
902.26	4188
902.379	4363
902.498	4276
902.617	4249
902.735	4405
902.854	4398
902.973	4421
903.091	4223
903.21	4265
903.328	4356
903.446	4246
903.565	4291
903.683	4344
903.801	4314
903.919	4417
904.038	4466
904.156	4295
904.274	4443
904.392	4428
904.51	4478
904.627	4474
904.745	4603
904.863	4584
904.981	4428
905.098	4322
905.216	4409
905.334	4402
905.451	4485
905.569	4443
905.686	4569
905.803	4607
905.921	4432
906.038	4538
906.155	4466
906.272	4424
906.389	4436
906.506	4348
906.623	4398
906.74	4386
906.857	4318
906.974	4405
907.091	4588
907.208	4668
907.324	4577
907.441	4504
907.557	4386
907.674	4360
907.79	4341
907.907	4360
908.023	4478
908.139	4497
908.256	4474
908.372	4500
908.488	4481
908.604	4348
908.72	4356
908.836	4409
908.952	4405
909.068	4440
909.184	4611
909.3	4470
909.415	4660
909.531	4588
909.647	4394
909.762	4405
909.878	4344
909.993	4443
910.108	4432
910.224	4398
910.339	4462
910.454	4421
910.57	4360
910.685	4341
910.8	4664
910.915	4618
911.03	4466
911.145	4333
911.259	4375
911.374	4402
911.489	4363
911.604	4295
911.718	4215
911.833	4242
911.947	4093
912.062	4017
912.176	4265
912.291	4230
912.405	4234
912.519	4504
912.633	4519
912.748	4409
912.862	4360
912.976	4265
913.09	4135
913.204	4211
913.318	4276
913.431	4440
913.545	4367
913.659	4455
913.772	4394
913.886	4284
914	4249
914.113	4421
914.226	4447
914.34	4383
914.453	4268
914.566	4481
914.68	4356
914.793	4390
914.906	4196
915.019	4139
915.132	4124
915.245	4196
915.358	4169
915.47	4280
915.583	4238
915.696	4367
915.809	4421
915.921	4432
916.034	4295
916.146	4299
916.259	4246
916.371	4375
916.483	4390
916.595	4295
916.708	4329
916.82	4390
916.932	4333
917.044	4348
917.156	4371
917.268	4246
917.38	4322
917.491	4280
917.603	4371
917.715	4440
917.826	4481
917.938	4352
918.049	4276
918.161	4413
918.272	4519
918.384	4516
918.495	4451
918.606	4322
918.717	4295
918.828	4363
918.939	4421
919.05	4291
919.161	4306
919.272	4078
919.383	4268
919.494	4451
919.604	4694
919.715	4481
919.826	4333
919.936	4413
920.047	4535
920.157	4523
920.267	4736
920.378	4584
920.488	4561
920.598	4759
920.708	4942
920.818	4767
920.928	4797
921.038	4953
921.148	4976
921.258	4656
921.368	4577
921.477	4523
921.587	4481
921.697	4428
921.806	4592
921.916	4470
922.025	4276
922.134	4284
922.244	4265
922.353	4306
922.462	4173
922.571	4166
922.68	3991
922.789	3979
922.898	4044
923.007	4017
923.116	4150
923.224	4051
923.333	4048
923.442	4032
923.55	4002
923.659	4067
923.767	4097
923.876	4029
923.984	4158
924.092	3991
924.201	4101
924.309	4109
924.417	4124
924.525	4040
924.633	4105
924.741	4862
924.849	3949
924.956	4116
925.064	3968
925.172	3934
925.279	3960
925.387	4090
925.494	4078
925.602	4238
925.709	4207
925.816	4090
925.924	4192
926.031	4265
926.138	4192
926.245	4227
926.352	4124
926.459	4253
926.566	4348
926.673	4173
926.779	4101
926.886	4139
926.993	4002
927.099	4013
927.206	3937
927.312	3953
927.419	4059
927.525	4082
927.631	4078
927.737	3934
927.843	3964
927.95	3869
928.056	3979
928.162	3998
928.267	4120
928.373	4736
928.479	4071
928.585	3896
928.69	4067
928.796	4105
928.901	3994
929.007	3892
929.112	4032
929.218	4021
929.323	3983
929.428	3937
929.533	4116
929.638	3899
929.743	4013
929.848	4067
929.953	4029
930.058	3983
930.163	3774
930.267	3869
930.372	4036
930.477	3819
930.581	4093
930.685	3930
930.79	3857
930.894	3869
930.998	3835
931.103	4044
931.207	3724
931.311	3720
931.415	3671
931.519	3523
931.623	3564
