Data from test_V78500241_2164.txt Node
Date: Fri Mar 25 17:04:02 CST 2022
User: usil
Spectrometer: V785-0024
Trigger mode: 0
Integration Time (sec): 4.000000E-1
Scans to average: 1
Nonlinearity correction enabled: false
Boxcar width: 0
Storing dark spectrum: false
XAxis mode: Wavelengths
Number of Pixels in Spectrum: 1024
>>>>>Begin Spectral Data<<<<<
801.071	7928
801.214	7974
801.356	7856
801.499	7837
801.641	7822
801.783	7795
801.926	7913
802.068	7936
802.211	7963
802.353	7959
802.496	7887
802.638	7864
802.78	7883
802.923	7890
803.065	7879
803.208	7852
803.35	7978
803.492	8092
803.635	8145
803.777	8016
803.919	8145
804.061	8427
804.204	8145
804.346	8062
804.488	7970
804.63	8065
804.773	7913
804.915	8065
805.057	8324
805.199	8168
805.341	8183
805.483	8206
805.626	8252
805.768	8145
805.91	8202
806.052	8191
806.194	8157
806.336	8176
806.478	8130
806.62	8054
806.762	8126
806.904	8301
807.046	8446
807.188	8385
807.33	8309
807.472	8320
807.614	8199
807.756	8084
807.898	7974
808.04	7906
808.182	7875
808.324	7852
808.465	7898
808.607	8035
808.749	8092
808.891	8180
809.033	8324
809.174	8244
809.316	8126
809.458	8016
809.6	8031
809.741	8058
809.883	7993
810.025	8069
810.166	8020
810.308	7986
810.45	8077
810.591	7852
810.733	7750
810.875	7666
811.016	7510
811.158	7502
811.299	7582
811.441	7636
811.582	7639
811.724	7571
811.865	7525
812.007	7594
812.148	7586
812.29	7639
812.431	7738
812.573	7879
812.714	7955
812.855	8111
812.997	8233
813.138	8172
813.279	8111
813.421	8081
813.562	7947
813.703	7883
813.845	7792
813.986	7381
814.127	7255
814.268	7183
814.41	7129
814.551	7156
814.692	7225
814.833	7072
814.974	7057
815.115	7160
815.256	6935
815.397	6901
815.539	6882
815.68	6806
815.821	6696
815.962	6833
816.103	6840
816.244	6631
816.385	6566
816.526	6639
816.666	6479
816.807	6258
816.948	6384
817.089	6448
817.23	6410
817.371	6407
817.512	6410
817.653	6331
817.793	6350
817.934	6418
818.075	6441
818.216	6429
818.356	6376
818.497	6243
818.638	6114
818.778	6159
818.919	6178
819.06	6186
819.2	6327
819.341	6338
819.481	6346
819.622	6555
819.762	6764
819.903	6665
820.043	6597
820.184	6585
820.324	6589
820.465	6719
820.605	6669
820.746	6536
820.886	6486
821.026	6673
821.167	6730
821.307	6802
821.447	6722
821.588	6654
821.728	6585
821.868	6528
822.008	6319
822.149	6338
822.289	6395
822.429	6110
822.569	6079
822.709	6091
822.849	5973
822.99	5923
823.13	5904
823.27	5912
823.41	5779
823.55	5756
823.69	5764
823.83	5840
823.97	5676
824.11	5539
824.25	5516
824.389	5543
824.529	5554
824.669	5501
824.809	5619
824.949	5653
825.089	5592
825.228	5558
825.368	5345
825.508	5345
825.648	5345
825.787	5372
825.927	5395
826.067	5303
826.206	5299
826.346	5315
826.485	5376
826.625	5414
826.765	5516
826.904	5459
827.044	5269
827.183	5201
827.323	5105
827.462	5258
827.601	5090
827.741	5162
827.88	5235
828.02	5151
828.159	5201
828.298	5341
828.437	5379
828.577	5299
828.716	5493
828.855	5345
828.994	5185
829.134	5086
829.273	5197
829.412	5151
829.551	5121
829.69	5098
829.829	5254
829.968	5337
830.107	5258
830.246	5261
830.385	5170
830.524	5098
830.663	5025
830.802	4980
830.941	4900
831.08	4927
831.219	5022
831.357	4953
831.496	5128
831.635	4911
831.774	4835
831.913	4831
832.051	4736
832.19	4805
832.329	4824
832.467	4706
832.606	4592
832.744	4721
832.883	4721
833.022	4702
833.16	4824
833.299	4816
833.437	4812
833.576	4828
833.714	4877
833.852	4824
833.991	4870
834.129	4911
834.267	4938
834.406	4870
834.544	4968
834.682	4934
834.821	4942
834.959	5132
835.097	4957
835.235	5117
835.373	5052
835.511	5109
835.65	5052
835.788	4980
835.926	4824
836.064	4850
836.202	4927
836.34	5185
836.478	5208
836.615	5086
836.753	5208
836.891	5280
837.029	5143
837.167	5132
837.305	5159
837.443	5121
837.58	5064
837.718	5261
837.856	5197
837.993	5090
838.131	5216
838.269	5204
838.406	5178
838.544	5166
838.681	5067
838.819	4957
838.956	4862
839.094	4885
839.231	5006
839.369	5086
839.506	5414
839.643	5223
839.781	5056
839.918	4980
840.055	5105
840.193	5079
840.33	5113
840.467	5094
840.604	5227
840.742	5463
840.879	5045
841.016	5071
841.153	5147
841.29	5322
841.427	5284
841.564	5258
841.701	5349
841.838	5284
841.975	5212
842.112	5284
842.249	5140
842.385	5113
842.522	5357
842.659	5170
842.796	5124
842.933	5212
843.069	5086
843.206	5181
843.343	5296
843.479	5197
843.616	5220
843.752	5041
843.889	4984
844.025	5227
844.162	5022
844.298	5189
844.435	5124
844.571	5033
844.708	5178
844.844	5315
844.98	5341
845.117	5303
845.253	5140
845.389	5067
845.525	5109
845.661	5079
845.798	4987
845.934	5083
846.07	5006
846.206	5208
846.342	5292
846.478	5132
846.614	4991
846.75	4965
846.886	4949
847.022	5147
847.158	4987
847.294	5033
847.429	5121
847.565	5052
847.701	5284
847.837	4904
847.972	4793
848.108	4934
848.244	4877
848.379	4759
848.515	4740
848.65	4664
848.786	4748
848.921	4725
849.057	4843
849.192	4885
849.328	4797
849.463	4805
849.598	4839
849.734	4774
849.869	4660
850.004	4626
850.14	4649
850.275	4626
850.41	4489
850.545	4565
850.68	4580
850.815	4626
850.95	4599
851.085	4812
851.22	4702
851.355	4664
851.49	4641
851.625	4637
851.76	4641
851.895	4542
852.03	4512
852.165	4615
852.299	4717
852.434	4774
852.569	4744
852.703	4755
852.838	4835
852.973	4965
853.107	4896
853.242	4698
853.376	4641
853.511	4561
853.645	4573
853.78	4786
853.914	4702
854.048	4641
854.183	4653
854.317	4679
854.451	4843
854.585	4637
854.72	4607
854.854	4725
854.988	4573
855.122	4660
855.256	4497
855.39	4641
855.524	4717
855.658	4759
855.792	4702
855.926	4721
856.06	4755
856.194	4752
856.327	4691
856.461	4580
856.595	4596
856.729	4618
856.862	4744
856.996	4691
857.13	4710
857.263	4740
857.397	4854
857.53	4634
857.664	4694
857.797	4740
857.931	4733
858.064	4645
858.197	4759
858.331	4596
858.464	4554
858.597	4584
858.731	4656
858.864	4622
858.997	4607
859.13	4664
859.263	4675
859.396	4721
859.529	4603
859.662	4519
859.795	4527
859.928	4588
860.061	4774
860.194	4809
860.327	4615
860.46	4580
860.592	4744
860.725	4763
860.858	4721
860.99	4527
861.123	4519
861.256	4558
861.388	4603
861.521	5463
861.653	4497
861.786	4470
861.918	4470
862.05	4478
862.183	4565
862.315	4615
862.447	4683
862.58	4607
862.712	4432
862.844	4360
862.976	4497
863.108	4470
863.24	4782
863.372	4383
863.504	4481
863.636	4459
863.768	4500
863.9	4459
864.032	4383
864.164	4432
864.296	4504
864.428	4535
864.559	4599
864.691	4580
864.823	4497
864.954	4512
865.086	4512
865.217	4527
865.349	4436
865.48	4504
865.612	4523
865.743	4664
865.875	4516
866.006	4462
866.137	4516
866.269	4462
866.4	4462
866.531	4470
866.662	4478
866.793	4424
866.924	4371
867.055	4508
867.186	4519
867.317	4455
867.448	4402
867.579	4428
867.71	4447
867.841	4409
867.972	4519
868.103	4542
868.233	4500
868.364	4474
868.495	4535
868.625	4683
868.756	4805
868.886	4630
869.017	4691
869.147	4843
869.278	4862
869.408	4672
869.539	4672
869.669	4740
869.799	4698
869.929	4755
870.06	4786
870.19	4953
870.32	4942
870.45	5003
870.58	5056
870.71	5143
870.84	5098
870.97	4927
871.1	4965
871.23	5136
871.36	5227
871.489	5048
871.619	5155
871.749	5090
871.879	5140
872.008	5216
872.138	5143
872.267	5018
872.397	4885
872.526	4805
872.656	4744
872.785	4793
872.915	5022
873.044	5010
873.173	4980
873.303	4972
873.432	4999
873.561	4965
873.69	4911
873.819	4839
873.948	4927
874.077	4870
874.206	4740
874.335	4862
874.464	4949
874.593	5025
874.722	5006
874.851	5140
874.979	5098
875.108	5052
875.237	4976
875.365	4965
875.494	4908
875.623	5006
875.751	4835
875.88	4930
876.008	4995
876.136	5064
876.265	5265
876.393	5368
876.521	5235
876.65	5288
876.778	5201
876.906	5117
877.034	4995
877.162	5067
877.29	5064
877.418	5079
877.546	5048
877.674	5045
877.802	5056
877.93	5025
878.058	4976
878.185	4900
878.313	4942
878.441	4984
878.568	4854
878.696	4919
878.824	4980
878.951	5006
879.079	5181
879.206	5311
879.333	5105
879.461	4968
879.588	5022
879.715	5075
879.842	5246
879.97	5033
880.097	4831
880.224	4778
880.351	4858
880.478	4816
880.605	4812
880.732	4854
880.859	5071
880.986	4904
881.112	4942
881.239	4801
881.366	4729
881.493	4607
881.619	4630
881.746	4710
881.872	4721
881.999	4672
882.125	4729
882.252	4854
882.378	4877
882.505	5010
882.631	4824
882.757	4698
882.883	4759
883.01	4771
883.136	4714
883.262	4615
883.388	4622
883.514	4854
883.64	4873
883.766	4889
883.892	4691
884.018	4733
884.143	4915
884.269	5052
884.395	4710
884.52	4649
884.646	4691
884.772	4603
884.897	4561
885.023	4694
885.148	4812
885.274	4850
885.399	4820
885.524	4725
885.65	4683
885.775	4740
885.9	4755
886.025	4847
886.15	4820
886.275	4752
886.4	4698
886.525	4748
886.65	4683
886.775	4725
886.9	4930
887.025	5075
887.149	4843
887.274	4664
887.399	4664
887.523	4687
887.648	4584
887.773	4611
887.897	4797
888.021	4793
888.146	4725
888.27	4866
888.395	4915
888.519	4839
888.643	4767
888.767	4873
888.891	4702
889.015	4660
889.139	4656
889.263	4660
889.387	4793
889.511	4915
889.635	4820
889.759	4683
889.883	4694
890.006	4729
890.13	4847
890.254	4641
890.377	4725
890.501	4592
890.624	4554
890.748	4691
890.871	4588
890.995	4432
891.118	4394
891.241	4558
891.364	4546
891.488	4653
891.611	4569
891.734	4565
891.857	4626
891.98	4538
892.103	4710
892.226	4653
892.349	4569
892.471	4504
892.594	4607
892.717	4611
892.839	4622
892.962	4626
893.085	4675
893.207	4626
893.33	4432
893.452	4588
893.575	4675
893.697	4634
893.819	4828
893.941	4812
894.064	4752
894.186	4641
894.308	4573
894.43	4721
894.552	4843
894.674	4801
894.796	4523
894.918	4675
895.04	4603
895.161	4710
895.283	4710
895.405	4637
895.526	4672
895.648	4733
895.769	4710
895.891	4736
896.012	4744
896.134	4752
896.255	4721
896.376	4630
896.498	4660
896.619	4691
896.74	4588
896.861	4668
896.982	4949
897.103	5083
897.224	4843
897.345	4790
897.466	4714
897.587	4721
897.708	4820
897.828	4812
897.949	4725
898.07	4554
898.19	4653
898.311	4862
898.431	4729
898.552	4782
898.672	4866
898.792	4816
898.913	4721
899.033	4672
899.153	4523
899.273	4432
899.393	4493
899.513	4516
899.633	4531
899.753	4573
899.873	4523
899.993	4573
900.113	4554
900.232	4626
900.352	4531
900.472	4538
900.591	4390
900.711	4550
900.83	4451
900.95	4637
901.069	4717
901.189	4565
901.308	4409
901.427	4352
901.546	4344
901.665	4523
901.784	4542
901.904	4478
902.023	4367
902.141	4200
902.26	4181
902.379	4310
902.498	4238
902.617	4272
902.735	4405
902.854	4402
902.973	4394
903.091	4227
903.21	4242
903.328	4322
903.446	4276
903.565	4322
903.683	4394
903.801	4314
903.919	4379
904.038	4462
904.156	4360
904.274	4421
904.392	4417
904.51	4432
904.627	4489
904.745	4565
904.863	4634
904.981	4367
905.098	4272
905.216	4375
905.334	4440
905.451	4466
905.569	4459
905.686	4603
905.803	4542
905.921	4436
906.038	4565
906.155	4527
906.272	4390
906.389	4481
906.506	4405
906.623	4428
906.74	4379
906.857	4306
906.974	4360
907.091	4550
907.208	4668
907.324	4596
907.441	4504
907.557	4344
907.674	4394
907.79	4386
907.907	4379
908.023	4527
908.139	4535
908.256	4432
908.372	4493
908.488	4481
908.604	4390
908.72	4333
908.836	4424
908.952	4356
909.068	4417
909.184	4554
909.3	4497
909.415	4599
909.531	4592
909.647	4360
909.762	4424
909.878	4371
909.993	4413
910.108	4432
910.224	4405
910.339	4478
910.454	4451
910.57	4405
910.685	4352
910.8	4660
910.915	4607
911.03	4531
911.145	4299
911.259	4363
911.374	4371
911.489	4291
911.604	4299
911.718	4253
911.833	4227
911.947	4105
912.062	4029
912.176	4204
912.291	4253
912.405	4265
912.519	4489
912.633	4519
912.748	4367
912.862	4363
912.976	4265
913.09	4116
913.204	4162
913.318	4272
913.431	4436
913.545	4398
913.659	4436
913.772	4325
913.886	4242
914	4185
914.113	4379
914.226	4459
914.34	4390
914.453	4284
914.566	4440
914.68	4375
914.793	4341
914.906	4169
915.019	4143
915.132	4131
915.245	4143
915.358	4253
915.47	4223
915.583	4295
915.696	4291
915.809	4436
915.921	4432
916.034	4295
916.146	4299
916.259	4227
916.371	4379
916.483	4375
916.595	4272
916.708	4371
916.82	4363
916.932	4348
917.044	4344
917.156	4295
917.268	4253
917.38	4344
917.491	4299
917.603	4367
917.715	4470
917.826	4440
917.938	4398
918.049	4261
918.161	4398
918.272	4565
918.384	4523
918.495	4462
918.606	4329
918.717	4257
918.828	4318
918.939	4363
919.05	4261
919.161	4337
919.272	4120
919.383	4280
919.494	4462
919.604	4645
919.715	4440
919.826	4371
919.936	4383
920.047	4554
920.157	4455
920.267	4725
920.378	4516
920.488	4519
920.598	4717
920.708	4892
920.818	4721
920.928	4790
921.038	4980
921.148	4953
921.258	4607
921.368	4558
921.477	4470
921.587	4424
921.697	4360
921.806	4569
921.916	4447
922.025	4238
922.134	4280
922.244	4272
922.353	4367
922.462	4173
922.571	4131
922.68	4036
922.789	3998
922.898	4044
923.007	4002
923.116	4135
923.224	4063
923.333	4090
923.442	3987
923.55	3987
923.659	4029
923.767	4097
923.876	3987
923.984	4124
924.092	3968
924.201	4116
924.309	4143
924.417	4158
924.525	4067
924.633	4150
924.741	5109
924.849	3892
924.956	4124
925.064	3964
925.172	3899
925.279	3998
925.387	4090
925.494	4044
925.602	4196
925.709	4177
925.816	4082
925.924	4162
926.031	4234
926.138	4154
926.245	4200
926.352	4097
926.459	4230
926.566	4348
926.673	4181
926.779	4128
926.886	4093
926.993	3994
927.099	4010
927.206	3987
927.312	3979
927.419	4090
927.525	4086
927.631	4116
927.737	3941
927.843	3994
927.95	3854
928.056	4006
928.162	4021
928.267	4112
928.373	4702
928.479	4120
928.585	3941
928.69	4071
928.796	4128
928.901	4036
929.007	3865
929.112	4051
929.218	4017
929.323	3983
929.428	3975
929.533	4131
929.638	3934
929.743	3983
929.848	4154
929.953	4048
930.058	3937
930.163	3835
930.267	3865
930.372	3983
930.477	3854
930.581	4158
930.685	3987
930.79	3892
930.894	3968
930.998	3884
931.103	4090
931.207	3766
931.311	3732
931.415	3743
931.519	3534
931.623	3580
