Data from test_V78500241_2755.txt Node
Date: Fri Mar 25 17:08:09 CST 2022
User: usil
Spectrometer: V785-0024
Trigger mode: 0
Integration Time (sec): 4.000000E-1
Scans to average: 1
Nonlinearity correction enabled: false
Boxcar width: 0
Storing dark spectrum: false
XAxis mode: Wavelengths
Number of Pixels in Spectrum: 1024
>>>>>Begin Spectral Data<<<<<
801.071	8016
801.214	8001
801.356	7921
801.499	7845
801.641	7795
801.783	7849
801.926	7974
802.068	7936
802.211	8043
802.353	8046
802.496	7913
802.638	7849
802.78	7883
802.923	7947
803.065	7883
803.208	7871
803.35	7921
803.492	8088
803.635	8240
803.777	8111
803.919	8180
804.061	8450
804.204	8126
804.346	8058
804.488	7951
804.63	8111
804.773	8031
804.915	8153
805.057	8309
805.199	8237
805.341	8233
805.483	8282
805.626	8267
805.768	8210
805.91	8202
806.052	8271
806.194	8134
806.336	8206
806.478	8199
806.62	8134
806.762	8149
806.904	8214
807.046	8480
807.188	8298
807.33	8294
807.472	8355
807.614	8157
807.756	8157
807.898	8027
808.04	7883
808.182	7909
808.324	7921
808.465	7959
808.607	8153
808.749	8199
808.891	8271
809.033	8275
809.174	8168
809.316	8058
809.458	8020
809.6	7947
809.741	8039
809.883	7997
810.025	8103
810.166	8062
810.308	8046
810.45	8027
810.591	7936
810.733	7719
810.875	7651
811.016	7506
811.158	7457
811.299	7643
811.441	7746
811.582	7746
811.724	7586
811.865	7590
812.007	7613
812.148	7609
812.29	7605
812.431	7731
812.573	7909
812.714	7970
812.855	8168
812.997	8202
813.138	8301
813.279	8164
813.421	8119
813.562	8058
813.703	7883
813.845	7792
813.986	7480
814.127	7236
814.268	7232
814.41	7221
814.551	7225
814.692	7179
814.833	6996
814.974	7080
815.115	7076
815.256	6985
815.397	6985
815.539	6935
815.68	6878
815.821	6833
815.962	6863
816.103	6829
816.244	6753
816.385	6589
816.526	6620
816.666	6422
816.807	6323
816.948	6490
817.089	6467
817.23	6475
817.371	6395
817.512	6395
817.653	6350
817.793	6376
817.934	6433
818.075	6479
818.216	6437
818.356	6403
818.497	6258
818.638	6213
818.778	6152
818.919	6178
819.06	6178
819.2	6388
819.341	6315
819.481	6346
819.622	6517
819.762	6757
819.903	6665
820.043	6642
820.184	6585
820.324	6627
820.465	6677
820.605	6669
820.746	6665
820.886	6498
821.026	6677
821.167	6715
821.307	6779
821.447	6810
821.588	6646
821.728	6608
821.868	6506
822.008	6296
822.149	6395
822.289	6342
822.429	6197
822.569	6091
822.709	6072
822.849	5931
822.99	5885
823.13	5942
823.27	5927
823.41	5786
823.55	5817
823.69	5794
823.83	5771
823.97	5646
824.11	5528
824.25	5509
824.389	5619
824.529	5589
824.669	5539
824.809	5634
824.949	5695
825.089	5630
825.228	5585
825.368	5433
825.508	5360
825.648	5368
825.787	5436
825.927	5311
826.067	5383
826.206	5292
826.346	5391
826.485	5383
826.625	5448
826.765	5539
826.904	5482
827.044	5265
827.183	5216
827.323	5155
827.462	5296
827.601	5189
827.741	5121
827.88	5193
828.02	5113
828.159	5242
828.298	5280
828.437	5337
828.577	5239
828.716	5509
828.855	5357
828.994	5105
829.134	5105
829.273	5147
829.412	5136
829.551	5193
829.69	5181
829.829	5204
829.968	5372
830.107	5227
830.246	5235
830.385	5162
830.524	5109
830.663	5060
830.802	4984
830.941	4938
831.08	4942
831.219	5010
831.357	5006
831.496	5223
831.635	4942
831.774	4862
831.913	4854
832.051	4763
832.19	4729
832.329	4828
832.467	4668
832.606	4637
832.744	4755
832.883	4721
833.022	4733
833.16	4805
833.299	4831
833.437	4820
833.576	4801
833.714	4835
833.852	4824
833.991	4896
834.129	4953
834.267	4942
834.406	4896
834.544	4946
834.682	4980
834.821	4934
834.959	5151
835.097	4934
835.235	5113
835.373	5029
835.511	5132
835.65	5045
835.788	5083
835.926	4858
836.064	4862
836.202	4908
836.34	5204
836.478	5197
836.615	5140
836.753	5254
836.891	5242
837.029	5170
837.167	5189
837.305	5159
837.443	5124
837.58	5079
837.718	5227
837.856	5189
837.993	5128
838.131	5277
838.269	5193
838.406	5201
838.544	5162
838.681	4965
838.819	4995
838.956	4877
839.094	4938
839.231	4972
839.369	5105
839.506	5402
839.643	5235
839.781	5048
839.918	5033
840.055	5098
840.193	5060
840.33	5098
840.467	5121
840.604	5136
840.742	5440
840.879	5060
841.016	5067
841.153	5155
841.29	5379
841.427	5349
841.564	5296
841.701	5357
841.838	5212
841.975	5178
842.112	5261
842.249	5128
842.385	5121
842.522	5337
842.659	5189
842.796	5212
842.933	5189
843.069	5136
843.206	5166
843.343	5273
843.479	5166
843.616	5288
843.752	5045
843.889	5010
844.025	5166
844.162	5056
844.298	5181
844.435	5075
844.571	5067
844.708	5185
844.844	5322
844.98	5326
845.117	5265
845.253	5109
845.389	5098
845.525	5143
845.661	5140
845.798	5064
845.934	5132
846.07	5056
846.206	5170
846.342	5296
846.478	5181
846.614	5037
846.75	5010
846.886	4980
847.022	5151
847.158	5014
847.294	5045
847.429	5079
847.565	5071
847.701	5299
847.837	4828
847.972	4801
848.108	4919
848.244	4961
848.379	4835
848.515	4717
848.65	4683
848.786	4740
848.921	4763
849.057	4831
849.192	4862
849.328	4809
849.463	4858
849.598	4801
849.734	4702
849.869	4714
850.004	4641
850.14	4649
850.275	4599
850.41	4535
850.545	4531
850.68	4618
850.815	4641
850.95	4679
851.085	4881
851.22	4725
851.355	4668
851.49	4603
851.625	4653
851.76	4626
851.895	4561
852.03	4535
852.165	4618
852.299	4721
852.434	4797
852.569	4740
852.703	4748
852.838	4797
852.973	4942
853.107	4965
853.242	4759
853.376	4630
853.511	4577
853.645	4660
853.78	4771
853.914	4679
854.048	4645
854.183	4588
854.317	4664
854.451	4839
854.585	4664
854.72	4660
854.854	4721
854.988	4615
855.122	4645
855.256	4523
855.39	4649
855.524	4778
855.658	4759
855.792	4694
855.926	4725
856.06	4752
856.194	4831
856.327	4683
856.461	4592
856.595	4599
856.729	4615
856.862	4759
856.996	4687
857.13	4717
857.263	4839
857.397	4774
857.53	4641
857.664	4714
857.797	4744
857.931	4740
858.064	4664
858.197	4683
858.331	4702
858.464	4592
858.597	4535
858.731	4649
858.864	4634
858.997	4588
859.13	4710
859.263	4691
859.396	4702
859.529	4546
859.662	4603
859.795	4561
859.928	4599
860.061	4759
860.194	4740
860.327	4622
860.46	4546
860.592	4698
860.725	4714
860.858	4740
860.99	4588
861.123	4565
861.256	4478
861.388	4596
861.521	5299
861.653	4474
861.786	4440
861.918	4455
862.05	4523
862.183	4561
862.315	4596
862.447	4679
862.58	4577
862.712	4462
862.844	4303
862.976	4497
863.108	4489
863.24	4748
863.372	4287
863.504	4424
863.636	4367
863.768	4474
863.9	4409
864.032	4348
864.164	4394
864.296	4512
864.428	4554
864.559	4592
864.691	4569
864.823	4535
864.954	4470
865.086	4485
865.217	4440
865.349	4421
865.48	4451
865.612	4500
865.743	4599
865.875	4447
866.006	4443
866.137	4451
866.269	4470
866.4	4383
866.531	4352
866.662	4383
866.793	4474
866.924	4436
867.055	4512
867.186	4478
867.317	4409
867.448	4428
867.579	4424
867.71	4428
867.841	4329
867.972	4413
868.103	4455
868.233	4421
868.364	4436
868.495	4497
868.625	4615
868.756	4759
868.886	4542
869.017	4565
869.147	4740
869.278	4752
869.408	4668
869.539	4683
869.669	4763
869.799	4675
869.929	4759
870.06	4740
870.19	4972
870.32	4923
870.45	4911
870.58	5041
870.71	5079
870.84	5075
870.97	4942
871.1	4892
871.23	5147
871.36	5162
871.489	5010
871.619	5048
871.749	5102
871.879	5140
872.008	5105
872.138	5052
872.267	4984
872.397	4862
872.526	4771
872.656	4710
872.785	4824
872.915	4923
873.044	5006
873.173	4908
873.303	4991
873.432	4984
873.561	4934
873.69	4854
873.819	4828
873.948	4862
874.077	4801
874.206	4786
874.335	4820
874.464	4953
874.593	5105
874.722	4995
874.851	5075
874.979	5105
875.108	5045
875.237	4915
875.365	4866
875.494	4889
875.623	4946
875.751	4816
875.88	4908
876.008	4965
876.136	5018
876.265	5204
876.393	5322
876.521	5220
876.65	5250
876.778	5185
876.906	5083
877.034	5079
877.162	5067
877.29	5029
877.418	5109
877.546	5045
877.674	5006
877.802	5033
877.93	5037
878.058	4915
878.185	4831
878.313	4965
878.441	4885
878.568	4835
878.696	4889
878.824	4995
878.951	4972
879.079	5170
879.206	5284
879.333	5098
879.461	4965
879.588	4972
879.715	5083
879.842	5292
879.97	5022
880.097	4778
880.224	4752
880.351	4831
880.478	4820
880.605	4809
880.732	4767
880.859	5090
880.986	4881
881.112	4885
881.239	4790
881.366	4649
881.493	4584
881.619	4580
881.746	4653
881.872	4634
881.999	4645
882.125	4702
882.252	4873
882.378	4828
882.505	4965
882.631	4847
882.757	4641
882.883	4687
883.01	4748
883.136	4637
883.262	4558
883.388	4584
883.514	4828
883.64	4850
883.766	4812
883.892	4694
884.018	4717
884.143	4889
884.269	5014
884.395	4714
884.52	4687
884.646	4622
884.772	4546
884.897	4550
885.023	4660
885.148	4809
885.274	4896
885.399	4828
885.524	4752
885.65	4683
885.775	4733
885.9	4755
886.025	4831
886.15	4805
886.275	4694
886.4	4630
886.525	4729
886.65	4679
886.775	4679
886.9	4904
887.025	5025
887.149	4801
887.274	4668
887.399	4573
887.523	4561
887.648	4618
887.773	4603
887.897	4721
888.021	4744
888.146	4668
888.27	4820
888.395	4908
888.519	4809
888.643	4850
888.767	4816
888.891	4679
889.015	4618
889.139	4660
889.263	4588
889.387	4771
889.511	4854
889.635	4786
889.759	4645
889.883	4607
890.006	4744
890.13	4820
890.254	4603
890.377	4668
890.501	4565
890.624	4542
890.748	4634
890.871	4535
890.995	4432
891.118	4405
891.241	4538
891.364	4489
891.488	4649
891.611	4516
891.734	4527
891.857	4611
891.98	4577
892.103	4611
892.226	4611
892.349	4504
892.471	4409
892.594	4550
892.717	4615
892.839	4569
892.962	4577
893.085	4729
893.207	4596
893.33	4436
893.452	4538
893.575	4656
893.697	4634
893.819	4767
893.941	4835
894.064	4820
894.186	4611
894.308	4565
894.43	4721
894.552	4831
894.674	4755
894.796	4565
894.918	4573
895.04	4573
895.161	4721
895.283	4645
895.405	4569
895.526	4637
895.648	4675
895.769	4717
895.891	4698
896.012	4763
896.134	4755
896.255	4653
896.376	4599
896.498	4580
896.619	4740
896.74	4637
896.861	4721
896.982	4877
897.103	5079
897.224	4858
897.345	4733
897.466	4675
897.587	4717
897.708	4892
897.828	4755
897.949	4679
898.07	4531
898.19	4603
898.311	4812
898.431	4702
898.552	4698
898.672	4809
898.792	4824
898.913	4748
899.033	4634
899.153	4500
899.273	4417
899.393	4542
899.513	4516
899.633	4493
899.753	4550
899.873	4535
899.993	4573
900.113	4558
900.232	4603
900.352	4493
900.472	4489
900.591	4405
900.711	4481
900.83	4428
900.95	4649
901.069	4618
901.189	4577
901.308	4356
901.427	4291
901.546	4352
901.665	4478
901.784	4508
901.904	4386
902.023	4306
902.141	4200
902.26	4109
902.379	4295
902.498	4276
902.617	4242
902.735	4360
902.854	4405
902.973	4337
903.091	4192
903.21	4249
903.328	4333
903.446	4276
903.565	4299
903.683	4333
903.801	4295
903.919	4379
904.038	4398
904.156	4329
904.274	4443
904.392	4390
904.51	4421
904.627	4447
904.745	4577
904.863	4580
904.981	4413
905.098	4299
905.216	4432
905.334	4409
905.451	4451
905.569	4451
905.686	4569
905.803	4550
905.921	4375
906.038	4554
906.155	4443
906.272	4424
906.389	4447
906.506	4325
906.623	4390
906.74	4379
906.857	4299
906.974	4344
907.091	4580
907.208	4607
907.324	4554
907.441	4497
907.557	4348
907.674	4337
907.79	4310
907.907	4367
908.023	4516
908.139	4500
908.256	4413
908.372	4428
908.488	4428
908.604	4344
908.72	4291
908.836	4394
908.952	4383
909.068	4447
909.184	4558
909.3	4474
909.415	4577
909.531	4561
909.647	4348
909.762	4363
909.878	4344
909.993	4390
910.108	4394
910.224	4417
910.339	4462
910.454	4405
910.57	4383
910.685	4322
910.8	4618
910.915	4622
911.03	4497
911.145	4341
911.259	4352
911.374	4432
911.489	4329
911.604	4287
911.718	4192
911.833	4230
911.947	4135
912.062	4006
912.176	4242
912.291	4223
912.405	4276
912.519	4428
912.633	4493
912.748	4356
912.862	4341
912.976	4223
913.09	4078
913.204	4204
913.318	4253
913.431	4344
913.545	4390
913.659	4424
913.772	4344
913.886	4284
914	4211
914.113	4375
914.226	4436
914.34	4333
914.453	4230
914.566	4402
914.68	4299
914.793	4280
914.906	4211
915.019	4101
915.132	4097
915.245	4162
915.358	4223
915.47	4253
915.583	4284
915.696	4329
915.809	4383
915.921	4409
916.034	4234
916.146	4272
916.259	4219
916.371	4447
916.483	4310
916.595	4253
916.708	4314
916.82	4291
916.932	4337
917.044	4379
917.156	4299
917.268	4249
917.38	4268
917.491	4272
917.603	4344
917.715	4436
917.826	4459
917.938	4322
918.049	4219
918.161	4363
918.272	4508
918.384	4554
918.495	4432
918.606	4314
918.717	4242
918.828	4341
918.939	4356
919.05	4246
919.161	4284
919.272	4120
919.383	4215
919.494	4402
919.604	4656
919.715	4436
919.826	4322
919.936	4398
920.047	4569
920.157	4531
920.267	4702
920.378	4588
920.488	4538
920.598	4706
920.708	4896
920.818	4725
920.928	4729
921.038	4953
921.148	4923
921.258	4588
921.368	4508
921.477	4485
921.587	4478
921.697	4383
921.806	4538
921.916	4440
922.025	4268
922.134	4242
922.244	4211
922.353	4314
922.462	4166
922.571	4116
922.68	4025
922.789	3998
922.898	4017
923.007	3972
923.116	4071
923.224	4082
923.333	4063
923.442	3987
923.55	3983
923.659	4017
923.767	4101
923.876	3972
923.984	4097
924.092	3979
924.201	4109
924.309	4082
924.417	4135
924.525	4093
924.633	4097
924.741	5018
924.849	3941
924.956	4204
925.064	3922
925.172	3865
925.279	3937
925.387	4048
925.494	4040
925.602	4169
925.709	4154
925.816	4048
925.924	4135
926.031	4246
926.138	4204
926.245	4230
926.352	4112
926.459	4227
926.566	4276
926.673	4158
926.779	4116
926.886	4021
926.993	3949
927.099	3972
927.206	3953
927.312	3964
927.419	4040
927.525	4032
927.631	4021
927.737	3941
927.843	3972
927.95	3835
928.056	3949
928.162	3991
928.267	4086
928.373	4702
928.479	4090
928.585	3899
928.69	4025
928.796	4131
928.901	3934
929.007	3846
929.112	3987
929.218	3994
929.323	3937
929.428	3975
929.533	4116
929.638	3903
929.743	3972
929.848	4017
929.953	4021
930.058	3937
930.163	3740
930.267	3827
930.372	3991
930.477	3819
930.581	4101
930.685	3949
930.79	3869
930.894	3869
930.998	3838
931.103	4051
931.207	3743
931.311	3694
931.415	3671
931.519	3549
931.623	3568
