Data from test_V78500241_1898.txt Node
Date: Fri Mar 25 17:02:11 CST 2022
User: usil
Spectrometer: V785-0024
Trigger mode: 0
Integration Time (sec): 4.000000E-1
Scans to average: 1
Nonlinearity correction enabled: false
Boxcar width: 0
Storing dark spectrum: false
XAxis mode: Wavelengths
Number of Pixels in Spectrum: 1024
>>>>>Begin Spectral Data<<<<<
801.071	7986
801.214	7967
801.356	7864
801.499	7883
801.641	7772
801.783	7784
801.926	8005
802.068	7963
802.211	7978
802.353	8058
802.496	7830
802.638	7887
802.78	7894
802.923	7898
803.065	7841
803.208	7856
803.35	8020
803.492	8039
803.635	8126
803.777	8050
803.919	8187
804.061	8454
804.204	8138
804.346	8081
804.488	7955
804.63	7989
804.773	8058
804.915	8126
805.057	8309
805.199	8149
805.341	8161
805.483	8271
805.626	8202
805.768	8206
805.91	8153
806.052	8218
806.194	8084
806.336	8298
806.478	8084
806.62	8035
806.762	8073
806.904	8252
807.046	8442
807.188	8355
807.33	8355
807.472	8370
807.614	8161
807.756	8126
807.898	7955
808.04	7967
808.182	7868
808.324	7875
808.465	7955
808.607	8092
808.749	8107
808.891	8172
809.033	8294
809.174	8221
809.316	8092
809.458	7986
809.6	8020
809.741	8027
809.883	8001
810.025	8069
810.166	8107
810.308	8012
810.45	7970
810.591	7860
810.733	7670
810.875	7655
811.016	7518
811.158	7525
811.299	7582
811.441	7708
811.582	7624
811.724	7567
811.865	7563
812.007	7552
812.148	7552
812.29	7613
812.431	7826
812.573	7864
812.714	7951
812.855	8123
812.997	8191
813.138	8366
813.279	8183
813.421	8126
813.562	7989
813.703	7868
813.845	7731
813.986	7430
814.127	7236
814.268	7171
814.41	7183
814.551	7152
814.692	7209
814.833	7050
814.974	7114
815.115	7141
815.256	7019
815.397	6928
815.539	6954
815.68	6802
815.821	6696
815.962	6859
816.103	6814
816.244	6684
816.385	6616
816.526	6612
816.666	6506
816.807	6338
816.948	6467
817.089	6486
817.23	6426
817.371	6403
817.512	6395
817.653	6342
817.793	6319
817.934	6357
818.075	6426
818.216	6410
818.356	6426
818.497	6273
818.638	6136
818.778	6155
818.919	6140
819.06	6209
819.2	6311
819.341	6319
819.481	6399
819.622	6559
819.762	6738
819.903	6658
820.043	6646
820.184	6585
820.324	6555
820.465	6669
820.605	6707
820.746	6623
820.886	6479
821.026	6642
821.167	6665
821.307	6806
821.447	6791
821.588	6738
821.728	6593
821.868	6528
822.008	6357
822.149	6384
822.289	6365
822.429	6098
822.569	6102
822.709	6152
822.849	5969
822.99	5923
823.13	5920
823.27	5969
823.41	5779
823.55	5748
823.69	5802
823.83	5726
823.97	5638
824.11	5509
824.25	5482
824.389	5558
824.529	5608
824.669	5547
824.809	5642
824.949	5661
825.089	5592
825.228	5493
825.368	5383
825.508	5357
825.648	5330
825.787	5368
825.927	5341
826.067	5357
826.206	5311
826.346	5398
826.485	5379
826.625	5421
826.765	5535
826.904	5455
827.044	5258
827.183	5216
827.323	5102
827.462	5273
827.601	5140
827.741	5170
827.88	5212
828.02	5056
828.159	5201
828.298	5269
828.437	5334
828.577	5303
828.716	5497
828.855	5341
828.994	5151
829.134	5147
829.273	5204
829.412	5136
829.551	5143
829.69	5105
829.829	5216
829.968	5345
830.107	5265
830.246	5258
830.385	5189
830.524	5159
830.663	5067
830.802	5003
830.941	4885
831.08	4885
831.219	4949
831.357	4965
831.496	5151
831.635	4904
831.774	4805
831.913	4786
832.051	4729
832.19	4771
832.329	4858
832.467	4668
832.606	4645
832.744	4672
832.883	4744
833.022	4698
833.16	4774
833.299	4774
833.437	4820
833.576	4809
833.714	4862
833.852	4870
833.991	4885
834.129	4976
834.267	4900
834.406	4911
834.544	4987
834.682	4968
834.821	5010
834.959	5147
835.097	4987
835.235	5105
835.373	5041
835.511	5060
835.65	4987
835.788	5014
835.926	4877
836.064	4850
836.202	4896
836.34	5159
836.478	5178
836.615	5109
836.753	5166
836.891	5269
837.029	5265
837.167	5227
837.305	5162
837.443	5128
837.58	5083
837.718	5246
837.856	5174
837.993	5140
838.131	5239
838.269	5204
838.406	5223
838.544	5189
838.681	5018
838.819	5010
838.956	4896
839.094	4923
839.231	4972
839.369	5124
839.506	5433
839.643	5246
839.781	5067
839.918	4968
840.055	5083
840.193	5010
840.33	5079
840.467	5105
840.604	5178
840.742	5459
840.879	5102
841.016	5067
841.153	5162
841.29	5379
841.427	5311
841.564	5311
841.701	5376
841.838	5231
841.975	5197
842.112	5227
842.249	5121
842.385	5128
842.522	5280
842.659	5147
842.796	5128
842.933	5193
843.069	5090
843.206	5094
843.343	5288
843.479	5204
843.616	5315
843.752	4999
843.889	4942
844.025	5326
844.162	5018
844.298	5197
844.435	5105
844.571	5037
844.708	5178
844.844	5277
844.98	5288
845.117	5292
845.253	5151
845.389	5056
845.525	5155
845.661	5098
845.798	5018
845.934	5113
846.07	5067
846.206	5174
846.342	5261
846.478	5220
846.614	5029
846.75	4942
846.886	4923
847.022	5159
847.158	5037
847.294	5022
847.429	5113
847.565	5025
847.701	5307
847.837	4885
847.972	4843
848.108	4904
848.244	4934
848.379	4786
848.515	4733
848.65	4694
848.786	4733
848.921	4740
849.057	4828
849.192	4889
849.328	4782
849.463	4866
849.598	4786
849.734	4790
849.869	4714
850.004	4634
850.14	4702
850.275	4584
850.41	4558
850.545	4584
850.68	4649
850.815	4618
850.95	4622
851.085	4843
851.22	4679
851.355	4672
851.49	4599
851.625	4599
851.76	4611
851.895	4550
852.03	4512
852.165	4660
852.299	4740
852.434	4805
852.569	4733
852.703	4782
852.838	4820
852.973	4965
853.107	4938
853.242	4748
853.376	4672
853.511	4546
853.645	4565
853.78	4843
853.914	4656
854.048	4683
854.183	4622
854.317	4714
854.451	4866
854.585	4675
854.72	4596
854.854	4736
854.988	4573
855.122	4626
855.256	4531
855.39	4664
855.524	4721
855.658	4740
855.792	4679
855.926	4698
856.06	4755
856.194	4774
856.327	4683
856.461	4615
856.595	4569
856.729	4607
856.862	4782
856.996	4679
857.13	4725
857.263	4797
857.397	4797
857.53	4634
857.664	4744
857.797	4744
857.931	4702
858.064	4656
858.197	4740
858.331	4634
858.464	4584
858.597	4497
858.731	4615
858.864	4596
858.997	4592
859.13	4664
859.263	4672
859.396	4649
859.529	4603
859.662	4523
859.795	4538
859.928	4630
860.061	4702
860.194	4755
860.327	4596
860.46	4565
860.592	4717
860.725	4748
860.858	4714
860.99	4538
861.123	4512
861.256	4508
861.388	4607
861.521	5406
861.653	4489
861.786	4474
861.918	4440
862.05	4512
862.183	4596
862.315	4535
862.447	4660
862.58	4497
862.712	4360
862.844	4314
862.976	4500
863.108	4447
863.24	4877
863.372	4314
863.504	4455
863.636	4344
863.768	4432
863.9	4443
864.032	4394
864.164	4421
864.296	4485
864.428	4588
864.559	4546
864.691	4516
864.823	4519
864.954	4485
865.086	4508
865.217	4485
865.349	4405
865.48	4481
865.612	4436
865.743	4637
865.875	4447
866.006	4440
866.137	4440
866.269	4470
866.4	4462
866.531	4424
866.662	4409
866.793	4341
866.924	4443
867.055	4508
867.186	4402
867.317	4417
867.448	4363
867.579	4394
867.71	4413
867.841	4371
867.972	4447
868.103	4440
868.233	4470
868.364	4462
868.495	4421
868.625	4645
868.756	4748
868.886	4531
869.017	4641
869.147	4759
869.278	4744
869.408	4637
869.539	4634
869.669	4702
869.799	4637
869.929	4763
870.06	4694
870.19	4919
870.32	4930
870.45	4938
870.58	5052
870.71	5105
870.84	5071
870.97	4976
871.1	4911
871.23	5102
871.36	5086
871.489	5037
871.619	5064
871.749	5048
871.879	5147
872.008	5147
872.138	5052
872.267	4984
872.397	4850
872.526	4793
872.656	4714
872.785	4786
872.915	4949
873.044	4991
873.173	4915
873.303	4953
873.432	4968
873.561	4908
873.69	4786
873.819	4927
873.948	4961
874.077	4812
874.206	4763
874.335	4778
874.464	4919
874.593	5022
874.722	4927
874.851	5109
874.979	5086
875.108	5041
875.237	4927
875.365	4862
875.494	4873
875.623	4938
875.751	4790
875.88	4850
876.008	5018
876.136	5060
876.265	5201
876.393	5315
876.521	5231
876.65	5242
876.778	5155
876.906	5025
877.034	5006
877.162	5014
877.29	5003
877.418	5071
877.546	5041
877.674	5056
877.802	5033
877.93	4999
878.058	4923
878.185	4881
878.313	4938
878.441	4915
878.568	4771
878.696	4858
878.824	4968
878.951	5010
879.079	5098
879.206	5277
879.333	5083
879.461	4957
879.588	5018
879.715	5121
879.842	5235
879.97	4949
880.097	4786
880.224	4721
880.351	4801
880.478	4816
880.605	4797
880.732	4767
880.859	5109
880.986	4881
881.112	4900
881.239	4793
881.366	4694
881.493	4607
881.619	4546
881.746	4615
881.872	4645
881.999	4694
882.125	4656
882.252	4774
882.378	4759
882.505	4946
882.631	4786
882.757	4634
882.883	4740
883.01	4714
883.136	4618
883.262	4569
883.388	4611
883.514	4831
883.64	4831
883.766	4782
883.892	4664
884.018	4740
884.143	4927
884.269	4976
884.395	4733
884.52	4675
884.646	4630
884.772	4580
884.897	4580
885.023	4675
885.148	4797
885.274	4870
885.399	4820
885.524	4694
885.65	4653
885.775	4740
885.9	4706
886.025	4850
886.15	4782
886.275	4706
886.4	4634
886.525	4725
886.65	4660
886.775	4641
886.9	4923
887.025	5003
887.149	4809
887.274	4626
887.399	4603
887.523	4561
887.648	4584
887.773	4550
887.897	4767
888.021	4790
888.146	4637
888.27	4812
888.395	4839
888.519	4812
888.643	4790
888.767	4824
888.891	4683
889.015	4554
889.139	4641
889.263	4592
889.387	4763
889.511	4889
889.635	4790
889.759	4645
889.883	4641
890.006	4675
890.13	4736
890.254	4641
890.377	4649
890.501	4577
890.624	4512
890.748	4641
890.871	4466
890.995	4413
891.118	4356
891.241	4508
891.364	4538
891.488	4630
891.611	4516
891.734	4531
891.857	4596
891.98	4599
892.103	4630
892.226	4592
892.349	4554
892.471	4443
892.594	4588
892.717	4626
892.839	4599
892.962	4599
893.085	4660
893.207	4577
893.33	4436
893.452	4535
893.575	4668
893.697	4546
893.819	4809
893.941	4809
894.064	4744
894.186	4596
894.308	4542
894.43	4729
894.552	4843
894.674	4793
894.796	4550
894.918	4569
895.04	4538
895.161	4702
895.283	4611
895.405	4550
895.526	4637
895.648	4710
895.769	4668
895.891	4748
896.012	4733
896.134	4683
896.255	4683
896.376	4603
896.498	4584
896.619	4660
896.74	4596
896.861	4626
896.982	4911
897.103	5075
897.224	4820
897.345	4767
897.466	4649
897.587	4725
897.708	4866
897.828	4767
897.949	4630
898.07	4565
898.19	4618
898.311	4809
898.431	4687
898.552	4748
898.672	4820
898.792	4771
898.913	4759
899.033	4615
899.153	4470
899.273	4398
899.393	4474
899.513	4558
899.633	4493
899.753	4519
899.873	4455
899.993	4596
900.113	4504
900.232	4592
900.352	4500
900.472	4451
900.591	4375
900.711	4485
900.83	4478
900.95	4565
901.069	4649
901.189	4535
901.308	4394
901.427	4325
901.546	4356
901.665	4489
901.784	4542
901.904	4363
902.023	4341
902.141	4173
902.26	4169
902.379	4291
902.498	4249
902.617	4154
902.735	4337
902.854	4413
902.973	4352
903.091	4211
903.21	4257
903.328	4306
903.446	4268
903.565	4299
903.683	4379
903.801	4246
903.919	4421
904.038	4390
904.156	4306
904.274	4421
904.392	4443
904.51	4405
904.627	4493
904.745	4592
904.863	4599
904.981	4470
905.098	4314
905.216	4360
905.334	4474
905.451	4413
905.569	4497
905.686	4550
905.803	4531
905.921	4440
906.038	4558
906.155	4500
906.272	4371
906.389	4455
906.506	4314
906.623	4375
906.74	4417
906.857	4333
906.974	4367
907.091	4577
907.208	4706
907.324	4596
907.441	4451
907.557	4344
907.674	4310
907.79	4291
907.907	4375
908.023	4493
908.139	4417
908.256	4462
908.372	4489
908.488	4466
908.604	4371
908.72	4333
908.836	4398
908.952	4402
909.068	4462
909.184	4542
909.3	4478
909.415	4565
909.531	4546
909.647	4337
909.762	4379
909.878	4303
909.993	4443
910.108	4379
910.224	4375
910.339	4462
910.454	4379
910.57	4383
910.685	4287
910.8	4637
910.915	4573
911.03	4508
911.145	4306
911.259	4329
911.374	4383
911.489	4284
911.604	4253
911.718	4162
911.833	4227
911.947	4063
912.062	3975
912.176	4188
912.291	4246
912.405	4257
912.519	4500
912.633	4535
912.748	4386
912.862	4352
912.976	4215
913.09	4093
913.204	4219
913.318	4272
913.431	4344
913.545	4329
913.659	4417
913.772	4322
913.886	4230
914	4238
914.113	4371
914.226	4379
914.34	4363
914.453	4173
914.566	4436
914.68	4287
914.793	4314
914.906	4185
915.019	4097
915.132	4082
915.245	4154
915.358	4257
915.47	4242
915.583	4261
915.696	4280
915.809	4394
915.921	4379
916.034	4257
916.146	4192
916.259	4219
916.371	4379
916.483	4344
916.595	4234
916.708	4299
916.82	4268
916.932	4337
917.044	4341
917.156	4310
917.268	4211
917.38	4291
917.491	4276
917.603	4341
917.715	4459
917.826	4390
917.938	4352
918.049	4230
918.161	4371
918.272	4535
918.384	4504
918.495	4485
918.606	4348
918.717	4227
918.828	4337
918.939	4390
919.05	4280
919.161	4299
919.272	4090
919.383	4181
919.494	4440
919.604	4599
919.715	4432
919.826	4356
919.936	4386
920.047	4527
920.157	4493
920.267	4698
920.378	4569
920.488	4500
920.598	4687
920.708	4911
920.818	4740
920.928	4790
921.038	4942
921.148	4946
921.258	4645
921.368	4504
921.477	4481
921.587	4455
921.697	4367
921.806	4569
921.916	4402
922.025	4280
922.134	4295
922.244	4227
922.353	4310
922.462	4101
922.571	4116
922.68	4017
922.789	3972
922.898	4032
923.007	3983
923.116	4074
923.224	4036
923.333	4090
923.442	4006
923.55	4013
923.659	4032
923.767	4154
923.876	4006
923.984	4116
924.092	3998
924.201	4078
924.309	4063
924.417	4112
924.525	4021
924.633	4131
924.741	4961
924.849	3880
924.956	4128
925.064	3968
925.172	3930
925.279	3960
925.387	4036
925.494	4044
925.602	4192
925.709	4211
925.816	4055
925.924	4135
926.031	4185
926.138	4173
926.245	4230
926.352	4051
926.459	4265
926.566	4303
926.673	4158
926.779	4067
926.886	4116
926.993	3960
927.099	3960
927.206	3979
927.312	3896
927.419	4040
927.525	4010
927.631	4135
927.737	3964
927.843	3945
927.95	3838
928.056	3983
928.162	3998
928.267	4055
928.373	4577
928.479	4105
928.585	3869
928.69	3998
928.796	4082
928.901	3956
929.007	3846
929.112	4040
929.218	3899
929.323	3922
929.428	3926
929.533	4051
929.638	3915
929.743	3968
929.848	4044
929.953	4013
930.058	3915
930.163	3770
930.267	3816
930.372	3960
930.477	3854
930.581	4116
930.685	3953
930.79	3831
930.894	3922
930.998	3827
931.103	4021
931.207	3698
931.311	3686
931.415	3652
931.519	3515
931.623	3603
