Data from test_V78500241_2724.txt Node
Date: Fri Mar 25 17:07:56 CST 2022
User: usil
Spectrometer: V785-0024
Trigger mode: 0
Integration Time (sec): 4.000000E-1
Scans to average: 1
Nonlinearity correction enabled: false
Boxcar width: 0
Storing dark spectrum: false
XAxis mode: Wavelengths
Number of Pixels in Spectrum: 1024
>>>>>Begin Spectral Data<<<<<
801.071	8092
801.214	8035
801.356	7845
801.499	7932
801.641	7799
801.783	7902
801.926	7989
802.068	7925
802.211	8016
802.353	8020
802.496	7906
802.638	7875
802.78	7906
802.923	7986
803.065	7879
803.208	7826
803.35	7993
803.492	8168
803.635	8172
803.777	8111
803.919	8183
804.061	8415
804.204	8134
804.346	8073
804.488	7944
804.63	8027
804.773	8046
804.915	8111
805.057	8351
805.199	8126
805.341	8210
805.483	8263
805.626	8221
805.768	8130
805.91	8248
806.052	8229
806.194	8119
806.336	8305
806.478	8077
806.62	8054
806.762	8096
806.904	8282
807.046	8480
807.188	8393
807.33	8259
807.472	8290
807.614	8164
807.756	8077
807.898	7993
808.04	7906
808.182	7917
808.324	7887
808.465	7955
808.607	8107
808.749	8161
808.891	8267
809.033	8393
809.174	8233
809.316	8088
809.458	8046
809.6	8031
809.741	8100
809.883	8024
810.025	8134
810.166	8073
810.308	8065
810.45	8043
810.591	7898
810.733	7753
810.875	7647
811.016	7559
811.158	7548
811.299	7616
811.441	7674
811.582	7712
811.724	7620
811.865	7601
812.007	7601
812.148	7616
812.29	7666
812.431	7761
812.573	7883
812.714	7951
812.855	8107
812.997	8240
813.138	8214
813.279	8119
813.421	8142
813.562	8005
813.703	7788
813.845	7753
813.986	7483
814.127	7278
814.268	7217
814.41	7206
814.551	7168
814.692	7209
814.833	7095
814.974	7091
815.115	7072
815.256	6973
815.397	6894
815.539	6837
815.68	6852
815.821	6821
815.962	6859
816.103	6837
816.244	6722
816.385	6570
816.526	6620
816.666	6483
816.807	6319
816.948	6391
817.089	6525
817.23	6410
817.371	6384
817.512	6399
817.653	6346
817.793	6323
817.934	6418
818.075	6506
818.216	6437
818.356	6365
818.497	6281
818.638	6098
818.778	6087
818.919	6163
819.06	6106
819.2	6338
819.341	6334
819.481	6334
819.622	6490
819.762	6757
819.903	6646
820.043	6604
820.184	6566
820.324	6585
820.465	6741
820.605	6669
820.746	6612
820.886	6471
821.026	6696
821.167	6772
821.307	6783
821.447	6726
821.588	6711
821.728	6646
821.868	6528
822.008	6407
822.149	6410
822.289	6289
822.429	6251
822.569	6068
822.709	6167
822.849	5939
822.99	5942
823.13	6007
823.27	5980
823.41	5836
823.55	5878
823.69	5798
823.83	5802
823.97	5722
824.11	5566
824.25	5535
824.389	5611
824.529	5688
824.669	5589
824.809	5642
824.949	5733
825.089	5710
825.228	5577
825.368	5452
825.508	5387
825.648	5360
825.787	5474
825.927	5402
826.067	5368
826.206	5372
826.346	5417
826.485	5425
826.625	5459
826.765	5535
826.904	5581
827.044	5368
827.183	5254
827.323	5185
827.462	5334
827.601	5212
827.741	5216
827.88	5258
828.02	5201
828.159	5212
828.298	5326
828.437	5436
828.577	5288
828.716	5520
828.855	5368
828.994	5223
829.134	5178
829.273	5223
829.412	5174
829.551	5140
829.69	5201
829.829	5254
829.968	5372
830.107	5326
830.246	5299
830.385	5246
830.524	5181
830.663	5109
830.802	4987
830.941	4938
831.08	4930
831.219	5037
831.357	5025
831.496	5250
831.635	4961
831.774	4881
831.913	4873
832.051	4820
832.19	4847
832.329	4812
832.467	4748
832.606	4687
832.744	4778
832.883	4778
833.022	4717
833.16	4782
833.299	4866
833.437	4892
833.576	4866
833.714	4915
833.852	4900
833.991	4919
834.129	4995
834.267	5003
834.406	4972
834.544	5048
834.682	5014
834.821	4965
834.959	5208
835.097	5022
835.235	5151
835.373	5132
835.511	5155
835.65	5045
835.788	5033
835.926	4980
836.064	4927
836.202	4980
836.34	5239
836.478	5250
836.615	5159
836.753	5239
836.891	5368
837.029	5280
837.167	5223
837.305	5235
837.443	5189
837.58	5140
837.718	5318
837.856	5250
837.993	5197
838.131	5231
838.269	5235
838.406	5246
838.544	5216
838.681	5109
838.819	5041
838.956	4927
839.094	4873
839.231	4968
839.369	5109
839.506	5467
839.643	5379
839.781	5102
839.918	5056
840.055	5124
840.193	5140
840.33	5132
840.467	5208
840.604	5246
840.742	5524
840.879	5143
841.016	5151
841.153	5147
841.29	5391
841.427	5345
841.564	5345
841.701	5360
841.838	5292
841.975	5254
842.112	5326
842.249	5223
842.385	5174
842.522	5360
842.659	5212
842.796	5227
842.933	5242
843.069	5181
843.206	5166
843.343	5311
843.479	5231
843.616	5303
843.752	5075
843.889	5037
844.025	5223
844.162	5086
844.298	5201
844.435	5136
844.571	5113
844.708	5143
844.844	5345
844.98	5337
845.117	5315
845.253	5124
845.389	5128
845.525	5239
845.661	5155
845.798	5025
845.934	5159
846.07	5102
846.206	5147
846.342	5318
846.478	5155
846.614	5025
846.75	5018
846.886	4995
847.022	5181
847.158	5052
847.294	5143
847.429	5143
847.565	5086
847.701	5296
847.837	4885
847.972	4839
848.108	4980
848.244	4927
848.379	4843
848.515	4721
848.65	4740
848.786	4771
848.921	4843
849.057	4930
849.192	4889
849.328	4889
849.463	4812
849.598	4816
849.734	4771
849.869	4744
850.004	4653
850.14	4675
850.275	4653
850.41	4538
850.545	4554
850.68	4630
850.815	4634
850.95	4702
851.085	4885
851.22	4763
851.355	4733
851.49	4626
851.625	4679
851.76	4656
851.895	4592
852.03	4592
852.165	4687
852.299	4736
852.434	4824
852.569	4809
852.703	4771
852.838	4820
852.973	4946
853.107	4934
853.242	4771
853.376	4698
853.511	4531
853.645	4641
853.78	4858
853.914	4725
854.048	4729
854.183	4691
854.317	4702
854.451	4873
854.585	4694
854.72	4641
854.854	4771
854.988	4694
855.122	4660
855.256	4542
855.39	4656
855.524	4820
855.658	4763
855.792	4752
855.926	4729
856.06	4790
856.194	4858
856.327	4733
856.461	4630
856.595	4611
856.729	4656
856.862	4782
856.996	4717
857.13	4767
857.263	4774
857.397	4820
857.53	4672
857.664	4702
857.797	4809
857.931	4812
858.064	4687
858.197	4763
858.331	4698
858.464	4649
858.597	4565
858.731	4626
858.864	4706
858.997	4588
859.13	4714
859.263	4618
859.396	4774
859.529	4569
859.662	4641
859.795	4611
859.928	4683
860.061	4797
860.194	4850
860.327	4683
860.46	4569
860.592	4736
860.725	4790
860.858	4706
860.99	4599
861.123	4569
861.256	4558
861.388	4641
861.521	5330
861.653	4504
861.786	4443
861.918	4478
862.05	4550
862.183	4531
862.315	4622
862.447	4641
862.58	4584
862.712	4398
862.844	4341
862.976	4531
863.108	4550
863.24	4812
863.372	4356
863.504	4459
863.636	4405
863.768	4470
863.9	4436
864.032	4394
864.164	4432
864.296	4497
864.428	4580
864.559	4542
864.691	4565
864.823	4554
864.954	4519
865.086	4569
865.217	4478
865.349	4432
865.48	4500
865.612	4481
865.743	4668
865.875	4478
866.006	4428
866.137	4451
866.269	4485
866.4	4462
866.531	4443
866.662	4443
866.793	4447
866.924	4455
867.055	4554
867.186	4474
867.317	4474
867.448	4405
867.579	4413
867.71	4413
867.841	4413
867.972	4497
868.103	4497
868.233	4485
868.364	4489
868.495	4527
868.625	4725
868.756	4805
868.886	4577
869.017	4645
869.147	4824
869.278	4767
869.408	4714
869.539	4656
869.669	4744
869.799	4656
869.929	4774
870.06	4774
870.19	4904
870.32	4949
870.45	4984
870.58	5025
870.71	5121
870.84	5075
870.97	4942
871.1	4949
871.23	5193
871.36	5147
871.489	5056
871.619	5045
871.749	5098
871.879	5178
872.008	5170
872.138	5094
872.267	5014
872.397	4881
872.526	4831
872.656	4729
872.785	4881
872.915	4953
873.044	5014
873.173	4999
873.303	4961
873.432	4961
873.561	5045
873.69	4923
873.819	4911
873.948	4949
874.077	4843
874.206	4809
874.335	4790
874.464	4946
874.593	5079
874.722	4968
874.851	5105
874.979	5041
875.108	5086
875.237	4953
875.365	4854
875.494	4896
875.623	4976
875.751	4831
875.88	4896
876.008	4968
876.136	5056
876.265	5204
876.393	5376
876.521	5227
876.65	5235
876.778	5223
876.906	5067
877.034	5102
877.162	5041
877.29	5025
877.418	5090
877.546	5033
877.674	5098
877.802	5037
877.93	4980
878.058	4991
878.185	4908
878.313	4984
878.441	4972
878.568	4801
878.696	4885
878.824	4938
878.951	5006
879.079	5166
879.206	5296
879.333	5128
879.461	4965
879.588	5083
879.715	5132
879.842	5223
879.97	5029
880.097	4786
880.224	4774
880.351	4812
880.478	4854
880.605	4801
880.732	4744
880.859	5064
880.986	4927
881.112	4870
881.239	4820
881.366	4653
881.493	4626
881.619	4599
881.746	4679
881.872	4736
881.999	4626
882.125	4706
882.252	4759
882.378	4801
882.505	5018
882.631	4805
882.757	4729
882.883	4771
883.01	4767
883.136	4634
883.262	4615
883.388	4615
883.514	4782
883.64	4908
883.766	4774
883.892	4679
884.018	4710
884.143	4923
884.269	5041
884.395	4683
884.52	4622
884.646	4664
884.772	4626
884.897	4599
885.023	4672
885.148	4771
885.274	4885
885.399	4816
885.524	4710
885.65	4702
885.775	4736
885.9	4744
886.025	4881
886.15	4824
886.275	4691
886.4	4660
886.525	4759
886.65	4637
886.775	4702
886.9	4919
887.025	5094
887.149	4797
887.274	4698
887.399	4599
887.523	4622
887.648	4588
887.773	4641
887.897	4847
888.021	4801
888.146	4710
888.27	4809
888.395	4938
888.519	4820
888.643	4847
888.767	4782
888.891	4630
889.015	4634
889.139	4683
889.263	4630
889.387	4771
889.511	4854
889.635	4820
889.759	4637
889.883	4634
890.006	4691
890.13	4885
890.254	4641
890.377	4664
890.501	4546
890.624	4538
890.748	4656
890.871	4527
890.995	4470
891.118	4371
891.241	4535
891.364	4523
891.488	4653
891.611	4523
891.734	4546
891.857	4603
891.98	4561
892.103	4656
892.226	4561
892.349	4542
892.471	4447
892.594	4558
892.717	4577
892.839	4577
892.962	4611
893.085	4637
893.207	4596
893.33	4478
893.452	4546
893.575	4637
893.697	4588
893.819	4786
893.941	4809
894.064	4763
894.186	4584
894.308	4630
894.43	4725
894.552	4797
894.674	4812
894.796	4615
894.918	4565
895.04	4607
895.161	4706
895.283	4679
895.405	4546
895.526	4649
895.648	4672
895.769	4615
895.891	4660
896.012	4771
896.134	4729
896.255	4683
896.376	4607
896.498	4656
896.619	4660
896.74	4611
896.861	4687
896.982	4957
897.103	5113
897.224	4892
897.345	4763
897.466	4641
897.587	4755
897.708	4870
897.828	4786
897.949	4691
898.07	4554
898.19	4637
898.311	4862
898.431	4672
898.552	4778
898.672	4812
898.792	4797
898.913	4748
899.033	4630
899.153	4531
899.273	4443
899.393	4500
899.513	4523
899.633	4512
899.753	4554
899.873	4538
899.993	4573
900.113	4550
900.232	4592
900.352	4561
900.472	4512
900.591	4428
900.711	4523
900.83	4497
900.95	4630
901.069	4691
901.189	4523
901.308	4398
901.427	4375
901.546	4386
901.665	4504
901.784	4542
901.904	4375
902.023	4360
902.141	4192
902.26	4204
902.379	4348
902.498	4253
902.617	4249
902.735	4363
902.854	4386
902.973	4417
903.091	4204
903.21	4238
903.328	4276
903.446	4268
903.565	4291
903.683	4352
903.801	4272
903.919	4405
904.038	4428
904.156	4318
904.274	4451
904.392	4405
904.51	4466
904.627	4462
904.745	4599
904.863	4721
904.981	4436
905.098	4303
905.216	4344
905.334	4417
905.451	4424
905.569	4440
905.686	4554
905.803	4622
905.921	4367
906.038	4493
906.155	4512
906.272	4360
906.389	4489
906.506	4341
906.623	4386
906.74	4424
906.857	4325
906.974	4405
907.091	4558
907.208	4649
907.324	4599
907.441	4470
907.557	4367
907.674	4405
907.79	4295
907.907	4318
908.023	4508
908.139	4474
908.256	4451
908.372	4516
908.488	4470
908.604	4348
908.72	4356
908.836	4409
908.952	4348
909.068	4398
909.184	4596
909.3	4440
909.415	4615
909.531	4599
909.647	4344
909.762	4379
909.878	4360
909.993	4421
910.108	4421
910.224	4356
910.339	4451
910.454	4432
910.57	4352
910.685	4280
910.8	4679
910.915	4596
911.03	4516
911.145	4310
911.259	4344
911.374	4352
911.489	4318
911.604	4265
911.718	4139
911.833	4234
911.947	4109
912.062	4040
912.176	4242
912.291	4253
912.405	4253
912.519	4489
912.633	4481
912.748	4386
912.862	4310
912.976	4227
913.09	4097
913.204	4196
913.318	4238
913.431	4394
913.545	4386
913.659	4432
913.772	4352
913.886	4234
914	4204
914.113	4356
914.226	4443
914.34	4390
914.453	4249
914.566	4478
914.68	4287
914.793	4352
914.906	4173
915.019	4185
915.132	4090
915.245	4181
915.358	4200
915.47	4223
915.583	4257
915.696	4310
915.809	4379
915.921	4394
916.034	4261
916.146	4169
916.259	4227
916.371	4344
916.483	4337
916.595	4253
916.708	4325
916.82	4325
916.932	4356
917.044	4356
917.156	4360
917.268	4230
917.38	4257
917.491	4257
917.603	4329
917.715	4386
917.826	4424
917.938	4367
918.049	4230
918.161	4432
918.272	4516
918.384	4550
918.495	4443
918.606	4268
918.717	4246
918.828	4303
918.939	4383
919.05	4257
919.161	4325
919.272	4181
919.383	4261
919.494	4493
919.604	4611
919.715	4432
919.826	4325
919.936	4394
920.047	4542
920.157	4485
920.267	4668
920.378	4516
920.488	4485
920.598	4706
920.708	4892
920.818	4763
920.928	4835
921.038	4915
921.148	4904
921.258	4645
921.368	4531
921.477	4493
921.587	4432
921.697	4352
921.806	4542
921.916	4436
922.025	4272
922.134	4287
922.244	4211
922.353	4341
922.462	4177
922.571	4143
922.68	4013
922.789	3983
922.898	4032
923.007	4010
923.116	4093
923.224	4071
923.333	4071
923.442	4002
923.55	3983
923.659	4044
923.767	4109
923.876	4010
923.984	4131
924.092	4010
924.201	4105
924.309	4090
924.417	4120
924.525	4078
924.633	4101
924.741	5079
924.849	3907
924.956	4162
925.064	3964
925.172	3922
925.279	3949
925.387	4078
925.494	4040
925.602	4234
925.709	4177
925.816	4036
925.924	4101
926.031	4211
926.138	4154
926.245	4200
926.352	4093
926.459	4204
926.566	4295
926.673	4181
926.779	4105
926.886	4109
926.993	3998
927.099	3953
927.206	3918
927.312	3953
927.419	4063
927.525	4063
927.631	4177
927.737	3979
927.843	3930
927.95	3854
928.056	3941
928.162	4040
928.267	4040
928.373	4664
928.479	4150
928.585	3880
928.69	4006
928.796	4131
928.901	3956
929.007	3804
929.112	3987
929.218	3960
929.323	3934
929.428	3994
929.533	4090
929.638	3953
929.743	3968
929.848	4044
929.953	3960
930.058	3964
930.163	3831
930.267	3880
930.372	4002
930.477	3797
930.581	4101
930.685	3949
930.79	3819
930.894	3903
930.998	3850
931.103	4082
931.207	3728
931.311	3743
931.415	3694
931.519	3530
931.623	3564
