Data from test_V78500241_74.txt Node
Date: Fri Mar 25 16:49:31 CST 2022
User: usil
Spectrometer: V785-0024
Trigger mode: 0
Integration Time (sec): 4.000000E-1
Scans to average: 1
Nonlinearity correction enabled: false
Boxcar width: 0
Storing dark spectrum: false
XAxis mode: Wavelengths
Number of Pixels in Spectrum: 1024
>>>>>Begin Spectral Data<<<<<
801.071	8001
801.214	8035
801.356	7902
801.499	7928
801.641	7837
801.783	7909
801.926	8020
802.068	7993
802.211	8001
802.353	8058
802.496	7909
802.638	7982
802.78	7978
802.923	7944
803.065	8001
803.208	7894
803.35	8005
803.492	8069
803.635	8145
803.777	8039
803.919	8149
804.061	8434
804.204	8191
804.346	8039
804.488	7970
804.63	8183
804.773	8020
804.915	8149
805.057	8244
805.199	8111
805.341	8210
805.483	8210
805.626	8199
805.768	8126
805.91	8164
806.052	8252
806.194	8046
806.336	8294
806.478	8100
806.62	8134
806.762	8218
806.904	8275
807.046	8499
807.188	8385
807.33	8336
807.472	8415
807.614	8202
807.756	8229
807.898	8031
808.04	7940
808.182	7944
808.324	7883
808.465	7883
808.607	8043
808.749	8058
808.891	8259
809.033	8305
809.174	8119
809.316	8096
809.458	8031
809.6	8050
809.741	8024
809.883	8039
810.025	8161
810.166	8142
810.308	8062
810.45	8043
810.591	7921
810.733	7765
810.875	7696
811.016	7518
811.158	7537
811.299	7624
811.441	7757
811.582	7814
811.724	7632
811.865	7655
812.007	7632
812.148	7757
812.29	7689
812.431	7788
812.573	7887
812.714	8020
812.855	8229
812.997	8263
813.138	8374
813.279	8214
813.421	8092
813.562	8031
813.703	7925
813.845	7818
813.986	7400
814.127	7266
814.268	7255
814.41	7259
814.551	7194
814.692	7251
814.833	7046
814.974	7171
815.115	7110
815.256	7008
815.397	6966
815.539	6977
815.68	6848
815.821	6848
815.962	6913
816.103	6810
816.244	6688
816.385	6662
816.526	6669
816.666	6604
816.807	6391
816.948	6475
817.089	6464
817.23	6498
817.371	6410
817.512	6448
817.653	6418
817.793	6361
817.934	6365
818.075	6490
818.216	6418
818.356	6445
818.497	6315
818.638	6178
818.778	6155
818.919	6243
819.06	6197
819.2	6350
819.341	6315
819.481	6464
819.622	6623
819.762	6753
819.903	6696
820.043	6578
820.184	6597
820.324	6574
820.465	6783
820.605	6684
820.746	6631
820.886	6521
821.026	6726
821.167	6741
821.307	6795
821.447	6821
821.588	6662
821.728	6604
821.868	6547
822.008	6391
822.149	6448
822.289	6380
822.429	6178
822.569	6106
822.709	6117
822.849	5961
822.99	5908
823.13	5904
823.27	5912
823.41	5851
823.55	5809
823.69	5756
823.83	5813
823.97	5748
824.11	5570
824.25	5512
824.389	5638
824.529	5573
824.669	5551
824.809	5714
824.949	5691
825.089	5672
825.228	5577
825.368	5433
825.508	5391
825.648	5402
825.787	5337
825.927	5357
826.067	5337
826.206	5353
826.346	5440
826.485	5459
826.625	5410
826.765	5585
826.904	5520
827.044	5242
827.183	5254
827.323	5174
827.462	5246
827.601	5223
827.741	5201
827.88	5277
828.02	5147
828.159	5288
828.298	5357
828.437	5429
828.577	5280
828.716	5512
828.855	5322
828.994	5201
829.134	5189
829.273	5246
829.412	5193
829.551	5136
829.69	5170
829.829	5288
829.968	5345
830.107	5330
830.246	5296
830.385	5284
830.524	5151
830.663	5113
830.802	4987
830.941	4908
831.08	4858
831.219	5006
831.357	5010
831.496	5162
831.635	4976
831.774	4896
831.913	4828
832.051	4782
832.19	4778
832.329	4919
832.467	4702
832.606	4668
832.744	4805
832.883	4748
833.022	4748
833.16	4812
833.299	4824
833.437	4854
833.576	4820
833.714	4862
833.852	4847
833.991	4923
834.129	4995
834.267	4942
834.406	4938
834.544	5018
834.682	5006
834.821	4957
834.959	5231
835.097	5075
835.235	5147
835.373	5159
835.511	5102
835.65	5094
835.788	5052
835.926	4938
836.064	4946
836.202	4949
836.34	5174
836.478	5307
836.615	5162
836.753	5208
836.891	5334
837.029	5303
837.167	5216
837.305	5147
837.443	5197
837.58	5117
837.718	5261
837.856	5189
837.993	5178
838.131	5246
838.269	5223
838.406	5239
838.544	5189
838.681	4987
838.819	5037
838.956	4934
839.094	4919
839.231	4987
839.369	5128
839.506	5482
839.643	5341
839.781	5117
839.918	5075
840.055	5094
840.193	5117
840.33	5132
840.467	5201
840.604	5231
840.742	5448
840.879	5086
841.016	5117
841.153	5204
841.29	5334
841.427	5406
841.564	5349
841.701	5379
841.838	5341
841.975	5235
842.112	5299
842.249	5181
842.385	5102
842.522	5387
842.659	5159
842.796	5204
842.933	5197
843.069	5193
843.206	5235
843.343	5372
843.479	5258
843.616	5326
843.752	5048
843.889	5041
844.025	5231
844.162	5029
844.298	5242
844.435	5128
844.571	5109
844.708	5220
844.844	5318
844.98	5334
845.117	5315
845.253	5162
845.389	5086
845.525	5212
845.661	5174
845.798	5025
845.934	5143
846.07	5124
846.206	5208
846.342	5239
846.478	5254
846.614	5067
846.75	5022
846.886	5003
847.022	5151
847.158	5071
847.294	5086
847.429	5090
847.565	5102
847.701	5299
847.837	4854
847.972	4862
848.108	4987
848.244	4961
848.379	4820
848.515	4759
848.65	4771
848.786	4755
848.921	4790
849.057	4862
849.192	4957
849.328	4862
849.463	4900
849.598	4809
849.734	4755
849.869	4706
850.004	4668
850.14	4721
850.275	4634
850.41	4550
850.545	4618
850.68	4702
850.815	4710
850.95	4706
851.085	4866
851.22	4774
851.355	4668
851.49	4649
851.625	4630
851.76	4630
851.895	4626
852.03	4554
852.165	4706
852.299	4755
852.434	4805
852.569	4767
852.703	4774
852.838	4900
852.973	4995
853.107	4949
853.242	4809
853.376	4675
853.511	4561
853.645	4611
853.78	4847
853.914	4744
854.048	4641
854.183	4687
854.317	4763
854.451	4900
854.585	4698
854.72	4672
854.854	4736
854.988	4577
855.122	4668
855.256	4592
855.39	4702
855.524	4816
855.658	4714
855.792	4793
855.926	4717
856.06	4793
856.194	4854
856.327	4683
856.461	4626
856.595	4607
856.729	4664
856.862	4782
856.996	4744
857.13	4755
857.263	4736
857.397	4809
857.53	4698
857.664	4752
857.797	4771
857.931	4824
858.064	4740
858.197	4774
858.331	4702
858.464	4603
858.597	4580
858.731	4664
858.864	4717
858.997	4634
859.13	4672
859.263	4702
859.396	4645
859.529	4573
859.662	4603
859.795	4573
859.928	4656
860.061	4752
860.194	4801
860.327	4641
860.46	4565
860.592	4782
860.725	4790
860.858	4778
860.99	4588
861.123	4550
861.256	4558
861.388	4634
861.521	5246
861.653	4462
861.786	4489
861.918	4485
862.05	4577
862.183	4596
862.315	4622
862.447	4691
862.58	4546
862.712	4402
862.844	4352
862.976	4493
863.108	4512
863.24	4877
863.372	4363
863.504	4443
863.636	4466
863.768	4512
863.9	4447
864.032	4436
864.164	4424
864.296	4459
864.428	4599
864.559	4558
864.691	4611
864.823	4508
864.954	4504
865.086	4489
865.217	4459
865.349	4421
865.48	4493
865.612	4546
865.743	4672
865.875	4508
866.006	4443
866.137	4474
866.269	4436
866.4	4478
866.531	4428
866.662	4455
866.793	4440
866.924	4455
867.055	4508
867.186	4470
867.317	4436
867.448	4421
867.579	4413
867.71	4413
867.841	4424
867.972	4493
868.103	4497
868.233	4466
868.364	4508
868.495	4550
868.625	4683
868.756	4778
868.886	4618
869.017	4611
869.147	4816
869.278	4805
869.408	4725
869.539	4634
869.669	4733
869.799	4710
869.929	4793
870.06	4763
870.19	5010
870.32	4942
870.45	4934
870.58	5067
870.71	5143
870.84	5113
870.97	5037
871.1	4942
871.23	5102
871.36	5113
871.489	5037
871.619	5071
871.749	5162
871.879	5140
872.008	5204
872.138	5121
872.267	5033
872.397	4858
872.526	4889
872.656	4729
872.785	4801
872.915	4991
873.044	5041
873.173	4961
873.303	5010
873.432	4976
873.561	4968
873.69	4934
873.819	4911
873.948	4934
874.077	4847
874.206	4793
874.335	4740
874.464	4957
874.593	5079
874.722	5006
874.851	5151
874.979	5048
875.108	5067
875.237	4968
875.365	4949
875.494	4896
875.623	5067
875.751	4892
875.88	4915
876.008	5025
876.136	5033
876.265	5280
876.393	5337
876.521	5318
876.65	5261
876.778	5159
876.906	5098
877.034	5022
877.162	5064
877.29	4968
877.418	5090
877.546	5045
877.674	5010
877.802	5048
877.93	5086
878.058	5018
878.185	4904
878.313	4999
878.441	4965
878.568	4812
878.696	4946
878.824	4949
878.951	5014
879.079	5201
879.206	5296
879.333	5109
879.461	5029
879.588	5090
879.715	5189
879.842	5288
879.97	5025
880.097	4771
880.224	4755
880.351	4839
880.478	4847
880.605	4866
880.732	4793
880.859	5083
880.986	4911
881.112	4908
881.239	4809
881.366	4710
881.493	4584
881.619	4565
881.746	4656
881.872	4687
881.999	4702
882.125	4691
882.252	4778
882.378	4835
882.505	4965
882.631	4824
882.757	4679
882.883	4752
883.01	4721
883.136	4675
883.262	4611
883.388	4687
883.514	4870
883.64	4885
883.766	4801
883.892	4729
884.018	4752
884.143	4957
884.269	5033
884.395	4679
884.52	4641
884.646	4710
884.772	4645
884.897	4592
885.023	4740
885.148	4809
885.274	4877
885.399	4866
885.524	4717
885.65	4729
885.775	4759
885.9	4763
886.025	4889
886.15	4858
886.275	4793
886.4	4653
886.525	4771
886.65	4706
886.775	4729
886.9	4930
887.025	5071
887.149	4850
887.274	4664
887.399	4630
887.523	4615
887.648	4588
887.773	4618
887.897	4862
888.021	4866
888.146	4725
888.27	4835
888.395	4946
888.519	4801
888.643	4835
888.767	4850
888.891	4733
889.015	4687
889.139	4710
889.263	4618
889.387	4801
889.511	4870
889.635	4816
889.759	4672
889.883	4634
890.006	4767
890.13	4873
890.254	4577
890.377	4656
890.501	4508
890.624	4538
890.748	4634
890.871	4508
890.995	4428
891.118	4379
891.241	4535
891.364	4580
891.488	4641
891.611	4512
891.734	4531
891.857	4672
891.98	4550
892.103	4641
892.226	4664
892.349	4550
892.471	4497
892.594	4550
892.717	4664
892.839	4618
892.962	4592
893.085	4649
893.207	4622
893.33	4455
893.452	4558
893.575	4694
893.697	4554
893.819	4809
893.941	4816
894.064	4816
894.186	4622
894.308	4599
894.43	4755
894.552	4862
894.674	4797
894.796	4584
894.918	4588
895.04	4611
895.161	4717
895.283	4649
895.405	4618
895.526	4679
895.648	4683
895.769	4744
895.891	4778
896.012	4793
896.134	4740
896.255	4694
896.376	4675
896.498	4649
896.619	4702
896.74	4630
896.861	4660
896.982	5003
897.103	5124
897.224	4873
897.345	4763
897.466	4668
897.587	4733
897.708	4858
897.828	4828
897.949	4714
898.07	4592
898.19	4702
898.311	4824
898.431	4687
898.552	4767
898.672	4831
898.792	4877
898.913	4793
899.033	4698
899.153	4527
899.273	4451
899.393	4569
899.513	4546
899.633	4573
899.753	4573
899.873	4573
899.993	4641
900.113	4531
900.232	4615
900.352	4542
900.472	4523
900.591	4398
900.711	4542
900.83	4474
900.95	4626
901.069	4702
901.189	4615
901.308	4386
901.427	4363
901.546	4379
901.665	4474
901.784	4504
901.904	4375
902.023	4348
902.141	4211
902.26	4223
902.379	4360
902.498	4261
902.617	4230
902.735	4424
902.854	4402
902.973	4375
903.091	4219
903.21	4314
903.328	4310
903.446	4299
903.565	4280
903.683	4322
903.801	4272
903.919	4440
904.038	4497
904.156	4303
904.274	4478
904.392	4432
904.51	4466
904.627	4504
904.745	4615
904.863	4683
904.981	4424
905.098	4344
905.216	4440
905.334	4447
905.451	4436
905.569	4447
905.686	4656
905.803	4584
905.921	4447
906.038	4588
906.155	4531
906.272	4398
906.389	4462
906.506	4375
906.623	4386
906.74	4409
906.857	4318
906.974	4424
907.091	4592
907.208	4702
907.324	4603
907.441	4519
907.557	4379
907.674	4318
907.79	4329
907.907	4413
908.023	4508
908.139	4504
908.256	4493
908.372	4497
908.488	4474
908.604	4375
908.72	4337
908.836	4443
908.952	4428
909.068	4424
909.184	4611
909.3	4527
909.415	4573
909.531	4584
909.647	4402
909.762	4447
909.878	4356
909.993	4443
910.108	4428
910.224	4451
910.339	4527
910.454	4462
910.57	4375
910.685	4352
910.8	4706
910.915	4626
911.03	4538
911.145	4352
911.259	4375
911.374	4409
911.489	4348
911.604	4310
911.718	4234
911.833	4253
911.947	4055
912.062	4067
912.176	4230
912.291	4234
912.405	4257
912.519	4485
912.633	4512
912.748	4371
912.862	4337
912.976	4234
913.09	4147
913.204	4207
913.318	4268
913.431	4375
913.545	4428
913.659	4455
913.772	4421
913.886	4265
914	4238
914.113	4451
914.226	4428
914.34	4417
914.453	4306
914.566	4447
914.68	4280
914.793	4341
914.906	4253
915.019	4120
915.132	4109
915.245	4211
915.358	4268
915.47	4227
915.583	4280
915.696	4310
915.809	4405
915.921	4470
916.034	4303
916.146	4303
916.259	4249
916.371	4436
916.483	4371
916.595	4318
916.708	4360
916.82	4402
916.932	4344
917.044	4329
917.156	4356
917.268	4242
917.38	4291
917.491	4322
917.603	4390
917.715	4428
917.826	4440
917.938	4371
918.049	4238
918.161	4417
918.272	4603
918.384	4535
918.495	4500
918.606	4325
918.717	4306
918.828	4337
918.939	4417
919.05	4299
919.161	4363
919.272	4112
919.383	4215
919.494	4493
919.604	4672
919.715	4470
919.826	4352
919.936	4459
920.047	4599
920.157	4500
920.267	4717
920.378	4523
920.488	4546
920.598	4744
920.708	4915
920.818	4839
920.928	4820
921.038	4984
921.148	4953
921.258	4660
921.368	4584
921.477	4546
921.587	4519
921.697	4390
921.806	4542
921.916	4481
922.025	4314
922.134	4310
922.244	4257
922.353	4333
922.462	4211
922.571	4150
922.68	4040
922.789	4017
922.898	4048
923.007	3998
923.116	4169
923.224	4082
923.333	4128
923.442	3987
923.55	3998
923.659	4067
923.767	4128
923.876	4010
923.984	4169
924.092	3964
924.201	4124
924.309	4139
924.417	4131
924.525	4051
924.633	4143
924.741	4911
924.849	3941
924.956	4109
925.064	3960
925.172	3903
925.279	4006
925.387	4086
925.494	4086
925.602	4230
925.709	4192
925.816	4036
925.924	4181
926.031	4204
926.138	4181
926.245	4246
926.352	4135
926.459	4249
926.566	4310
926.673	4192
926.779	4105
926.886	4112
926.993	3991
927.099	4006
927.206	3968
927.312	3964
927.419	4071
927.525	4025
927.631	4139
927.737	3994
927.843	3994
927.95	3880
928.056	4013
928.162	4044
928.267	4101
928.373	4698
928.479	4078
928.585	3873
928.69	4021
928.796	4143
928.901	3991
929.007	3880
929.112	4006
929.218	4002
929.323	3937
929.428	4029
929.533	4128
929.638	3934
929.743	4010
929.848	4010
929.953	4093
930.058	3949
930.163	3762
930.267	3869
930.372	4021
930.477	3857
930.581	4158
930.685	3983
930.79	3861
930.894	3915
930.998	3907
931.103	4071
931.207	3732
931.311	3705
931.415	3656
931.519	3542
931.623	3549
