Data from test_V78500241_161.txt Node
Date: Fri Mar 25 16:50:07 CST 2022
User: usil
Spectrometer: V785-0024
Trigger mode: 0
Integration Time (sec): 4.000000E-1
Scans to average: 1
Nonlinearity correction enabled: false
Boxcar width: 0
Storing dark spectrum: false
XAxis mode: Wavelengths
Number of Pixels in Spectrum: 1024
>>>>>Begin Spectral Data<<<<<
801.071	8012
801.214	8012
801.356	7902
801.499	7906
801.641	7864
801.783	7887
801.926	8046
802.068	7986
802.211	8058
802.353	7997
802.496	7913
802.638	7932
802.78	7951
802.923	7944
803.065	7871
803.208	7860
803.35	8012
803.492	8145
803.635	8210
803.777	8001
803.919	8111
804.061	8476
804.204	8142
804.346	8016
804.488	8005
804.63	8103
804.773	8058
804.915	8084
805.057	8301
805.199	8149
805.341	8153
805.483	8290
805.626	8218
805.768	8123
805.91	8202
806.052	8206
806.194	8172
806.336	8320
806.478	8111
806.62	8180
806.762	8199
806.904	8267
807.046	8454
807.188	8305
807.33	8301
807.472	8355
807.614	8134
807.756	8225
807.898	8054
808.04	7921
808.182	7970
808.324	7944
808.465	7894
808.607	8142
808.749	8126
808.891	8351
809.033	8332
809.174	8237
809.316	8046
809.458	8088
809.6	8035
809.741	8096
809.883	8065
810.025	8100
810.166	8065
810.308	8157
810.45	8073
810.591	7909
810.733	7807
810.875	7750
811.016	7518
811.158	7525
811.299	7677
811.441	7784
811.582	7681
811.724	7601
811.865	7586
812.007	7685
812.148	7643
812.29	7689
812.431	7776
812.573	7883
812.714	8012
812.855	8256
812.997	8298
813.138	8332
813.279	8305
813.421	8149
813.562	8081
813.703	7932
813.845	7841
813.986	7472
814.127	7358
814.268	7270
814.41	7232
814.551	7232
814.692	7278
814.833	7129
814.974	7232
815.115	7194
815.256	7053
815.397	7012
815.539	7023
815.68	6875
815.821	6806
815.962	6890
816.103	6947
816.244	6749
816.385	6703
816.526	6707
816.666	6536
816.807	6311
816.948	6521
817.089	6544
817.23	6483
817.371	6502
817.512	6426
817.653	6448
817.793	6372
817.934	6456
818.075	6452
818.216	6490
818.356	6399
818.497	6289
818.638	6121
818.778	6205
818.919	6197
819.06	6178
819.2	6353
819.341	6315
819.481	6403
819.622	6627
819.762	6783
819.903	6715
820.043	6635
820.184	6612
820.324	6616
820.465	6745
820.605	6738
820.746	6692
820.886	6589
821.026	6696
821.167	6715
821.307	6795
821.447	6787
821.588	6715
821.728	6658
821.868	6544
822.008	6388
822.149	6357
822.289	6353
822.429	6209
822.569	6125
822.709	6152
822.849	5935
822.99	5851
823.13	5984
823.27	5954
823.41	5798
823.55	5790
823.69	5870
823.83	5866
823.97	5634
824.11	5562
824.25	5539
824.389	5554
824.529	5596
824.669	5562
824.809	5688
824.949	5691
825.089	5638
825.228	5608
825.368	5452
825.508	5376
825.648	5387
825.787	5402
825.927	5417
826.067	5349
826.206	5360
826.346	5448
826.485	5440
826.625	5395
826.765	5615
826.904	5520
827.044	5326
827.183	5250
827.323	5197
827.462	5292
827.601	5185
827.741	5265
827.88	5204
828.02	5193
828.159	5231
828.298	5322
828.437	5360
828.577	5322
828.716	5497
828.855	5315
828.994	5185
829.134	5208
829.273	5159
829.412	5178
829.551	5147
829.69	5212
829.829	5288
829.968	5395
830.107	5315
830.246	5330
830.385	5185
830.524	5197
830.663	5143
830.802	5006
830.941	4892
831.08	4892
831.219	5014
831.357	5037
831.496	5166
831.635	4961
831.774	4889
831.913	4862
832.051	4706
832.19	4805
832.329	4858
832.467	4710
832.606	4645
832.744	4733
832.883	4793
833.022	4774
833.16	4759
833.299	4862
833.437	4771
833.576	4877
833.714	4919
833.852	4889
833.991	4892
834.129	4938
834.267	4965
834.406	4908
834.544	4991
834.682	5029
834.821	5014
834.959	5204
835.097	5003
835.235	5155
835.373	5117
835.511	5155
835.65	5086
835.788	5064
835.926	4923
836.064	4953
836.202	4965
836.34	5197
836.478	5277
836.615	5174
836.753	5227
836.891	5334
837.029	5254
837.167	5242
837.305	5193
837.443	5124
837.58	5113
837.718	5246
837.856	5189
837.993	5181
838.131	5250
838.269	5269
838.406	5197
838.544	5220
838.681	5045
838.819	5083
838.956	4953
839.094	4949
839.231	5045
839.369	5121
839.506	5448
839.643	5273
839.781	5151
839.918	5056
840.055	5086
840.193	5098
840.33	5128
840.467	5166
840.604	5208
840.742	5383
840.879	5109
841.016	5086
841.153	5235
841.29	5379
841.427	5368
841.564	5349
841.701	5417
841.838	5299
841.975	5239
842.112	5307
842.249	5166
842.385	5147
842.522	5379
842.659	5239
842.796	5174
842.933	5227
843.069	5162
843.206	5143
843.343	5311
843.479	5277
843.616	5284
843.752	5052
843.889	5048
844.025	5250
844.162	5029
844.298	5223
844.435	5090
844.571	5056
844.708	5212
844.844	5318
844.98	5326
845.117	5349
845.253	5132
845.389	5109
845.525	5155
845.661	5117
845.798	5071
845.934	5174
846.07	5071
846.206	5151
846.342	5326
846.478	5113
846.614	5029
846.75	5029
846.886	4942
847.022	5170
847.158	5045
847.294	5083
847.429	5155
847.565	5048
847.701	5349
847.837	4885
847.972	4812
848.108	4995
848.244	5003
848.379	4858
848.515	4752
848.65	4744
848.786	4748
848.921	4828
849.057	4911
849.192	4896
849.328	4828
849.463	4858
849.598	4824
849.734	4797
849.869	4687
850.004	4645
850.14	4736
850.275	4675
850.41	4512
850.545	4588
850.68	4622
850.815	4656
850.95	4660
851.085	4866
851.22	4782
851.355	4744
851.49	4653
851.625	4668
851.76	4710
851.895	4626
852.03	4561
852.165	4675
852.299	4752
852.434	4816
852.569	4748
852.703	4786
852.838	4862
852.973	4965
853.107	4930
853.242	4774
853.376	4702
853.511	4603
853.645	4645
853.78	4805
853.914	4744
854.048	4736
854.183	4691
854.317	4733
854.451	4847
854.585	4725
854.72	4694
854.854	4748
854.988	4641
855.122	4637
855.256	4550
855.39	4660
855.524	4805
855.658	4748
855.792	4752
855.926	4755
856.06	4778
856.194	4786
856.327	4721
856.461	4641
856.595	4615
856.729	4675
856.862	4767
856.996	4717
857.13	4733
857.263	4801
857.397	4835
857.53	4649
857.664	4710
857.797	4793
857.931	4801
858.064	4748
858.197	4755
858.331	4649
858.464	4694
858.597	4538
858.731	4675
858.864	4664
858.997	4653
859.13	4668
859.263	4729
859.396	4736
859.529	4588
859.662	4588
859.795	4584
859.928	4641
860.061	4771
860.194	4759
860.327	4611
860.46	4611
860.592	4733
860.725	4786
860.858	4729
860.99	4630
861.123	4542
861.256	4531
861.388	4622
861.521	5414
861.653	4500
861.786	4451
861.918	4516
862.05	4512
862.183	4592
862.315	4573
862.447	4645
862.58	4596
862.712	4432
862.844	4310
862.976	4451
863.108	4508
863.24	4889
863.372	4337
863.504	4466
863.636	4462
863.768	4508
863.9	4470
864.032	4405
864.164	4424
864.296	4504
864.428	4546
864.559	4531
864.691	4474
864.823	4550
864.954	4440
865.086	4516
865.217	4527
865.349	4428
865.48	4466
865.612	4504
865.743	4656
865.875	4455
866.006	4447
866.137	4489
866.269	4462
866.4	4440
866.531	4390
866.662	4459
866.793	4466
866.924	4413
867.055	4493
867.186	4462
867.317	4409
867.448	4432
867.579	4390
867.71	4428
867.841	4386
867.972	4481
868.103	4500
868.233	4466
868.364	4474
868.495	4546
868.625	4656
868.756	4774
868.886	4523
869.017	4618
869.147	4831
869.278	4774
869.408	4675
869.539	4672
869.669	4721
869.799	4664
869.929	4801
870.06	4752
870.19	4968
870.32	4911
870.45	4976
870.58	5045
870.71	5143
870.84	5071
870.97	4957
871.1	4900
871.23	5193
871.36	5170
871.489	5094
871.619	5105
871.749	5143
871.879	5155
872.008	5170
872.138	5117
872.267	4949
872.397	4862
872.526	4896
872.656	4778
872.785	4858
872.915	5056
873.044	5056
873.173	4949
873.303	5006
873.432	4965
873.561	4972
873.69	4976
873.819	4862
873.948	4889
874.077	4805
874.206	4759
874.335	4809
874.464	4892
874.593	5102
874.722	4946
874.851	5162
874.979	5090
875.108	5033
875.237	4927
875.365	4904
875.494	4911
875.623	5014
875.751	4892
875.88	4873
876.008	4976
876.136	5041
876.265	5208
876.393	5368
876.521	5273
876.65	5254
876.778	5170
876.906	5056
877.034	5025
877.162	5090
877.29	4984
877.418	5056
877.546	5014
877.674	5048
877.802	5079
877.93	5056
878.058	4946
878.185	4824
878.313	4968
878.441	5022
878.568	4877
878.696	4930
878.824	4934
878.951	5033
879.079	5117
879.206	5349
879.333	5185
879.461	4991
879.588	5018
879.715	5117
879.842	5246
879.97	5033
880.097	4835
880.224	4767
880.351	4843
880.478	4870
880.605	4816
880.732	4835
880.859	5121
880.986	4919
881.112	4938
881.239	4820
881.366	4672
881.493	4672
881.619	4645
881.746	4683
881.872	4645
881.999	4687
882.125	4710
882.252	4812
882.378	4873
882.505	4991
882.631	4828
882.757	4698
882.883	4755
883.01	4729
883.136	4721
883.262	4634
883.388	4641
883.514	4809
883.64	4900
883.766	4816
883.892	4733
884.018	4755
884.143	4915
884.269	4987
884.395	4702
884.52	4672
884.646	4683
884.772	4603
884.897	4565
885.023	4672
885.148	4820
885.274	4839
885.399	4801
885.524	4729
885.65	4725
885.775	4717
885.9	4786
886.025	4892
886.15	4786
886.275	4698
886.4	4660
886.525	4763
886.65	4687
886.775	4687
886.9	4908
887.025	5052
887.149	4797
887.274	4664
887.399	4588
887.523	4603
887.648	4615
887.773	4607
887.897	4790
888.021	4771
888.146	4706
888.27	4816
888.395	4911
888.519	4831
888.643	4889
888.767	4881
888.891	4691
889.015	4569
889.139	4656
889.263	4577
889.387	4725
889.511	4889
889.635	4778
889.759	4634
889.883	4675
890.006	4755
890.13	4824
890.254	4641
890.377	4752
890.501	4546
890.624	4500
890.748	4607
890.871	4497
890.995	4481
891.118	4398
891.241	4485
891.364	4584
891.488	4649
891.611	4535
891.734	4592
891.857	4630
891.98	4580
892.103	4634
892.226	4607
892.349	4538
892.471	4451
892.594	4573
892.717	4622
892.839	4611
892.962	4611
893.085	4702
893.207	4626
893.33	4455
893.452	4516
893.575	4717
893.697	4611
893.819	4790
893.941	4858
894.064	4767
894.186	4569
894.308	4558
894.43	4736
894.552	4831
894.674	4782
894.796	4535
894.918	4603
895.04	4637
895.161	4717
895.283	4702
895.405	4580
895.526	4626
895.648	4706
895.769	4675
895.891	4736
896.012	4733
896.134	4729
896.255	4744
896.376	4683
896.498	4637
896.619	4694
896.74	4626
896.861	4729
896.982	4930
897.103	5079
897.224	4850
897.345	4771
897.466	4664
897.587	4755
897.708	4850
897.828	4801
897.949	4687
898.07	4596
898.19	4675
898.311	4866
898.431	4725
898.552	4729
898.672	4835
898.792	4839
898.913	4759
899.033	4637
899.153	4508
899.273	4424
899.393	4500
899.513	4538
899.633	4573
899.753	4558
899.873	4508
899.993	4577
900.113	4542
900.232	4561
900.352	4535
900.472	4512
900.591	4413
900.711	4512
900.83	4470
900.95	4611
901.069	4691
901.189	4592
901.308	4394
901.427	4318
901.546	4386
901.665	4508
901.784	4538
901.904	4394
902.023	4344
902.141	4147
902.26	4207
902.379	4314
902.498	4272
902.617	4257
902.735	4413
902.854	4436
902.973	4383
903.091	4177
903.21	4246
903.328	4276
903.446	4265
903.565	4249
903.683	4383
903.801	4322
903.919	4413
904.038	4413
904.156	4318
904.274	4455
904.392	4474
904.51	4462
904.627	4462
904.745	4603
904.863	4626
904.981	4421
905.098	4329
905.216	4417
905.334	4367
905.451	4402
905.569	4451
905.686	4577
905.803	4542
905.921	4424
906.038	4573
906.155	4451
906.272	4394
906.389	4470
906.506	4394
906.623	4356
906.74	4398
906.857	4310
906.974	4402
907.091	4626
907.208	4740
907.324	4615
907.441	4504
907.557	4375
907.674	4360
907.79	4318
907.907	4421
908.023	4478
908.139	4447
908.256	4462
908.372	4500
908.488	4462
908.604	4348
908.72	4318
908.836	4409
908.952	4386
909.068	4459
909.184	4630
909.3	4497
909.415	4615
909.531	4603
909.647	4363
909.762	4386
909.878	4356
909.993	4421
910.108	4409
910.224	4424
910.339	4504
910.454	4405
910.57	4398
910.685	4356
910.8	4668
910.915	4607
911.03	4519
911.145	4348
911.259	4352
911.374	4367
911.489	4318
911.604	4291
911.718	4230
911.833	4230
911.947	4093
912.062	4051
912.176	4227
912.291	4280
912.405	4276
912.519	4516
912.633	4519
912.748	4383
912.862	4360
912.976	4249
913.09	4093
913.204	4177
913.318	4276
913.431	4371
913.545	4383
913.659	4447
913.772	4337
913.886	4284
914	4227
914.113	4371
914.226	4470
914.34	4383
914.453	4249
914.566	4455
914.68	4325
914.793	4352
914.906	4143
915.019	4090
915.132	4078
915.245	4249
915.358	4227
915.47	4188
915.583	4284
915.696	4329
915.809	4421
915.921	4443
916.034	4287
916.146	4284
916.259	4284
916.371	4386
916.483	4375
916.595	4310
916.708	4329
916.82	4352
916.932	4337
917.044	4363
917.156	4386
917.268	4188
917.38	4325
917.491	4303
917.603	4383
917.715	4409
917.826	4470
917.938	4375
918.049	4272
918.161	4443
918.272	4573
918.384	4546
918.495	4462
918.606	4291
918.717	4261
918.828	4341
918.939	4405
919.05	4306
919.161	4322
919.272	4101
919.383	4242
919.494	4451
919.604	4630
919.715	4436
919.826	4383
919.936	4481
920.047	4538
920.157	4504
920.267	4733
920.378	4558
920.488	4478
920.598	4748
920.708	4904
920.818	4771
920.928	4759
921.038	4980
921.148	4972
921.258	4691
921.368	4569
921.477	4512
921.587	4447
921.697	4379
921.806	4542
921.916	4440
922.025	4299
922.134	4272
922.244	4310
922.353	4318
922.462	4147
922.571	4143
922.68	4013
922.789	4002
922.898	4040
923.007	4010
923.116	4120
923.224	4109
923.333	4173
923.442	4006
923.55	3979
923.659	4067
923.767	4097
923.876	4002
923.984	4071
924.092	4010
924.201	4116
924.309	4097
924.417	4147
924.525	4101
924.633	4200
924.741	4881
924.849	3945
924.956	4139
925.064	3983
925.172	3964
925.279	3903
925.387	4078
925.494	4074
925.602	4230
925.709	4169
925.816	4078
925.924	4150
926.031	4253
926.138	4215
926.245	4215
926.352	4162
926.459	4276
926.566	4341
926.673	4173
926.779	4105
926.886	4082
926.993	3941
927.099	3964
927.206	3941
927.312	3964
927.419	4063
927.525	4067
927.631	4097
927.737	3983
927.843	3964
927.95	3846
928.056	3968
928.162	3941
928.267	4044
928.373	4714
928.479	4166
928.585	3892
928.69	4048
928.796	4120
928.901	3949
929.007	3854
929.112	4025
929.218	3987
929.323	3945
929.428	3975
929.533	4101
929.638	3915
929.743	3975
929.848	4051
929.953	4044
930.058	3930
930.163	3800
930.267	3865
930.372	3972
930.477	3835
930.581	4086
930.685	3975
930.79	3823
930.894	3911
930.998	3846
931.103	4059
931.207	3736
931.311	3690
931.415	3694
931.519	3523
931.623	3595
