Data from test_V78500241_683.txt Node
Date: Fri Mar 25 16:53:45 CST 2022
User: usil
Spectrometer: V785-0024
Trigger mode: 0
Integration Time (sec): 4.000000E-1
Scans to average: 1
Nonlinearity correction enabled: false
Boxcar width: 0
Storing dark spectrum: false
XAxis mode: Wavelengths
Number of Pixels in Spectrum: 1024
>>>>>Begin Spectral Data<<<<<
801.071	8027
801.214	8001
801.356	7868
801.499	7772
801.641	7818
801.783	7830
801.926	7928
802.068	7894
802.211	7986
802.353	8001
802.496	7883
802.638	7925
802.78	7963
802.923	7875
803.065	7875
803.208	7837
803.35	8016
803.492	8096
803.635	8187
803.777	8039
803.919	8195
804.061	8362
804.204	8134
804.346	8005
804.488	7982
804.63	8191
804.773	7917
804.915	8016
805.057	8275
805.199	8256
805.341	8210
805.483	8248
805.626	8275
805.768	8062
805.91	8130
806.052	8123
806.194	8103
806.336	8336
806.478	8168
806.62	8103
806.762	8206
806.904	8221
807.046	8457
807.188	8377
807.33	8358
807.472	8328
807.614	8187
807.756	8134
807.898	8005
808.04	7902
808.182	7856
808.324	7845
808.465	7890
808.607	8050
808.749	8084
808.891	8157
809.033	8282
809.174	8183
809.316	8046
809.458	8062
809.6	8043
809.741	7986
809.883	7982
810.025	8046
810.166	8073
810.308	8016
810.45	8123
810.591	7909
810.733	7715
810.875	7693
811.016	7537
811.158	7521
811.299	7537
811.441	7734
811.582	7632
811.724	7529
811.865	7502
812.007	7601
812.148	7540
812.29	7586
812.431	7784
812.573	7845
812.714	7875
812.855	8100
812.997	8240
813.138	8328
813.279	8172
813.421	8168
813.562	7993
813.703	7940
813.845	7803
813.986	7476
814.127	7236
814.268	7236
814.41	7217
814.551	7126
814.692	7103
814.833	7076
814.974	7076
815.115	7103
815.256	6985
815.397	6924
815.539	7004
815.68	6821
815.821	6798
815.962	6913
816.103	6882
816.244	6696
816.385	6589
816.526	6665
816.666	6429
816.807	6315
816.948	6395
817.089	6506
817.23	6422
817.371	6395
817.512	6426
817.653	6380
817.793	6357
817.934	6414
818.075	6464
818.216	6395
818.356	6422
818.497	6243
818.638	6117
818.778	6110
818.919	6152
819.06	6186
819.2	6380
819.341	6285
819.481	6410
819.622	6544
819.762	6719
819.903	6688
820.043	6589
820.184	6544
820.324	6578
820.465	6639
820.605	6623
820.746	6654
820.886	6536
821.026	6627
821.167	6791
821.307	6825
821.447	6692
821.588	6623
821.728	6601
821.868	6464
822.008	6350
822.149	6327
822.289	6357
822.429	6087
822.569	6053
822.709	6095
822.849	5916
822.99	5855
823.13	5847
823.27	5912
823.41	5760
823.55	5790
823.69	5760
823.83	5790
823.97	5699
824.11	5535
824.25	5577
824.389	5581
824.529	5615
824.669	5539
824.809	5634
824.949	5646
825.089	5611
825.228	5528
825.368	5440
825.508	5391
825.648	5322
825.787	5398
825.927	5360
826.067	5299
826.206	5296
826.346	5372
826.485	5391
826.625	5391
826.765	5532
826.904	5455
827.044	5250
827.183	5239
827.323	5132
827.462	5265
827.601	5140
827.741	5185
827.88	5227
828.02	5109
828.159	5269
828.298	5357
828.437	5387
828.577	5239
828.716	5440
828.855	5326
828.994	5174
829.134	5132
829.273	5201
829.412	5147
829.551	5166
829.69	5147
829.829	5216
829.968	5349
830.107	5250
830.246	5292
830.385	5117
830.524	5105
830.663	5083
830.802	4953
830.941	4847
831.08	4870
831.219	4968
831.357	5003
831.496	5132
831.635	4904
831.774	4816
831.913	4843
832.051	4782
832.19	4748
832.329	4847
832.467	4740
832.606	4641
832.744	4740
832.883	4729
833.022	4740
833.16	4771
833.299	4820
833.437	4801
833.576	4854
833.714	4873
833.852	4862
833.991	4862
834.129	4942
834.267	4968
834.406	4911
834.544	4965
834.682	4949
834.821	4961
834.959	5212
835.097	4984
835.235	5105
835.373	5067
835.511	5132
835.65	5045
835.788	4984
835.926	4915
836.064	4843
836.202	4881
836.34	5155
836.478	5223
836.615	5102
836.753	5181
836.891	5284
837.029	5239
837.167	5189
837.305	5170
837.443	5124
837.58	5086
837.718	5235
837.856	5227
837.993	5132
838.131	5223
838.269	5136
838.406	5231
838.544	5189
838.681	5003
838.819	4976
838.956	4896
839.094	4934
839.231	4961
839.369	5083
839.506	5376
839.643	5208
839.781	5083
839.918	5045
840.055	5098
840.193	5041
840.33	5162
840.467	5162
840.604	5185
840.742	5398
840.879	5064
841.016	5064
841.153	5109
841.29	5334
841.427	5372
841.564	5334
841.701	5364
841.838	5277
841.975	5242
842.112	5212
842.249	5178
842.385	5117
842.522	5334
842.659	5155
842.796	5151
842.933	5136
843.069	5189
843.206	5151
843.343	5334
843.479	5220
843.616	5284
843.752	4991
843.889	5029
844.025	5193
844.162	5033
844.298	5204
844.435	5045
844.571	5025
844.708	5166
844.844	5277
844.98	5299
845.117	5277
845.253	5121
845.389	5029
845.525	5170
845.661	5113
845.798	5056
845.934	5159
846.07	5086
846.206	5193
846.342	5239
846.478	5155
846.614	5025
846.75	4972
846.886	4934
847.022	5147
847.158	5010
847.294	5029
847.429	5067
847.565	5079
847.701	5307
847.837	4892
847.972	4809
848.108	4934
848.244	4896
848.379	4771
848.515	4759
848.65	4736
848.786	4744
848.921	4736
849.057	4847
849.192	4896
849.328	4850
849.463	4824
849.598	4793
849.734	4778
849.869	4679
850.004	4675
850.14	4637
850.275	4538
850.41	4523
850.545	4565
850.68	4611
850.815	4679
850.95	4645
851.085	4889
851.22	4774
851.355	4687
851.49	4615
851.625	4626
851.76	4645
851.895	4580
852.03	4516
852.165	4656
852.299	4634
852.434	4774
852.569	4729
852.703	4740
852.838	4831
852.973	4968
853.107	4911
853.242	4710
853.376	4675
853.511	4546
853.645	4603
853.78	4774
853.914	4653
854.048	4668
854.183	4668
854.317	4725
854.451	4839
854.585	4630
854.72	4645
854.854	4755
854.988	4573
855.122	4683
855.256	4470
855.39	4675
855.524	4797
855.658	4774
855.792	4736
855.926	4698
856.06	4725
856.194	4801
856.327	4698
856.461	4615
856.595	4618
856.729	4603
856.862	4691
856.996	4710
857.13	4683
857.263	4782
857.397	4805
857.53	4607
857.664	4729
857.797	4793
857.931	4790
858.064	4706
858.197	4714
858.331	4717
858.464	4584
858.597	4561
858.731	4618
858.864	4645
858.997	4565
859.13	4634
859.263	4637
859.396	4664
859.529	4535
859.662	4500
859.795	4485
859.928	4637
860.061	4733
860.194	4721
860.327	4546
860.46	4550
860.592	4698
860.725	4721
860.858	4687
860.99	4561
861.123	4485
861.256	4538
861.388	4618
861.521	5170
861.653	4508
861.786	4436
861.918	4470
862.05	4512
862.183	4538
862.315	4596
862.447	4687
862.58	4565
862.712	4394
862.844	4329
862.976	4474
863.108	4436
863.24	4866
863.372	4341
863.504	4398
863.636	4405
863.768	4424
863.9	4451
864.032	4383
864.164	4424
864.296	4474
864.428	4516
864.559	4546
864.691	4538
864.823	4527
864.954	4508
865.086	4497
865.217	4440
865.349	4409
865.48	4451
865.612	4481
865.743	4656
865.875	4466
866.006	4413
866.137	4489
866.269	4379
866.4	4432
866.531	4451
866.662	4428
866.793	4375
866.924	4459
867.055	4504
867.186	4417
867.317	4405
867.448	4371
867.579	4386
867.71	4398
867.841	4348
867.972	4432
868.103	4443
868.233	4421
868.364	4443
868.495	4516
868.625	4687
868.756	4797
868.886	4565
869.017	4622
869.147	4774
869.278	4771
869.408	4645
869.539	4637
869.669	4733
869.799	4668
869.929	4786
870.06	4744
870.19	5003
870.32	4930
870.45	4904
870.58	5029
870.71	5102
870.84	5117
870.97	4938
871.1	4889
871.23	5151
871.36	5143
871.489	4995
871.619	5079
871.749	5090
871.879	5178
872.008	5086
872.138	5052
872.267	4953
872.397	4786
872.526	4862
872.656	4729
872.785	4790
872.915	4919
873.044	5037
873.173	4984
873.303	4953
873.432	4889
873.561	4919
873.69	4911
873.819	4870
873.948	4896
874.077	4793
874.206	4744
874.335	4801
874.464	4889
874.593	5010
874.722	4968
874.851	5048
874.979	5090
875.108	5037
875.237	4942
875.365	4881
875.494	4889
875.623	4953
875.751	4809
875.88	4892
876.008	5003
876.136	5064
876.265	5181
876.393	5368
876.521	5258
876.65	5246
876.778	5140
876.906	5075
877.034	5029
877.162	5018
877.29	5010
877.418	5064
877.546	5060
877.674	5041
877.802	5022
877.93	4968
878.058	4900
878.185	4839
878.313	5006
878.441	4930
878.568	4759
878.696	4847
878.824	4946
878.951	5003
879.079	5132
879.206	5292
879.333	5143
879.461	4980
879.588	4987
879.715	5041
879.842	5242
879.97	4984
880.097	4790
880.224	4759
880.351	4843
880.478	4831
880.605	4824
880.732	4793
880.859	4999
880.986	4870
881.112	4923
881.239	4820
881.366	4683
881.493	4558
881.619	4550
881.746	4637
881.872	4675
881.999	4679
882.125	4694
882.252	4809
882.378	4820
882.505	4984
882.631	4778
882.757	4660
882.883	4759
883.01	4736
883.136	4694
883.262	4538
883.388	4630
883.514	4820
883.64	4850
883.766	4786
883.892	4645
884.018	4710
884.143	4873
884.269	5006
884.395	4668
884.52	4584
884.646	4668
884.772	4565
884.897	4550
885.023	4660
885.148	4778
885.274	4870
885.399	4786
885.524	4759
885.65	4668
885.775	4755
885.9	4687
886.025	4870
886.15	4809
886.275	4687
886.4	4630
886.525	4740
886.65	4660
886.775	4687
886.9	4881
887.025	5113
887.149	4782
887.274	4641
887.399	4588
887.523	4577
887.648	4615
887.773	4561
887.897	4752
888.021	4774
888.146	4702
888.27	4824
888.395	4968
888.519	4831
888.643	4862
888.767	4828
888.891	4672
889.015	4592
889.139	4698
889.263	4580
889.387	4744
889.511	4828
889.635	4809
889.759	4653
889.883	4611
890.006	4729
890.13	4828
890.254	4645
890.377	4736
890.501	4531
890.624	4531
890.748	4641
890.871	4485
890.995	4398
891.118	4344
891.241	4523
891.364	4538
891.488	4653
891.611	4508
891.734	4523
891.857	4641
891.98	4569
892.103	4641
892.226	4618
892.349	4512
892.471	4432
892.594	4542
892.717	4630
892.839	4523
892.962	4607
893.085	4641
893.207	4599
893.33	4398
893.452	4516
893.575	4645
893.697	4588
893.819	4736
893.941	4828
894.064	4782
894.186	4558
894.308	4607
894.43	4771
894.552	4816
894.674	4725
894.796	4558
894.918	4599
895.04	4592
895.161	4710
895.283	4679
895.405	4577
895.526	4630
895.648	4706
895.769	4618
895.891	4725
896.012	4721
896.134	4771
896.255	4660
896.376	4656
896.498	4611
896.619	4668
896.74	4558
896.861	4641
896.982	4908
897.103	5060
897.224	4824
897.345	4664
897.466	4706
897.587	4694
897.708	4839
897.828	4774
897.949	4660
898.07	4588
898.19	4622
898.311	4873
898.431	4683
898.552	4694
898.672	4790
898.792	4809
898.913	4706
899.033	4599
899.153	4531
899.273	4409
899.393	4489
899.513	4580
899.633	4485
899.753	4500
899.873	4504
899.993	4618
900.113	4516
900.232	4577
900.352	4577
900.472	4516
900.591	4352
900.711	4481
900.83	4474
900.95	4596
901.069	4702
901.189	4561
901.308	4402
901.427	4322
901.546	4390
901.665	4474
901.784	4470
901.904	4363
902.023	4344
902.141	4173
902.26	4177
902.379	4306
902.498	4242
902.617	4276
902.735	4352
902.854	4402
902.973	4325
903.091	4185
903.21	4253
903.328	4310
903.446	4246
903.565	4238
903.683	4344
903.801	4287
903.919	4363
904.038	4405
904.156	4306
904.274	4478
904.392	4398
904.51	4428
904.627	4485
904.745	4523
904.863	4580
904.981	4371
905.098	4322
905.216	4390
905.334	4360
905.451	4466
905.569	4455
905.686	4535
905.803	4542
905.921	4413
906.038	4516
906.155	4466
906.272	4386
906.389	4462
906.506	4356
906.623	4383
906.74	4371
906.857	4371
906.974	4383
907.091	4580
907.208	4653
907.324	4603
907.441	4504
907.557	4371
907.674	4337
907.79	4295
907.907	4413
908.023	4531
908.139	4470
908.256	4485
908.372	4432
908.488	4440
908.604	4379
908.72	4371
908.836	4371
908.952	4337
909.068	4440
909.184	4554
909.3	4451
909.415	4577
909.531	4584
909.647	4386
909.762	4379
909.878	4329
909.993	4474
910.108	4405
910.224	4417
910.339	4474
910.454	4405
910.57	4409
910.685	4280
910.8	4660
910.915	4588
911.03	4558
911.145	4272
911.259	4310
911.374	4356
911.489	4299
911.604	4322
911.718	4173
911.833	4192
911.947	4150
912.062	4090
912.176	4207
912.291	4234
912.405	4242
912.519	4470
912.633	4493
912.748	4386
912.862	4314
912.976	4242
913.09	4124
913.204	4150
913.318	4230
913.431	4310
913.545	4341
913.659	4405
913.772	4379
913.886	4265
914	4246
914.113	4352
914.226	4451
914.34	4383
914.453	4261
914.566	4451
914.68	4341
914.793	4352
914.906	4150
915.019	4097
915.132	4150
915.245	4196
915.358	4211
915.47	4291
915.583	4272
915.696	4291
915.809	4405
915.921	4383
916.034	4215
916.146	4268
916.259	4200
916.371	4367
916.483	4367
916.595	4272
916.708	4333
916.82	4360
916.932	4322
917.044	4333
917.156	4318
917.268	4265
917.38	4284
917.491	4299
917.603	4333
917.715	4398
917.826	4447
917.938	4325
918.049	4261
918.161	4432
918.272	4535
918.384	4519
918.495	4485
918.606	4318
918.717	4253
918.828	4337
918.939	4390
919.05	4207
919.161	4363
919.272	4135
919.383	4230
919.494	4424
919.604	4618
919.715	4413
919.826	4333
919.936	4390
920.047	4542
920.157	4489
920.267	4736
920.378	4500
920.488	4542
920.598	4683
920.708	4911
920.818	4725
920.928	4774
921.038	4984
921.148	4900
921.258	4584
921.368	4516
921.477	4474
921.587	4443
921.697	4394
921.806	4546
921.916	4451
922.025	4234
922.134	4253
922.244	4234
922.353	4367
922.462	4188
922.571	4154
922.68	4017
922.789	3968
922.898	4044
923.007	3983
923.116	4067
923.224	4071
923.333	4124
923.442	3972
923.55	3975
923.659	4032
923.767	4131
923.876	4025
923.984	4082
924.092	3983
924.201	4040
924.309	4105
924.417	4124
924.525	4051
924.633	4116
924.741	5018
924.849	3876
924.956	4139
925.064	3987
925.172	3842
925.279	3972
925.387	4025
925.494	4036
925.602	4181
925.709	4246
925.816	4082
925.924	4135
926.031	4242
926.138	4147
926.245	4181
926.352	4082
926.459	4287
926.566	4314
926.673	4116
926.779	4059
926.886	4032
926.993	4013
927.099	3953
927.206	3953
927.312	3937
927.419	4051
927.525	4017
927.631	4059
927.737	4006
927.843	3975
927.95	3842
928.056	3903
928.162	4002
928.267	4090
928.373	4675
928.479	4082
928.585	3861
928.69	4002
928.796	4048
928.901	3987
929.007	3819
929.112	4002
929.218	4021
929.323	3934
929.428	3926
929.533	4090
929.638	3934
929.743	3903
929.848	4032
929.953	3987
930.058	3903
930.163	3793
930.267	3842
930.372	3987
930.477	3816
930.581	4086
930.685	3960
930.79	3793
930.894	3934
930.998	3835
931.103	4032
931.207	3709
931.311	3698
931.415	3637
931.519	3504
931.623	3599
