Data from test_V78500241_896.txt Node
Date: Fri Mar 25 16:55:13 CST 2022
User: usil
Spectrometer: V785-0024
Trigger mode: 0
Integration Time (sec): 4.000000E-1
Scans to average: 1
Nonlinearity correction enabled: false
Boxcar width: 0
Storing dark spectrum: false
XAxis mode: Wavelengths
Number of Pixels in Spectrum: 1024
>>>>>Begin Spectral Data<<<<<
801.071	8039
801.214	7947
801.356	7906
801.499	7879
801.641	7792
801.783	7849
801.926	7974
802.068	7959
802.211	7887
802.353	7902
802.496	7814
802.638	7795
802.78	7887
802.923	7925
803.065	7845
803.208	7883
803.35	7974
803.492	8046
803.635	8214
803.777	7925
803.919	8084
804.061	8389
804.204	8100
804.346	8054
804.488	7947
804.63	8103
804.773	8012
804.915	8062
805.057	8229
805.199	8157
805.341	8180
805.483	8183
805.626	8153
805.768	8107
805.91	8183
806.052	8176
806.194	8115
806.336	8233
806.478	8142
806.62	8024
806.762	8164
806.904	8294
807.046	8461
807.188	8415
807.33	8290
807.472	8313
807.614	8043
807.756	8100
807.898	7982
808.04	7864
808.182	7860
808.324	7868
808.465	7887
808.607	8043
808.749	8138
808.891	8123
809.033	8225
809.174	8172
809.316	8100
809.458	8031
809.6	7970
809.741	8039
809.883	8024
810.025	8084
810.166	8058
810.308	8005
810.45	7970
810.591	7909
810.733	7681
810.875	7636
811.016	7499
811.158	7502
811.299	7575
811.441	7734
811.582	7620
811.724	7609
811.865	7521
812.007	7525
812.148	7529
812.29	7662
812.431	7700
812.573	7849
812.714	7970
812.855	8111
812.997	8225
813.138	8279
813.279	8164
813.421	8050
813.562	8035
813.703	7913
813.845	7780
813.986	7468
814.127	7312
814.268	7236
814.41	7156
814.551	7072
814.692	7137
814.833	7034
814.974	7031
815.115	7160
815.256	7004
815.397	6886
815.539	6985
815.68	6818
815.821	6757
815.962	6848
816.103	6753
816.244	6711
816.385	6635
816.526	6639
816.666	6479
816.807	6292
816.948	6395
817.089	6456
817.23	6403
817.371	6403
817.512	6384
817.653	6441
817.793	6346
817.934	6388
818.075	6418
818.216	6464
818.356	6426
818.497	6213
818.638	6121
818.778	6140
818.919	6163
819.06	6175
819.2	6266
819.341	6304
819.481	6353
819.622	6563
819.762	6662
819.903	6722
820.043	6547
820.184	6570
820.324	6563
820.465	6673
820.605	6631
820.746	6642
820.886	6486
821.026	6669
821.167	6764
821.307	6719
821.447	6783
821.588	6669
821.728	6540
821.868	6441
822.008	6323
822.149	6479
822.289	6353
822.429	6163
822.569	6091
822.709	6079
822.849	5904
822.99	5908
823.13	5901
823.27	5878
823.41	5779
823.55	5817
823.69	5748
823.83	5805
823.97	5668
824.11	5486
824.25	5543
824.389	5516
824.529	5524
824.669	5486
824.809	5581
824.949	5646
825.089	5592
825.228	5528
825.368	5395
825.508	5334
825.648	5349
825.787	5341
825.927	5322
826.067	5303
826.206	5330
826.346	5368
826.485	5334
826.625	5398
826.765	5592
826.904	5471
827.044	5254
827.183	5193
827.323	5102
827.462	5216
827.601	5181
827.741	5140
827.88	5220
828.02	5147
828.159	5223
828.298	5337
828.437	5353
828.577	5307
828.716	5482
828.855	5345
828.994	5197
829.134	5098
829.273	5181
829.412	5132
829.551	5056
829.69	5132
829.829	5239
829.968	5337
830.107	5242
830.246	5288
830.385	5143
830.524	5083
830.663	5037
830.802	4968
830.941	4839
831.08	4831
831.219	4938
831.357	4995
831.496	5140
831.635	4881
831.774	4877
831.913	4797
832.051	4679
832.19	4729
832.329	4831
832.467	4721
832.606	4626
832.744	4694
832.883	4748
833.022	4755
833.16	4782
833.299	4782
833.437	4854
833.576	4801
833.714	4809
833.852	4889
833.991	4889
834.129	4980
834.267	4953
834.406	4934
834.544	4972
834.682	5010
834.821	4915
834.959	5155
835.097	4976
835.235	5128
835.373	5064
835.511	5052
835.65	5025
835.788	4934
835.926	4873
836.064	4854
836.202	4949
836.34	5124
836.478	5181
836.615	5109
836.753	5185
836.891	5254
837.029	5189
837.167	5170
837.305	5155
837.443	5124
837.58	5075
837.718	5239
837.856	5201
837.993	5197
838.131	5220
838.269	5212
838.406	5185
838.544	5201
838.681	5018
838.819	5033
838.956	4877
839.094	4900
839.231	4923
839.369	5033
839.506	5425
839.643	5178
839.781	5037
839.918	5033
840.055	5010
840.193	5113
840.33	5083
840.467	5124
840.604	5166
840.742	5402
840.879	5067
841.016	5090
841.153	5143
841.29	5379
841.427	5311
841.564	5357
841.701	5353
841.838	5261
841.975	5185
842.112	5246
842.249	5105
842.385	5079
842.522	5368
842.659	5159
842.796	5159
842.933	5220
843.069	5155
843.206	5102
843.343	5311
843.479	5254
843.616	5231
843.752	4995
843.889	4972
844.025	5193
844.162	5029
844.298	5147
844.435	5094
844.571	5052
844.708	5204
844.844	5269
844.98	5322
845.117	5227
845.253	5090
845.389	5037
845.525	5155
845.661	5181
845.798	5052
845.934	5124
846.07	5003
846.206	5121
846.342	5284
846.478	5189
846.614	4987
846.75	4957
846.886	4900
847.022	5071
847.158	5018
847.294	5071
847.429	5067
847.565	5022
847.701	5303
847.837	4812
847.972	4801
848.108	4957
848.244	4915
848.379	4786
848.515	4710
848.65	4698
848.786	4744
848.921	4748
849.057	4896
849.192	4835
849.328	4809
849.463	4870
849.598	4801
849.734	4759
849.869	4675
850.004	4656
850.14	4637
850.275	4637
850.41	4531
850.545	4584
850.68	4588
850.815	4622
850.95	4596
851.085	4828
851.22	4675
851.355	4672
851.49	4656
851.625	4634
851.76	4649
851.895	4516
852.03	4546
852.165	4622
852.299	4740
852.434	4771
852.569	4710
852.703	4759
852.838	4820
852.973	4938
853.107	4885
853.242	4687
853.376	4630
853.511	4546
853.645	4580
853.78	4752
853.914	4664
854.048	4660
854.183	4626
854.317	4683
854.451	4854
854.585	4634
854.72	4660
854.854	4733
854.988	4584
855.122	4649
855.256	4523
855.39	4634
855.524	4759
855.658	4675
855.792	4656
855.926	4691
856.06	4759
856.194	4763
856.327	4698
856.461	4626
856.595	4588
856.729	4588
856.862	4759
856.996	4698
857.13	4672
857.263	4771
857.397	4759
857.53	4653
857.664	4729
857.797	4786
857.931	4759
858.064	4675
858.197	4721
858.331	4653
858.464	4599
858.597	4523
858.731	4622
858.864	4634
858.997	4531
859.13	4645
859.263	4660
859.396	4660
859.529	4580
859.662	4508
859.795	4542
859.928	4634
860.061	4790
860.194	4733
860.327	4580
860.46	4542
860.592	4725
860.725	4664
860.858	4714
860.99	4565
861.123	4554
861.256	4538
861.388	4641
861.521	5235
861.653	4447
861.786	4470
861.918	4455
862.05	4481
862.183	4519
862.315	4599
862.447	4634
862.58	4500
862.712	4383
862.844	4318
862.976	4500
863.108	4424
863.24	4714
863.372	4337
863.504	4436
863.636	4386
863.768	4489
863.9	4455
864.032	4329
864.164	4394
864.296	4508
864.428	4538
864.559	4504
864.691	4542
864.823	4542
864.954	4478
865.086	4481
865.217	4455
865.349	4363
865.48	4459
865.612	4485
865.743	4653
865.875	4447
866.006	4383
866.137	4405
866.269	4459
866.4	4402
866.531	4390
866.662	4333
866.793	4367
866.924	4398
867.055	4451
867.186	4466
867.317	4424
867.448	4322
867.579	4394
867.71	4371
867.841	4363
867.972	4443
868.103	4451
868.233	4470
868.364	4447
868.495	4462
868.625	4634
868.756	4736
868.886	4550
869.017	4611
869.147	4744
869.278	4717
869.408	4626
869.539	4653
869.669	4691
869.799	4596
869.929	4752
870.06	4744
870.19	4889
870.32	4934
870.45	4904
870.58	4942
870.71	5071
870.84	5090
870.97	4999
871.1	4908
871.23	5098
871.36	5113
871.489	4984
871.619	4999
871.749	5033
871.879	5121
872.008	5143
872.138	5048
872.267	4999
872.397	4847
872.526	4752
872.656	4679
872.785	4771
872.915	4896
873.044	5014
873.173	4930
873.303	4904
873.432	4923
873.561	4934
873.69	4889
873.819	4854
873.948	4908
874.077	4824
874.206	4744
874.335	4812
874.464	4961
874.593	5060
874.722	4987
874.851	5155
874.979	4984
875.108	4991
875.237	4900
875.365	4885
875.494	4885
875.623	4953
875.751	4805
875.88	4904
876.008	4938
876.136	5037
876.265	5151
876.393	5360
876.521	5189
876.65	5189
876.778	5132
876.906	5109
877.034	5045
877.162	5041
877.29	4904
877.418	5045
877.546	5018
877.674	5048
877.802	5014
877.93	4968
878.058	4908
878.185	4828
878.313	4938
878.441	4930
878.568	4797
878.696	4820
878.824	4911
878.951	4999
879.079	5121
879.206	5265
879.333	5105
879.461	4984
879.588	4949
879.715	5105
879.842	5193
879.97	4980
880.097	4744
880.224	4771
880.351	4831
880.478	4816
880.605	4752
880.732	4771
880.859	5086
880.986	4885
881.112	4904
881.239	4771
881.366	4645
881.493	4611
881.619	4538
881.746	4615
881.872	4641
881.999	4668
882.125	4626
882.252	4778
882.378	4774
882.505	4957
882.631	4824
882.757	4683
882.883	4706
883.01	4725
883.136	4641
883.262	4607
883.388	4630
883.514	4774
883.64	4828
883.766	4767
883.892	4660
884.018	4702
884.143	4850
884.269	5090
884.395	4668
884.52	4618
884.646	4637
884.772	4607
884.897	4481
885.023	4649
885.148	4797
885.274	4900
885.399	4774
885.524	4733
885.65	4706
885.775	4721
885.9	4702
886.025	4801
886.15	4793
886.275	4721
886.4	4626
886.525	4721
886.65	4714
886.775	4672
886.9	4934
887.025	5060
887.149	4771
887.274	4664
887.399	4599
887.523	4588
887.648	4542
887.773	4558
887.897	4706
888.021	4736
888.146	4698
888.27	4763
888.395	4885
888.519	4793
888.643	4786
888.767	4828
888.891	4679
889.015	4645
889.139	4630
889.263	4630
889.387	4752
889.511	4896
889.635	4790
889.759	4660
889.883	4611
890.006	4752
890.13	4782
890.254	4580
890.377	4672
890.501	4462
890.624	4519
890.748	4664
890.871	4489
890.995	4409
891.118	4394
891.241	4535
891.364	4516
891.488	4615
891.611	4481
891.734	4550
891.857	4592
891.98	4565
892.103	4698
892.226	4535
892.349	4519
892.471	4443
892.594	4561
892.717	4565
892.839	4565
892.962	4622
893.085	4656
893.207	4611
893.33	4474
893.452	4512
893.575	4660
893.697	4577
893.819	4786
893.941	4843
894.064	4786
894.186	4558
894.308	4561
894.43	4736
894.552	4759
894.674	4752
894.796	4569
894.918	4550
895.04	4535
895.161	4656
895.283	4649
895.405	4550
895.526	4592
895.648	4607
895.769	4660
895.891	4752
896.012	4721
896.134	4710
896.255	4694
896.376	4672
896.498	4603
896.619	4706
896.74	4596
896.861	4660
896.982	4919
897.103	5086
897.224	4835
897.345	4729
897.466	4656
897.587	4729
897.708	4873
897.828	4771
897.949	4656
898.07	4565
898.19	4641
898.311	4782
898.431	4664
898.552	4740
898.672	4858
898.792	4786
898.913	4714
899.033	4626
899.153	4523
899.273	4413
899.393	4489
899.513	4512
899.633	4500
899.753	4481
899.873	4447
899.993	4554
900.113	4546
900.232	4558
900.352	4527
900.472	4497
900.591	4390
900.711	4504
900.83	4436
900.95	4599
901.069	4645
901.189	4512
901.308	4344
901.427	4314
901.546	4352
901.665	4459
901.784	4500
901.904	4375
902.023	4284
902.141	4204
902.26	4128
902.379	4284
902.498	4265
902.617	4227
902.735	4386
902.854	4394
902.973	4348
903.091	4207
903.21	4204
903.328	4284
903.446	4242
903.565	4230
903.683	4314
903.801	4303
903.919	4333
904.038	4421
904.156	4280
904.274	4443
904.392	4398
904.51	4348
904.627	4512
904.745	4561
904.863	4630
904.981	4402
905.098	4284
905.216	4329
905.334	4405
905.451	4459
905.569	4424
905.686	4573
905.803	4615
905.921	4390
906.038	4538
906.155	4462
906.272	4379
906.389	4451
906.506	4356
906.623	4360
906.74	4341
906.857	4284
906.974	4367
907.091	4561
907.208	4698
907.324	4573
907.441	4504
907.557	4356
907.674	4371
907.79	4280
907.907	4379
908.023	4485
908.139	4481
908.256	4405
908.372	4466
908.488	4390
908.604	4306
908.72	4341
908.836	4371
908.952	4337
909.068	4402
909.184	4512
909.3	4485
909.415	4580
909.531	4531
909.647	4310
909.762	4375
909.878	4329
909.993	4424
910.108	4413
910.224	4402
910.339	4500
910.454	4360
910.57	4344
910.685	4284
910.8	4656
910.915	4577
911.03	4516
911.145	4291
911.259	4352
911.374	4375
911.489	4303
911.604	4276
911.718	4120
911.833	4207
911.947	4051
912.062	4017
912.176	4200
912.291	4215
912.405	4196
912.519	4485
912.633	4500
912.748	4386
912.862	4253
912.976	4116
913.09	4109
913.204	4192
913.318	4219
913.431	4356
913.545	4363
913.659	4447
913.772	4310
913.886	4223
914	4219
914.113	4344
914.226	4421
914.34	4394
914.453	4219
914.566	4447
914.68	4295
914.793	4352
914.906	4124
915.019	4112
915.132	4078
915.245	4158
915.358	4169
915.47	4238
915.583	4261
915.696	4318
915.809	4413
915.921	4405
916.034	4257
916.146	4223
916.259	4181
916.371	4360
916.483	4363
916.595	4287
916.708	4318
916.82	4299
916.932	4295
917.044	4333
917.156	4341
917.268	4181
917.38	4314
917.491	4223
917.603	4344
917.715	4447
917.826	4402
917.938	4405
918.049	4249
918.161	4394
918.272	4523
918.384	4500
918.495	4451
918.606	4287
918.717	4234
918.828	4310
918.939	4375
919.05	4234
919.161	4322
919.272	4139
919.383	4211
919.494	4436
919.604	4603
919.715	4417
919.826	4322
919.936	4402
920.047	4535
920.157	4504
920.267	4649
920.378	4527
920.488	4466
920.598	4698
920.708	4850
920.818	4736
920.928	4759
921.038	4972
921.148	4927
921.258	4637
921.368	4531
921.477	4523
921.587	4432
921.697	4280
921.806	4538
921.916	4402
922.025	4223
922.134	4230
922.244	4185
922.353	4333
922.462	4200
922.571	4131
922.68	4021
922.789	3945
922.898	3987
923.007	4044
923.116	4101
923.224	4044
923.333	4082
923.442	4002
923.55	3941
923.659	4029
923.767	4105
923.876	3972
923.984	4143
924.092	3979
924.201	4120
924.309	4116
924.417	4154
924.525	4063
924.633	4067
924.741	4839
924.849	3899
924.956	4120
925.064	3949
925.172	3907
925.279	3968
925.387	4051
925.494	4044
925.602	4169
925.709	4150
925.816	4055
925.924	4158
926.031	4204
926.138	4139
926.245	4204
926.352	4101
926.459	4265
926.566	4314
926.673	4154
926.779	4101
926.886	4055
926.993	3979
927.099	3945
927.206	3922
927.312	3915
927.419	4059
927.525	3975
927.631	4109
927.737	3972
927.843	3949
927.95	3827
928.056	3941
928.162	3979
928.267	4071
928.373	4554
928.479	4112
928.585	3827
928.69	3994
928.796	4059
928.901	3937
929.007	3861
929.112	3979
929.218	3983
929.323	3972
929.428	3880
929.533	4090
929.638	3953
929.743	3941
929.848	4025
929.953	4002
930.058	3892
930.163	3766
930.267	3800
930.372	3968
930.477	3838
930.581	4071
930.685	3949
930.79	3785
930.894	3857
930.998	3857
931.103	4078
931.207	3713
931.311	3682
931.415	3656
931.519	3511
931.623	3549
