Data from test_V78500241_2687.txt Node
Date: Fri Mar 25 17:07:41 CST 2022
User: usil
Spectrometer: V785-0024
Trigger mode: 0
Integration Time (sec): 4.000000E-1
Scans to average: 1
Nonlinearity correction enabled: false
Boxcar width: 0
Storing dark spectrum: false
XAxis mode: Wavelengths
Number of Pixels in Spectrum: 1024
>>>>>Begin Spectral Data<<<<<
801.071	8058
801.214	8024
801.356	7845
801.499	7871
801.641	7826
801.783	7856
801.926	8005
802.068	7947
802.211	8039
802.353	8031
802.496	7868
802.638	7932
802.78	7974
802.923	7940
803.065	7822
803.208	7830
803.35	7944
803.492	8138
803.635	8168
803.777	8016
803.919	8187
804.061	8419
804.204	8180
804.346	8134
804.488	7921
804.63	8153
804.773	8039
804.915	8130
805.057	8267
805.199	8130
805.341	8157
805.483	8282
805.626	8275
805.768	8164
805.91	8256
806.052	8263
806.194	8149
806.336	8370
806.478	8088
806.62	8084
806.762	8176
806.904	8187
807.046	8400
807.188	8370
807.33	8263
807.472	8309
807.614	8172
807.756	8180
807.898	8054
808.04	7860
808.182	7940
808.324	7932
808.465	8008
808.607	8062
808.749	8100
808.891	8191
809.033	8339
809.174	8225
809.316	8134
809.458	8191
809.6	8005
809.741	8050
809.883	8046
810.025	8138
810.166	8062
810.308	8084
810.45	8035
810.591	7925
810.733	7731
810.875	7620
811.016	7548
811.158	7480
811.299	7590
811.441	7727
811.582	7700
811.724	7514
811.865	7548
812.007	7624
812.148	7544
812.29	7639
812.431	7681
812.573	7928
812.714	7997
812.855	8058
812.997	8252
813.138	8218
813.279	8221
813.421	8123
813.562	8077
813.703	7925
813.845	7738
813.986	7445
814.127	7240
814.268	7217
814.41	7198
814.551	7175
814.692	7164
814.833	7057
814.974	7160
815.115	7099
815.256	6916
815.397	6981
815.539	6890
815.68	6726
815.821	6814
815.962	6871
816.103	6878
816.244	6753
816.385	6665
816.526	6642
816.666	6498
816.807	6277
816.948	6418
817.089	6486
817.23	6418
817.371	6365
817.512	6407
817.653	6331
817.793	6342
817.934	6407
818.075	6486
818.216	6467
818.356	6452
818.497	6254
818.638	6144
818.778	6194
818.919	6175
819.06	6148
819.2	6273
819.341	6331
819.481	6388
819.622	6555
819.762	6734
819.903	6726
820.043	6631
820.184	6612
820.324	6585
820.465	6692
820.605	6696
820.746	6635
820.886	6460
821.026	6662
821.167	6719
821.307	6829
821.447	6779
821.588	6669
821.728	6574
821.868	6555
822.008	6338
822.149	6334
822.289	6395
822.429	6220
822.569	6079
822.709	6159
822.849	5946
822.99	5939
823.13	5965
823.27	5927
823.41	5855
823.55	5813
823.69	5798
823.83	5783
823.97	5718
824.11	5543
824.25	5539
824.389	5619
824.529	5649
824.669	5558
824.809	5627
824.949	5684
825.089	5668
825.228	5661
825.368	5436
825.508	5402
825.648	5395
825.787	5395
825.927	5414
826.067	5337
826.206	5368
826.346	5402
826.485	5433
826.625	5474
826.765	5592
826.904	5554
827.044	5296
827.183	5250
827.323	5181
827.462	5277
827.601	5227
827.741	5235
827.88	5288
828.02	5147
828.159	5273
828.298	5360
828.437	5368
828.577	5376
828.716	5459
828.855	5337
828.994	5269
829.134	5185
829.273	5223
829.412	5185
829.551	5151
829.69	5185
829.829	5261
829.968	5417
830.107	5299
830.246	5334
830.385	5155
830.524	5147
830.663	5094
830.802	5079
830.941	4957
831.08	4930
831.219	4999
831.357	5006
831.496	5181
831.635	4942
831.774	4862
831.913	4854
832.051	4801
832.19	4850
832.329	4904
832.467	4805
832.606	4653
832.744	4748
832.883	4820
833.022	4744
833.16	4847
833.299	4847
833.437	4911
833.576	4820
833.714	4923
833.852	4889
833.991	4900
834.129	5018
834.267	5029
834.406	4919
834.544	4995
834.682	4961
834.821	5075
834.959	5166
835.097	5022
835.235	5227
835.373	5155
835.511	5113
835.65	5052
835.788	5060
835.926	4976
836.064	4938
836.202	4949
836.34	5212
836.478	5227
836.615	5185
836.753	5349
836.891	5273
837.029	5280
837.167	5212
837.305	5117
837.443	5242
837.58	5086
837.718	5227
837.856	5227
837.993	5208
838.131	5250
838.269	5242
838.406	5178
838.544	5193
838.681	5109
838.819	5022
838.956	4976
839.094	4987
839.231	5029
839.369	5098
839.506	5440
839.643	5284
839.781	5102
839.918	5052
840.055	5094
840.193	5064
840.33	5132
840.467	5136
840.604	5208
840.742	5421
840.879	5128
841.016	5155
841.153	5178
841.29	5341
841.427	5322
841.564	5307
841.701	5448
841.838	5330
841.975	5242
842.112	5303
842.249	5193
842.385	5170
842.522	5334
842.659	5250
842.796	5212
842.933	5227
843.069	5185
843.206	5178
843.343	5330
843.479	5265
843.616	5311
843.752	5025
843.889	5067
844.025	5246
844.162	5056
844.298	5261
844.435	5086
844.571	5143
844.708	5181
844.844	5349
844.98	5341
845.117	5307
845.253	5185
845.389	5086
845.525	5174
845.661	5143
845.798	5090
845.934	5147
846.07	5098
846.206	5223
846.342	5269
846.478	5189
846.614	5067
846.75	5029
846.886	4995
847.022	5113
847.158	5041
847.294	5067
847.429	5174
847.565	5132
847.701	5353
847.837	4885
847.972	4828
848.108	5033
848.244	4999
848.379	4824
848.515	4733
848.65	4729
848.786	4824
848.921	4828
849.057	4862
849.192	4957
849.328	4877
849.463	4904
849.598	4850
849.734	4854
849.869	4733
850.004	4675
850.14	4664
850.275	4637
850.41	4542
850.545	4637
850.68	4637
850.815	4649
850.95	4634
851.085	4850
851.22	4797
851.355	4710
851.49	4649
851.625	4668
851.76	4649
851.895	4580
852.03	4523
852.165	4649
852.299	4714
852.434	4828
852.569	4805
852.703	4778
852.838	4862
852.973	4980
853.107	4911
853.242	4744
853.376	4717
853.511	4615
853.645	4618
853.78	4839
853.914	4721
854.048	4694
854.183	4675
854.317	4721
854.451	4889
854.585	4675
854.72	4664
854.854	4793
854.988	4580
855.122	4687
855.256	4538
855.39	4679
855.524	4782
855.658	4740
855.792	4706
855.926	4721
856.06	4790
856.194	4862
856.327	4679
856.461	4656
856.595	4622
856.729	4630
856.862	4828
856.996	4721
857.13	4736
857.263	4752
857.397	4839
857.53	4691
857.664	4721
857.797	4763
857.931	4767
858.064	4698
858.197	4797
858.331	4679
858.464	4687
858.597	4508
858.731	4607
858.864	4637
858.997	4622
859.13	4664
859.263	4679
859.396	4714
859.529	4611
859.662	4523
859.795	4527
859.928	4698
860.061	4767
860.194	4790
860.327	4634
860.46	4588
860.592	4771
860.725	4721
860.858	4759
860.99	4618
861.123	4580
861.256	4535
861.388	4622
861.521	5349
861.653	4508
861.786	4459
861.918	4436
862.05	4531
862.183	4577
862.315	4664
862.447	4649
862.58	4603
862.712	4424
862.844	4363
862.976	4512
863.108	4493
863.24	4778
863.372	4363
863.504	4413
863.636	4436
863.768	4538
863.9	4462
864.032	4402
864.164	4440
864.296	4535
864.428	4531
864.559	4573
864.691	4554
864.823	4504
864.954	4512
865.086	4546
865.217	4478
865.349	4447
865.48	4462
865.612	4508
865.743	4656
865.875	4481
866.006	4470
866.137	4485
866.269	4417
866.4	4421
866.531	4459
866.662	4413
866.793	4394
866.924	4383
867.055	4573
867.186	4489
867.317	4478
867.448	4417
867.579	4394
867.71	4356
867.841	4329
867.972	4523
868.103	4493
868.233	4500
868.364	4474
868.495	4542
868.625	4706
868.756	4805
868.886	4542
869.017	4694
869.147	4809
869.278	4839
869.408	4691
869.539	4656
869.669	4736
869.799	4706
869.929	4744
870.06	4786
870.19	4987
870.32	4915
870.45	4949
870.58	5025
870.71	5136
870.84	5056
870.97	4991
871.1	4923
871.23	5121
871.36	5181
871.489	5083
871.619	5083
871.749	5098
871.879	5147
872.008	5220
872.138	5052
872.267	5052
872.397	4877
872.526	4809
872.656	4797
872.785	4831
872.915	5010
873.044	5052
873.173	4957
873.303	4991
873.432	5033
873.561	4972
873.69	4881
873.819	4835
873.948	4946
874.077	4831
874.206	4748
874.335	4786
874.464	4942
874.593	5083
874.722	5003
874.851	5128
874.979	5075
875.108	5056
875.237	4980
875.365	4900
875.494	4927
875.623	5003
875.751	4847
875.88	4946
876.008	5022
876.136	5086
876.265	5197
876.393	5357
876.521	5269
876.65	5216
876.778	5166
876.906	5075
877.034	5056
877.162	5041
877.29	5003
877.418	5079
877.546	5075
877.674	5025
877.802	5041
877.93	5075
878.058	4976
878.185	4900
878.313	4980
878.441	4961
878.568	4911
878.696	4911
878.824	4938
878.951	5029
879.079	5189
879.206	5330
879.333	5090
879.461	4972
879.588	5006
879.715	5140
879.842	5216
879.97	5052
880.097	4839
880.224	4767
880.351	4801
880.478	4847
880.605	4839
880.732	4786
880.859	5086
880.986	4904
881.112	4904
881.239	4786
881.366	4717
881.493	4649
881.619	4626
881.746	4672
881.872	4603
881.999	4634
882.125	4702
882.252	4812
882.378	4786
882.505	5006
882.631	4847
882.757	4645
882.883	4725
883.01	4740
883.136	4668
883.262	4615
883.388	4687
883.514	4831
883.64	4862
883.766	4831
883.892	4706
884.018	4721
884.143	4896
884.269	5041
884.395	4645
884.52	4668
884.646	4664
884.772	4561
884.897	4565
885.023	4668
885.148	4782
885.274	4877
885.399	4782
885.524	4725
885.65	4698
885.775	4744
885.9	4748
886.025	4877
886.15	4805
886.275	4755
886.4	4698
886.525	4717
886.65	4752
886.775	4717
886.9	4889
887.025	5041
887.149	4801
887.274	4660
887.399	4615
887.523	4580
887.648	4588
887.773	4599
887.897	4752
888.021	4816
888.146	4672
888.27	4828
888.395	4957
888.519	4816
888.643	4854
888.767	4870
888.891	4672
889.015	4668
889.139	4645
889.263	4618
889.387	4771
889.511	4889
889.635	4831
889.759	4622
889.883	4691
890.006	4702
890.13	4877
890.254	4653
890.377	4698
890.501	4580
890.624	4531
890.748	4706
890.871	4489
890.995	4455
891.118	4455
891.241	4550
891.364	4588
891.488	4615
891.611	4535
891.734	4558
891.857	4630
891.98	4577
892.103	4653
892.226	4569
892.349	4516
892.471	4383
892.594	4603
892.717	4630
892.839	4580
892.962	4653
893.085	4653
893.207	4596
893.33	4489
893.452	4493
893.575	4687
893.697	4603
893.819	4812
893.941	4793
894.064	4755
894.186	4573
894.308	4531
894.43	4740
894.552	4843
894.674	4752
894.796	4577
894.918	4630
895.04	4554
895.161	4698
895.283	4645
895.405	4535
895.526	4653
895.648	4729
895.769	4668
895.891	4744
896.012	4748
896.134	4755
896.255	4694
896.376	4637
896.498	4630
896.619	4698
896.74	4607
896.861	4622
896.982	4915
897.103	5105
897.224	4847
897.345	4740
897.466	4675
897.587	4763
897.708	4873
897.828	4831
897.949	4710
898.07	4561
898.19	4683
898.311	4858
898.431	4668
898.552	4763
898.672	4816
898.792	4824
898.913	4759
899.033	4630
899.153	4485
899.273	4455
899.393	4497
899.513	4474
899.633	4500
899.753	4550
899.873	4531
899.993	4596
900.113	4523
900.232	4611
900.352	4565
900.472	4462
900.591	4451
900.711	4451
900.83	4462
900.95	4592
901.069	4672
901.189	4577
901.308	4337
901.427	4272
901.546	4421
901.665	4493
901.784	4611
901.904	4390
902.023	4303
902.141	4181
902.26	4120
902.379	4284
902.498	4223
902.617	4238
902.735	4398
902.854	4398
902.973	4352
903.091	4207
903.21	4265
903.328	4299
903.446	4295
903.565	4215
903.683	4375
903.801	4280
903.919	4386
904.038	4447
904.156	4348
904.274	4436
904.392	4360
904.51	4455
904.627	4504
904.745	4622
904.863	4618
904.981	4356
905.098	4272
905.216	4325
905.334	4402
905.451	4447
905.569	4424
905.686	4546
905.803	4580
905.921	4421
906.038	4596
906.155	4466
906.272	4428
906.389	4497
906.506	4371
906.623	4379
906.74	4367
906.857	4303
906.974	4386
907.091	4565
907.208	4656
907.324	4615
907.441	4504
907.557	4348
907.674	4329
907.79	4322
907.907	4367
908.023	4478
908.139	4508
908.256	4436
908.372	4428
908.488	4459
908.604	4352
908.72	4348
908.836	4383
908.952	4363
909.068	4504
909.184	4558
909.3	4497
909.415	4580
909.531	4554
909.647	4333
909.762	4386
909.878	4337
909.993	4405
910.108	4421
910.224	4375
910.339	4493
910.454	4394
910.57	4383
910.685	4284
910.8	4645
910.915	4630
911.03	4538
911.145	4310
911.259	4325
911.374	4379
911.489	4287
911.604	4268
911.718	4135
911.833	4200
911.947	4116
912.062	4032
912.176	4200
912.291	4284
912.405	4211
912.519	4451
912.633	4542
912.748	4356
912.862	4287
912.976	4192
913.09	4120
913.204	4238
913.318	4242
913.431	4390
913.545	4390
913.659	4436
913.772	4360
913.886	4276
914	4265
914.113	4390
914.226	4424
914.34	4352
914.453	4253
914.566	4413
914.68	4333
914.793	4310
914.906	4177
915.019	4147
915.132	4082
915.245	4200
915.358	4215
915.47	4268
915.583	4287
915.696	4299
915.809	4447
915.921	4394
916.034	4284
916.146	4276
916.259	4215
916.371	4383
916.483	4360
916.595	4257
916.708	4303
916.82	4322
916.932	4360
917.044	4325
917.156	4287
917.268	4204
917.38	4287
917.491	4322
917.603	4344
917.715	4394
917.826	4459
917.938	4363
918.049	4261
918.161	4371
918.272	4546
918.384	4558
918.495	4402
918.606	4314
918.717	4207
918.828	4318
918.939	4371
919.05	4268
919.161	4337
919.272	4139
919.383	4185
919.494	4413
919.604	4611
919.715	4451
919.826	4398
919.936	4413
920.047	4538
920.157	4481
920.267	4687
920.378	4577
920.488	4485
920.598	4714
920.708	4915
920.818	4740
920.928	4771
921.038	4957
921.148	4889
921.258	4618
921.368	4554
921.477	4550
921.587	4474
921.697	4371
921.806	4542
921.916	4424
922.025	4268
922.134	4257
922.244	4200
922.353	4363
922.462	4173
922.571	4101
922.68	4044
922.789	3968
922.898	4074
923.007	4010
923.116	4109
923.224	4032
923.333	4082
923.442	3983
923.55	3987
923.659	4036
923.767	4071
923.876	3987
923.984	4124
924.092	4036
924.201	4086
924.309	4097
924.417	4154
924.525	4055
924.633	4116
924.741	5086
924.849	3903
924.956	4150
925.064	3960
925.172	3892
925.279	3956
925.387	4059
925.494	4071
925.602	4181
925.709	4120
925.816	4071
925.924	4154
926.031	4246
926.138	4173
926.245	4177
926.352	4112
926.459	4253
926.566	4318
926.673	4173
926.779	4124
926.886	4090
926.993	3968
927.099	4002
927.206	3945
927.312	3926
927.419	4059
927.525	4017
927.631	4059
927.737	3915
927.843	3991
927.95	3857
928.056	3964
928.162	3953
928.267	4021
928.373	4569
928.479	4090
928.585	3869
928.69	4010
928.796	4074
928.901	3968
929.007	3804
929.112	4078
929.218	3975
929.323	3975
929.428	3953
929.533	4067
929.638	3918
929.743	3979
929.848	4074
929.953	3991
930.058	3911
930.163	3808
930.267	3838
930.372	3945
930.477	3823
930.581	4093
930.685	3972
930.79	3827
930.894	3865
930.998	3876
931.103	4036
931.207	3736
931.311	3701
931.415	3660
931.519	3542
931.623	3610
