Data from test_V78500241_1201.txt Node
Date: Fri Mar 25 16:57:21 CST 2022
User: usil
Spectrometer: V785-0024
Trigger mode: 0
Integration Time (sec): 4.000000E-1
Scans to average: 1
Nonlinearity correction enabled: false
Boxcar width: 0
Storing dark spectrum: false
XAxis mode: Wavelengths
Number of Pixels in Spectrum: 1024
>>>>>Begin Spectral Data<<<<<
801.071	8096
801.214	8130
801.356	7902
801.499	7967
801.641	7788
801.783	7792
801.926	7978
802.068	7963
802.211	7951
802.353	7928
802.496	7871
802.638	7841
802.78	7921
802.923	7974
803.065	7970
803.208	7864
803.35	7967
803.492	8130
803.635	8218
803.777	8005
803.919	8221
804.061	8480
804.204	8145
804.346	8073
804.488	7986
804.63	8119
804.773	8024
804.915	8058
805.057	8252
805.199	8218
805.341	8267
805.483	8317
805.626	8180
805.768	8107
805.91	8225
806.052	8240
806.194	8126
806.336	8305
806.478	8111
806.62	8107
806.762	8176
806.904	8282
807.046	8461
807.188	8347
807.33	8339
807.472	8351
807.614	8153
807.756	8202
807.898	8050
808.04	7894
808.182	7944
808.324	7913
808.465	8020
808.607	8092
808.749	8084
808.891	8225
809.033	8263
809.174	8233
809.316	8046
809.458	8107
809.6	8001
809.741	8043
809.883	8039
810.025	8081
810.166	8103
810.308	7982
810.45	8027
810.591	7936
810.733	7700
810.875	7685
811.016	7533
811.158	7544
811.299	7632
811.441	7681
811.582	7734
811.724	7597
811.865	7567
812.007	7556
812.148	7597
812.29	7643
812.431	7723
812.573	7883
812.714	8016
812.855	8123
812.997	8168
813.138	8298
813.279	8225
813.421	8180
813.562	8039
813.703	7860
813.845	7753
813.986	7472
814.127	7373
814.268	7209
814.41	7232
814.551	7213
814.692	7190
814.833	7031
814.974	7088
815.115	7107
815.256	6901
815.397	6928
815.539	6935
815.68	6798
815.821	6852
815.962	6894
816.103	6856
816.244	6745
816.385	6635
816.526	6604
816.666	6456
816.807	6281
816.948	6509
817.089	6513
817.23	6517
817.371	6410
817.512	6414
817.653	6384
817.793	6357
817.934	6448
818.075	6433
818.216	6467
818.356	6399
818.497	6292
818.638	6144
818.778	6175
818.919	6155
819.06	6228
819.2	6331
819.341	6342
819.481	6365
819.622	6551
819.762	6741
819.903	6757
820.043	6616
820.184	6570
820.324	6646
820.465	6662
820.605	6700
820.746	6604
820.886	6498
821.026	6627
821.167	6696
821.307	6810
821.447	6719
821.588	6703
821.728	6555
821.868	6532
822.008	6342
822.149	6334
822.289	6353
822.429	6175
822.569	6091
822.709	6155
822.849	5954
822.99	5935
823.13	5897
823.27	5942
823.41	5790
823.55	5748
823.69	5805
823.83	5783
823.97	5627
824.11	5570
824.25	5543
824.389	5562
824.529	5608
824.669	5554
824.809	5672
824.949	5707
825.089	5623
825.228	5512
825.368	5444
825.508	5364
825.648	5364
825.787	5398
825.927	5406
826.067	5284
826.206	5322
826.346	5395
826.485	5387
826.625	5406
826.765	5615
826.904	5455
827.044	5337
827.183	5208
827.323	5143
827.462	5254
827.601	5181
827.741	5181
827.88	5239
828.02	5166
828.159	5273
828.298	5292
828.437	5341
828.577	5277
828.716	5493
828.855	5364
828.994	5178
829.134	5181
829.273	5178
829.412	5136
829.551	5178
829.69	5223
829.829	5246
829.968	5303
830.107	5280
830.246	5330
830.385	5208
830.524	5121
830.663	5124
830.802	5022
830.941	4885
831.08	4911
831.219	5006
831.357	4976
831.496	5204
831.635	4904
831.774	4858
831.913	4896
832.051	4698
832.19	4721
832.329	4816
832.467	4733
832.606	4668
832.744	4793
832.883	4721
833.022	4710
833.16	4831
833.299	4812
833.437	4850
833.576	4831
833.714	4877
833.852	4858
833.991	4927
834.129	4919
834.267	4968
834.406	4930
834.544	4984
834.682	4965
834.821	4999
834.959	5185
835.097	5025
835.235	5193
835.373	5067
835.511	5140
835.65	5052
835.788	5029
835.926	4881
836.064	4900
836.202	4919
836.34	5174
836.478	5265
836.615	5098
836.753	5204
836.891	5307
837.029	5296
837.167	5216
837.305	5178
837.443	5124
837.58	5018
837.718	5277
837.856	5155
837.993	5170
838.131	5227
838.269	5242
838.406	5246
838.544	5227
838.681	5052
838.819	5052
838.956	4889
839.094	4946
839.231	4976
839.369	5151
839.506	5402
839.643	5280
839.781	5071
839.918	4987
840.055	5094
840.193	5109
840.33	5121
840.467	5193
840.604	5212
840.742	5452
840.879	5052
841.016	5147
841.153	5162
841.29	5387
841.427	5334
841.564	5337
841.701	5360
841.838	5284
841.975	5261
842.112	5277
842.249	5151
842.385	5109
842.522	5299
842.659	5201
842.796	5170
842.933	5174
843.069	5170
843.206	5162
843.343	5299
843.479	5231
843.616	5258
843.752	4980
843.889	5033
844.025	5201
844.162	5045
844.298	5197
844.435	5140
844.571	5124
844.708	5223
844.844	5246
844.98	5357
845.117	5315
845.253	5159
845.389	5086
845.525	5162
845.661	5117
845.798	5045
845.934	5086
846.07	5086
846.206	5201
846.342	5288
846.478	5155
846.614	4980
846.75	5006
846.886	4972
847.022	5147
847.158	5071
847.294	5086
847.429	5090
847.565	5086
847.701	5322
847.837	4904
847.972	4805
848.108	4991
848.244	4892
848.379	4778
848.515	4714
848.65	4736
848.786	4714
848.921	4790
849.057	4854
849.192	4881
849.328	4820
849.463	4885
849.598	4801
849.734	4809
849.869	4675
850.004	4611
850.14	4675
850.275	4599
850.41	4565
850.545	4558
850.68	4584
850.815	4634
850.95	4649
851.085	4828
851.22	4694
851.355	4675
851.49	4603
851.625	4611
851.76	4679
851.895	4569
852.03	4516
852.165	4645
852.299	4744
852.434	4786
852.569	4698
852.703	4790
852.838	4873
852.973	4923
853.107	4938
853.242	4767
853.376	4706
853.511	4565
853.645	4588
853.78	4820
853.914	4679
854.048	4679
854.183	4626
854.317	4706
854.451	4900
854.585	4706
854.72	4634
854.854	4694
854.988	4645
855.122	4649
855.256	4516
855.39	4694
855.524	4793
855.658	4725
855.792	4679
855.926	4744
856.06	4774
856.194	4839
856.327	4725
856.461	4649
856.595	4599
856.729	4596
856.862	4740
856.996	4641
857.13	4702
857.263	4778
857.397	4786
857.53	4618
857.664	4740
857.797	4763
857.931	4759
858.064	4710
858.197	4759
858.331	4588
858.464	4607
858.597	4519
858.731	4611
858.864	4618
858.997	4565
859.13	4641
859.263	4668
859.396	4702
859.529	4596
859.662	4569
859.795	4516
859.928	4634
860.061	4801
860.194	4831
860.327	4596
860.46	4573
860.592	4717
860.725	4748
860.858	4706
860.99	4607
861.123	4523
861.256	4527
861.388	4611
861.521	5296
861.653	4512
861.786	4470
861.918	4436
862.05	4535
862.183	4580
862.315	4630
862.447	4679
862.58	4542
862.712	4443
862.844	4306
862.976	4443
863.108	4424
863.24	4877
863.372	4303
863.504	4375
863.636	4413
863.768	4478
863.9	4428
864.032	4367
864.164	4405
864.296	4455
864.428	4554
864.559	4558
864.691	4535
864.823	4500
864.954	4527
865.086	4500
865.217	4451
865.349	4398
865.48	4440
865.612	4527
865.743	4618
865.875	4436
866.006	4474
866.137	4493
866.269	4409
866.4	4417
866.531	4394
866.662	4379
866.793	4432
866.924	4428
867.055	4474
867.186	4436
867.317	4383
867.448	4348
867.579	4386
867.71	4424
867.841	4383
867.972	4493
868.103	4470
868.233	4481
868.364	4421
868.495	4493
868.625	4660
868.756	4710
868.886	4542
869.017	4634
869.147	4759
869.278	4759
869.408	4641
869.539	4630
869.669	4668
869.799	4611
869.929	4717
870.06	4733
870.19	4984
870.32	4889
870.45	4919
870.58	4999
870.71	5113
870.84	5090
870.97	4972
871.1	4866
871.23	5117
871.36	5170
871.489	5045
871.619	5056
871.749	5113
871.879	5067
872.008	5166
872.138	5045
872.267	5010
872.397	4843
872.526	4767
872.656	4717
872.785	4793
872.915	4923
873.044	4949
873.173	4938
873.303	4938
873.432	4919
873.561	4949
873.69	4862
873.819	4911
873.948	4889
874.077	4801
874.206	4771
874.335	4816
874.464	4949
874.593	5025
874.722	4972
874.851	5064
874.979	5048
875.108	5022
875.237	4896
875.365	4896
875.494	4911
875.623	4995
875.751	4824
875.88	4862
876.008	4965
876.136	5022
876.265	5208
876.393	5337
876.521	5227
876.65	5189
876.778	5105
876.906	5067
877.034	5018
877.162	4972
877.29	4980
877.418	4995
877.546	5006
877.674	4991
877.802	5056
877.93	5045
878.058	4927
878.185	4881
878.313	4965
878.441	4915
878.568	4771
878.696	4873
878.824	4900
878.951	4938
879.079	5098
879.206	5292
879.333	5094
879.461	5018
879.588	4972
879.715	5132
879.842	5227
879.97	5064
880.097	4805
880.224	4710
880.351	4790
880.478	4774
880.605	4797
880.732	4771
880.859	5079
880.986	4862
881.112	4870
881.239	4782
881.366	4653
881.493	4577
881.619	4596
881.746	4630
881.872	4611
881.999	4599
882.125	4675
882.252	4782
882.378	4824
882.505	4908
882.631	4774
882.757	4660
882.883	4752
883.01	4687
883.136	4679
883.262	4573
883.388	4611
883.514	4786
883.64	4850
883.766	4748
883.892	4691
884.018	4717
884.143	4915
884.269	4995
884.395	4645
884.52	4626
884.646	4660
884.772	4535
884.897	4542
885.023	4664
885.148	4866
885.274	4820
885.399	4740
885.524	4752
885.65	4672
885.775	4672
885.9	4687
886.025	4847
886.15	4801
886.275	4691
886.4	4630
886.525	4714
886.65	4656
886.775	4717
886.9	4892
887.025	5041
887.149	4748
887.274	4596
887.399	4599
887.523	4596
887.648	4523
887.773	4584
887.897	4725
888.021	4820
888.146	4626
888.27	4820
888.395	4949
888.519	4820
888.643	4866
888.767	4824
888.891	4664
889.015	4584
889.139	4645
889.263	4596
889.387	4702
889.511	4862
889.635	4771
889.759	4641
889.883	4653
890.006	4710
890.13	4847
890.254	4584
890.377	4702
890.501	4531
890.624	4497
890.748	4596
890.871	4489
890.995	4470
891.118	4394
891.241	4466
891.364	4519
891.488	4546
891.611	4459
891.734	4512
891.857	4577
891.98	4558
892.103	4588
892.226	4561
892.349	4512
892.471	4428
892.594	4550
892.717	4577
892.839	4554
892.962	4573
893.085	4630
893.207	4588
893.33	4424
893.452	4485
893.575	4656
893.697	4561
893.819	4748
893.941	4790
894.064	4771
894.186	4577
894.308	4565
894.43	4759
894.552	4797
894.674	4755
894.796	4554
894.918	4596
895.04	4596
895.161	4748
895.283	4656
895.405	4599
895.526	4630
895.648	4710
895.769	4668
895.891	4687
896.012	4744
896.134	4755
896.255	4622
896.376	4615
896.498	4580
896.619	4729
896.74	4607
896.861	4664
896.982	4911
897.103	5079
897.224	4778
897.345	4733
897.466	4626
897.587	4687
897.708	4835
897.828	4759
897.949	4668
898.07	4535
898.19	4618
898.311	4835
898.431	4717
898.552	4736
898.672	4835
898.792	4786
898.913	4710
899.033	4592
899.153	4500
899.273	4462
899.393	4478
899.513	4519
899.633	4523
899.753	4535
899.873	4489
899.993	4607
900.113	4531
900.232	4561
900.352	4531
900.472	4440
900.591	4379
900.711	4470
900.83	4432
900.95	4603
901.069	4645
901.189	4546
901.308	4367
901.427	4287
901.546	4386
901.665	4504
901.784	4535
901.904	4409
902.023	4242
902.141	4196
902.26	4154
902.379	4253
902.498	4238
902.617	4177
902.735	4337
902.854	4432
902.973	4402
903.091	4181
903.21	4249
903.328	4318
903.446	4268
903.565	4287
903.683	4367
903.801	4310
903.919	4390
904.038	4432
904.156	4352
904.274	4405
904.392	4390
904.51	4417
904.627	4519
904.745	4592
904.863	4611
904.981	4367
905.098	4276
905.216	4367
905.334	4459
905.451	4428
905.569	4470
905.686	4512
905.803	4546
905.921	4413
906.038	4531
906.155	4455
906.272	4360
906.389	4417
906.506	4303
906.623	4386
906.74	4390
906.857	4337
906.974	4348
907.091	4523
907.208	4622
907.324	4561
907.441	4481
907.557	4325
907.674	4356
907.79	4310
907.907	4402
908.023	4466
908.139	4489
908.256	4398
908.372	4451
908.488	4447
908.604	4352
908.72	4329
908.836	4375
908.952	4363
909.068	4428
909.184	4512
909.3	4436
909.415	4603
909.531	4565
909.647	4371
909.762	4348
909.878	4352
909.993	4432
910.108	4417
910.224	4383
910.339	4474
910.454	4371
910.57	4383
910.685	4295
910.8	4637
910.915	4592
911.03	4546
911.145	4265
911.259	4284
911.374	4329
911.489	4261
911.604	4295
911.718	4143
911.833	4230
911.947	4067
912.062	4036
912.176	4230
912.291	4268
912.405	4265
912.519	4428
912.633	4481
912.748	4409
912.862	4360
912.976	4196
913.09	4059
913.204	4143
913.318	4246
913.431	4363
913.545	4318
913.659	4428
913.772	4325
913.886	4211
914	4215
914.113	4383
914.226	4405
914.34	4417
914.453	4211
914.566	4462
914.68	4276
914.793	4314
914.906	4181
915.019	4139
915.132	4067
915.245	4162
915.358	4234
915.47	4246
915.583	4272
915.696	4299
915.809	4402
915.921	4386
916.034	4227
916.146	4227
916.259	4219
916.371	4360
916.483	4341
916.595	4265
916.708	4287
916.82	4306
916.932	4291
917.044	4314
917.156	4303
917.268	4223
917.38	4284
917.491	4234
917.603	4314
917.715	4398
917.826	4417
917.938	4344
918.049	4268
918.161	4363
918.272	4538
918.384	4489
918.495	4432
918.606	4322
918.717	4207
918.828	4348
918.939	4356
919.05	4238
919.161	4306
919.272	4147
919.383	4207
919.494	4451
919.604	4588
919.715	4428
919.826	4325
919.936	4379
920.047	4508
920.157	4497
920.267	4656
920.378	4569
920.488	4508
920.598	4668
920.708	4923
920.818	4763
920.928	4763
921.038	4915
921.148	4938
921.258	4588
921.368	4542
921.477	4481
921.587	4478
921.697	4363
921.806	4508
921.916	4390
922.025	4276
922.134	4261
922.244	4196
922.353	4295
922.462	4177
922.571	4105
922.68	3972
922.789	3994
922.898	4044
923.007	3979
923.116	4147
923.224	4082
923.333	4105
923.442	3975
923.55	3979
923.659	4029
923.767	4143
923.876	3975
923.984	4090
924.092	3945
924.201	4074
924.309	4105
924.417	4101
924.525	4093
924.633	4097
924.741	5006
924.849	3884
924.956	4090
925.064	3964
925.172	3907
925.279	3918
925.387	4078
925.494	4044
925.602	4268
925.709	4169
925.816	4029
925.924	4147
926.031	4234
926.138	4173
926.245	4185
926.352	4063
926.459	4242
926.566	4318
926.673	4112
926.779	4093
926.886	4109
926.993	3960
927.099	3934
927.206	3945
927.312	3922
927.419	4036
927.525	4025
927.631	4032
927.737	3972
927.843	3945
927.95	3819
928.056	3930
928.162	3968
928.267	4002
928.373	4691
928.479	4154
928.585	3884
928.69	4021
928.796	4051
928.901	3911
929.007	3880
929.112	3998
929.218	3941
929.323	3934
929.428	3918
929.533	4090
929.638	3884
929.743	3934
929.848	4063
929.953	3994
930.058	3972
930.163	3804
930.267	3827
930.372	3911
930.477	3785
930.581	4048
930.685	3953
930.79	3819
930.894	3865
930.998	3861
931.103	4036
931.207	3743
931.311	3713
931.415	3625
931.519	3515
931.623	3549
