Data from test_V78500241_1375.txt Node
Date: Fri Mar 25 16:58:33 CST 2022
User: usil
Spectrometer: V785-0024
Trigger mode: 0
Integration Time (sec): 4.000000E-1
Scans to average: 1
Nonlinearity correction enabled: false
Boxcar width: 0
Storing dark spectrum: false
XAxis mode: Wavelengths
Number of Pixels in Spectrum: 1024
>>>>>Begin Spectral Data<<<<<
801.071	7989
801.214	8035
801.356	7875
801.499	7875
801.641	7795
801.783	7772
801.926	7959
802.068	7947
802.211	7925
802.353	7951
802.496	7795
802.638	7890
802.78	7936
802.923	7921
803.065	7875
803.208	7856
803.35	8027
803.492	8039
803.635	8138
803.777	8046
803.919	8153
804.061	8450
804.204	8142
804.346	8073
804.488	7951
804.63	8035
804.773	8050
804.915	8142
805.057	8267
805.199	8183
805.341	8221
805.483	8282
805.626	8214
805.768	8073
805.91	8206
806.052	8225
806.194	8069
806.336	8324
806.478	8073
806.62	8039
806.762	8142
806.904	8214
807.046	8454
807.188	8351
807.33	8279
807.472	8313
807.614	8123
807.756	8126
807.898	7993
808.04	7845
808.182	7913
808.324	7883
808.465	7898
808.607	8077
808.749	8115
808.891	8210
809.033	8279
809.174	8130
809.316	8039
809.458	8043
809.6	7947
809.741	8088
809.883	8008
810.025	8039
810.166	8111
810.308	7982
810.45	7993
810.591	7879
810.733	7696
810.875	7723
811.016	7499
811.158	7480
811.299	7632
811.441	7639
811.582	7658
811.724	7540
811.865	7510
812.007	7586
812.148	7609
812.29	7639
812.431	7723
812.573	7898
812.714	7989
812.855	8115
812.997	8256
813.138	8358
813.279	8161
813.421	8088
813.562	7974
813.703	7788
813.845	7788
813.986	7460
814.127	7228
814.268	7209
814.41	7206
814.551	7160
814.692	7206
814.833	7099
814.974	7057
815.115	7099
815.256	6985
815.397	6951
815.539	6909
815.68	6821
815.821	6772
815.962	6905
816.103	6825
816.244	6669
816.385	6616
816.526	6616
816.666	6513
816.807	6281
816.948	6372
817.089	6486
817.23	6372
817.371	6331
817.512	6353
817.653	6380
817.793	6300
817.934	6388
818.075	6407
818.216	6429
818.356	6418
818.497	6155
818.638	6076
818.778	6152
818.919	6186
819.06	6171
819.2	6300
819.341	6262
819.481	6418
819.622	6494
819.762	6688
819.903	6700
820.043	6582
820.184	6578
820.324	6574
820.465	6658
820.605	6620
820.746	6616
820.886	6483
821.026	6700
821.167	6696
821.307	6798
821.447	6741
821.588	6662
821.728	6521
821.868	6429
822.008	6254
822.149	6308
822.289	6384
822.429	6136
822.569	6117
822.709	6095
822.849	5912
822.99	5863
823.13	5901
823.27	5889
823.41	5802
823.55	5783
823.69	5764
823.83	5794
823.97	5619
824.11	5524
824.25	5551
824.389	5509
824.529	5524
824.669	5459
824.809	5611
824.949	5680
825.089	5573
825.228	5528
825.368	5376
825.508	5265
825.648	5299
825.787	5387
825.927	5322
826.067	5292
826.206	5280
826.346	5391
826.485	5402
826.625	5379
826.765	5543
826.904	5463
827.044	5212
827.183	5178
827.323	5159
827.462	5239
827.601	5201
827.741	5189
827.88	5170
828.02	5128
828.159	5178
828.298	5292
828.437	5292
828.577	5280
828.716	5459
828.855	5315
828.994	5162
829.134	5174
829.273	5189
829.412	5159
829.551	5174
829.69	5185
829.829	5201
829.968	5311
830.107	5269
830.246	5231
830.385	5197
830.524	5189
830.663	5079
830.802	4976
830.941	4850
831.08	4873
831.219	4984
831.357	4961
831.496	5132
831.635	4911
831.774	4831
831.913	4812
832.051	4664
832.19	4763
832.329	4809
832.467	4687
832.606	4641
832.744	4687
832.883	4721
833.022	4714
833.16	4752
833.299	4786
833.437	4809
833.576	4797
833.714	4850
833.852	4862
833.991	4870
834.129	4919
834.267	4923
834.406	4866
834.544	4968
834.682	4938
834.821	4889
834.959	5140
835.097	4908
835.235	5128
835.373	5071
835.511	5067
835.65	5003
835.788	5022
835.926	4862
836.064	4870
836.202	4911
836.34	5117
836.478	5189
836.615	5102
836.753	5201
836.891	5254
837.029	5201
837.167	5239
837.305	5159
837.443	5128
837.58	5060
837.718	5227
837.856	5174
837.993	5117
838.131	5197
838.269	5231
838.406	5136
838.544	5208
838.681	4976
838.819	4976
838.956	4904
839.094	4942
839.231	4987
839.369	5071
839.506	5398
839.643	5269
839.781	5113
839.918	5010
840.055	5064
840.193	5071
840.33	5124
840.467	5151
840.604	5170
840.742	5398
840.879	5083
841.016	5067
841.153	5151
841.29	5353
841.427	5311
841.564	5307
841.701	5349
841.838	5273
841.975	5265
842.112	5258
842.249	5113
842.385	5117
842.522	5372
842.659	5189
842.796	5094
842.933	5147
843.069	5136
843.206	5170
843.343	5258
843.479	5204
843.616	5223
843.752	5003
843.889	4968
844.025	5189
844.162	4968
844.298	5208
844.435	5045
844.571	5056
844.708	5181
844.844	5292
844.98	5353
845.117	5307
845.253	5060
845.389	5075
845.525	5159
845.661	5140
845.798	5025
845.934	5098
846.07	5075
846.206	5170
846.342	5231
846.478	5140
846.614	4995
846.75	4961
846.886	4968
847.022	5124
847.158	4980
847.294	5064
847.429	5056
847.565	5033
847.701	5296
847.837	4835
847.972	4752
848.108	4953
848.244	4946
848.379	4744
848.515	4729
848.65	4683
848.786	4744
848.921	4763
849.057	4820
849.192	4866
849.328	4809
849.463	4820
849.598	4725
849.734	4725
849.869	4706
850.004	4603
850.14	4683
850.275	4603
850.41	4531
850.545	4538
850.68	4615
850.815	4634
850.95	4618
851.085	4786
851.22	4744
851.355	4702
851.49	4577
851.625	4615
851.76	4641
851.895	4554
852.03	4561
852.165	4653
852.299	4698
852.434	4759
852.569	4687
852.703	4755
852.838	4828
852.973	4923
853.107	4949
853.242	4717
853.376	4672
853.511	4550
853.645	4569
853.78	4797
853.914	4668
854.048	4660
854.183	4660
854.317	4706
854.451	4809
854.585	4672
854.72	4641
854.854	4721
854.988	4542
855.122	4611
855.256	4519
855.39	4664
855.524	4778
855.658	4702
855.792	4660
855.926	4733
856.06	4710
856.194	4824
856.327	4694
856.461	4611
856.595	4561
856.729	4615
856.862	4725
856.996	4687
857.13	4752
857.263	4763
857.397	4744
857.53	4653
857.664	4721
857.797	4748
857.931	4759
858.064	4710
858.197	4740
858.331	4641
858.464	4569
858.597	4485
858.731	4577
858.864	4580
858.997	4546
859.13	4694
859.263	4653
859.396	4630
859.529	4596
859.662	4546
859.795	4527
859.928	4611
860.061	4702
860.194	4714
860.327	4573
860.46	4561
860.592	4679
860.725	4664
860.858	4717
860.99	4550
861.123	4519
861.256	4504
861.388	4630
861.521	5387
861.653	4489
861.786	4379
861.918	4478
862.05	4516
862.183	4550
862.315	4588
862.447	4611
862.58	4500
862.712	4394
862.844	4303
862.976	4440
863.108	4432
863.24	4843
863.372	4356
863.504	4459
863.636	4421
863.768	4459
863.9	4447
864.032	4306
864.164	4337
864.296	4424
864.428	4519
864.559	4531
864.691	4577
864.823	4527
864.954	4432
865.086	4485
865.217	4428
865.349	4405
865.48	4481
865.612	4500
865.743	4607
865.875	4474
866.006	4398
866.137	4481
866.269	4402
866.4	4390
866.531	4409
866.662	4348
866.793	4367
866.924	4413
867.055	4474
867.186	4455
867.317	4451
867.448	4367
867.579	4379
867.71	4390
867.841	4356
867.972	4417
868.103	4409
868.233	4447
868.364	4466
868.495	4462
868.625	4618
868.756	4721
868.886	4535
869.017	4641
869.147	4729
869.278	4767
869.408	4653
869.539	4577
869.669	4694
869.799	4607
869.929	4736
870.06	4714
870.19	4999
870.32	4870
870.45	4934
870.58	5006
870.71	5079
870.84	5037
870.97	4892
871.1	4854
871.23	5105
871.36	5086
871.489	4999
871.619	5006
871.749	5086
871.879	5121
872.008	5132
872.138	5075
872.267	5003
872.397	4759
872.526	4816
872.656	4664
872.785	4782
872.915	4927
873.044	5006
873.173	4949
873.303	4949
873.432	4896
873.561	4915
873.69	4843
873.819	4824
873.948	4858
874.077	4748
874.206	4725
874.335	4782
874.464	4915
874.593	5029
874.722	4919
874.851	5086
874.979	5018
875.108	4999
875.237	4904
875.365	4881
875.494	4889
875.623	4949
875.751	4843
875.88	4862
876.008	4927
876.136	5048
876.265	5216
876.393	5273
876.521	5189
876.65	5212
876.778	5102
876.906	5071
877.034	5010
877.162	4965
877.29	4984
877.418	5060
877.546	4984
877.674	5010
877.802	5064
877.93	5064
878.058	4953
878.185	4870
878.313	4908
878.441	4915
878.568	4782
878.696	4881
878.824	4949
878.951	4965
879.079	5117
879.206	5322
879.333	5052
879.461	5010
879.588	5037
879.715	5121
879.842	5204
879.97	4995
880.097	4790
880.224	4759
880.351	4812
880.478	4828
880.605	4786
880.732	4755
880.859	5056
880.986	4919
881.112	4904
881.239	4805
881.366	4683
881.493	4641
881.619	4580
881.746	4672
881.872	4656
881.999	4664
882.125	4694
882.252	4797
882.378	4850
882.505	4957
882.631	4862
882.757	4645
882.883	4752
883.01	4759
883.136	4664
883.262	4630
883.388	4618
883.514	4828
883.64	4900
883.766	4831
883.892	4736
884.018	4740
884.143	4923
884.269	5048
884.395	4744
884.52	4656
884.646	4714
884.772	4611
884.897	4573
885.023	4702
885.148	4835
885.274	4908
885.399	4881
885.524	4763
885.65	4702
885.775	4793
885.9	4759
886.025	4892
886.15	4782
886.275	4744
886.4	4710
886.525	4759
886.65	4725
886.775	4778
886.9	4938
887.025	5098
887.149	4843
887.274	4653
887.399	4672
887.523	4599
887.648	4603
887.773	4588
887.897	4828
888.021	4790
888.146	4714
888.27	4847
888.395	4927
888.519	4812
888.643	4831
888.767	4839
888.891	4736
889.015	4653
889.139	4683
889.263	4675
889.387	4816
889.511	4877
889.635	4820
889.759	4645
889.883	4653
890.006	4717
890.13	4835
890.254	4641
890.377	4736
890.501	4596
890.624	4546
890.748	4653
890.871	4580
890.995	4428
891.118	4432
891.241	4516
891.364	4569
891.488	4672
891.611	4519
891.734	4577
891.857	4649
891.98	4546
892.103	4725
892.226	4626
892.349	4573
892.471	4459
892.594	4538
892.717	4588
892.839	4645
892.962	4645
893.085	4694
893.207	4645
893.33	4478
893.452	4607
893.575	4668
893.697	4637
893.819	4793
893.941	4824
894.064	4824
894.186	4615
894.308	4561
894.43	4740
894.552	4835
894.674	4774
894.796	4592
894.918	4588
895.04	4565
895.161	4717
895.283	4630
895.405	4634
895.526	4656
895.648	4733
895.769	4748
895.891	4755
896.012	4752
896.134	4733
896.255	4675
896.376	4668
896.498	4630
896.619	4702
896.74	4698
896.861	4668
896.982	4892
897.103	5083
897.224	4839
897.345	4744
897.466	4691
897.587	4805
897.708	4858
897.828	4793
897.949	4717
898.07	4542
898.19	4675
898.311	4866
898.431	4683
898.552	4740
898.672	4850
898.792	4835
898.913	4790
899.033	4656
899.153	4569
899.273	4421
899.393	4516
899.513	4611
899.633	4542
899.753	4558
899.873	4546
899.993	4626
900.113	4531
900.232	4607
900.352	4558
900.472	4516
900.591	4455
900.711	4516
900.83	4497
900.95	4637
901.069	4744
901.189	4550
901.308	4356
901.427	4333
901.546	4379
901.665	4478
901.784	4569
901.904	4405
902.023	4322
902.141	4219
902.26	4188
902.379	4356
902.498	4261
902.617	4299
902.735	4398
902.854	4413
902.973	4390
903.091	4284
903.21	4211
903.328	4272
903.446	4261
903.565	4299
903.683	4405
903.801	4284
903.919	4432
904.038	4405
904.156	4314
904.274	4466
904.392	4470
904.51	4459
904.627	4497
904.745	4554
904.863	4687
904.981	4432
905.098	4314
905.216	4390
905.334	4432
905.451	4443
905.569	4485
905.686	4596
905.803	4588
905.921	4478
906.038	4634
906.155	4504
906.272	4417
906.389	4478
906.506	4375
906.623	4421
906.74	4394
906.857	4306
906.974	4409
907.091	4577
907.208	4698
907.324	4588
907.441	4535
907.557	4390
907.674	4367
907.79	4348
907.907	4402
908.023	4497
908.139	4538
908.256	4451
908.372	4466
908.488	4478
908.604	4360
908.72	4398
908.836	4421
908.952	4371
909.068	4443
909.184	4588
909.3	4470
909.415	4626
909.531	4622
909.647	4352
909.762	4421
909.878	4344
909.993	4436
910.108	4421
910.224	4451
910.339	4459
910.454	4462
910.57	4386
910.685	4344
910.8	4626
910.915	4649
911.03	4489
911.145	4352
911.259	4341
911.374	4413
911.489	4299
911.604	4322
911.718	4207
911.833	4196
911.947	4135
912.062	4036
912.176	4181
912.291	4265
912.405	4265
912.519	4493
912.633	4569
912.748	4398
912.862	4386
912.976	4230
913.09	4112
913.204	4177
913.318	4284
913.431	4402
913.545	4405
913.659	4432
913.772	4314
913.886	4219
914	4249
914.113	4394
914.226	4451
914.34	4379
914.453	4272
914.566	4421
914.68	4348
914.793	4325
914.906	4139
915.019	4124
915.132	4097
915.245	4154
915.358	4238
915.47	4238
915.583	4276
915.696	4280
915.809	4413
915.921	4478
916.034	4280
916.146	4261
916.259	4242
916.371	4386
916.483	4398
916.595	4276
916.708	4322
916.82	4318
916.932	4314
917.044	4318
917.156	4352
917.268	4215
917.38	4299
917.491	4280
917.603	4386
917.715	4459
917.826	4436
917.938	4394
918.049	4211
918.161	4436
918.272	4538
918.384	4523
918.495	4459
918.606	4341
918.717	4287
918.828	4322
918.939	4337
919.05	4265
919.161	4344
919.272	4154
919.383	4234
919.494	4481
919.604	4637
919.715	4356
919.826	4363
919.936	4375
920.047	4504
920.157	4485
920.267	4710
920.378	4554
920.488	4538
920.598	4748
920.708	4892
920.818	4797
920.928	4763
921.038	4976
921.148	4946
921.258	4615
921.368	4561
921.477	4546
921.587	4500
921.697	4409
921.806	4542
921.916	4428
922.025	4322
922.134	4276
922.244	4227
922.353	4352
922.462	4124
922.571	4188
922.68	3994
922.789	4017
922.898	4090
923.007	4029
923.116	4128
923.224	4067
923.333	4143
923.442	3994
923.55	4051
923.659	4082
923.767	4101
923.876	4025
923.984	4124
924.092	4002
924.201	4040
924.309	4124
924.417	4116
924.525	4093
924.633	4128
924.741	5003
924.849	3975
924.956	4150
925.064	3975
925.172	3899
925.279	3930
925.387	4067
925.494	4013
925.602	4207
925.709	4242
925.816	4082
925.924	4166
926.031	4249
926.138	4147
926.245	4227
926.352	4093
926.459	4234
926.566	4284
926.673	4154
926.779	4097
926.886	4090
926.993	4021
927.099	3983
927.206	3979
927.312	3975
927.419	4086
927.525	4101
927.631	4067
927.737	3926
927.843	3960
927.95	3865
928.056	3998
928.162	4013
928.267	4093
928.373	4691
928.479	4139
928.585	3865
928.69	4010
928.796	4109
928.901	3983
929.007	3850
929.112	4032
929.218	3983
929.323	3975
929.428	3915
929.533	4082
929.638	3888
929.743	3945
929.848	4040
929.953	3991
930.058	3937
930.163	3759
930.267	3816
930.372	4006
930.477	3766
930.581	4128
930.685	3956
930.79	3884
930.894	3907
930.998	3892
931.103	4036
931.207	3663
931.311	3705
931.415	3728
931.519	3545
931.623	3553
