Data from test_V78500241_1891.txt Node
Date: Fri Mar 25 17:02:08 CST 2022
User: usil
Spectrometer: V785-0024
Trigger mode: 0
Integration Time (sec): 4.000000E-1
Scans to average: 1
Nonlinearity correction enabled: false
Boxcar width: 0
Storing dark spectrum: false
XAxis mode: Wavelengths
Number of Pixels in Spectrum: 1024
>>>>>Begin Spectral Data<<<<<
801.071	8043
801.214	7989
801.356	7909
801.499	7879
801.641	7822
801.783	7841
801.926	8065
802.068	7967
802.211	8043
802.353	8039
802.496	7894
802.638	7890
802.78	7902
802.923	7947
803.065	7871
803.208	7814
803.35	8073
803.492	8092
803.635	8168
803.777	8062
803.919	8119
804.061	8522
804.204	8214
804.346	8054
804.488	7940
804.63	8123
804.773	8008
804.915	8130
805.057	8355
805.199	8206
805.341	8214
805.483	8343
805.626	8240
805.768	8168
805.91	8263
806.052	8259
806.194	8187
806.336	8355
806.478	8024
806.62	8119
806.762	8195
806.904	8336
807.046	8568
807.188	8427
807.33	8347
807.472	8343
807.614	8244
807.756	8183
807.898	8046
808.04	7925
808.182	7970
808.324	7917
808.465	7928
808.607	8107
808.749	8126
808.891	8252
809.033	8358
809.174	8256
809.316	8138
809.458	8142
809.6	8035
809.741	8096
809.883	8100
810.025	8153
810.166	8100
810.308	8027
810.45	7989
810.591	7837
810.733	7807
810.875	7696
811.016	7567
811.158	7518
811.299	7636
811.441	7738
811.582	7689
811.724	7575
811.865	7582
812.007	7620
812.148	7632
812.29	7670
812.431	7742
812.573	7890
812.714	8115
812.855	8161
812.997	8237
813.138	8328
813.279	8214
813.421	8103
813.562	7986
813.703	7856
813.845	7776
813.986	7434
814.127	7225
814.268	7187
814.41	7274
814.551	7289
814.692	7240
814.833	7179
814.974	7061
815.115	7168
815.256	6932
815.397	6897
815.539	7000
815.68	6783
815.821	6779
815.962	6897
816.103	6818
816.244	6696
816.385	6635
816.526	6642
816.666	6525
816.807	6376
816.948	6486
817.089	6506
817.23	6532
817.371	6426
817.512	6369
817.653	6395
817.793	6426
817.934	6418
818.075	6509
818.216	6460
818.356	6452
818.497	6334
818.638	6167
818.778	6178
818.919	6117
819.06	6178
819.2	6327
819.341	6334
819.481	6414
819.622	6547
819.762	6738
819.903	6734
820.043	6642
820.184	6604
820.324	6593
820.465	6715
820.605	6741
820.746	6677
820.886	6513
821.026	6715
821.167	6726
821.307	6840
821.447	6852
821.588	6703
821.728	6582
821.868	6494
822.008	6376
822.149	6388
822.289	6357
822.429	6209
822.569	6129
822.709	6091
822.849	5931
822.99	5920
823.13	5946
823.27	5931
823.41	5805
823.55	5866
823.69	5794
823.83	5771
823.97	5672
824.11	5600
824.25	5547
824.389	5619
824.529	5566
824.669	5528
824.809	5600
824.949	5688
825.089	5604
825.228	5581
825.368	5410
825.508	5368
825.648	5383
825.787	5417
825.927	5414
826.067	5417
826.206	5296
826.346	5398
826.485	5429
826.625	5391
826.765	5577
826.904	5516
827.044	5181
827.183	5216
827.323	5109
827.462	5292
827.601	5201
827.741	5197
827.88	5242
828.02	5113
828.159	5250
828.298	5299
828.437	5368
828.577	5311
828.716	5505
828.855	5398
828.994	5197
829.134	5140
829.273	5273
829.412	5166
829.551	5143
829.69	5216
829.829	5250
829.968	5395
830.107	5235
830.246	5292
830.385	5201
830.524	5178
830.663	5090
830.802	5025
830.941	4919
831.08	4892
831.219	5003
831.357	4965
831.496	5227
831.635	4938
831.774	4881
831.913	4809
832.051	4771
832.19	4828
832.329	4889
832.467	4710
832.606	4656
832.744	4748
832.883	4733
833.022	4736
833.16	4866
833.299	4870
833.437	4805
833.576	4847
833.714	4953
833.852	4900
833.991	4904
834.129	5014
834.267	4987
834.406	4908
834.544	4991
834.682	5083
834.821	4980
834.959	5208
835.097	4980
835.235	5143
835.373	5083
835.511	5136
835.65	4987
835.788	5037
835.926	4927
836.064	4896
836.202	4927
836.34	5220
836.478	5254
836.615	5155
836.753	5197
836.891	5353
837.029	5250
837.167	5174
837.305	5143
837.443	5143
837.58	5121
837.718	5307
837.856	5239
837.993	5124
838.131	5288
838.269	5235
838.406	5193
838.544	5185
838.681	5033
838.819	5060
838.956	4927
839.094	4919
839.231	4999
839.369	5117
839.506	5459
839.643	5242
839.781	5102
839.918	5025
840.055	5113
840.193	5086
840.33	5140
840.467	5117
840.604	5269
840.742	5410
840.879	5090
841.016	5132
841.153	5216
841.29	5395
841.427	5315
841.564	5357
841.701	5372
841.838	5269
841.975	5246
842.112	5299
842.249	5151
842.385	5159
842.522	5330
842.659	5147
842.796	5155
842.933	5181
843.069	5189
843.206	5189
843.343	5337
843.479	5269
843.616	5246
843.752	5025
843.889	4995
844.025	5254
844.162	5033
844.298	5227
844.435	5136
844.571	5090
844.708	5220
844.844	5330
844.98	5334
845.117	5315
845.253	5147
845.389	5064
845.525	5178
845.661	5124
845.798	5064
845.934	5223
846.07	5041
846.206	5201
846.342	5258
846.478	5189
846.614	5083
846.75	4949
846.886	4953
847.022	5140
847.158	4987
847.294	5064
847.429	5102
847.565	5083
847.701	5318
847.837	4870
847.972	4824
848.108	5010
848.244	4957
848.379	4782
848.515	4736
848.65	4771
848.786	4763
848.921	4828
849.057	4904
849.192	4896
849.328	4797
849.463	4809
849.598	4790
849.734	4755
849.869	4729
850.004	4622
850.14	4683
850.275	4656
850.41	4542
850.545	4554
850.68	4656
850.815	4656
850.95	4641
851.085	4847
851.22	4774
851.355	4698
851.49	4641
851.625	4630
851.76	4618
851.895	4558
852.03	4561
852.165	4615
852.299	4771
852.434	4862
852.569	4714
852.703	4809
852.838	4870
852.973	4942
853.107	4930
853.242	4755
853.376	4744
853.511	4569
853.645	4660
853.78	4801
853.914	4725
854.048	4710
854.183	4630
854.317	4736
854.451	4828
854.585	4702
854.72	4618
854.854	4782
854.988	4641
855.122	4656
855.256	4565
855.39	4672
855.524	4771
855.658	4729
855.792	4744
855.926	4744
856.06	4774
856.194	4793
856.327	4714
856.461	4626
856.595	4603
856.729	4622
856.862	4782
856.996	4714
857.13	4729
857.263	4759
857.397	4767
857.53	4664
857.664	4752
857.797	4805
857.931	4778
858.064	4744
858.197	4759
858.331	4641
858.464	4683
858.597	4561
858.731	4626
858.864	4683
858.997	4580
859.13	4656
859.263	4687
859.396	4729
859.529	4615
859.662	4611
859.795	4569
859.928	4630
860.061	4755
860.194	4778
860.327	4573
860.46	4607
860.592	4706
860.725	4752
860.858	4691
860.99	4565
861.123	4516
861.256	4554
861.388	4611
861.521	5391
861.653	4470
861.786	4432
861.918	4447
862.05	4573
862.183	4577
862.315	4615
862.447	4683
862.58	4554
862.712	4409
862.844	4360
862.976	4489
863.108	4424
863.24	4885
863.372	4379
863.504	4436
863.636	4466
863.768	4459
863.9	4459
864.032	4375
864.164	4432
864.296	4485
864.428	4531
864.559	4538
864.691	4558
864.823	4519
864.954	4466
865.086	4489
865.217	4436
865.349	4405
865.48	4428
865.612	4474
865.743	4626
865.875	4474
866.006	4367
866.137	4443
866.269	4447
866.4	4462
866.531	4447
866.662	4390
866.793	4405
866.924	4394
867.055	4500
867.186	4497
867.317	4421
867.448	4375
867.579	4405
867.71	4421
867.841	4383
867.972	4440
868.103	4440
868.233	4451
868.364	4466
868.495	4440
868.625	4618
868.756	4733
868.886	4580
869.017	4626
869.147	4744
869.278	4816
869.408	4675
869.539	4645
869.669	4691
869.799	4668
869.929	4740
870.06	4744
870.19	4968
870.32	4892
870.45	4957
870.58	4972
870.71	5102
870.84	5064
870.97	4938
871.1	4930
871.23	5166
871.36	5128
871.489	5003
871.619	5128
871.749	5136
871.879	5151
872.008	5166
872.138	5075
872.267	4953
872.397	4870
872.526	4790
872.656	4706
872.785	4824
872.915	4949
873.044	5086
873.173	4961
873.303	4980
873.432	4965
873.561	4919
873.69	4885
873.819	4850
873.948	4930
874.077	4835
874.206	4759
874.335	4801
874.464	4923
874.593	5052
874.722	4946
874.851	5102
874.979	5041
875.108	5075
875.237	4927
875.365	4896
875.494	4885
875.623	4965
875.751	4801
875.88	4862
876.008	4972
876.136	5014
876.265	5277
876.393	5383
876.521	5280
876.65	5197
876.778	5155
876.906	5083
877.034	4999
877.162	5025
877.29	4965
877.418	5083
877.546	5018
877.674	5052
877.802	5029
877.93	4991
878.058	4946
878.185	4847
878.313	4987
878.441	4991
878.568	4793
878.696	4896
878.824	4953
878.951	4984
879.079	5220
879.206	5216
879.333	5086
879.461	4984
879.588	4976
879.715	5128
879.842	5242
879.97	5037
880.097	4771
880.224	4740
880.351	4801
880.478	4816
880.605	4824
880.732	4782
880.859	5094
880.986	4900
881.112	4915
881.239	4809
881.366	4660
881.493	4588
881.619	4580
881.746	4656
881.872	4675
881.999	4641
882.125	4694
882.252	4816
882.378	4805
882.505	4999
882.631	4755
882.757	4672
882.883	4706
883.01	4740
883.136	4622
883.262	4607
883.388	4588
883.514	4797
883.64	4877
883.766	4782
883.892	4679
884.018	4679
884.143	4885
884.269	5037
884.395	4637
884.52	4607
884.646	4660
884.772	4588
884.897	4546
885.023	4702
885.148	4755
885.274	4862
885.399	4805
885.524	4694
885.65	4763
885.775	4744
885.9	4706
886.025	4843
886.15	4748
886.275	4656
886.4	4653
886.525	4729
886.65	4698
886.775	4672
886.9	4923
887.025	5022
887.149	4797
887.274	4679
887.399	4550
887.523	4626
887.648	4626
887.773	4546
887.897	4767
888.021	4767
888.146	4706
888.27	4812
888.395	4892
888.519	4797
888.643	4744
888.767	4801
888.891	4683
889.015	4603
889.139	4637
889.263	4599
889.387	4748
889.511	4854
889.635	4759
889.759	4611
889.883	4653
890.006	4721
890.13	4816
890.254	4588
890.377	4656
890.501	4580
890.624	4542
890.748	4592
890.871	4478
890.995	4440
891.118	4379
891.241	4508
891.364	4577
891.488	4656
891.611	4504
891.734	4523
891.857	4588
891.98	4519
892.103	4668
892.226	4565
892.349	4558
892.471	4451
892.594	4550
892.717	4607
892.839	4577
892.962	4596
893.085	4641
893.207	4596
893.33	4481
893.452	4519
893.575	4630
893.697	4573
893.819	4801
893.941	4805
894.064	4740
894.186	4584
894.308	4565
894.43	4744
894.552	4824
894.674	4774
894.796	4554
894.918	4599
895.04	4558
895.161	4755
895.283	4611
895.405	4558
895.526	4702
895.648	4683
895.769	4634
895.891	4721
896.012	4755
896.134	4702
896.255	4668
896.376	4603
896.498	4618
896.619	4660
896.74	4634
896.861	4637
896.982	4908
897.103	5105
897.224	4809
897.345	4729
897.466	4637
897.587	4740
897.708	4831
897.828	4782
897.949	4645
898.07	4603
898.19	4599
898.311	4839
898.431	4634
898.552	4702
898.672	4850
898.792	4839
898.913	4717
899.033	4622
899.153	4470
899.273	4443
899.393	4489
899.513	4481
899.633	4512
899.753	4538
899.873	4489
899.993	4607
900.113	4592
900.232	4607
900.352	4558
900.472	4519
900.591	4440
900.711	4485
900.83	4440
900.95	4603
901.069	4706
901.189	4546
901.308	4383
901.427	4329
901.546	4371
901.665	4474
901.784	4466
901.904	4386
902.023	4306
902.141	4185
902.26	4166
902.379	4325
902.498	4227
902.617	4249
902.735	4428
902.854	4398
902.973	4337
903.091	4192
903.21	4261
903.328	4287
903.446	4249
903.565	4280
903.683	4356
903.801	4280
903.919	4428
904.038	4386
904.156	4261
904.274	4390
904.392	4402
904.51	4447
904.627	4432
904.745	4569
904.863	4622
904.981	4386
905.098	4325
905.216	4371
905.334	4417
905.451	4447
905.569	4436
905.686	4580
905.803	4565
905.921	4398
906.038	4516
906.155	4497
906.272	4386
906.389	4462
906.506	4371
906.623	4341
906.74	4379
906.857	4310
906.974	4333
907.091	4584
907.208	4702
907.324	4592
907.441	4504
907.557	4337
907.674	4337
907.79	4337
907.907	4394
908.023	4481
908.139	4478
908.256	4440
908.372	4462
908.488	4489
908.604	4352
908.72	4299
908.836	4398
908.952	4383
909.068	4470
909.184	4565
909.3	4481
909.415	4577
909.531	4596
909.647	4394
909.762	4333
909.878	4333
909.993	4371
910.108	4443
910.224	4417
910.339	4508
910.454	4440
910.57	4303
910.685	4272
910.8	4664
910.915	4641
911.03	4443
911.145	4341
911.259	4341
911.374	4356
911.489	4291
911.604	4272
911.718	4204
911.833	4207
911.947	4078
912.062	4021
912.176	4162
912.291	4211
912.405	4230
912.519	4443
912.633	4493
912.748	4363
912.862	4284
912.976	4200
913.09	4090
913.204	4223
913.318	4272
913.431	4367
913.545	4360
913.659	4409
913.772	4337
913.886	4234
914	4230
914.113	4375
914.226	4405
914.34	4428
914.453	4230
914.566	4428
914.68	4291
914.793	4306
914.906	4169
915.019	4128
915.132	4105
915.245	4204
915.358	4207
915.47	4173
915.583	4284
915.696	4238
915.809	4394
915.921	4462
916.034	4249
916.146	4227
916.259	4196
916.371	4337
916.483	4356
916.595	4284
916.708	4310
916.82	4295
916.932	4306
917.044	4337
917.156	4348
917.268	4219
917.38	4265
917.491	4261
917.603	4360
917.715	4409
917.826	4443
917.938	4356
918.049	4227
918.161	4367
918.272	4508
918.384	4523
918.495	4428
918.606	4265
918.717	4204
918.828	4325
918.939	4322
919.05	4303
919.161	4314
919.272	4162
919.383	4261
919.494	4459
919.604	4626
919.715	4478
919.826	4344
919.936	4443
920.047	4523
920.157	4485
920.267	4668
920.378	4546
920.488	4485
920.598	4706
920.708	4873
920.818	4729
920.928	4733
921.038	4953
921.148	4889
921.258	4596
921.368	4538
921.477	4428
921.587	4531
921.697	4405
921.806	4573
921.916	4428
922.025	4261
922.134	4253
922.244	4181
922.353	4337
922.462	4169
922.571	4128
922.68	4010
922.789	3949
922.898	4055
923.007	4021
923.116	4093
923.224	4025
923.333	4093
923.442	3975
923.55	3983
923.659	4010
923.767	4090
923.876	3987
923.984	4105
924.092	4025
924.201	4097
924.309	4063
924.417	4139
924.525	4048
924.633	4090
924.741	5052
924.849	3907
924.956	4128
925.064	3991
925.172	3915
925.279	3968
925.387	4063
925.494	3979
925.602	4234
925.709	4173
925.816	4040
925.924	4143
926.031	4234
926.138	4135
926.245	4196
926.352	4101
926.459	4230
926.566	4276
926.673	4173
926.779	4036
926.886	4101
926.993	3953
927.099	3937
927.206	3907
927.312	3945
927.419	3979
927.525	3983
927.631	4097
927.737	3956
927.843	3934
927.95	3850
928.056	3918
928.162	3960
928.267	4048
928.373	4573
928.479	4120
928.585	3888
928.69	4013
928.796	4071
928.901	3960
929.007	3819
929.112	4002
929.218	3968
929.323	3903
929.428	3953
929.533	4112
929.638	3880
929.743	3953
929.848	4006
929.953	3991
930.058	3899
930.163	3751
930.267	3785
930.372	4002
930.477	3819
930.581	4120
930.685	3930
930.79	3850
930.894	3861
930.998	3857
931.103	4017
931.207	3709
931.311	3686
931.415	3652
931.519	3511
931.623	3564
