Data from test_V78500241_716.txt Node
Date: Fri Mar 25 16:53:58 CST 2022
User: usil
Spectrometer: V785-0024
Trigger mode: 0
Integration Time (sec): 4.000000E-1
Scans to average: 1
Nonlinearity correction enabled: false
Boxcar width: 0
Storing dark spectrum: false
XAxis mode: Wavelengths
Number of Pixels in Spectrum: 1024
>>>>>Begin Spectral Data<<<<<
801.071	8008
801.214	7974
801.356	7887
801.499	7879
801.641	7841
801.783	7845
801.926	8043
802.068	7997
802.211	8016
802.353	7993
802.496	7909
802.638	7913
802.78	7875
802.923	7925
803.065	7830
803.208	7856
803.35	7978
803.492	8111
803.635	8115
803.777	7997
803.919	8119
804.061	8377
804.204	8111
804.346	7997
804.488	8012
804.63	8103
804.773	8027
804.915	8107
805.057	8290
805.199	8172
805.341	8183
805.483	8275
805.626	8225
805.768	8157
805.91	8279
806.052	8237
806.194	8103
806.336	8309
806.478	8107
806.62	8081
806.762	8130
806.904	8240
807.046	8484
807.188	8374
807.33	8328
807.472	8396
807.614	8119
807.756	8172
807.898	7982
808.04	7852
808.182	7890
808.324	7875
808.465	7944
808.607	8024
808.749	8050
808.891	8172
809.033	8225
809.174	8214
809.316	8031
809.458	8001
809.6	7963
809.741	8043
809.883	8058
810.025	8149
810.166	8100
810.308	8020
810.45	8050
810.591	7898
810.733	7700
810.875	7693
811.016	7491
811.158	7464
811.299	7586
811.441	7750
811.582	7681
811.724	7575
811.865	7533
812.007	7582
812.148	7544
812.29	7575
812.431	7704
812.573	7818
812.714	7997
812.855	8126
812.997	8214
813.138	8366
813.279	8195
813.421	8134
813.562	7997
813.703	7856
813.845	7856
813.986	7369
814.127	7278
814.268	7285
814.41	7217
814.551	7168
814.692	7099
814.833	7042
814.974	7118
815.115	7110
815.256	6989
815.397	6924
815.539	6966
815.68	6837
815.821	6806
815.962	6913
816.103	6818
816.244	6677
816.385	6639
816.526	6578
816.666	6517
816.807	6300
816.948	6338
817.089	6445
817.23	6365
817.371	6365
817.512	6338
817.653	6384
817.793	6410
817.934	6437
818.075	6486
818.216	6418
818.356	6350
818.497	6224
818.638	6114
818.778	6106
818.919	6152
819.06	6201
819.2	6315
819.341	6361
819.481	6331
819.622	6559
819.762	6711
819.903	6650
820.043	6578
820.184	6578
820.324	6559
820.465	6703
820.605	6642
820.746	6688
820.886	6506
821.026	6642
821.167	6681
821.307	6783
821.447	6814
821.588	6654
821.728	6578
821.868	6479
822.008	6315
822.149	6372
822.289	6334
822.429	6167
822.569	6060
822.709	6079
822.849	5950
822.99	5958
823.13	5958
823.27	5954
823.41	5813
823.55	5783
823.69	5764
823.83	5821
823.97	5627
824.11	5570
824.25	5505
824.389	5558
824.529	5570
824.669	5509
824.809	5653
824.949	5623
825.089	5661
825.228	5551
825.368	5318
825.508	5436
825.648	5383
825.787	5368
825.927	5425
826.067	5315
826.206	5307
826.346	5391
826.485	5391
826.625	5406
826.765	5619
826.904	5490
827.044	5284
827.183	5227
827.323	5136
827.462	5223
827.601	5204
827.741	5208
827.88	5181
828.02	5105
828.159	5254
828.298	5315
828.437	5402
828.577	5254
828.716	5490
828.855	5379
828.994	5193
829.134	5170
829.273	5189
829.412	5170
829.551	5121
829.69	5189
829.829	5197
829.968	5372
830.107	5223
830.246	5227
830.385	5174
830.524	5155
830.663	5033
830.802	5003
830.941	4923
831.08	4938
831.219	4976
831.357	4980
831.496	5166
831.635	4987
831.774	4831
831.913	4889
832.051	4725
832.19	4733
832.329	4892
832.467	4717
832.606	4637
832.744	4767
832.883	4729
833.022	4740
833.16	4816
833.299	4850
833.437	4790
833.576	4824
833.714	4843
833.852	4873
833.991	4911
834.129	5006
834.267	4919
834.406	4915
834.544	4980
834.682	4965
834.821	4942
834.959	5143
835.097	4961
835.235	5124
835.373	5083
835.511	5113
835.65	5056
835.788	5075
835.926	4961
836.064	4877
836.202	4934
836.34	5136
836.478	5254
836.615	5136
836.753	5197
836.891	5284
837.029	5223
837.167	5162
837.305	5159
837.443	5162
837.58	5086
837.718	5235
837.856	5220
837.993	5166
838.131	5208
838.269	5227
838.406	5201
838.544	5208
838.681	5060
838.819	4999
838.956	4900
839.094	4946
839.231	5010
839.369	5102
839.506	5444
839.643	5223
839.781	5064
839.918	5045
840.055	5113
840.193	5136
840.33	5086
840.467	5147
840.604	5208
840.742	5414
840.879	5094
841.016	5079
841.153	5075
841.29	5425
841.427	5402
841.564	5337
841.701	5337
841.838	5280
841.975	5231
842.112	5288
842.249	5136
842.385	5102
842.522	5353
842.659	5147
842.796	5178
842.933	5201
843.069	5174
843.206	5159
843.343	5292
843.479	5216
843.616	5246
843.752	5006
843.889	5029
844.025	5204
844.162	4972
844.298	5197
844.435	5102
844.571	5056
844.708	5201
844.844	5273
844.98	5395
845.117	5258
845.253	5117
845.389	5079
845.525	5124
845.661	5155
845.798	5064
845.934	5105
846.07	5064
846.206	5220
846.342	5296
846.478	5185
846.614	5041
846.75	4968
846.886	4980
847.022	5105
847.158	4984
847.294	5067
847.429	5079
847.565	5086
847.701	5239
847.837	4847
847.972	4805
848.108	4927
848.244	4942
848.379	4790
848.515	4725
848.65	4714
848.786	4714
848.921	4778
849.057	4881
849.192	4889
849.328	4843
849.463	4805
849.598	4763
849.734	4752
849.869	4679
850.004	4641
850.14	4649
850.275	4599
850.41	4584
850.545	4577
850.68	4607
850.815	4618
850.95	4687
851.085	4812
851.22	4702
851.355	4622
851.49	4577
851.625	4645
851.76	4656
851.895	4580
852.03	4546
852.165	4698
852.299	4721
852.434	4786
852.569	4763
852.703	4759
852.838	4824
852.973	4930
853.107	4896
853.242	4767
853.376	4694
853.511	4531
853.645	4607
853.78	4801
853.914	4683
854.048	4683
854.183	4656
854.317	4763
854.451	4839
854.585	4668
854.72	4615
854.854	4733
854.988	4592
855.122	4653
855.256	4508
855.39	4637
855.524	4786
855.658	4698
855.792	4714
855.926	4714
856.06	4755
856.194	4763
856.327	4672
856.461	4626
856.595	4645
856.729	4603
856.862	4729
856.996	4683
857.13	4710
857.263	4793
857.397	4793
857.53	4634
857.664	4672
857.797	4744
857.931	4755
858.064	4698
858.197	4752
858.331	4607
858.464	4622
858.597	4531
858.731	4630
858.864	4634
858.997	4565
859.13	4641
859.263	4656
859.396	4706
859.529	4569
859.662	4565
859.795	4516
859.928	4637
860.061	4744
860.194	4793
860.327	4607
860.46	4577
860.592	4698
860.725	4664
860.858	4752
860.99	4558
861.123	4451
861.256	4542
861.388	4573
861.521	5379
861.653	4462
861.786	4421
861.918	4485
862.05	4523
862.183	4565
862.315	4565
862.447	4664
862.58	4535
862.712	4390
862.844	4348
862.976	4478
863.108	4504
863.24	4828
863.372	4363
863.504	4481
863.636	4394
863.768	4504
863.9	4489
864.032	4367
864.164	4341
864.296	4470
864.428	4573
864.559	4573
864.691	4550
864.823	4527
864.954	4500
865.086	4478
865.217	4481
865.349	4447
865.48	4436
865.612	4440
865.743	4615
865.875	4474
866.006	4493
866.137	4459
866.269	4432
866.4	4428
866.531	4443
866.662	4356
866.793	4405
866.924	4421
867.055	4493
867.186	4485
867.317	4413
867.448	4367
867.579	4356
867.71	4424
867.841	4322
867.972	4466
868.103	4504
868.233	4428
868.364	4462
868.495	4466
868.625	4645
868.756	4759
868.886	4527
869.017	4641
869.147	4812
869.278	4774
869.408	4691
869.539	4637
869.669	4698
869.799	4618
869.929	4759
870.06	4763
870.19	4965
870.32	4930
870.45	4919
870.58	4995
870.71	5041
870.84	5102
870.97	4911
871.1	4930
871.23	5147
871.36	5117
871.489	5006
871.619	5052
871.749	5064
871.879	5105
872.008	5162
872.138	5075
872.267	4972
872.397	4831
872.526	4854
872.656	4714
872.785	4843
872.915	4980
873.044	5071
873.173	4991
873.303	4923
873.432	4919
873.561	4904
873.69	4881
873.819	4904
873.948	4965
874.077	4805
874.206	4771
874.335	4828
874.464	4896
874.593	5064
874.722	4938
874.851	5124
874.979	5060
875.108	5018
875.237	4858
875.365	4850
875.494	4934
875.623	5006
875.751	4786
875.88	4839
876.008	4961
876.136	5025
876.265	5220
876.393	5326
876.521	5261
876.65	5216
876.778	5147
876.906	5102
877.034	5037
877.162	5067
877.29	5025
877.418	5010
877.546	5037
877.674	5037
877.802	4995
877.93	4972
878.058	4919
878.185	4831
878.313	4991
878.441	4934
878.568	4801
878.696	4820
878.824	4987
878.951	5003
879.079	5136
879.206	5242
879.333	5079
879.461	4968
879.588	4953
879.715	5143
879.842	5220
879.97	4961
880.097	4736
880.224	4733
880.351	4839
880.478	4854
880.605	4831
880.732	4805
880.859	5033
880.986	4896
881.112	4881
881.239	4809
881.366	4702
881.493	4615
881.619	4531
881.746	4626
881.872	4573
881.999	4653
882.125	4653
882.252	4778
882.378	4835
882.505	4942
882.631	4831
882.757	4653
882.883	4736
883.01	4698
883.136	4668
883.262	4592
883.388	4603
883.514	4839
883.64	4877
883.766	4778
883.892	4603
884.018	4729
884.143	4870
884.269	4999
884.395	4630
884.52	4584
884.646	4618
884.772	4573
884.897	4573
885.023	4653
885.148	4835
885.274	4850
885.399	4843
885.524	4729
885.65	4702
885.775	4740
885.9	4660
886.025	4854
886.15	4850
886.275	4694
886.4	4634
886.525	4744
886.65	4664
886.775	4721
886.9	4843
887.025	4999
887.149	4824
887.274	4645
887.399	4584
887.523	4577
887.648	4580
887.773	4565
887.897	4763
888.021	4767
888.146	4683
888.27	4809
888.395	4900
888.519	4809
888.643	4809
888.767	4828
888.891	4645
889.015	4622
889.139	4630
889.263	4634
889.387	4763
889.511	4862
889.635	4847
889.759	4637
889.883	4588
890.006	4710
890.13	4831
890.254	4634
890.377	4706
890.501	4561
890.624	4546
890.748	4672
890.871	4489
890.995	4447
891.118	4363
891.241	4466
891.364	4569
891.488	4607
891.611	4519
891.734	4531
891.857	4580
891.98	4508
892.103	4634
892.226	4622
892.349	4489
892.471	4428
892.594	4531
892.717	4622
892.839	4580
892.962	4561
893.085	4649
893.207	4565
893.33	4470
893.452	4504
893.575	4649
893.697	4630
893.819	4752
893.941	4828
894.064	4748
894.186	4596
894.308	4584
894.43	4694
894.552	4797
894.674	4729
894.796	4516
894.918	4558
895.04	4561
895.161	4687
895.283	4664
895.405	4577
895.526	4603
895.648	4702
895.769	4656
895.891	4721
896.012	4755
896.134	4702
896.255	4656
896.376	4637
896.498	4618
896.619	4664
896.74	4596
896.861	4672
896.982	4885
897.103	5064
897.224	4797
897.345	4786
897.466	4649
897.587	4725
897.708	4900
897.828	4759
897.949	4660
898.07	4580
898.19	4664
898.311	4805
898.431	4645
898.552	4706
898.672	4816
898.792	4774
898.913	4740
899.033	4622
899.153	4561
899.273	4402
899.393	4500
899.513	4531
899.633	4538
899.753	4577
899.873	4523
899.993	4584
900.113	4573
900.232	4618
900.352	4516
900.472	4519
900.591	4424
900.711	4512
900.83	4428
900.95	4599
901.069	4698
901.189	4542
901.308	4379
901.427	4306
901.546	4386
901.665	4504
901.784	4474
901.904	4424
902.023	4303
902.141	4219
902.26	4162
902.379	4299
902.498	4246
902.617	4227
902.735	4363
902.854	4363
902.973	4360
903.091	4173
903.21	4211
903.328	4318
903.446	4238
903.565	4257
903.683	4424
903.801	4276
903.919	4417
904.038	4428
904.156	4325
904.274	4402
904.392	4432
904.51	4417
904.627	4459
904.745	4588
904.863	4626
904.981	4432
905.098	4253
905.216	4348
905.334	4489
905.451	4462
905.569	4455
905.686	4577
905.803	4538
905.921	4432
906.038	4542
906.155	4493
906.272	4443
906.389	4413
906.506	4333
906.623	4390
906.74	4360
906.857	4310
906.974	4344
907.091	4607
907.208	4683
907.324	4577
907.441	4447
907.557	4356
907.674	4337
907.79	4322
907.907	4394
908.023	4519
908.139	4443
908.256	4474
908.372	4436
908.488	4462
908.604	4318
908.72	4337
908.836	4398
908.952	4375
909.068	4443
909.184	4573
909.3	4489
909.415	4607
909.531	4580
909.647	4322
909.762	4333
909.878	4325
909.993	4379
910.108	4405
910.224	4455
910.339	4455
910.454	4402
910.57	4360
910.685	4257
910.8	4660
910.915	4615
911.03	4527
911.145	4325
911.259	4322
911.374	4322
911.489	4242
911.604	4261
911.718	4219
911.833	4253
911.947	4124
912.062	4025
912.176	4166
912.291	4257
912.405	4295
912.519	4500
912.633	4481
912.748	4375
912.862	4284
912.976	4249
913.09	4063
913.204	4211
913.318	4227
913.431	4371
913.545	4337
913.659	4413
913.772	4375
913.886	4276
914	4230
914.113	4337
914.226	4409
914.34	4402
914.453	4207
914.566	4451
914.68	4295
914.793	4356
914.906	4147
915.019	4101
915.132	4097
915.245	4173
915.358	4211
915.47	4238
915.583	4249
915.696	4291
915.809	4348
915.921	4432
916.034	4246
916.146	4249
916.259	4185
916.371	4398
916.483	4333
916.595	4230
916.708	4257
916.82	4344
916.932	4295
917.044	4314
917.156	4337
917.268	4249
917.38	4299
917.491	4238
917.603	4318
917.715	4386
917.826	4386
917.938	4356
918.049	4230
918.161	4402
918.272	4504
918.384	4569
918.495	4504
918.606	4261
918.717	4246
918.828	4314
918.939	4379
919.05	4246
919.161	4310
919.272	4173
919.383	4268
919.494	4402
919.604	4611
919.715	4451
919.826	4375
919.936	4375
920.047	4577
920.157	4489
920.267	4664
920.378	4519
920.488	4504
920.598	4687
920.708	4938
920.818	4740
920.928	4774
921.038	4946
921.148	4911
921.258	4611
921.368	4546
921.477	4466
921.587	4489
921.697	4390
921.806	4538
921.916	4413
922.025	4287
922.134	4257
922.244	4230
922.353	4322
922.462	4158
922.571	4135
922.68	4040
922.789	3937
922.898	4025
923.007	4044
923.116	4105
923.224	4090
923.333	4082
923.442	3960
923.55	3960
923.659	4013
923.767	4105
923.876	4017
923.984	4055
924.092	3975
924.201	4074
924.309	4116
924.417	4112
924.525	4044
924.633	4109
924.741	5071
924.849	3922
924.956	4154
925.064	3968
925.172	3865
925.279	3968
925.387	4074
925.494	4036
925.602	4207
925.709	4154
925.816	4036
925.924	4120
926.031	4185
926.138	4249
926.245	4166
926.352	4071
926.459	4253
926.566	4295
926.673	4166
926.779	4074
926.886	4063
926.993	3994
927.099	3949
927.206	3937
927.312	3918
927.419	4048
927.525	4063
927.631	4086
927.737	3987
927.843	3915
927.95	3857
928.056	3956
928.162	3968
928.267	4048
928.373	4622
928.479	4120
928.585	3854
928.69	4017
928.796	4040
928.901	3960
929.007	3827
929.112	4021
929.218	3964
929.323	3922
929.428	3934
929.533	4116
929.638	3907
929.743	3941
929.848	4051
929.953	3964
930.058	3934
930.163	3770
930.267	3819
930.372	3956
930.477	3854
930.581	4078
930.685	3926
930.79	3827
930.894	3888
930.998	3831
931.103	4036
931.207	3728
931.311	3728
931.415	3701
931.519	3553
931.623	3572
