Data from test_V78500241_353.txt Node
Date: Fri Mar 25 16:51:27 CST 2022
User: usil
Spectrometer: V785-0024
Trigger mode: 0
Integration Time (sec): 4.000000E-1
Scans to average: 1
Nonlinearity correction enabled: false
Boxcar width: 0
Storing dark spectrum: false
XAxis mode: Wavelengths
Number of Pixels in Spectrum: 1024
>>>>>Begin Spectral Data<<<<<
801.071	8043
801.214	8065
801.356	7887
801.499	7925
801.641	7792
801.783	7822
801.926	8035
802.068	7974
802.211	8031
802.353	8069
802.496	7902
802.638	7902
802.78	7913
802.923	7928
803.065	7890
803.208	7898
803.35	7947
803.492	8077
803.635	8046
803.777	8005
803.919	8115
804.061	8507
804.204	8199
804.346	8046
804.488	7944
804.63	8096
804.773	8069
804.915	8069
805.057	8275
805.199	8119
805.341	8183
805.483	8294
805.626	8202
805.768	8092
805.91	8111
806.052	8153
806.194	8187
806.336	8362
806.478	8161
806.62	8157
806.762	8180
806.904	8233
807.046	8541
807.188	8339
807.33	8233
807.472	8309
807.614	8195
807.756	8134
807.898	7986
808.04	7963
808.182	7909
808.324	7944
808.465	7993
808.607	8092
808.749	8073
808.891	8218
809.033	8259
809.174	8195
809.316	8073
809.458	8058
809.6	7963
809.741	7970
809.883	8065
810.025	8107
810.166	8050
810.308	8069
810.45	8081
810.591	7936
810.733	7769
810.875	7693
811.016	7491
811.158	7510
811.299	7624
811.441	7841
811.582	7746
811.724	7613
811.865	7601
812.007	7670
812.148	7620
812.29	7681
812.431	7822
812.573	7856
812.714	7993
812.855	8157
812.997	8172
813.138	8320
813.279	8161
813.421	8111
813.562	8058
813.703	7890
813.845	7803
813.986	7552
814.127	7346
814.268	7232
814.41	7266
814.551	7194
814.692	7190
814.833	7126
814.974	7160
815.115	7069
815.256	6951
815.397	6924
815.539	6939
815.68	6795
815.821	6837
815.962	6897
816.103	6829
816.244	6795
816.385	6635
816.526	6662
816.666	6566
816.807	6350
816.948	6365
817.089	6467
817.23	6467
817.371	6384
817.512	6376
817.653	6376
817.793	6403
817.934	6452
818.075	6490
818.216	6410
818.356	6490
818.497	6186
818.638	6186
818.778	6163
818.919	6159
819.06	6175
819.2	6327
819.341	6327
819.481	6422
819.622	6486
819.762	6749
819.903	6715
820.043	6642
820.184	6589
820.324	6540
820.465	6650
820.605	6654
820.746	6650
820.886	6448
821.026	6677
821.167	6711
821.307	6791
821.447	6734
821.588	6711
821.728	6623
821.868	6498
822.008	6346
822.149	6380
822.289	6410
822.429	6152
822.569	6064
822.709	6178
822.849	5954
822.99	5969
823.13	5950
823.27	5942
823.41	5794
823.55	5786
823.69	5783
823.83	5813
823.97	5672
824.11	5577
824.25	5570
824.389	5539
824.529	5558
824.669	5558
824.809	5695
824.949	5691
825.089	5623
825.228	5547
825.368	5421
825.508	5372
825.648	5360
825.787	5395
825.927	5376
826.067	5337
826.206	5284
826.346	5372
826.485	5455
826.625	5436
826.765	5558
826.904	5471
827.044	5269
827.183	5189
827.323	5136
827.462	5261
827.601	5174
827.741	5220
827.88	5204
828.02	5128
828.159	5235
828.298	5231
828.437	5383
828.577	5284
828.716	5425
828.855	5353
828.994	5189
829.134	5143
829.273	5216
829.412	5136
829.551	5132
829.69	5193
829.829	5292
829.968	5315
830.107	5292
830.246	5250
830.385	5185
830.524	5124
830.663	5056
830.802	4965
830.941	4919
831.08	4862
831.219	4965
831.357	4980
831.496	5170
831.635	4957
831.774	4892
831.913	4885
832.051	4748
832.19	4752
832.329	4850
832.467	4687
832.606	4687
832.744	4729
832.883	4767
833.022	4744
833.16	4877
833.299	4866
833.437	4866
833.576	4858
833.714	4828
833.852	4873
833.991	4904
834.129	4968
834.267	4938
834.406	4942
834.544	5018
834.682	5025
834.821	4942
834.959	5147
835.097	4980
835.235	5113
835.373	5109
835.511	5147
835.65	5064
835.788	5052
835.926	4942
836.064	4889
836.202	4923
836.34	5159
836.478	5212
836.615	5189
836.753	5227
836.891	5303
837.029	5254
837.167	5189
837.305	5128
837.443	5117
837.58	5109
837.718	5223
837.856	5254
837.993	5212
838.131	5277
838.269	5273
838.406	5181
838.544	5212
838.681	5060
838.819	5033
838.956	4892
839.094	4862
839.231	4984
839.369	5113
839.506	5433
839.643	5311
839.781	5064
839.918	5003
840.055	5064
840.193	5147
840.33	5117
840.467	5136
840.604	5189
840.742	5459
840.879	5052
841.016	5090
841.153	5166
841.29	5368
841.427	5345
841.564	5269
841.701	5326
841.838	5242
841.975	5246
842.112	5258
842.249	5155
842.385	5151
842.522	5341
842.659	5170
842.796	5143
842.933	5239
843.069	5197
843.206	5109
843.343	5326
843.479	5261
843.616	5292
843.752	5083
843.889	5025
844.025	5181
844.162	5083
844.298	5273
844.435	5071
844.571	5029
844.708	5197
844.844	5296
844.98	5303
845.117	5326
845.253	5140
845.389	5056
845.525	5136
845.661	5174
845.798	5045
845.934	5155
846.07	5048
846.206	5250
846.342	5288
846.478	5197
846.614	4999
846.75	4908
846.886	4911
847.022	5124
847.158	5003
847.294	5094
847.429	5132
847.565	5045
847.701	5326
847.837	4866
847.972	4820
848.108	4980
848.244	4965
848.379	4790
848.515	4725
848.65	4675
848.786	4771
848.921	4774
849.057	4908
849.192	4896
849.328	4839
849.463	4862
849.598	4820
849.734	4755
849.869	4706
850.004	4618
850.14	4641
850.275	4599
850.41	4519
850.545	4637
850.68	4626
850.815	4626
850.95	4656
851.085	4854
851.22	4774
851.355	4702
851.49	4622
851.625	4641
851.76	4683
851.895	4577
852.03	4531
852.165	4653
852.299	4714
852.434	4812
852.569	4714
852.703	4790
852.838	4816
852.973	4915
853.107	4843
853.242	4729
853.376	4702
853.511	4592
853.645	4637
853.78	4793
853.914	4675
854.048	4694
854.183	4660
854.317	4687
854.451	4850
854.585	4645
854.72	4672
854.854	4790
854.988	4558
855.122	4687
855.256	4523
855.39	4622
855.524	4767
855.658	4687
855.792	4717
855.926	4733
856.06	4759
856.194	4816
856.327	4702
856.461	4630
856.595	4618
856.729	4637
856.862	4763
856.996	4683
857.13	4744
857.263	4759
857.397	4820
857.53	4653
857.664	4717
857.797	4748
857.931	4786
858.064	4691
858.197	4733
858.331	4660
858.464	4630
858.597	4603
858.731	4634
858.864	4622
858.997	4531
859.13	4637
859.263	4679
859.396	4702
859.529	4565
859.662	4603
859.795	4558
859.928	4660
860.061	4767
860.194	4763
860.327	4641
860.46	4523
860.592	4649
860.725	4702
860.858	4698
860.99	4592
861.123	4535
861.256	4504
861.388	4607
861.521	5326
861.653	4485
861.786	4466
861.918	4455
862.05	4519
862.183	4527
862.315	4603
862.447	4649
862.58	4538
862.712	4443
862.844	4352
862.976	4466
863.108	4417
863.24	4793
863.372	4337
863.504	4386
863.636	4394
863.768	4474
863.9	4432
864.032	4367
864.164	4394
864.296	4500
864.428	4500
864.559	4550
864.691	4516
864.823	4550
864.954	4497
865.086	4519
865.217	4470
865.349	4447
865.48	4470
865.612	4478
865.743	4656
865.875	4489
866.006	4474
866.137	4474
866.269	4455
866.4	4421
866.531	4451
866.662	4398
866.793	4394
866.924	4436
867.055	4462
867.186	4485
867.317	4447
867.448	4413
867.579	4367
867.71	4379
867.841	4348
867.972	4485
868.103	4474
868.233	4413
868.364	4478
868.495	4565
868.625	4698
868.756	4752
868.886	4599
869.017	4599
869.147	4774
869.278	4733
869.408	4660
869.539	4634
869.669	4679
869.799	4637
869.929	4740
870.06	4721
870.19	4957
870.32	4911
870.45	4968
870.58	4972
870.71	5105
870.84	5071
870.97	4949
871.1	4900
871.23	5170
871.36	5124
871.489	5060
871.619	5086
871.749	5155
871.879	5098
872.008	5227
872.138	5041
872.267	5018
872.397	4900
872.526	4824
872.656	4736
872.785	4786
872.915	4942
873.044	5014
873.173	4946
873.303	4949
873.432	4946
873.561	4976
873.69	4923
873.819	4877
873.948	4934
874.077	4847
874.206	4793
874.335	4812
874.464	4976
874.593	5105
874.722	4949
874.851	5109
874.979	5083
875.108	5003
875.237	4965
875.365	4870
875.494	4900
875.623	4991
875.751	4816
875.88	4900
876.008	4961
876.136	5033
876.265	5223
876.393	5288
876.521	5265
876.65	5258
876.778	5151
876.906	5083
877.034	5033
877.162	5045
877.29	5018
877.418	5064
877.546	5056
877.674	5048
877.802	5067
877.93	4984
878.058	4930
878.185	4870
878.313	5010
878.441	4900
878.568	4793
878.696	4847
878.824	4957
878.951	5014
879.079	5124
879.206	5296
879.333	5143
879.461	4987
879.588	4961
879.715	5140
879.842	5242
879.97	5029
880.097	4835
880.224	4763
880.351	4809
880.478	4801
880.605	4854
880.732	4805
880.859	5109
880.986	4942
881.112	4904
881.239	4801
881.366	4637
881.493	4622
881.619	4565
881.746	4611
881.872	4675
881.999	4679
882.125	4672
882.252	4824
882.378	4843
882.505	4991
882.631	4862
882.757	4687
882.883	4702
883.01	4729
883.136	4653
883.262	4599
883.388	4615
883.514	4809
883.64	4870
883.766	4816
883.892	4656
884.018	4736
884.143	4881
884.269	5025
884.395	4706
884.52	4664
884.646	4664
884.772	4611
884.897	4538
885.023	4729
885.148	4824
885.274	4873
885.399	4816
885.524	4755
885.65	4675
885.775	4736
885.9	4752
886.025	4885
886.15	4812
886.275	4717
886.4	4679
886.525	4721
886.65	4698
886.775	4714
886.9	4892
887.025	5029
887.149	4820
887.274	4683
887.399	4611
887.523	4603
887.648	4596
887.773	4596
887.897	4828
888.021	4763
888.146	4687
888.27	4809
888.395	4938
888.519	4790
888.643	4824
888.767	4839
888.891	4694
889.015	4618
889.139	4691
889.263	4603
889.387	4759
889.511	4854
889.635	4793
889.759	4645
889.883	4660
890.006	4725
890.13	4839
890.254	4637
890.377	4717
890.501	4546
890.624	4527
890.748	4664
890.871	4527
890.995	4421
891.118	4375
891.241	4573
891.364	4538
891.488	4618
891.611	4519
891.734	4588
891.857	4584
891.98	4550
892.103	4668
892.226	4577
892.349	4542
892.471	4432
892.594	4558
892.717	4603
892.839	4584
892.962	4592
893.085	4668
893.207	4584
893.33	4436
893.452	4531
893.575	4622
893.697	4618
893.819	4786
893.941	4835
894.064	4801
894.186	4630
894.308	4584
894.43	4672
894.552	4843
894.674	4752
894.796	4577
894.918	4565
895.04	4573
895.161	4717
895.283	4698
895.405	4538
895.526	4611
895.648	4698
895.769	4736
895.891	4752
896.012	4729
896.134	4706
896.255	4698
896.376	4637
896.498	4565
896.619	4683
896.74	4596
896.861	4668
896.982	4908
897.103	5052
897.224	4805
897.345	4778
897.466	4702
897.587	4748
897.708	4850
897.828	4763
897.949	4698
898.07	4596
898.19	4622
898.311	4805
898.431	4710
898.552	4721
898.672	4809
898.792	4752
898.913	4725
899.033	4653
899.153	4470
899.273	4447
899.393	4497
899.513	4535
899.633	4493
899.753	4558
899.873	4478
899.993	4580
900.113	4527
900.232	4622
900.352	4546
900.472	4493
900.591	4394
900.711	4519
900.83	4489
900.95	4592
901.069	4687
901.189	4535
901.308	4337
901.427	4306
901.546	4375
901.665	4554
901.784	4523
901.904	4394
902.023	4322
902.141	4185
902.26	4150
902.379	4322
902.498	4284
902.617	4253
902.735	4371
902.854	4398
902.973	4402
903.091	4185
903.21	4204
903.328	4306
903.446	4268
903.565	4249
903.683	4325
903.801	4295
903.919	4405
904.038	4428
904.156	4341
904.274	4417
904.392	4417
904.51	4443
904.627	4470
904.745	4550
904.863	4634
904.981	4421
905.098	4295
905.216	4398
905.334	4451
905.451	4417
905.569	4455
905.686	4550
905.803	4569
905.921	4421
906.038	4584
906.155	4485
906.272	4371
906.389	4462
906.506	4322
906.623	4379
906.74	4462
906.857	4238
906.974	4383
907.091	4542
907.208	4694
907.324	4618
907.441	4478
907.557	4367
907.674	4310
907.79	4325
907.907	4371
908.023	4447
908.139	4546
908.256	4466
908.372	4455
908.488	4466
908.604	4344
908.72	4303
908.836	4379
908.952	4386
909.068	4462
909.184	4508
909.3	4481
909.415	4645
909.531	4573
909.647	4337
909.762	4402
909.878	4314
909.993	4455
910.108	4405
910.224	4413
910.339	4508
910.454	4402
910.57	4348
910.685	4333
910.8	4615
910.915	4622
911.03	4485
911.145	4314
911.259	4333
911.374	4352
911.489	4299
911.604	4299
911.718	4162
911.833	4223
911.947	4082
912.062	4040
912.176	4211
912.291	4268
912.405	4299
912.519	4481
912.633	4478
912.748	4409
912.862	4341
912.976	4246
913.09	4131
913.204	4185
913.318	4287
913.431	4375
913.545	4383
913.659	4417
913.772	4371
913.886	4306
914	4192
914.113	4390
914.226	4447
914.34	4371
914.453	4242
914.566	4398
914.68	4284
914.793	4314
914.906	4196
915.019	4139
915.132	4048
915.245	4200
915.358	4204
915.47	4223
915.583	4261
915.696	4299
915.809	4394
915.921	4428
916.034	4291
916.146	4230
916.259	4272
916.371	4443
916.483	4367
916.595	4287
916.708	4337
916.82	4341
916.932	4322
917.044	4284
917.156	4344
917.268	4303
917.38	4280
917.491	4333
917.603	4318
917.715	4417
917.826	4466
917.938	4375
918.049	4276
918.161	4341
918.272	4542
918.384	4527
918.495	4485
918.606	4318
918.717	4230
918.828	4295
918.939	4360
919.05	4265
919.161	4329
919.272	4196
919.383	4242
919.494	4432
919.604	4664
919.715	4432
919.826	4325
919.936	4386
920.047	4546
920.157	4497
920.267	4729
920.378	4599
920.488	4470
920.598	4759
920.708	4889
920.818	4748
920.928	4729
921.038	4915
921.148	4934
921.258	4634
921.368	4519
921.477	4489
921.587	4428
921.697	4371
921.806	4561
921.916	4462
922.025	4318
922.134	4268
922.244	4196
922.353	4322
922.462	4223
922.571	4139
922.68	4013
922.789	3960
922.898	4025
923.007	3979
923.116	4086
923.224	4086
923.333	4074
923.442	3975
923.55	3994
923.659	4078
923.767	4078
923.876	3979
923.984	4101
924.092	3975
924.201	4067
924.309	4139
924.417	4173
924.525	4093
924.633	4158
924.741	4915
924.849	3937
924.956	4158
925.064	3983
925.172	3922
925.279	4006
925.387	4051
925.494	4082
925.602	4196
925.709	4166
925.816	4055
925.924	4109
926.031	4227
926.138	4230
926.245	4166
926.352	4074
926.459	4253
926.566	4337
926.673	4139
926.779	4071
926.886	4082
926.993	4010
927.099	3930
927.206	3960
927.312	3945
927.419	4013
927.525	4036
927.631	4067
927.737	3953
927.843	3941
927.95	3857
928.056	3956
928.162	3975
928.267	4071
928.373	4660
928.479	4101
928.585	3880
928.69	4055
928.796	4040
928.901	3934
929.007	3846
929.112	3991
929.218	3991
929.323	3953
929.428	3930
929.533	4116
929.638	3896
929.743	3941
929.848	4086
929.953	4017
930.058	3949
930.163	3781
930.267	3842
930.372	3991
930.477	3831
930.581	4074
930.685	3998
930.79	3835
930.894	3846
930.998	3857
931.103	3998
931.207	3751
931.311	3740
931.415	3652
931.519	3523
931.623	3515
