Data from test_V78500241_1795.txt Node
Date: Fri Mar 25 17:01:28 CST 2022
User: usil
Spectrometer: V785-0024
Trigger mode: 0
Integration Time (sec): 4.000000E-1
Scans to average: 1
Nonlinearity correction enabled: false
Boxcar width: 0
Storing dark spectrum: false
XAxis mode: Wavelengths
Number of Pixels in Spectrum: 1024
>>>>>Begin Spectral Data<<<<<
801.071	8069
801.214	8012
801.356	7871
801.499	7909
801.641	7909
801.783	7913
801.926	7932
802.068	7890
802.211	7978
802.353	7970
802.496	7811
802.638	7909
802.78	7864
802.923	7978
803.065	7906
803.208	7917
803.35	7947
803.492	8161
803.635	8164
803.777	8043
803.919	8084
804.061	8434
804.204	8157
804.346	8088
804.488	7932
804.63	8157
804.773	8073
804.915	8043
805.057	8267
805.199	8164
805.341	8248
805.483	8259
805.626	8180
805.768	8088
805.91	8187
806.052	8252
806.194	8183
806.336	8320
806.478	8134
806.62	8084
806.762	8263
806.904	8267
807.046	8518
807.188	8442
807.33	8309
807.472	8400
807.614	8252
807.756	8172
807.898	8016
808.04	7921
808.182	7879
808.324	7925
808.465	7925
808.607	8130
808.749	8138
808.891	8187
809.033	8256
809.174	8248
809.316	8088
809.458	8092
809.6	8043
809.741	8103
809.883	8062
810.025	8111
810.166	8046
810.308	7989
810.45	8001
810.591	7811
810.733	7769
810.875	7708
811.016	7567
811.158	7510
811.299	7533
811.441	7727
811.582	7632
811.724	7571
811.865	7586
812.007	7597
812.148	7571
812.29	7624
812.431	7708
812.573	7921
812.714	7978
812.855	8126
812.997	8263
813.138	8309
813.279	8145
813.421	8058
813.562	7921
813.703	7890
813.845	7738
813.986	7388
814.127	7316
814.268	7217
814.41	7266
814.551	7168
814.692	7255
814.833	7103
814.974	7137
815.115	7114
815.256	6977
815.397	7027
815.539	7008
815.68	6859
815.821	6856
815.962	6852
816.103	6818
816.244	6738
816.385	6574
816.526	6639
816.666	6532
816.807	6361
816.948	6521
817.089	6494
817.23	6448
817.371	6376
817.512	6391
817.653	6437
817.793	6338
817.934	6403
818.075	6460
818.216	6448
818.356	6429
818.497	6228
818.638	6144
818.778	6159
818.919	6140
819.06	6148
819.2	6308
819.341	6331
819.481	6452
819.622	6585
819.762	6749
819.903	6741
820.043	6585
820.184	6593
820.324	6604
820.465	6749
820.605	6673
820.746	6654
820.886	6604
821.026	6646
821.167	6722
821.307	6840
821.447	6829
821.588	6715
821.728	6559
821.868	6532
822.008	6334
822.149	6350
822.289	6365
822.429	6197
822.569	6064
822.709	6117
822.849	5935
822.99	5916
823.13	5954
823.27	5904
823.41	5813
823.55	5798
823.69	5802
823.83	5794
823.97	5691
824.11	5512
824.25	5501
824.389	5573
824.529	5581
824.669	5520
824.809	5649
824.949	5729
825.089	5585
825.228	5532
825.368	5398
825.508	5326
825.648	5345
825.787	5391
825.927	5410
826.067	5227
826.206	5273
826.346	5417
826.485	5414
826.625	5467
826.765	5547
826.904	5478
827.044	5303
827.183	5254
827.323	5033
827.462	5193
827.601	5258
827.741	5212
827.88	5208
828.02	5162
828.159	5216
828.298	5315
828.437	5326
828.577	5280
828.716	5501
828.855	5364
828.994	5174
829.134	5185
829.273	5197
829.412	5159
829.551	5098
829.69	5159
829.829	5235
829.968	5406
830.107	5311
830.246	5280
830.385	5159
830.524	5124
830.663	5071
830.802	5010
830.941	4911
831.08	4847
831.219	5018
831.357	4984
831.496	5174
831.635	4915
831.774	4812
831.913	4866
832.051	4763
832.19	4774
832.329	4831
832.467	4717
832.606	4645
832.744	4736
832.883	4748
833.022	4752
833.16	4850
833.299	4828
833.437	4881
833.576	4850
833.714	4892
833.852	4839
833.991	4919
834.129	4957
834.267	4938
834.406	4934
834.544	4984
834.682	5006
834.821	4976
834.959	5231
835.097	5022
835.235	5143
835.373	5067
835.511	5162
835.65	5014
835.788	5033
835.926	4889
836.064	4839
836.202	4927
836.34	5178
836.478	5208
836.615	5128
836.753	5201
836.891	5292
837.029	5250
837.167	5250
837.305	5162
837.443	5136
837.58	5189
837.718	5258
837.856	5261
837.993	5162
838.131	5223
838.269	5242
838.406	5151
838.544	5159
838.681	5029
838.819	4980
838.956	4858
839.094	4889
839.231	4915
839.369	5064
839.506	5444
839.643	5288
839.781	5086
839.918	5064
840.055	5117
840.193	5147
840.33	5136
840.467	5159
840.604	5174
840.742	5486
840.879	5109
841.016	5117
841.153	5098
841.29	5410
841.427	5360
841.564	5334
841.701	5383
841.838	5246
841.975	5231
842.112	5261
842.249	5151
842.385	5117
842.522	5315
842.659	5132
842.796	5124
842.933	5159
843.069	5185
843.206	5170
843.343	5288
843.479	5227
843.616	5288
843.752	5056
843.889	5003
844.025	5254
844.162	5060
844.298	5227
844.435	5094
844.571	5014
844.708	5185
844.844	5330
844.98	5341
845.117	5360
845.253	5155
845.389	5067
845.525	5189
845.661	5071
845.798	5037
845.934	5132
846.07	5029
846.206	5265
846.342	5307
846.478	5227
846.614	5041
846.75	4972
846.886	4987
847.022	5143
847.158	5025
847.294	5109
847.429	5086
847.565	5029
847.701	5318
847.837	4900
847.972	4854
848.108	4995
848.244	4908
848.379	4793
848.515	4748
848.65	4714
848.786	4744
848.921	4850
849.057	4881
849.192	4919
849.328	4847
849.463	4816
849.598	4771
849.734	4809
849.869	4721
850.004	4637
850.14	4672
850.275	4626
850.41	4550
850.545	4561
850.68	4618
850.815	4653
850.95	4622
851.085	4881
851.22	4729
851.355	4664
851.49	4668
851.625	4626
851.76	4653
851.895	4592
852.03	4542
852.165	4694
852.299	4702
852.434	4797
852.569	4740
852.703	4786
852.838	4850
852.973	4889
853.107	4965
853.242	4721
853.376	4698
853.511	4542
853.645	4607
853.78	4850
853.914	4740
854.048	4637
854.183	4675
854.317	4698
854.451	4843
854.585	4736
854.72	4645
854.854	4763
854.988	4569
855.122	4618
855.256	4535
855.39	4656
855.524	4809
855.658	4748
855.792	4729
855.926	4729
856.06	4793
856.194	4835
856.327	4656
856.461	4615
856.595	4672
856.729	4584
856.862	4710
856.996	4691
857.13	4694
857.263	4790
857.397	4797
857.53	4618
857.664	4725
857.797	4736
857.931	4790
858.064	4683
858.197	4790
858.331	4645
858.464	4588
858.597	4527
858.731	4615
858.864	4626
858.997	4634
859.13	4668
859.263	4622
859.396	4660
859.529	4596
859.662	4554
859.795	4497
859.928	4660
860.061	4801
860.194	4805
860.327	4615
860.46	4577
860.592	4733
860.725	4717
860.858	4767
860.99	4538
861.123	4489
861.256	4508
861.388	4603
861.521	5261
861.653	4485
861.786	4440
861.918	4470
862.05	4561
862.183	4489
862.315	4653
862.447	4626
862.58	4615
862.712	4409
862.844	4348
862.976	4497
863.108	4455
863.24	4873
863.372	4314
863.504	4417
863.636	4428
863.768	4493
863.9	4451
864.032	4402
864.164	4344
864.296	4489
864.428	4523
864.559	4577
864.691	4535
864.823	4573
864.954	4508
865.086	4527
865.217	4462
865.349	4413
865.48	4481
865.612	4512
865.743	4611
865.875	4459
866.006	4455
866.137	4470
866.269	4398
866.4	4432
866.531	4443
866.662	4394
866.793	4379
866.924	4386
867.055	4478
867.186	4462
867.317	4421
867.448	4367
867.579	4344
867.71	4386
867.841	4367
867.972	4428
868.103	4485
868.233	4421
868.364	4447
868.495	4466
868.625	4664
868.756	4725
868.886	4569
869.017	4607
869.147	4774
869.278	4809
869.408	4634
869.539	4672
869.669	4744
869.799	4649
869.929	4782
870.06	4771
870.19	4968
870.32	4904
870.45	4957
870.58	4987
870.71	5083
870.84	5090
870.97	4927
871.1	4904
871.23	5162
871.36	5086
871.489	5037
871.619	5086
871.749	5132
871.879	5136
872.008	5147
872.138	5079
872.267	5003
872.397	4854
872.526	4748
872.656	4691
872.785	4797
872.915	4938
873.044	5041
873.173	5022
873.303	4927
873.432	4965
873.561	4953
873.69	4870
873.819	4866
873.948	4870
874.077	4831
874.206	4824
874.335	4812
874.464	4885
874.593	5048
874.722	4919
874.851	5109
874.979	5105
875.108	5045
875.237	4934
875.365	4850
875.494	4866
875.623	5018
875.751	4850
875.88	4862
876.008	4991
876.136	5060
876.265	5178
876.393	5337
876.521	5254
876.65	5208
876.778	5162
876.906	5132
877.034	5041
877.162	5079
877.29	5014
877.418	5041
877.546	5037
877.674	5079
877.802	4995
877.93	5041
878.058	4919
878.185	4870
878.313	4911
878.441	4968
878.568	4774
878.696	4873
878.824	4938
878.951	4984
879.079	5174
879.206	5277
879.333	5128
879.461	4972
879.588	5003
879.715	5166
879.842	5250
879.97	5003
880.097	4774
880.224	4660
880.351	4774
880.478	4797
880.605	4782
880.732	4759
880.859	5098
880.986	4908
881.112	4915
881.239	4748
881.366	4660
881.493	4573
881.619	4538
881.746	4672
881.872	4626
881.999	4645
882.125	4653
882.252	4809
882.378	4801
882.505	4968
882.631	4812
882.757	4599
882.883	4706
883.01	4755
883.136	4683
883.262	4626
883.388	4596
883.514	4809
883.64	4870
883.766	4877
883.892	4687
884.018	4748
884.143	4881
884.269	5014
884.395	4706
884.52	4664
884.646	4592
884.772	4542
884.897	4592
885.023	4653
885.148	4736
885.274	4866
885.399	4801
885.524	4694
885.65	4698
885.775	4763
885.9	4721
886.025	4839
886.15	4771
886.275	4702
886.4	4641
886.525	4717
886.65	4653
886.775	4687
886.9	4862
887.025	5037
887.149	4805
887.274	4664
887.399	4580
887.523	4592
887.648	4573
887.773	4580
887.897	4736
888.021	4786
888.146	4653
888.27	4820
888.395	4885
888.519	4793
888.643	4854
888.767	4771
888.891	4679
889.015	4569
889.139	4592
889.263	4580
889.387	4763
889.511	4835
889.635	4774
889.759	4622
889.883	4630
890.006	4736
890.13	4824
890.254	4607
890.377	4653
890.501	4504
890.624	4531
890.748	4592
890.871	4535
890.995	4424
891.118	4398
891.241	4519
891.364	4497
891.488	4691
891.611	4466
891.734	4535
891.857	4611
891.98	4588
892.103	4679
892.226	4592
892.349	4565
892.471	4436
892.594	4478
892.717	4599
892.839	4592
892.962	4618
893.085	4645
893.207	4599
893.33	4466
893.452	4519
893.575	4645
893.697	4569
893.819	4767
893.941	4809
894.064	4790
894.186	4542
894.308	4615
894.43	4694
894.552	4771
894.674	4748
894.796	4519
894.918	4596
895.04	4550
895.161	4725
895.283	4664
895.405	4573
895.526	4630
895.648	4694
895.769	4645
895.891	4683
896.012	4771
896.134	4740
896.255	4645
896.376	4622
896.498	4687
896.619	4698
896.74	4630
896.861	4634
896.982	4904
897.103	5079
897.224	4809
897.345	4736
897.466	4668
897.587	4717
897.708	4866
897.828	4763
897.949	4683
898.07	4615
898.19	4653
898.311	4786
898.431	4687
898.552	4706
898.672	4740
898.792	4778
898.913	4736
899.033	4634
899.153	4474
899.273	4402
899.393	4516
899.513	4523
899.633	4538
899.753	4523
899.873	4462
899.993	4538
900.113	4531
900.232	4618
900.352	4558
900.472	4451
900.591	4398
900.711	4478
900.83	4455
900.95	4580
901.069	4668
901.189	4558
901.308	4363
901.427	4329
901.546	4394
901.665	4466
901.784	4523
901.904	4405
902.023	4325
902.141	4154
902.26	4169
902.379	4333
902.498	4287
902.617	4204
902.735	4379
902.854	4360
902.973	4352
903.091	4185
903.21	4215
903.328	4318
903.446	4242
903.565	4261
903.683	4375
903.801	4242
903.919	4409
904.038	4451
904.156	4333
904.274	4421
904.392	4409
904.51	4417
904.627	4519
904.745	4569
904.863	4630
904.981	4383
905.098	4310
905.216	4371
905.334	4383
905.451	4443
905.569	4424
905.686	4573
905.803	4538
905.921	4432
906.038	4535
906.155	4451
906.272	4417
906.389	4459
906.506	4333
906.623	4424
906.74	4352
906.857	4329
906.974	4344
907.091	4584
907.208	4660
907.324	4580
907.441	4500
907.557	4299
907.674	4318
907.79	4318
907.907	4375
908.023	4497
908.139	4485
908.256	4402
908.372	4440
908.488	4421
908.604	4371
908.72	4337
908.836	4360
908.952	4371
909.068	4440
909.184	4596
909.3	4440
909.415	4565
909.531	4588
909.647	4390
909.762	4325
909.878	4333
909.993	4428
910.108	4451
910.224	4383
910.339	4481
910.454	4409
910.57	4367
910.685	4341
910.8	4668
910.915	4584
911.03	4455
911.145	4287
911.259	4242
911.374	4344
911.489	4291
911.604	4223
911.718	4204
911.833	4219
911.947	4006
912.062	4021
912.176	4192
912.291	4227
912.405	4215
912.519	4466
912.633	4527
912.748	4352
912.862	4291
912.976	4238
913.09	4063
913.204	4181
913.318	4268
913.431	4360
913.545	4356
913.659	4432
913.772	4341
913.886	4223
914	4230
914.113	4363
914.226	4352
914.34	4379
914.453	4230
914.566	4436
914.68	4341
914.793	4344
914.906	4143
915.019	4128
915.132	4181
915.245	4166
915.358	4253
915.47	4246
915.583	4265
915.696	4291
915.809	4451
915.921	4428
916.034	4257
916.146	4223
916.259	4230
916.371	4348
916.483	4394
916.595	4261
916.708	4318
916.82	4261
916.932	4322
917.044	4329
917.156	4322
917.268	4238
917.38	4303
917.491	4230
917.603	4360
917.715	4405
917.826	4455
917.938	4367
918.049	4265
918.161	4360
918.272	4531
918.384	4516
918.495	4500
918.606	4310
918.717	4207
918.828	4356
918.939	4348
919.05	4306
919.161	4306
919.272	4162
919.383	4211
919.494	4428
919.604	4607
919.715	4440
919.826	4310
919.936	4398
920.047	4527
920.157	4466
920.267	4691
920.378	4497
920.488	4497
920.598	4679
920.708	4839
920.818	4714
920.928	4702
921.038	4911
921.148	4923
921.258	4603
921.368	4565
921.477	4489
921.587	4413
921.697	4394
921.806	4531
921.916	4405
922.025	4246
922.134	4276
922.244	4185
922.353	4306
922.462	4162
922.571	4143
922.68	4002
922.789	3949
922.898	4021
923.007	4013
923.116	4063
923.224	4036
923.333	4101
923.442	3983
923.55	3964
923.659	4036
923.767	4074
923.876	3991
923.984	4128
924.092	3926
924.201	4078
924.309	4090
924.417	4112
924.525	4036
924.633	4078
924.741	5060
924.849	3888
924.956	4143
925.064	3987
925.172	3857
925.279	3968
925.387	4048
925.494	4021
925.602	4207
925.709	4135
925.816	4029
925.924	4135
926.031	4192
926.138	4162
926.245	4192
926.352	4131
926.459	4246
926.566	4287
926.673	4105
926.779	4067
926.886	4059
926.993	3972
927.099	3949
927.206	3911
927.312	3911
927.419	4029
927.525	4040
927.631	4116
927.737	3949
927.843	3937
927.95	3861
928.056	3953
928.162	3960
928.267	4082
928.373	4603
928.479	4051
928.585	3842
928.69	4010
928.796	4093
928.901	3930
929.007	3835
929.112	4051
929.218	3983
929.323	3945
929.428	3964
929.533	4105
929.638	3941
929.743	3972
929.848	4055
929.953	3983
930.058	3972
930.163	3762
930.267	3793
930.372	3979
930.477	3831
930.581	4071
930.685	3956
930.79	3797
930.894	3907
930.998	3816
931.103	4055
931.207	3682
931.311	3675
931.415	3637
931.519	3492
931.623	3534
