Data from test_V78500241_1610.txt Node
Date: Fri Mar 25 17:00:11 CST 2022
User: usil
Spectrometer: V785-0024
Trigger mode: 0
Integration Time (sec): 4.000000E-1
Scans to average: 1
Nonlinearity correction enabled: false
Boxcar width: 0
Storing dark spectrum: false
XAxis mode: Wavelengths
Number of Pixels in Spectrum: 1024
>>>>>Begin Spectral Data<<<<<
801.071	7947
801.214	7974
801.356	7868
801.499	7849
801.641	7727
801.783	7833
801.926	7947
802.068	7917
802.211	7909
802.353	7940
802.496	7856
802.638	7871
802.78	7868
802.923	7868
803.065	7860
803.208	7811
803.35	7989
803.492	8046
803.635	8187
803.777	7982
803.919	8111
804.061	8476
804.204	8123
804.346	8020
804.488	7986
804.63	8062
804.773	8035
804.915	8107
805.057	8294
805.199	8142
805.341	8176
805.483	8183
805.626	8168
805.768	8035
805.91	8210
806.052	8202
806.194	8035
806.336	8298
806.478	8069
806.62	8039
806.762	8115
806.904	8263
807.046	8419
807.188	8381
807.33	8252
807.472	8332
807.614	8183
807.756	8119
807.898	7986
808.04	7913
808.182	7890
808.324	7940
808.465	7898
808.607	8035
808.749	8069
808.891	8218
809.033	8229
809.174	8149
809.316	8027
809.458	8058
809.6	7982
809.741	8027
809.883	8012
810.025	8062
810.166	8046
810.308	8050
810.45	7951
810.591	7826
810.733	7700
810.875	7594
811.016	7571
811.158	7422
811.299	7601
811.441	7693
811.582	7658
811.724	7529
811.865	7563
812.007	7559
812.148	7540
812.29	7594
812.431	7723
812.573	7841
812.714	7913
812.855	8119
812.997	8180
813.138	8313
813.279	8164
813.421	8065
813.562	7898
813.703	7860
813.845	7723
813.986	7464
814.127	7209
814.268	7187
814.41	7221
814.551	7156
814.692	7202
814.833	7149
814.974	7088
815.115	7107
815.256	7027
815.397	6924
815.539	6939
815.68	6806
815.821	6707
815.962	6882
816.103	6798
816.244	6726
816.385	6650
816.526	6578
816.666	6445
816.807	6315
816.948	6441
817.089	6448
817.23	6426
817.371	6342
817.512	6331
817.653	6410
817.793	6346
817.934	6448
818.075	6483
818.216	6414
818.356	6460
818.497	6273
818.638	6155
818.778	6155
818.919	6133
819.06	6159
819.2	6273
819.341	6292
819.481	6391
819.622	6467
819.762	6715
819.903	6669
820.043	6601
820.184	6593
820.324	6506
820.465	6658
820.605	6662
820.746	6639
820.886	6467
821.026	6669
821.167	6719
821.307	6757
821.447	6757
821.588	6681
821.728	6570
821.868	6490
822.008	6315
822.149	6338
822.289	6327
822.429	6182
822.569	6083
822.709	6072
822.849	5904
822.99	5920
823.13	5920
823.27	5908
823.41	5775
823.55	5794
823.69	5714
823.83	5817
823.97	5668
824.11	5535
824.25	5463
824.389	5543
824.529	5539
824.669	5463
824.809	5646
824.949	5646
825.089	5585
825.228	5581
825.368	5357
825.508	5341
825.648	5398
825.787	5360
825.927	5357
826.067	5284
826.206	5296
826.346	5387
826.485	5337
826.625	5391
826.765	5554
826.904	5436
827.044	5242
827.183	5166
827.323	5124
827.462	5201
827.601	5147
827.741	5242
827.88	5132
828.02	5121
828.159	5216
828.298	5250
828.437	5353
828.577	5258
828.716	5501
828.855	5277
828.994	5128
829.134	5117
829.273	5151
829.412	5121
829.551	5117
829.69	5216
829.829	5250
829.968	5417
830.107	5223
830.246	5235
830.385	5159
830.524	5083
830.663	5086
830.802	4976
830.941	4919
831.08	4877
831.219	4965
831.357	5006
831.496	5117
831.635	4896
831.774	4847
831.913	4881
832.051	4767
832.19	4736
832.329	4835
832.467	4698
832.606	4634
832.744	4729
832.883	4748
833.022	4740
833.16	4740
833.299	4809
833.437	4759
833.576	4831
833.714	4828
833.852	4881
833.991	4885
834.129	4919
834.267	4980
834.406	4892
834.544	4980
834.682	4946
834.821	5006
834.959	5170
835.097	4980
835.235	5121
835.373	5064
835.511	5132
835.65	5003
835.788	5010
835.926	4870
836.064	4877
836.202	4927
836.34	5083
836.478	5193
836.615	5128
836.753	5204
836.891	5265
837.029	5189
837.167	5189
837.305	5162
837.443	5124
837.58	5071
837.718	5231
837.856	5147
837.993	5136
838.131	5185
838.269	5201
838.406	5181
838.544	5170
838.681	4991
838.819	5033
838.956	4885
839.094	4889
839.231	4942
839.369	5079
839.506	5448
839.643	5254
839.781	5067
839.918	5010
840.055	5048
840.193	5086
840.33	5105
840.467	5121
840.604	5162
840.742	5467
840.879	5025
841.016	5067
841.153	5121
841.29	5341
841.427	5299
841.564	5284
841.701	5383
841.838	5235
841.975	5258
842.112	5284
842.249	5128
842.385	5124
842.522	5277
842.659	5178
842.796	5109
842.933	5170
843.069	5151
843.206	5117
843.343	5273
843.479	5235
843.616	5265
843.752	5006
843.889	5022
844.025	5170
844.162	5083
844.298	5189
844.435	5094
844.571	5029
844.708	5162
844.844	5261
844.98	5326
845.117	5307
845.253	5132
845.389	5067
845.525	5132
845.661	5079
845.798	5010
845.934	5128
846.07	5071
846.206	5208
846.342	5242
846.478	5170
846.614	5052
846.75	4965
846.886	4946
847.022	5128
847.158	5003
847.294	5048
847.429	5086
847.565	5094
847.701	5296
847.837	4820
847.972	4793
848.108	4976
848.244	4957
848.379	4797
848.515	4767
848.65	4687
848.786	4717
848.921	4740
849.057	4835
849.192	4904
849.328	4782
849.463	4850
849.598	4782
849.734	4771
849.869	4744
850.004	4645
850.14	4687
850.275	4599
850.41	4535
850.545	4535
850.68	4573
850.815	4630
850.95	4664
851.085	4774
851.22	4740
851.355	4634
851.49	4618
851.625	4546
851.76	4615
851.895	4542
852.03	4577
852.165	4630
852.299	4679
852.434	4828
852.569	4763
852.703	4812
852.838	4847
852.973	4900
853.107	4843
853.242	4725
853.376	4702
853.511	4523
853.645	4577
853.78	4786
853.914	4637
854.048	4664
854.183	4634
854.317	4706
854.451	4820
854.585	4653
854.72	4641
854.854	4763
854.988	4580
855.122	4634
855.256	4592
855.39	4679
855.524	4812
855.658	4721
855.792	4653
855.926	4740
856.06	4774
856.194	4828
856.327	4637
856.461	4565
856.595	4584
856.729	4596
856.862	4740
856.996	4683
857.13	4759
857.263	4793
857.397	4793
857.53	4675
857.664	4721
857.797	4740
857.931	4771
858.064	4683
858.197	4740
858.331	4664
858.464	4596
858.597	4519
858.731	4626
858.864	4637
858.997	4573
859.13	4637
859.263	4672
859.396	4615
859.529	4516
859.662	4573
859.795	4497
859.928	4611
860.061	4721
860.194	4790
860.327	4618
860.46	4535
860.592	4694
860.725	4706
860.858	4702
860.99	4603
861.123	4489
861.256	4527
861.388	4607
861.521	5136
861.653	4470
861.786	4459
861.918	4421
862.05	4504
862.183	4497
862.315	4546
862.447	4622
862.58	4500
862.712	4356
862.844	4363
862.976	4447
863.108	4459
863.24	4763
863.372	4337
863.504	4379
863.636	4405
863.768	4451
863.9	4459
864.032	4367
864.164	4409
864.296	4443
864.428	4527
864.559	4523
864.691	4489
864.823	4558
864.954	4459
865.086	4474
865.217	4519
865.349	4383
865.48	4459
865.612	4474
865.743	4615
865.875	4447
866.006	4402
866.137	4451
866.269	4436
866.4	4417
866.531	4440
866.662	4421
866.793	4394
866.924	4383
867.055	4447
867.186	4424
867.317	4398
867.448	4390
867.579	4341
867.71	4379
867.841	4360
867.972	4440
868.103	4508
868.233	4436
868.364	4466
868.495	4489
868.625	4694
868.756	4774
868.886	4542
869.017	4618
869.147	4733
869.278	4725
869.408	4592
869.539	4618
869.669	4691
869.799	4634
869.929	4687
870.06	4710
870.19	4870
870.32	4900
870.45	4927
870.58	5006
870.71	5151
870.84	5105
870.97	4968
871.1	4889
871.23	5143
871.36	5109
871.489	4984
871.619	5037
871.749	5128
871.879	5117
872.008	5208
872.138	5033
872.267	4942
872.397	4828
872.526	4771
872.656	4729
872.785	4778
872.915	4972
873.044	5010
873.173	4938
873.303	5018
873.432	4930
873.561	4957
873.69	4881
873.819	4850
873.948	4961
874.077	4793
874.206	4725
874.335	4790
874.464	4946
874.593	5029
874.722	4995
874.851	5102
874.979	5045
875.108	5029
875.237	4915
875.365	4900
875.494	4904
875.623	4938
875.751	4801
875.88	4900
876.008	4984
876.136	4995
876.265	5204
876.393	5326
876.521	5197
876.65	5208
876.778	5121
876.906	5048
877.034	4987
877.162	4987
877.29	5022
877.418	5022
877.546	5064
877.674	5014
877.802	4999
877.93	5010
878.058	4919
878.185	4889
878.313	4968
878.441	4949
878.568	4793
878.696	4885
878.824	4930
878.951	4995
879.079	5162
879.206	5254
879.333	5109
879.461	5018
879.588	5014
879.715	5079
879.842	5223
879.97	4976
880.097	4797
880.224	4763
880.351	4786
880.478	4812
880.605	4797
880.732	4816
880.859	5060
880.986	4854
881.112	4873
881.239	4733
881.366	4687
881.493	4584
881.619	4573
881.746	4599
881.872	4683
881.999	4626
882.125	4653
882.252	4755
882.378	4763
882.505	4930
882.631	4763
882.757	4672
882.883	4714
883.01	4687
883.136	4596
883.262	4580
883.388	4622
883.514	4778
883.64	4854
883.766	4812
883.892	4630
884.018	4694
884.143	4877
884.269	4987
884.395	4611
884.52	4588
884.646	4607
884.772	4569
884.897	4577
885.023	4637
885.148	4755
885.274	4870
885.399	4854
885.524	4744
885.65	4672
885.775	4759
885.9	4687
886.025	4824
886.15	4778
886.275	4729
886.4	4649
886.525	4721
886.65	4694
886.775	4668
886.9	4904
887.025	5045
887.149	4786
887.274	4615
887.399	4573
887.523	4558
887.648	4573
887.773	4558
887.897	4744
888.021	4774
888.146	4687
888.27	4790
888.395	4896
888.519	4782
888.643	4812
888.767	4850
888.891	4660
889.015	4550
889.139	4630
889.263	4626
889.387	4774
889.511	4873
889.635	4801
889.759	4656
889.883	4649
890.006	4744
890.13	4782
890.254	4603
890.377	4630
890.501	4497
890.624	4523
890.748	4645
890.871	4489
890.995	4443
891.118	4413
891.241	4512
891.364	4523
891.488	4641
891.611	4504
891.734	4474
891.857	4611
891.98	4558
892.103	4653
892.226	4569
892.349	4504
892.471	4394
892.594	4550
892.717	4592
892.839	4565
892.962	4542
893.085	4630
893.207	4592
893.33	4455
893.452	4497
893.575	4679
893.697	4542
893.819	4752
893.941	4774
894.064	4710
894.186	4569
894.308	4592
894.43	4733
894.552	4771
894.674	4725
894.796	4550
894.918	4554
895.04	4554
895.161	4736
895.283	4664
895.405	4569
895.526	4607
895.648	4668
895.769	4649
895.891	4706
896.012	4683
896.134	4702
896.255	4634
896.376	4599
896.498	4599
896.619	4660
896.74	4637
896.861	4630
896.982	4904
897.103	5037
897.224	4793
897.345	4725
897.466	4637
897.587	4694
897.708	4812
897.828	4729
897.949	4630
898.07	4535
898.19	4603
898.311	4755
898.431	4687
898.552	4755
898.672	4771
898.792	4778
898.913	4752
899.033	4622
899.153	4478
899.273	4417
899.393	4466
899.513	4542
899.633	4489
899.753	4542
899.873	4550
899.993	4615
900.113	4523
900.232	4588
900.352	4558
900.472	4538
900.591	4413
900.711	4470
900.83	4413
900.95	4607
901.069	4687
901.189	4519
901.308	4402
901.427	4348
901.546	4421
901.665	4489
901.784	4569
901.904	4447
902.023	4333
902.141	4215
902.26	4215
902.379	4306
902.498	4257
902.617	4219
902.735	4409
902.854	4428
902.973	4409
903.091	4192
903.21	4246
903.328	4341
903.446	4306
903.565	4314
903.683	4421
903.801	4329
903.919	4455
904.038	4504
904.156	4356
904.274	4455
904.392	4432
904.51	4474
904.627	4523
904.745	4554
904.863	4626
904.981	4417
905.098	4310
905.216	4390
905.334	4440
905.451	4451
905.569	4462
905.686	4565
905.803	4615
905.921	4417
906.038	4634
906.155	4481
906.272	4417
906.389	4519
906.506	4379
906.623	4352
906.74	4466
906.857	4375
906.974	4402
907.091	4615
907.208	4714
907.324	4611
907.441	4569
907.557	4325
907.674	4363
907.79	4375
907.907	4402
908.023	4535
908.139	4542
908.256	4489
908.372	4554
908.488	4443
908.604	4390
908.72	4325
908.836	4424
908.952	4360
909.068	4413
909.184	4596
909.3	4504
909.415	4565
909.531	4607
909.647	4367
909.762	4432
909.878	4344
909.993	4470
910.108	4455
910.224	4421
910.339	4561
910.454	4402
910.57	4375
910.685	4352
910.8	4653
910.915	4660
911.03	4519
911.145	4363
911.259	4333
911.374	4421
911.489	4375
911.604	4280
911.718	4188
911.833	4268
911.947	4101
912.062	4071
912.176	4242
912.291	4253
912.405	4268
912.519	4542
912.633	4546
912.748	4394
912.862	4356
912.976	4272
913.09	4124
913.204	4150
913.318	4322
913.431	4360
913.545	4379
913.659	4474
913.772	4417
913.886	4272
914	4261
914.113	4436
914.226	4485
914.34	4440
914.453	4276
914.566	4485
914.68	4379
914.793	4333
914.906	4147
915.019	4181
915.132	4074
915.245	4223
915.358	4230
915.47	4246
915.583	4261
915.696	4341
915.809	4432
915.921	4451
916.034	4287
916.146	4299
916.259	4215
916.371	4409
916.483	4352
916.595	4257
916.708	4333
916.82	4322
916.932	4348
917.044	4367
917.156	4371
917.268	4261
917.38	4295
917.491	4322
917.603	4394
917.715	4451
917.826	4455
917.938	4348
918.049	4284
918.161	4413
918.272	4622
918.384	4580
918.495	4462
918.606	4344
918.717	4261
918.828	4383
918.939	4360
919.05	4287
919.161	4394
919.272	4105
919.383	4242
919.494	4470
919.604	4683
919.715	4470
919.826	4379
919.936	4390
920.047	4584
920.157	4478
920.267	4755
920.378	4603
920.488	4550
920.598	4793
920.708	4896
920.818	4797
920.928	4778
921.038	4991
921.148	4980
921.258	4653
921.368	4611
921.477	4519
921.587	4478
921.697	4398
921.806	4542
921.916	4428
922.025	4341
922.134	4299
922.244	4246
922.353	4325
922.462	4192
922.571	4154
922.68	4048
922.789	4036
922.898	4074
923.007	4032
923.116	4124
923.224	4071
923.333	4120
923.442	4025
923.55	4025
923.659	4044
923.767	4116
923.876	4032
923.984	4116
924.092	4029
924.201	4086
924.309	4147
924.417	4101
924.525	4097
924.633	4135
924.741	4968
924.849	3972
924.956	4192
925.064	4044
925.172	3964
925.279	4032
925.387	4036
925.494	4086
925.602	4246
925.709	4238
925.816	4067
925.924	4185
926.031	4272
926.138	4185
926.245	4253
926.352	4135
926.459	4261
926.566	4329
926.673	4128
926.779	4097
926.886	4082
926.993	3998
927.099	3987
927.206	3994
927.312	3964
927.419	4055
927.525	4048
927.631	4086
927.737	4025
927.843	3964
927.95	3865
928.056	3975
928.162	4013
928.267	4090
928.373	4580
928.479	4154
928.585	3857
928.69	4055
928.796	4101
928.901	3994
929.007	3857
929.112	4013
929.218	4048
929.323	3960
929.428	3975
929.533	4120
929.638	3915
929.743	3964
929.848	4086
929.953	4051
930.058	3956
930.163	3785
930.267	3857
930.372	3975
930.477	3827
930.581	4120
930.685	3975
930.79	3884
930.894	3937
930.998	3888
931.103	4063
931.207	3728
931.311	3751
931.415	3705
931.519	3545
931.623	3549
