Data from test_V78500241_121.txt Node
Date: Fri Mar 25 16:49:50 CST 2022
User: usil
Spectrometer: V785-0024
Trigger mode: 0
Integration Time (sec): 4.000000E-1
Scans to average: 1
Nonlinearity correction enabled: false
Boxcar width: 0
Storing dark spectrum: false
XAxis mode: Wavelengths
Number of Pixels in Spectrum: 1024
>>>>>Begin Spectral Data<<<<<
801.071	8062
801.214	8016
801.356	7898
801.499	7837
801.641	7803
801.783	7898
801.926	8027
802.068	7955
802.211	8035
802.353	7982
802.496	7833
802.638	7940
802.78	7944
802.923	8016
803.065	7894
803.208	7856
803.35	7944
803.492	8111
803.635	8084
803.777	7997
803.919	8058
804.061	8400
804.204	8084
804.346	7982
804.488	7913
804.63	8005
804.773	7986
804.915	8084
805.057	8240
805.199	8077
805.341	8301
805.483	8279
805.626	8218
805.768	8130
805.91	8153
806.052	8233
806.194	8096
806.336	8347
806.478	8084
806.62	8138
806.762	8202
806.904	8259
807.046	8381
807.188	8252
807.33	8301
807.472	8286
807.614	8191
807.756	8088
807.898	8081
808.04	7967
808.182	7909
808.324	7913
808.465	7875
808.607	8024
808.749	8107
808.891	8187
809.033	8332
809.174	8138
809.316	8012
809.458	8149
809.6	7997
809.741	8065
809.883	8046
810.025	8126
810.166	8050
810.308	8115
810.45	8031
810.591	7913
810.733	7826
810.875	7666
811.016	7548
811.158	7491
811.299	7594
811.441	7746
811.582	7803
811.724	7616
811.865	7552
812.007	7609
812.148	7734
812.29	7769
812.431	7807
812.573	7925
812.714	8092
812.855	8240
812.997	8305
813.138	8423
813.279	8259
813.421	8225
813.562	8088
813.703	7947
813.845	7864
813.986	7426
814.127	7259
814.268	7308
814.41	7255
814.551	7213
814.692	7225
814.833	7126
814.974	7103
815.115	7190
815.256	6985
815.397	6996
815.539	7000
815.68	6856
815.821	6776
815.962	6871
816.103	6867
816.244	6745
816.385	6616
816.526	6631
816.666	6471
816.807	6376
816.948	6532
817.089	6475
817.23	6433
817.371	6407
817.512	6407
817.653	6464
817.793	6369
817.934	6399
818.075	6467
818.216	6414
818.356	6388
818.497	6311
818.638	6121
818.778	6201
818.919	6186
819.06	6167
819.2	6410
819.341	6331
819.481	6388
819.622	6536
819.762	6772
819.903	6677
820.043	6635
820.184	6612
820.324	6589
820.465	6749
820.605	6722
820.746	6646
820.886	6544
821.026	6722
821.167	6749
821.307	6814
821.447	6768
821.588	6688
821.728	6563
821.868	6464
822.008	6426
822.149	6403
822.289	6353
822.429	6129
822.569	6064
822.709	6201
822.849	5939
822.99	5863
823.13	5969
823.27	5958
823.41	5786
823.55	5824
823.69	5805
823.83	5882
823.97	5707
824.11	5566
824.25	5589
824.389	5524
824.529	5604
824.669	5535
824.809	5619
824.949	5699
825.089	5665
825.228	5623
825.368	5406
825.508	5353
825.648	5383
825.787	5414
825.927	5383
826.067	5296
826.206	5334
826.346	5379
826.485	5398
826.625	5433
826.765	5570
826.904	5463
827.044	5273
827.183	5220
827.323	5185
827.462	5280
827.601	5197
827.741	5201
827.88	5189
828.02	5140
828.159	5280
828.298	5284
828.437	5372
828.577	5299
828.716	5493
828.855	5360
828.994	5174
829.134	5181
829.273	5197
829.412	5162
829.551	5109
829.69	5216
829.829	5284
829.968	5318
830.107	5326
830.246	5265
830.385	5185
830.524	5143
830.663	5098
830.802	5003
830.941	4923
831.08	4889
831.219	5010
831.357	5010
831.496	5155
831.635	4930
831.774	4866
831.913	4831
832.051	4755
832.19	4759
832.329	4824
832.467	4736
832.606	4668
832.744	4729
832.883	4755
833.022	4740
833.16	4801
833.299	4843
833.437	4839
833.576	4820
833.714	4900
833.852	4858
833.991	4908
834.129	4938
834.267	4915
834.406	4972
834.544	4957
834.682	4889
834.821	5029
834.959	5235
835.097	5006
835.235	5151
835.373	5094
835.511	5098
835.65	5041
835.788	5041
835.926	4892
836.064	4915
836.202	4892
836.34	5193
836.478	5231
836.615	5174
836.753	5181
836.891	5303
837.029	5288
837.167	5223
837.305	5181
837.443	5174
837.58	5117
837.718	5235
837.856	5189
837.993	5223
838.131	5239
838.269	5181
838.406	5250
838.544	5185
838.681	5079
838.819	5022
838.956	4934
839.094	4904
839.231	5018
839.369	5162
839.506	5482
839.643	5242
839.781	5037
839.918	5014
840.055	5094
840.193	5124
840.33	5102
840.467	5201
840.604	5239
840.742	5429
840.879	5117
841.016	5083
841.153	5181
841.29	5425
841.427	5345
841.564	5322
841.701	5349
841.838	5227
841.975	5292
842.112	5261
842.249	5147
842.385	5094
842.522	5299
842.659	5208
842.796	5181
842.933	5269
843.069	5162
843.206	5181
843.343	5296
843.479	5258
843.616	5280
843.752	5075
843.889	4976
844.025	5242
844.162	5003
844.298	5216
844.435	5060
844.571	5037
844.708	5227
844.844	5337
844.98	5353
845.117	5284
845.253	5117
845.389	5067
845.525	5193
845.661	5170
845.798	5075
845.934	5162
846.07	5102
846.206	5193
846.342	5307
846.478	5166
846.614	5014
846.75	4987
846.886	4946
847.022	5193
847.158	5094
847.294	5056
847.429	5140
847.565	5056
847.701	5376
847.837	4881
847.972	4870
848.108	4965
848.244	4976
848.379	4763
848.515	4748
848.65	4694
848.786	4793
848.921	4835
849.057	4877
849.192	4862
849.328	4889
849.463	4843
849.598	4839
849.734	4816
849.869	4687
850.004	4634
850.14	4656
850.275	4626
850.41	4554
850.545	4588
850.68	4641
850.815	4645
850.95	4675
851.085	4850
851.22	4782
851.355	4615
851.49	4687
851.625	4596
851.76	4641
851.895	4584
852.03	4592
852.165	4675
852.299	4733
852.434	4763
852.569	4744
852.703	4736
852.838	4816
852.973	4961
853.107	4953
853.242	4748
853.376	4698
853.511	4618
853.645	4656
853.78	4797
853.914	4721
854.048	4668
854.183	4664
854.317	4717
854.451	4854
854.585	4683
854.72	4668
854.854	4744
854.988	4641
855.122	4691
855.256	4592
855.39	4645
855.524	4824
855.658	4736
855.792	4691
855.926	4797
856.06	4748
856.194	4793
856.327	4729
856.461	4618
856.595	4653
856.729	4683
856.862	4786
856.996	4725
857.13	4767
857.263	4767
857.397	4873
857.53	4679
857.664	4759
857.797	4729
857.931	4805
858.064	4748
858.197	4729
858.331	4710
858.464	4584
858.597	4554
858.731	4603
858.864	4664
858.997	4634
859.13	4683
859.263	4736
859.396	4774
859.529	4573
859.662	4603
859.795	4577
859.928	4660
860.061	4782
860.194	4805
860.327	4603
860.46	4550
860.592	4714
860.725	4755
860.858	4706
860.99	4630
861.123	4519
861.256	4519
861.388	4630
861.521	5364
861.653	4474
861.786	4489
861.918	4500
862.05	4538
862.183	4596
862.315	4645
862.447	4653
862.58	4577
862.712	4455
862.844	4390
862.976	4519
863.108	4474
863.24	4904
863.372	4341
863.504	4440
863.636	4424
863.768	4550
863.9	4462
864.032	4344
864.164	4424
864.296	4512
864.428	4500
864.559	4599
864.691	4580
864.823	4531
864.954	4577
865.086	4558
865.217	4481
865.349	4394
865.48	4478
865.612	4516
865.743	4653
865.875	4440
866.006	4409
866.137	4478
866.269	4531
866.4	4447
866.531	4443
866.662	4413
866.793	4421
866.924	4451
867.055	4542
867.186	4497
867.317	4421
867.448	4398
867.579	4405
867.71	4409
867.841	4375
867.972	4443
868.103	4459
868.233	4451
868.364	4478
868.495	4531
868.625	4672
868.756	4752
868.886	4569
869.017	4611
869.147	4774
869.278	4824
869.408	4660
869.539	4649
869.669	4771
869.799	4702
869.929	4752
870.06	4748
870.19	4961
870.32	4942
870.45	4987
870.58	5048
870.71	5121
870.84	5086
870.97	4968
871.1	4896
871.23	5197
871.36	5166
871.489	5052
871.619	5083
871.749	5083
871.879	5113
872.008	5193
872.138	5109
872.267	4987
872.397	4889
872.526	4797
872.656	4698
872.785	4854
872.915	5014
873.044	5029
873.173	4949
873.303	4946
873.432	5029
873.561	4987
873.69	4934
873.819	4854
873.948	4915
874.077	4858
874.206	4752
874.335	4816
874.464	4938
874.593	5075
874.722	4991
874.851	5090
874.979	5140
875.108	5006
875.237	4991
875.365	4911
875.494	4904
875.623	4999
875.751	4843
875.88	4858
876.008	4968
876.136	5056
876.265	5227
876.393	5353
876.521	5322
876.65	5258
876.778	5132
876.906	5105
877.034	5018
877.162	5064
877.29	5033
877.418	5098
877.546	5071
877.674	5033
877.802	5037
877.93	5018
878.058	4961
878.185	4885
878.313	4965
878.441	4953
878.568	4786
878.696	4885
878.824	4961
878.951	5018
879.079	5178
879.206	5288
879.333	5121
879.461	5033
879.588	5048
879.715	5185
879.842	5193
879.97	4976
880.097	4748
880.224	4805
880.351	4847
880.478	4866
880.605	4816
880.732	4774
880.859	5117
880.986	4911
881.112	4923
881.239	4843
881.366	4694
881.493	4618
881.619	4630
881.746	4672
881.872	4615
881.999	4687
882.125	4668
882.252	4816
882.378	4835
882.505	4984
882.631	4816
882.757	4687
882.883	4755
883.01	4763
883.136	4668
883.262	4615
883.388	4626
883.514	4820
883.64	4900
883.766	4812
883.892	4733
884.018	4736
884.143	4927
884.269	5067
884.395	4698
884.52	4698
884.646	4649
884.772	4584
884.897	4561
885.023	4649
885.148	4820
885.274	4881
885.399	4831
885.524	4752
885.65	4736
885.775	4774
885.9	4740
886.025	4885
886.15	4889
886.275	4710
886.4	4675
886.525	4771
886.65	4691
886.775	4698
886.9	4972
887.025	5067
887.149	4839
887.274	4687
887.399	4634
887.523	4630
887.648	4630
887.773	4615
887.897	4771
888.021	4843
888.146	4698
888.27	4850
888.395	4930
888.519	4828
888.643	4831
888.767	4820
888.891	4729
889.015	4611
889.139	4717
889.263	4622
889.387	4744
889.511	4881
889.635	4816
889.759	4687
889.883	4649
890.006	4710
890.13	4850
890.254	4622
890.377	4653
890.501	4592
890.624	4558
890.748	4668
890.871	4523
890.995	4466
891.118	4428
891.241	4489
891.364	4580
891.488	4622
891.611	4596
891.734	4542
891.857	4615
891.98	4554
892.103	4687
892.226	4637
892.349	4561
892.471	4459
892.594	4584
892.717	4622
892.839	4672
892.962	4626
893.085	4675
893.207	4630
893.33	4462
893.452	4546
893.575	4687
893.697	4592
893.819	4843
893.941	4877
894.064	4763
894.186	4592
894.308	4599
894.43	4755
894.552	4828
894.674	4744
894.796	4573
894.918	4626
895.04	4592
895.161	4714
895.283	4660
895.405	4554
895.526	4664
895.648	4729
895.769	4721
895.891	4771
896.012	4744
896.134	4702
896.255	4679
896.376	4691
896.498	4660
896.619	4702
896.74	4641
896.861	4717
896.982	4942
897.103	5071
897.224	4820
897.345	4763
897.466	4679
897.587	4706
897.708	4881
897.828	4797
897.949	4656
898.07	4592
898.19	4698
898.311	4889
898.431	4698
898.552	4744
898.672	4850
898.792	4835
898.913	4771
899.033	4618
899.153	4542
899.273	4447
899.393	4512
899.513	4580
899.633	4535
899.753	4527
899.873	4478
899.993	4599
900.113	4561
900.232	4603
900.352	4596
900.472	4493
900.591	4459
900.711	4531
900.83	4493
900.95	4603
901.069	4675
901.189	4615
901.308	4405
901.427	4341
901.546	4394
901.665	4519
901.784	4512
901.904	4375
902.023	4344
902.141	4207
902.26	4211
902.379	4352
902.498	4242
902.617	4284
902.735	4398
902.854	4402
902.973	4409
903.091	4234
903.21	4249
903.328	4310
903.446	4322
903.565	4299
903.683	4390
903.801	4356
903.919	4421
904.038	4440
904.156	4291
904.274	4459
904.392	4409
904.51	4485
904.627	4523
904.745	4634
904.863	4672
904.981	4390
905.098	4371
905.216	4333
905.334	4470
905.451	4470
905.569	4485
905.686	4558
905.803	4611
905.921	4390
906.038	4569
906.155	4512
906.272	4436
906.389	4447
906.506	4409
906.623	4402
906.74	4432
906.857	4329
906.974	4379
907.091	4573
907.208	4694
907.324	4565
907.441	4497
907.557	4360
907.674	4367
907.79	4390
907.907	4432
908.023	4485
908.139	4512
908.256	4428
908.372	4481
908.488	4462
908.604	4341
908.72	4383
908.836	4428
908.952	4333
909.068	4451
909.184	4573
909.3	4538
909.415	4611
909.531	4580
909.647	4394
909.762	4386
909.878	4314
909.993	4451
910.108	4432
910.224	4436
910.339	4516
910.454	4398
910.57	4367
910.685	4329
910.8	4668
910.915	4580
911.03	4508
911.145	4318
911.259	4341
911.374	4405
911.489	4303
911.604	4276
911.718	4188
911.833	4227
911.947	4116
912.062	4044
912.176	4219
912.291	4268
912.405	4265
912.519	4489
912.633	4508
912.748	4383
912.862	4322
912.976	4238
913.09	4109
913.204	4200
913.318	4280
913.431	4440
913.545	4413
913.659	4478
913.772	4394
913.886	4268
914	4265
914.113	4417
914.226	4447
914.34	4459
914.453	4246
914.566	4485
914.68	4329
914.793	4363
914.906	4162
915.019	4196
915.132	4078
915.245	4196
915.358	4200
915.47	4249
915.583	4322
915.696	4287
915.809	4424
915.921	4459
916.034	4261
916.146	4295
916.259	4246
916.371	4417
916.483	4383
916.595	4291
916.708	4333
916.82	4367
916.932	4344
917.044	4337
917.156	4329
917.268	4242
917.38	4314
917.491	4272
917.603	4390
917.715	4413
917.826	4440
917.938	4348
918.049	4291
918.161	4428
918.272	4569
918.384	4603
918.495	4466
918.606	4325
918.717	4276
918.828	4318
918.939	4375
919.05	4261
919.161	4344
919.272	4188
919.383	4246
919.494	4481
919.604	4622
919.715	4436
919.826	4322
919.936	4402
920.047	4538
920.157	4474
920.267	4759
920.378	4573
920.488	4516
920.598	4733
920.708	4915
920.818	4771
920.928	4744
921.038	4957
921.148	4953
921.258	4630
921.368	4588
921.477	4519
921.587	4550
921.697	4432
921.806	4577
921.916	4440
922.025	4291
922.134	4333
922.244	4253
922.353	4371
922.462	4196
922.571	4143
922.68	4036
922.789	3983
922.898	4063
923.007	3983
923.116	4116
923.224	4112
923.333	4109
923.442	3998
923.55	4025
923.659	4063
923.767	4109
923.876	4017
923.984	4147
924.092	3956
924.201	4082
924.309	4120
924.417	4124
924.525	4067
924.633	4101
924.741	4938
924.849	3926
924.956	4128
925.064	3968
925.172	3922
925.279	3968
925.387	4112
925.494	4032
925.602	4200
925.709	4223
925.816	4036
925.924	4120
926.031	4204
926.138	4215
926.245	4223
926.352	4109
926.459	4257
926.566	4325
926.673	4185
926.779	4097
926.886	4116
926.993	4013
927.099	3991
927.206	3953
927.312	3972
927.419	4109
927.525	4082
927.631	4086
927.737	4017
927.843	3968
927.95	3846
928.056	4013
928.162	4006
928.267	4048
928.373	4611
928.479	4154
928.585	3918
928.69	4013
928.796	4097
928.901	3991
929.007	3865
929.112	4074
929.218	4002
929.323	3945
929.428	3926
929.533	4120
929.638	3926
929.743	4013
929.848	4055
929.953	4036
930.058	3930
930.163	3823
930.267	3846
930.372	3945
930.477	3842
930.581	4101
930.685	3964
930.79	3869
930.894	3930
930.998	3884
931.103	4059
931.207	3717
931.311	3720
931.415	3694
931.519	3530
931.623	3553
