Data from test_V78500241_2263.txt Node
Date: Fri Mar 25 17:04:44 CST 2022
User: usil
Spectrometer: V785-0024
Trigger mode: 0
Integration Time (sec): 4.000000E-1
Scans to average: 1
Nonlinearity correction enabled: false
Boxcar width: 0
Storing dark spectrum: false
XAxis mode: Wavelengths
Number of Pixels in Spectrum: 1024
>>>>>Begin Spectral Data<<<<<
801.071	7982
801.214	8024
801.356	7902
801.499	7822
801.641	7765
801.783	7868
801.926	7963
802.068	7993
802.211	8020
802.353	7997
802.496	7837
802.638	7902
802.78	7917
802.923	7890
803.065	7940
803.208	7887
803.35	7974
803.492	8073
803.635	8126
803.777	8096
803.919	8130
804.061	8396
804.204	8195
804.346	8088
804.488	7936
804.63	8084
804.773	7967
804.915	8134
805.057	8305
805.199	8100
805.341	8157
805.483	8256
805.626	8282
805.768	8103
805.91	8210
806.052	8210
806.194	8046
806.336	8294
806.478	8077
806.62	8027
806.762	8119
806.904	8259
807.046	8442
807.188	8400
807.33	8309
807.472	8298
807.614	8161
807.756	8183
807.898	7993
808.04	7932
808.182	7814
808.324	7894
808.465	7814
808.607	8092
808.749	8054
808.891	8195
809.033	8317
809.174	8259
809.316	8054
809.458	8077
809.6	8027
809.741	8069
809.883	8008
810.025	8046
810.166	8081
810.308	8005
810.45	7913
810.591	7818
810.733	7734
810.875	7670
811.016	7514
811.158	7502
811.299	7609
811.441	7769
811.582	7727
811.724	7651
811.865	7559
812.007	7533
812.148	7632
812.29	7556
812.431	7727
812.573	7940
812.714	7951
812.855	8065
812.997	8256
813.138	8298
813.279	8172
813.421	8096
813.562	7978
813.703	7826
813.845	7734
813.986	7426
814.127	7270
814.268	7251
814.41	7225
814.551	7156
814.692	7213
814.833	7084
814.974	7137
815.115	7122
815.256	6985
815.397	6905
815.539	6977
815.68	6798
815.821	6814
815.962	6852
816.103	6844
816.244	6715
816.385	6585
816.526	6616
816.666	6513
816.807	6357
816.948	6441
817.089	6483
817.23	6471
817.371	6369
817.512	6380
817.653	6445
817.793	6353
817.934	6403
818.075	6464
818.216	6498
818.356	6452
818.497	6209
818.638	6095
818.778	6117
818.919	6133
819.06	6216
819.2	6346
819.341	6285
819.481	6384
819.622	6566
819.762	6749
819.903	6665
820.043	6589
820.184	6566
820.324	6563
820.465	6738
820.605	6703
820.746	6639
820.886	6521
821.026	6635
821.167	6700
821.307	6787
821.447	6764
821.588	6730
821.728	6612
821.868	6517
822.008	6331
822.149	6346
822.289	6445
822.429	6152
822.569	6114
822.709	6083
822.849	5942
822.99	5950
823.13	5923
823.27	5950
823.41	5824
823.55	5802
823.69	5737
823.83	5764
823.97	5661
824.11	5558
824.25	5478
824.389	5592
824.529	5543
824.669	5524
824.809	5615
824.949	5691
825.089	5649
825.228	5547
825.368	5398
825.508	5318
825.648	5398
825.787	5322
825.927	5383
826.067	5303
826.206	5277
826.346	5398
826.485	5433
826.625	5444
826.765	5543
826.904	5455
827.044	5280
827.183	5258
827.323	5147
827.462	5280
827.601	5201
827.741	5201
827.88	5223
828.02	5098
828.159	5242
828.298	5330
828.437	5357
828.577	5246
828.716	5452
828.855	5353
828.994	5147
829.134	5162
829.273	5208
829.412	5098
829.551	5147
829.69	5162
829.829	5216
829.968	5364
830.107	5296
830.246	5246
830.385	5208
830.524	5121
830.663	5105
830.802	5029
830.941	4915
831.08	4828
831.219	4957
831.357	4930
831.496	5204
831.635	4904
831.774	4831
831.913	4847
832.051	4755
832.19	4748
832.329	4870
832.467	4679
832.606	4637
832.744	4725
832.883	4729
833.022	4736
833.16	4759
833.299	4793
833.437	4790
833.576	4911
833.714	4862
833.852	4873
833.991	4866
834.129	4930
834.267	4911
834.406	4866
834.544	4972
834.682	4949
834.821	4987
834.959	5162
835.097	5003
835.235	5178
835.373	5041
835.511	5117
835.65	5045
835.788	5006
835.926	4953
836.064	4908
836.202	4930
836.34	5162
836.478	5265
836.615	5079
836.753	5151
836.891	5311
837.029	5288
837.167	5216
837.305	5189
837.443	5113
837.58	5075
837.718	5284
837.856	5155
837.993	5155
838.131	5273
838.269	5227
838.406	5235
838.544	5159
838.681	5022
838.819	4923
838.956	4892
839.094	4911
839.231	4930
839.369	5045
839.506	5387
839.643	5261
839.781	5029
839.918	5056
840.055	5132
840.193	5052
840.33	5086
840.467	5124
840.604	5181
840.742	5410
840.879	5147
841.016	5060
841.153	5136
841.29	5376
841.427	5360
841.564	5318
841.701	5398
841.838	5246
841.975	5220
842.112	5246
842.249	5124
842.385	5086
842.522	5345
842.659	5212
842.796	5105
842.933	5189
843.069	5143
843.206	5147
843.343	5303
843.479	5239
843.616	5273
843.752	5041
843.889	5033
844.025	5223
844.162	4957
844.298	5201
844.435	5071
844.571	5048
844.708	5204
844.844	5265
844.98	5311
845.117	5357
845.253	5098
845.389	5056
845.525	5197
845.661	5102
845.798	5025
845.934	5124
846.07	5010
846.206	5216
846.342	5288
846.478	5136
846.614	5003
846.75	4949
846.886	4927
847.022	5098
847.158	5003
847.294	5102
847.429	5136
847.565	5060
847.701	5311
847.837	4839
847.972	4809
848.108	4957
848.244	4915
848.379	4767
848.515	4714
848.65	4725
848.786	4752
848.921	4748
849.057	4858
849.192	4896
849.328	4778
849.463	4835
849.598	4797
849.734	4736
849.869	4725
850.004	4622
850.14	4634
850.275	4596
850.41	4512
850.545	4550
850.68	4599
850.815	4573
850.95	4596
851.085	4839
851.22	4763
851.355	4641
851.49	4607
851.625	4630
851.76	4618
851.895	4535
852.03	4508
852.165	4645
852.299	4714
852.434	4816
852.569	4725
852.703	4809
852.838	4812
852.973	4961
853.107	4900
853.242	4733
853.376	4675
853.511	4561
853.645	4649
853.78	4793
853.914	4710
854.048	4675
854.183	4630
854.317	4687
854.451	4835
854.585	4626
854.72	4641
854.854	4763
854.988	4577
855.122	4641
855.256	4481
855.39	4641
855.524	4767
855.658	4744
855.792	4687
855.926	4744
856.06	4744
856.194	4843
856.327	4679
856.461	4573
856.595	4599
856.729	4603
856.862	4736
856.996	4748
857.13	4717
857.263	4694
857.397	4816
857.53	4660
857.664	4702
857.797	4740
857.931	4801
858.064	4698
858.197	4721
858.331	4611
858.464	4596
858.597	4497
858.731	4588
858.864	4603
858.997	4599
859.13	4717
859.263	4668
859.396	4683
859.529	4592
859.662	4565
859.795	4554
859.928	4637
860.061	4710
860.194	4786
860.327	4550
860.46	4607
860.592	4687
860.725	4729
860.858	4736
860.99	4596
861.123	4558
861.256	4554
861.388	4622
861.521	5280
861.653	4466
861.786	4405
861.918	4455
862.05	4550
862.183	4538
862.315	4573
862.447	4660
862.58	4508
862.712	4417
862.844	4299
862.976	4440
863.108	4447
863.24	4854
863.372	4322
863.504	4390
863.636	4413
863.768	4478
863.9	4474
864.032	4337
864.164	4398
864.296	4459
864.428	4569
864.559	4588
864.691	4542
864.823	4519
864.954	4493
865.086	4516
865.217	4451
865.349	4428
865.48	4443
865.612	4485
865.743	4656
865.875	4497
866.006	4421
866.137	4447
866.269	4424
866.4	4424
866.531	4440
866.662	4402
866.793	4360
866.924	4462
867.055	4478
867.186	4432
867.317	4421
867.448	4386
867.579	4390
867.71	4390
867.841	4371
867.972	4462
868.103	4455
868.233	4462
868.364	4470
868.495	4470
868.625	4698
868.756	4759
868.886	4546
869.017	4649
869.147	4755
869.278	4748
869.408	4656
869.539	4615
869.669	4698
869.799	4664
869.929	4774
870.06	4714
870.19	4984
870.32	4908
870.45	4938
870.58	4987
870.71	5075
870.84	5094
870.97	4968
871.1	4877
871.23	5124
871.36	5086
871.489	5075
871.619	5075
871.749	5117
871.879	5105
872.008	5181
872.138	5052
872.267	4976
872.397	4854
872.526	4793
872.656	4763
872.785	4824
872.915	4946
873.044	5018
873.173	4915
873.303	4984
873.432	4946
873.561	4904
873.69	4843
873.819	4854
873.948	4908
874.077	4809
874.206	4744
874.335	4763
874.464	4957
874.593	5086
874.722	4938
874.851	5136
874.979	5041
875.108	5052
875.237	4949
875.365	4881
875.494	4896
875.623	4980
875.751	4793
875.88	4835
876.008	4995
876.136	5029
876.265	5235
876.393	5269
876.521	5292
876.65	5254
876.778	5174
876.906	5056
877.034	5041
877.162	5067
877.29	5003
877.418	5048
877.546	5025
877.674	5083
877.802	5018
877.93	5029
878.058	4938
878.185	4877
878.313	4987
878.441	4911
878.568	4805
878.696	4915
878.824	4949
878.951	5006
879.079	5090
879.206	5315
879.333	5083
879.461	4976
879.588	4976
879.715	5075
879.842	5269
879.97	4999
880.097	4809
880.224	4702
880.351	4828
880.478	4809
880.605	4767
880.732	4786
880.859	5105
880.986	4892
881.112	4873
881.239	4786
881.366	4622
881.493	4618
881.619	4554
881.746	4615
881.872	4672
881.999	4687
882.125	4683
882.252	4771
882.378	4790
882.505	4949
882.631	4854
882.757	4687
882.883	4710
883.01	4721
883.136	4637
883.262	4577
883.388	4592
883.514	4763
883.64	4812
883.766	4843
883.892	4675
884.018	4736
884.143	4858
884.269	5037
884.395	4679
884.52	4641
884.646	4615
884.772	4569
884.897	4546
885.023	4675
885.148	4744
885.274	4816
885.399	4835
885.524	4668
885.65	4672
885.775	4797
885.9	4683
886.025	4839
886.15	4801
886.275	4710
886.4	4656
886.525	4710
886.65	4714
886.775	4714
886.9	4892
887.025	5060
887.149	4797
887.274	4653
887.399	4588
887.523	4611
887.648	4592
887.773	4592
887.897	4763
888.021	4767
888.146	4622
888.27	4835
888.395	4892
888.519	4801
888.643	4809
888.767	4873
888.891	4664
889.015	4596
889.139	4660
889.263	4618
889.387	4675
889.511	4885
889.635	4809
889.759	4618
889.883	4637
890.006	4797
890.13	4797
890.254	4653
890.377	4664
890.501	4485
890.624	4481
890.748	4611
890.871	4519
890.995	4466
891.118	4379
891.241	4512
891.364	4561
891.488	4607
891.611	4512
891.734	4500
891.857	4607
891.98	4596
892.103	4668
892.226	4592
892.349	4470
892.471	4440
892.594	4561
892.717	4550
892.839	4554
892.962	4573
893.085	4637
893.207	4641
893.33	4424
893.452	4519
893.575	4653
893.697	4538
893.819	4816
893.941	4797
894.064	4790
894.186	4588
894.308	4569
894.43	4721
894.552	4820
894.674	4736
894.796	4584
894.918	4584
895.04	4569
895.161	4694
895.283	4672
895.405	4580
895.526	4660
895.648	4683
895.769	4656
895.891	4706
896.012	4755
896.134	4679
896.255	4687
896.376	4630
896.498	4580
896.619	4653
896.74	4596
896.861	4637
896.982	5003
897.103	5094
897.224	4839
897.345	4755
897.466	4694
897.587	4744
897.708	4854
897.828	4801
897.949	4622
898.07	4512
898.19	4630
898.311	4763
898.431	4687
898.552	4763
898.672	4782
898.792	4786
898.913	4755
899.033	4569
899.153	4519
899.273	4421
899.393	4462
899.513	4542
899.633	4497
899.753	4550
899.873	4554
899.993	4584
900.113	4531
900.232	4599
900.352	4542
900.472	4459
900.591	4398
900.711	4554
900.83	4413
900.95	4554
901.069	4702
901.189	4546
901.308	4371
901.427	4280
901.546	4333
901.665	4493
901.784	4535
901.904	4341
902.023	4322
902.141	4181
902.26	4135
902.379	4325
902.498	4211
902.617	4192
902.735	4405
902.854	4371
902.973	4360
903.091	4223
903.21	4219
903.328	4287
903.446	4215
903.565	4219
903.683	4341
903.801	4303
903.919	4413
904.038	4405
904.156	4348
904.274	4478
904.392	4383
904.51	4455
904.627	4485
904.745	4550
904.863	4607
904.981	4341
905.098	4306
905.216	4379
905.334	4447
905.451	4432
905.569	4443
905.686	4558
905.803	4550
905.921	4451
906.038	4535
906.155	4470
906.272	4405
906.389	4428
906.506	4348
906.623	4360
906.74	4367
906.857	4322
906.974	4367
907.091	4554
907.208	4649
907.324	4558
907.441	4500
907.557	4329
907.674	4367
907.79	4363
907.907	4375
908.023	4478
908.139	4443
908.256	4386
908.372	4504
908.488	4443
908.604	4329
908.72	4314
908.836	4409
908.952	4379
909.068	4424
909.184	4546
909.3	4497
909.415	4550
909.531	4508
909.647	4375
909.762	4337
909.878	4405
909.993	4428
910.108	4386
910.224	4398
910.339	4516
910.454	4394
910.57	4360
910.685	4341
910.8	4687
910.915	4535
911.03	4470
911.145	4314
911.259	4348
911.374	4352
911.489	4280
911.604	4295
911.718	4185
911.833	4188
911.947	4101
912.062	4029
912.176	4219
912.291	4261
912.405	4230
912.519	4413
912.633	4493
912.748	4363
912.862	4310
912.976	4188
913.09	4124
913.204	4188
913.318	4284
913.431	4341
913.545	4390
913.659	4417
913.772	4375
913.886	4234
914	4242
914.113	4363
914.226	4424
914.34	4417
914.453	4253
914.566	4432
914.68	4303
914.793	4303
914.906	4166
915.019	4147
915.132	4101
915.245	4188
915.358	4249
915.47	4227
915.583	4253
915.696	4337
915.809	4398
915.921	4417
916.034	4238
916.146	4246
916.259	4215
916.371	4348
916.483	4383
916.595	4268
916.708	4333
916.82	4310
916.932	4329
917.044	4295
917.156	4344
917.268	4227
917.38	4257
917.491	4249
917.603	4379
917.715	4409
917.826	4413
917.938	4329
918.049	4261
918.161	4344
918.272	4558
918.384	4546
918.495	4455
918.606	4348
918.717	4280
918.828	4341
918.939	4325
919.05	4257
919.161	4322
919.272	4116
919.383	4234
919.494	4489
919.604	4607
919.715	4394
919.826	4356
919.936	4371
920.047	4500
920.157	4443
920.267	4691
920.378	4535
920.488	4474
920.598	4721
920.708	4892
920.818	4717
920.928	4752
921.038	4919
921.148	4896
921.258	4599
921.368	4573
921.477	4470
921.587	4489
921.697	4352
921.806	4508
921.916	4421
922.025	4280
922.134	4280
922.244	4196
922.353	4341
922.462	4196
922.571	4116
922.68	4032
922.789	3975
922.898	4055
923.007	4017
923.116	4090
923.224	4112
923.333	4128
923.442	3979
923.55	3972
923.659	4013
923.767	4086
923.876	4029
923.984	4120
924.092	4021
924.201	4051
924.309	4116
924.417	4124
924.525	4040
924.633	4120
924.741	5041
924.849	3926
924.956	4101
925.064	3956
925.172	3903
925.279	3968
925.387	4055
925.494	4090
925.602	4196
925.709	4173
925.816	4021
925.924	4116
926.031	4249
926.138	4109
926.245	4204
926.352	4116
926.459	4230
926.566	4295
926.673	4147
926.779	4051
926.886	4063
926.993	3968
927.099	3949
927.206	3960
927.312	3926
927.419	4067
927.525	4006
927.631	4044
927.737	3949
927.843	3960
927.95	3846
928.056	3945
928.162	3983
928.267	4025
928.373	4679
928.479	4090
928.585	3835
928.69	4025
928.796	4093
928.901	3964
929.007	3800
929.112	3998
929.218	3983
929.323	3987
929.428	3930
929.533	4086
929.638	3899
929.743	3975
929.848	4067
929.953	3987
930.058	3991
930.163	3804
930.267	3819
930.372	3960
930.477	3743
930.581	4090
930.685	3941
930.79	3831
930.894	3888
930.998	3816
931.103	4032
931.207	3667
931.311	3694
931.415	3679
931.519	3515
931.623	3572
