Data from test_V78500241_1506.txt Node
Date: Fri Mar 25 16:59:28 CST 2022
User: usil
Spectrometer: V785-0024
Trigger mode: 0
Integration Time (sec): 4.000000E-1
Scans to average: 1
Nonlinearity correction enabled: false
Boxcar width: 0
Storing dark spectrum: false
XAxis mode: Wavelengths
Number of Pixels in Spectrum: 1024
>>>>>Begin Spectral Data<<<<<
801.071	8088
801.214	8062
801.356	7902
801.499	7898
801.641	7841
801.783	7811
801.926	7970
802.068	7925
802.211	8043
802.353	8050
802.496	7925
802.638	7917
802.78	7883
802.923	7967
803.065	7921
803.208	8031
803.35	7974
803.492	8123
803.635	8206
803.777	8073
803.919	8180
804.061	8492
804.204	8180
804.346	8081
804.488	8008
804.63	8088
804.773	8046
804.915	8153
805.057	8271
805.199	8195
805.341	8248
805.483	8286
805.626	8221
805.768	8142
805.91	8271
806.052	8279
806.194	8096
806.336	8336
806.478	8176
806.62	8039
806.762	8183
806.904	8237
807.046	8492
807.188	8347
807.33	8324
807.472	8366
807.614	8191
807.756	8202
807.898	8084
808.04	7970
808.182	7917
808.324	7951
808.465	7944
808.607	8084
808.749	8134
808.891	8142
809.033	8343
809.174	8256
809.316	8050
809.458	8046
809.6	8005
809.741	8088
809.883	8058
810.025	8100
810.166	8088
810.308	8031
810.45	8020
810.591	7883
810.733	7753
810.875	7674
811.016	7563
811.158	7529
811.299	7567
811.441	7712
811.582	7742
811.724	7620
811.865	7628
812.007	7594
812.148	7578
812.29	7647
812.431	7765
812.573	7856
812.714	8062
812.855	8084
812.997	8237
813.138	8343
813.279	8218
813.421	8103
813.562	7978
813.703	7807
813.845	7807
813.986	7518
814.127	7228
814.268	7259
814.41	7187
814.551	7198
814.692	7251
814.833	7149
814.974	7171
815.115	7065
815.256	7042
815.397	6928
815.539	6970
815.68	6848
815.821	6837
815.962	6837
816.103	6829
816.244	6730
816.385	6669
816.526	6662
816.666	6460
816.807	6372
816.948	6448
817.089	6456
817.23	6410
817.371	6388
817.512	6414
817.653	6448
817.793	6422
817.934	6376
818.075	6437
818.216	6464
818.356	6395
818.497	6258
818.638	6133
818.778	6152
818.919	6190
819.06	6205
819.2	6403
819.341	6365
819.481	6357
819.622	6563
819.762	6707
819.903	6684
820.043	6627
820.184	6623
820.324	6604
820.465	6730
820.605	6760
820.746	6654
820.886	6513
821.026	6650
821.167	6692
821.307	6806
821.447	6783
821.588	6711
821.728	6650
821.868	6509
822.008	6331
822.149	6399
822.289	6323
822.429	6167
822.569	6091
822.709	6102
822.849	5935
822.99	5923
823.13	5893
823.27	5931
823.41	5836
823.55	5844
823.69	5855
823.83	5756
823.97	5665
824.11	5520
824.25	5581
824.389	5566
824.529	5581
824.669	5566
824.809	5657
824.949	5688
825.089	5619
825.228	5608
825.368	5444
825.508	5368
825.648	5376
825.787	5395
825.927	5372
826.067	5349
826.206	5292
826.346	5440
826.485	5429
826.625	5410
826.765	5547
826.904	5512
827.044	5322
827.183	5258
827.323	5147
827.462	5307
827.601	5197
827.741	5231
827.88	5208
828.02	5102
828.159	5204
828.298	5318
828.437	5368
828.577	5307
828.716	5490
828.855	5383
828.994	5235
829.134	5140
829.273	5189
829.412	5143
829.551	5193
829.69	5235
829.829	5235
829.968	5406
830.107	5303
830.246	5227
830.385	5212
830.524	5086
830.663	5128
830.802	4965
830.941	4850
831.08	4965
831.219	5014
831.357	5003
831.496	5170
831.635	4930
831.774	4908
831.913	4805
832.051	4755
832.19	4736
832.329	4850
832.467	4744
832.606	4618
832.744	4736
832.883	4752
833.022	4733
833.16	4790
833.299	4831
833.437	4805
833.576	4843
833.714	4854
833.852	4885
833.991	4892
834.129	4980
834.267	4972
834.406	4911
834.544	4980
834.682	4987
834.821	4999
834.959	5147
835.097	5060
835.235	5151
835.373	5102
835.511	5132
835.65	5048
835.788	5022
835.926	4930
836.064	4847
836.202	4949
836.34	5178
836.478	5193
836.615	5155
836.753	5181
836.891	5307
837.029	5261
837.167	5223
837.305	5174
837.443	5128
837.58	5071
837.718	5223
837.856	5212
837.993	5181
838.131	5246
838.269	5208
838.406	5162
838.544	5189
838.681	5071
838.819	5029
838.956	4987
839.094	4915
839.231	4976
839.369	5079
839.506	5417
839.643	5242
839.781	5060
839.918	5060
840.055	5071
840.193	5128
840.33	5083
840.467	5143
840.604	5189
840.742	5490
840.879	5090
841.016	5117
841.153	5151
841.29	5387
841.427	5261
841.564	5311
841.701	5376
841.838	5318
841.975	5250
842.112	5231
842.249	5159
842.385	5102
842.522	5349
842.659	5212
842.796	5181
842.933	5216
843.069	5174
843.206	5155
843.343	5353
843.479	5231
843.616	5254
843.752	5033
843.889	5018
844.025	5204
844.162	5022
844.298	5185
844.435	5117
844.571	5098
844.708	5216
844.844	5303
844.98	5353
845.117	5307
845.253	5105
845.389	5083
845.525	5239
845.661	5170
845.798	5018
845.934	5155
846.07	5079
846.206	5250
846.342	5299
846.478	5189
846.614	5041
846.75	4949
846.886	4972
847.022	5105
847.158	5022
847.294	5045
847.429	5102
847.565	5010
847.701	5322
847.837	4877
847.972	4854
848.108	4889
848.244	4889
848.379	4797
848.515	4771
848.65	4755
848.786	4782
848.921	4793
849.057	4908
849.192	4930
849.328	4790
849.463	4831
849.598	4782
849.734	4763
849.869	4683
850.004	4656
850.14	4687
850.275	4599
850.41	4531
850.545	4573
850.68	4607
850.815	4622
850.95	4645
851.085	4801
851.22	4805
851.355	4717
851.49	4637
851.625	4645
851.76	4649
851.895	4569
852.03	4584
852.165	4634
852.299	4763
852.434	4790
852.569	4725
852.703	4767
852.838	4873
852.973	4934
853.107	4900
853.242	4744
853.376	4675
853.511	4565
853.645	4637
853.78	4797
853.914	4717
854.048	4679
854.183	4618
854.317	4679
854.451	4873
854.585	4656
854.72	4618
854.854	4748
854.988	4615
855.122	4630
855.256	4558
855.39	4660
855.524	4725
855.658	4717
855.792	4694
855.926	4679
856.06	4733
856.194	4793
856.327	4706
856.461	4611
856.595	4599
856.729	4630
856.862	4778
856.996	4714
857.13	4725
857.263	4771
857.397	4858
857.53	4630
857.664	4744
857.797	4767
857.931	4763
858.064	4710
858.197	4729
858.331	4672
858.464	4618
858.597	4535
858.731	4634
858.864	4641
858.997	4596
859.13	4645
859.263	4698
859.396	4702
859.529	4558
859.662	4588
859.795	4546
859.928	4607
860.061	4763
860.194	4778
860.327	4615
860.46	4565
860.592	4675
860.725	4740
860.858	4691
860.99	4584
861.123	4561
861.256	4478
861.388	4641
861.521	5334
861.653	4443
861.786	4497
861.918	4478
862.05	4542
862.183	4558
862.315	4641
862.447	4573
862.58	4512
862.712	4443
862.844	4363
862.976	4481
863.108	4470
863.24	4801
863.372	4337
863.504	4436
863.636	4405
863.768	4485
863.9	4436
864.032	4352
864.164	4440
864.296	4474
864.428	4546
864.559	4565
864.691	4500
864.823	4527
864.954	4519
865.086	4508
865.217	4451
865.349	4390
865.48	4451
865.612	4470
865.743	4626
865.875	4466
866.006	4424
866.137	4451
866.269	4409
866.4	4451
866.531	4478
866.662	4360
866.793	4390
866.924	4424
867.055	4500
867.186	4398
867.317	4432
867.448	4413
867.579	4478
867.71	4394
867.841	4375
867.972	4447
868.103	4489
868.233	4409
868.364	4459
868.495	4443
868.625	4672
868.756	4752
868.886	4561
869.017	4630
869.147	4755
869.278	4755
869.408	4645
869.539	4611
869.669	4733
869.799	4675
869.929	4771
870.06	4740
870.19	4972
870.32	4942
870.45	4980
870.58	5006
870.71	5094
870.84	5105
870.97	4946
871.1	4889
871.23	5128
871.36	5060
871.489	5037
871.619	5086
871.749	5086
871.879	5162
872.008	5143
872.138	5083
872.267	4999
872.397	4858
872.526	4793
872.656	4691
872.785	4809
872.915	4972
873.044	5018
873.173	4934
873.303	4980
873.432	4999
873.561	4949
873.69	4889
873.819	4824
873.948	4927
874.077	4774
874.206	4771
874.335	4782
874.464	4934
874.593	5090
874.722	4968
874.851	5132
874.979	5052
875.108	5006
875.237	4942
875.365	4812
875.494	4858
875.623	4972
875.751	4816
875.88	4881
876.008	4980
876.136	5045
876.265	5143
876.393	5258
876.521	5250
876.65	5212
876.778	5204
876.906	5083
877.034	5014
877.162	5056
877.29	4961
877.418	5018
877.546	4995
877.674	5037
877.802	5025
877.93	4991
878.058	4965
878.185	4877
878.313	4911
878.441	4965
878.568	4801
878.696	4862
878.824	4908
878.951	4934
879.079	5102
879.206	5311
879.333	5140
879.461	4999
879.588	4984
879.715	5109
879.842	5220
879.97	4987
880.097	4755
880.224	4752
880.351	4763
880.478	4763
880.605	4812
880.732	4755
880.859	5083
880.986	4866
881.112	4923
881.239	4755
881.366	4634
881.493	4607
881.619	4584
881.746	4649
881.872	4622
881.999	4588
882.125	4694
882.252	4763
882.378	4797
882.505	4896
882.631	4759
882.757	4664
882.883	4698
883.01	4733
883.136	4672
883.262	4599
883.388	4615
883.514	4782
883.64	4862
883.766	4763
883.892	4717
884.018	4721
884.143	4911
884.269	5029
884.395	4649
884.52	4615
884.646	4691
884.772	4573
884.897	4603
885.023	4702
885.148	4786
885.274	4870
885.399	4835
885.524	4733
885.65	4698
885.775	4744
885.9	4752
886.025	4812
886.15	4805
886.275	4755
886.4	4664
886.525	4710
886.65	4687
886.775	4694
886.9	4873
887.025	5037
887.149	4786
887.274	4660
887.399	4603
887.523	4550
887.648	4607
887.773	4592
887.897	4752
888.021	4763
888.146	4668
888.27	4812
888.395	4896
888.519	4778
888.643	4820
888.767	4831
888.891	4672
889.015	4588
889.139	4645
889.263	4603
889.387	4786
889.511	4858
889.635	4839
889.759	4630
889.883	4656
890.006	4771
890.13	4831
890.254	4656
890.377	4683
890.501	4519
890.624	4512
890.748	4607
890.871	4478
890.995	4417
891.118	4394
891.241	4550
891.364	4527
891.488	4626
891.611	4500
891.734	4527
891.857	4607
891.98	4607
892.103	4645
892.226	4584
892.349	4485
892.471	4432
892.594	4516
892.717	4637
892.839	4535
892.962	4618
893.085	4679
893.207	4599
893.33	4474
893.452	4466
893.575	4664
893.697	4588
893.819	4774
893.941	4858
894.064	4763
894.186	4504
894.308	4554
894.43	4721
894.552	4828
894.674	4786
894.796	4508
894.918	4573
895.04	4580
895.161	4679
895.283	4679
895.405	4607
895.526	4630
895.648	4668
895.769	4664
895.891	4691
896.012	4702
896.134	4717
896.255	4641
896.376	4622
896.498	4622
896.619	4641
896.74	4607
896.861	4653
896.982	4923
897.103	5048
897.224	4843
897.345	4744
897.466	4687
897.587	4744
897.708	4892
897.828	4748
897.949	4660
898.07	4565
898.19	4599
898.311	4843
898.431	4641
898.552	4744
898.672	4828
898.792	4812
898.913	4767
899.033	4645
899.153	4474
899.273	4474
899.393	4493
899.513	4535
899.633	4504
899.753	4489
899.873	4531
899.993	4588
900.113	4603
900.232	4554
900.352	4554
900.472	4440
900.591	4459
900.711	4489
900.83	4451
900.95	4573
901.069	4683
901.189	4531
901.308	4344
901.427	4337
901.546	4367
901.665	4470
901.784	4504
901.904	4386
902.023	4329
902.141	4196
902.26	4147
902.379	4314
902.498	4207
902.617	4207
902.735	4386
902.854	4390
902.973	4322
903.091	4207
903.21	4204
903.328	4318
903.446	4306
903.565	4280
903.683	4360
903.801	4268
903.919	4383
904.038	4508
904.156	4344
904.274	4432
904.392	4383
904.51	4436
904.627	4432
904.745	4554
904.863	4645
904.981	4390
905.098	4333
905.216	4325
905.334	4440
905.451	4443
905.569	4379
905.686	4523
905.803	4569
905.921	4398
906.038	4516
906.155	4455
906.272	4417
906.389	4432
906.506	4363
906.623	4333
906.74	4383
906.857	4291
906.974	4303
907.091	4588
907.208	4683
907.324	4561
907.441	4459
907.557	4371
907.674	4299
907.79	4348
907.907	4402
908.023	4504
908.139	4462
908.256	4424
908.372	4466
908.488	4428
908.604	4352
908.72	4348
908.836	4356
908.952	4344
909.068	4417
909.184	4558
909.3	4474
909.415	4580
909.531	4569
909.647	4348
909.762	4432
909.878	4367
909.993	4428
910.108	4421
910.224	4405
910.339	4455
910.454	4379
910.57	4318
910.685	4310
910.8	4687
910.915	4626
911.03	4500
911.145	4383
911.259	4303
911.374	4360
911.489	4291
911.604	4280
911.718	4128
911.833	4207
911.947	4025
912.062	4029
912.176	4219
912.291	4204
912.405	4253
912.519	4485
912.633	4481
912.748	4390
912.862	4303
912.976	4227
913.09	4090
913.204	4188
913.318	4257
913.431	4383
913.545	4325
913.659	4443
913.772	4310
913.886	4242
914	4227
914.113	4383
914.226	4432
914.34	4413
914.453	4230
914.566	4394
914.68	4303
914.793	4348
914.906	4135
915.019	4128
915.132	4090
915.245	4169
915.358	4204
915.47	4261
915.583	4257
915.696	4287
915.809	4402
915.921	4417
916.034	4253
916.146	4223
916.259	4227
916.371	4363
916.483	4325
916.595	4238
916.708	4341
916.82	4303
916.932	4306
917.044	4287
917.156	4352
917.268	4238
917.38	4249
917.491	4257
917.603	4310
917.715	4394
917.826	4440
917.938	4314
918.049	4196
918.161	4360
918.272	4542
918.384	4550
918.495	4462
918.606	4291
918.717	4257
918.828	4390
918.939	4341
919.05	4246
919.161	4303
919.272	4082
919.383	4200
919.494	4470
919.604	4607
919.715	4443
919.826	4409
919.936	4325
920.047	4497
920.157	4493
920.267	4717
920.378	4519
920.488	4474
920.598	4733
920.708	4843
920.818	4740
920.928	4774
921.038	4896
921.148	4896
921.258	4584
921.368	4527
921.477	4497
921.587	4497
921.697	4375
921.806	4554
921.916	4413
922.025	4299
922.134	4257
922.244	4211
922.353	4329
922.462	4227
922.571	4128
922.68	4017
922.789	3930
922.898	4006
923.007	3968
923.116	4090
923.224	4040
923.333	4051
923.442	3972
923.55	3975
923.659	4021
923.767	4090
923.876	3983
923.984	4086
924.092	3956
924.201	4040
924.309	4116
924.417	4128
924.525	4036
924.633	4086
924.741	4866
924.849	3873
924.956	4120
925.064	3991
925.172	3922
925.279	3945
925.387	4044
925.494	4029
925.602	4204
925.709	4166
925.816	4040
925.924	4116
926.031	4211
926.138	4188
926.245	4211
926.352	4116
926.459	4268
926.566	4272
926.673	4158
926.779	4101
926.886	4074
926.993	3987
927.099	3953
927.206	3899
927.312	3934
927.419	4063
927.525	3994
927.631	4086
927.737	3949
927.843	3983
927.95	3838
928.056	3930
928.162	3949
928.267	4090
928.373	4573
928.479	4131
928.585	3865
928.69	4002
928.796	4097
928.901	3960
929.007	3812
929.112	3991
929.218	3968
929.323	3937
929.428	3945
929.533	4074
929.638	3953
929.743	3934
929.848	4086
929.953	3960
930.058	3926
930.163	3732
930.267	3846
930.372	3968
930.477	3831
930.581	4029
930.685	3922
930.79	3831
930.894	3876
930.998	3857
931.103	4036
931.207	3720
931.311	3717
931.415	3648
931.519	3523
931.623	3526
