Data from test_V78500241_2481.txt Node
Date: Fri Mar 25 17:06:15 CST 2022
User: usil
Spectrometer: V785-0024
Trigger mode: 0
Integration Time (sec): 4.000000E-1
Scans to average: 1
Nonlinearity correction enabled: false
Boxcar width: 0
Storing dark spectrum: false
XAxis mode: Wavelengths
Number of Pixels in Spectrum: 1024
>>>>>Begin Spectral Data<<<<<
801.071	7997
801.214	8065
801.356	7833
801.499	7784
801.641	7742
801.783	7788
801.926	7928
802.068	7932
802.211	7917
802.353	7982
802.496	7833
802.638	7784
802.78	7921
802.923	7890
803.065	7902
803.208	7875
803.35	7902
803.492	8054
803.635	8130
803.777	8103
803.919	8149
804.061	8412
804.204	8126
804.346	8069
804.488	7932
804.63	8126
804.773	7947
804.915	8100
805.057	8279
805.199	8050
805.341	8199
805.483	8195
805.626	8195
805.768	8130
805.91	8202
806.052	8145
806.194	8054
806.336	8202
806.478	8016
806.62	7963
806.762	8100
806.904	8263
807.046	8396
807.188	8366
807.33	8358
807.472	8275
807.614	8157
807.756	8206
807.898	7982
808.04	7871
808.182	7887
808.324	7830
808.465	7898
808.607	8031
808.749	8088
808.891	8218
809.033	8347
809.174	8191
809.316	8077
809.458	8043
809.6	8005
809.741	7963
809.883	7970
810.025	8054
810.166	8103
810.308	7963
810.45	8016
810.591	7852
810.733	7651
810.875	7643
811.016	7483
811.158	7506
811.299	7571
811.441	7727
811.582	7689
811.724	7518
811.865	7510
812.007	7559
812.148	7616
812.29	7582
812.431	7734
812.573	7906
812.714	7993
812.855	8168
812.997	8225
813.138	8267
813.279	8039
813.421	8119
813.562	7936
813.703	7811
813.845	7681
813.986	7434
814.127	7228
814.268	7251
814.41	7175
814.551	7198
814.692	7171
814.833	7053
814.974	7156
815.115	7103
815.256	6966
815.397	6981
815.539	6905
815.68	6726
815.821	6802
815.962	6875
816.103	6848
816.244	6696
816.385	6639
816.526	6601
816.666	6479
816.807	6239
816.948	6475
817.089	6467
817.23	6456
817.371	6429
817.512	6399
817.653	6384
817.793	6342
817.934	6426
818.075	6460
818.216	6422
818.356	6410
818.497	6254
818.638	6148
818.778	6129
818.919	6152
819.06	6159
819.2	6372
819.341	6281
819.481	6422
819.622	6544
819.762	6696
819.903	6745
820.043	6631
820.184	6597
820.324	6642
820.465	6639
820.605	6658
820.746	6616
820.886	6547
821.026	6707
821.167	6745
821.307	6791
821.447	6791
821.588	6711
821.728	6585
821.868	6502
822.008	6346
822.149	6323
822.289	6346
822.429	6114
822.569	6117
822.709	6133
822.849	5874
822.99	5958
823.13	5908
823.27	5889
823.41	5786
823.55	5847
823.69	5779
823.83	5779
823.97	5699
824.11	5516
824.25	5551
824.389	5535
824.529	5562
824.669	5558
824.809	5653
824.949	5691
825.089	5638
825.228	5516
825.368	5376
825.508	5395
825.648	5376
825.787	5345
825.927	5337
826.067	5349
826.206	5284
826.346	5322
826.485	5406
826.625	5395
826.765	5608
826.904	5532
827.044	5254
827.183	5227
827.323	5132
827.462	5277
827.601	5197
827.741	5181
827.88	5201
828.02	5140
828.159	5242
828.298	5296
828.437	5315
828.577	5277
828.716	5509
828.855	5288
828.994	5201
829.134	5128
829.273	5201
829.412	5143
829.551	5117
829.69	5117
829.829	5193
829.968	5376
830.107	5292
830.246	5284
830.385	5223
830.524	5075
830.663	5060
830.802	5010
830.941	4892
831.08	4820
831.219	4999
831.357	4972
831.496	5162
831.635	4980
831.774	4793
831.913	4885
832.051	4725
832.19	4748
832.329	4839
832.467	4706
832.606	4645
832.744	4752
832.883	4725
833.022	4698
833.16	4759
833.299	4778
833.437	4805
833.576	4816
833.714	4824
833.852	4877
833.991	4946
834.129	4972
834.267	4908
834.406	4877
834.544	4968
834.682	4961
834.821	5003
834.959	5159
835.097	5006
835.235	5193
835.373	5083
835.511	5079
835.65	5048
835.788	5067
835.926	4835
836.064	4889
836.202	4873
836.34	5143
836.478	5204
836.615	5140
836.753	5220
836.891	5288
837.029	5246
837.167	5201
837.305	5166
837.443	5166
837.58	5075
837.718	5299
837.856	5201
837.993	5197
838.131	5242
838.269	5254
838.406	5189
838.544	5201
838.681	5025
838.819	4965
838.956	4892
839.094	4923
839.231	4980
839.369	5090
839.506	5440
839.643	5258
839.781	5029
839.918	5014
840.055	5102
840.193	5124
840.33	5098
840.467	5128
840.604	5212
840.742	5376
840.879	5041
841.016	5102
841.153	5117
841.29	5383
841.427	5379
841.564	5345
841.701	5337
841.838	5277
841.975	5277
842.112	5299
842.249	5143
842.385	5109
842.522	5337
842.659	5166
842.796	5132
842.933	5166
843.069	5094
843.206	5151
843.343	5280
843.479	5246
843.616	5315
843.752	5037
843.889	4991
844.025	5208
844.162	4987
844.298	5208
844.435	5117
844.571	5006
844.708	5178
844.844	5277
844.98	5322
845.117	5280
845.253	5071
845.389	5098
845.525	5174
845.661	5079
845.798	5003
845.934	5155
846.07	5071
846.206	5159
846.342	5277
846.478	5231
846.614	5079
846.75	4976
846.886	4949
847.022	5151
847.158	5018
847.294	5025
847.429	5067
847.565	5098
847.701	5337
847.837	4900
847.972	4843
848.108	4942
848.244	4957
848.379	4778
848.515	4717
848.65	4816
848.786	4778
848.921	4740
849.057	4862
849.192	4919
849.328	4790
849.463	4850
849.598	4820
849.734	4759
849.869	4698
850.004	4615
850.14	4630
850.275	4641
850.41	4508
850.545	4538
850.68	4656
850.815	4626
850.95	4645
851.085	4824
851.22	4733
851.355	4679
851.49	4645
851.625	4634
851.76	4618
851.895	4516
852.03	4500
852.165	4668
852.299	4763
852.434	4797
852.569	4698
852.703	4828
852.838	4824
852.973	4915
853.107	4915
853.242	4763
853.376	4698
853.511	4527
853.645	4599
853.78	4793
853.914	4675
854.048	4675
854.183	4615
854.317	4710
854.451	4812
854.585	4634
854.72	4664
854.854	4740
854.988	4569
855.122	4653
855.256	4558
855.39	4694
855.524	4774
855.658	4698
855.792	4694
855.926	4721
856.06	4759
856.194	4782
856.327	4668
856.461	4603
856.595	4622
856.729	4584
856.862	4771
856.996	4706
857.13	4702
857.263	4759
857.397	4797
857.53	4637
857.664	4668
857.797	4755
857.931	4755
858.064	4679
858.197	4740
858.331	4603
858.464	4615
858.597	4504
858.731	4649
858.864	4580
858.997	4634
859.13	4645
859.263	4706
859.396	4725
859.529	4596
859.662	4622
859.795	4474
859.928	4630
860.061	4714
860.194	4778
860.327	4584
860.46	4611
860.592	4740
860.725	4687
860.858	4755
860.99	4535
861.123	4512
861.256	4516
861.388	4672
861.521	5185
861.653	4489
861.786	4424
861.918	4459
862.05	4527
862.183	4558
862.315	4592
862.447	4641
862.58	4500
862.712	4379
862.844	4291
862.976	4459
863.108	4447
863.24	4847
863.372	4322
863.504	4409
863.636	4360
863.768	4504
863.9	4432
864.032	4363
864.164	4363
864.296	4512
864.428	4497
864.559	4523
864.691	4554
864.823	4493
864.954	4478
865.086	4516
865.217	4451
865.349	4424
865.48	4462
865.612	4512
865.743	4630
865.875	4424
866.006	4417
866.137	4497
866.269	4519
866.4	4436
866.531	4413
866.662	4394
866.793	4375
866.924	4398
867.055	4504
867.186	4421
867.317	4375
867.448	4337
867.579	4402
867.71	4424
867.841	4333
867.972	4443
868.103	4459
868.233	4436
868.364	4390
868.495	4481
868.625	4668
868.756	4725
868.886	4523
869.017	4622
869.147	4801
869.278	4755
869.408	4637
869.539	4634
869.669	4668
869.799	4710
869.929	4797
870.06	4733
870.19	4934
870.32	4930
870.45	4984
870.58	4976
870.71	5064
870.84	5075
870.97	4991
871.1	4911
871.23	5143
871.36	5109
871.489	5033
871.619	5056
871.749	5056
871.879	5128
872.008	5170
872.138	5010
872.267	4976
872.397	4831
872.526	4790
872.656	4702
872.785	4801
872.915	4965
873.044	5006
873.173	4919
873.303	4942
873.432	4938
873.561	4919
873.69	4858
873.819	4835
873.948	4923
874.077	4854
874.206	4740
874.335	4809
874.464	4889
874.593	5041
874.722	5010
874.851	5136
874.979	5067
875.108	5029
875.237	4862
875.365	4877
875.494	4850
875.623	4968
875.751	4816
875.88	4889
876.008	5003
876.136	5037
876.265	5227
876.393	5326
876.521	5277
876.65	5166
876.778	5159
876.906	5037
877.034	5048
877.162	5033
877.29	5037
877.418	5048
877.546	5060
877.674	5052
877.802	4984
877.93	5025
878.058	4946
878.185	4915
878.313	4930
878.441	4900
878.568	4877
878.696	4934
878.824	4934
878.951	5029
879.079	5121
879.206	5322
879.333	5105
879.461	4957
879.588	5006
879.715	5132
879.842	5201
879.97	5018
880.097	4805
880.224	4721
880.351	4820
880.478	4831
880.605	4831
880.732	4793
880.859	5098
880.986	4900
881.112	4896
881.239	4824
881.366	4679
881.493	4588
881.619	4577
881.746	4599
881.872	4660
881.999	4618
882.125	4691
882.252	4763
882.378	4862
882.505	4961
882.631	4797
882.757	4714
882.883	4733
883.01	4748
883.136	4687
883.262	4554
883.388	4519
883.514	4797
883.64	4877
883.766	4793
883.892	4691
884.018	4691
884.143	4862
884.269	5025
884.395	4717
884.52	4592
884.646	4653
884.772	4580
884.897	4573
885.023	4634
885.148	4763
885.274	4881
885.399	4786
885.524	4759
885.65	4725
885.775	4729
885.9	4740
886.025	4904
886.15	4831
886.275	4733
886.4	4656
886.525	4721
886.65	4714
886.775	4656
886.9	4908
887.025	5052
887.149	4824
887.274	4611
887.399	4603
887.523	4626
887.648	4569
887.773	4577
887.897	4714
888.021	4793
888.146	4660
888.27	4839
888.395	4911
888.519	4763
888.643	4839
888.767	4816
888.891	4698
889.015	4569
889.139	4698
889.263	4615
889.387	4759
889.511	4782
889.635	4805
889.759	4656
889.883	4679
890.006	4729
890.13	4793
890.254	4603
890.377	4694
890.501	4542
890.624	4527
890.748	4634
890.871	4474
890.995	4398
891.118	4417
891.241	4512
891.364	4558
891.488	4618
891.611	4500
891.734	4519
891.857	4615
891.98	4531
892.103	4645
892.226	4580
892.349	4516
892.471	4386
892.594	4538
892.717	4645
892.839	4569
892.962	4584
893.085	4615
893.207	4584
893.33	4459
893.452	4558
893.575	4660
893.697	4634
893.819	4793
893.941	4828
894.064	4771
894.186	4588
894.308	4565
894.43	4672
894.552	4854
894.674	4774
894.796	4561
894.918	4599
895.04	4588
895.161	4698
895.283	4691
895.405	4607
895.526	4641
895.648	4683
895.769	4653
895.891	4725
896.012	4740
896.134	4744
896.255	4660
896.376	4615
896.498	4618
896.619	4691
896.74	4626
896.861	4622
896.982	4976
897.103	5052
897.224	4816
897.345	4755
897.466	4656
897.587	4710
897.708	4835
897.828	4824
897.949	4694
898.07	4542
898.19	4622
898.311	4847
898.431	4660
898.552	4691
898.672	4839
898.792	4767
898.913	4748
899.033	4645
899.153	4481
899.273	4367
899.393	4493
899.513	4546
899.633	4516
899.753	4508
899.873	4500
899.993	4577
900.113	4546
900.232	4603
900.352	4531
900.472	4474
900.591	4394
900.711	4497
900.83	4417
900.95	4615
901.069	4691
901.189	4535
901.308	4386
901.427	4318
901.546	4352
901.665	4459
901.784	4504
901.904	4402
902.023	4322
902.141	4192
902.26	4181
902.379	4318
902.498	4238
902.617	4249
902.735	4360
902.854	4356
902.973	4371
903.091	4204
903.21	4249
903.328	4306
903.446	4314
903.565	4211
903.683	4360
903.801	4276
903.919	4409
904.038	4432
904.156	4379
904.274	4383
904.392	4432
904.51	4432
904.627	4462
904.745	4538
904.863	4626
904.981	4386
905.098	4272
905.216	4394
905.334	4424
905.451	4451
905.569	4451
905.686	4565
905.803	4538
905.921	4394
906.038	4577
906.155	4470
906.272	4409
906.389	4436
906.506	4303
906.623	4337
906.74	4379
906.857	4306
906.974	4360
907.091	4580
907.208	4698
907.324	4565
907.441	4489
907.557	4375
907.674	4348
907.79	4329
907.907	4405
908.023	4470
908.139	4481
908.256	4386
908.372	4470
908.488	4451
908.604	4318
908.72	4325
908.836	4333
908.952	4375
909.068	4421
909.184	4596
909.3	4466
909.415	4592
909.531	4554
909.647	4344
909.762	4371
909.878	4344
909.993	4409
910.108	4405
910.224	4398
910.339	4489
910.454	4398
910.57	4352
910.685	4257
910.8	4717
910.915	4611
911.03	4485
911.145	4375
911.259	4291
911.374	4352
911.489	4295
911.604	4249
911.718	4162
911.833	4204
911.947	4078
912.062	4017
912.176	4181
912.291	4257
912.405	4223
912.519	4466
912.633	4504
912.748	4428
912.862	4310
912.976	4246
913.09	4116
913.204	4147
913.318	4230
913.431	4386
913.545	4386
913.659	4413
913.772	4390
913.886	4276
914	4287
914.113	4352
914.226	4432
914.34	4394
914.453	4207
914.566	4451
914.68	4242
914.793	4268
914.906	4169
915.019	4063
915.132	4105
915.245	4196
915.358	4211
915.47	4253
915.583	4291
915.696	4272
915.809	4447
915.921	4455
916.034	4284
916.146	4268
916.259	4207
916.371	4356
916.483	4360
916.595	4272
916.708	4341
916.82	4329
916.932	4276
917.044	4284
917.156	4383
917.268	4188
917.38	4299
917.491	4265
917.603	4318
917.715	4421
917.826	4409
917.938	4322
918.049	4230
918.161	4428
918.272	4497
918.384	4580
918.495	4462
918.606	4284
918.717	4253
918.828	4348
918.939	4356
919.05	4230
919.161	4318
919.272	4150
919.383	4227
919.494	4436
919.604	4653
919.715	4413
919.826	4390
919.936	4367
920.047	4493
920.157	4478
920.267	4683
920.378	4580
920.488	4569
920.598	4714
920.708	4911
920.818	4771
920.928	4759
921.038	4930
921.148	4942
921.258	4653
921.368	4565
921.477	4485
921.587	4474
921.697	4360
921.806	4554
921.916	4386
922.025	4280
922.134	4306
922.244	4242
922.353	4295
922.462	4188
922.571	4131
922.68	3983
922.789	3960
922.898	4044
923.007	3987
923.116	4090
923.224	4090
923.333	4105
923.442	3979
923.55	4048
923.659	4010
923.767	4074
923.876	4010
923.984	4169
924.092	3956
924.201	4025
924.309	4067
924.417	4090
924.525	4044
924.633	4124
924.741	4889
924.849	3960
924.956	4109
925.064	3930
925.172	3899
925.279	3934
925.387	4067
925.494	4063
925.602	4188
925.709	4177
925.816	4055
925.924	4147
926.031	4253
926.138	4124
926.245	4215
926.352	4112
926.459	4249
926.566	4261
926.673	4162
926.779	4109
926.886	4112
926.993	3949
927.099	3956
927.206	3930
927.312	3930
927.419	4048
927.525	4044
927.631	4101
927.737	3941
927.843	3964
927.95	3857
928.056	3937
928.162	3991
928.267	4025
928.373	4668
928.479	4078
928.585	3880
928.69	4010
928.796	4086
928.901	3960
929.007	3873
929.112	4032
929.218	3983
929.323	3956
929.428	3953
929.533	4131
929.638	3903
929.743	3964
929.848	3998
929.953	3979
930.058	3911
930.163	3804
930.267	3838
930.372	3960
930.477	3842
930.581	4082
930.685	4010
930.79	3766
930.894	3884
930.998	3892
931.103	4013
931.207	3713
931.311	3698
931.415	3720
931.519	3534
931.623	3557
