Data from test_V78500241_2529.txt Node
Date: Fri Mar 25 17:06:35 CST 2022
User: usil
Spectrometer: V785-0024
Trigger mode: 0
Integration Time (sec): 4.000000E-1
Scans to average: 1
Nonlinearity correction enabled: false
Boxcar width: 0
Storing dark spectrum: false
XAxis mode: Wavelengths
Number of Pixels in Spectrum: 1024
>>>>>Begin Spectral Data<<<<<
801.071	7955
801.214	7967
801.356	7906
801.499	7868
801.641	7772
801.783	7776
801.926	7883
802.068	7879
802.211	8027
802.353	7959
802.496	7894
802.638	7906
802.78	7928
802.923	7871
803.065	7913
803.208	7913
803.35	7974
803.492	8107
803.635	8149
803.777	8008
803.919	8096
804.061	8438
804.204	8123
804.346	8020
804.488	7967
804.63	8035
804.773	8020
804.915	8180
805.057	8271
805.199	8119
805.341	8229
805.483	8229
805.626	8248
805.768	8119
805.91	8123
806.052	8233
806.194	8107
806.336	8320
806.478	8073
806.62	7978
806.762	8096
806.904	8248
807.046	8454
807.188	8370
807.33	8286
807.472	8328
807.614	8130
807.756	8065
807.898	7997
808.04	7849
808.182	7856
808.324	7826
808.465	7928
808.607	8046
808.749	8069
808.891	8202
809.033	8324
809.174	8237
809.316	8031
809.458	7982
809.6	7974
809.741	8058
809.883	8050
810.025	8065
810.166	7997
810.308	7967
810.45	7951
810.591	7890
810.733	7620
810.875	7689
811.016	7449
811.158	7472
811.299	7540
811.441	7742
811.582	7693
811.724	7594
811.865	7575
812.007	7605
812.148	7559
812.29	7636
812.431	7734
812.573	7917
812.714	7967
812.855	8123
812.997	8202
813.138	8202
813.279	8210
813.421	8050
813.562	7982
813.703	7849
813.845	7731
813.986	7422
814.127	7278
814.268	7221
814.41	7213
814.551	7175
814.692	7244
814.833	7107
814.974	7118
815.115	7129
815.256	6920
815.397	6920
815.539	6935
815.68	6833
815.821	6806
815.962	6890
816.103	6833
816.244	6749
816.385	6612
816.526	6574
816.666	6547
816.807	6300
816.948	6407
817.089	6460
817.23	6467
817.371	6410
817.512	6369
817.653	6361
817.793	6281
817.934	6460
818.075	6433
818.216	6475
818.356	6441
818.497	6285
818.638	6155
818.778	6114
818.919	6182
819.06	6144
819.2	6323
819.341	6319
819.481	6338
819.622	6544
819.762	6726
819.903	6688
820.043	6608
820.184	6604
820.324	6566
820.465	6673
820.605	6593
820.746	6635
820.886	6509
821.026	6696
821.167	6726
821.307	6875
821.447	6779
821.588	6654
821.728	6578
821.868	6528
822.008	6315
822.149	6384
822.289	6323
822.429	6216
822.569	6117
822.709	6125
822.849	5920
822.99	5851
823.13	5912
823.27	5973
823.41	5733
823.55	5844
823.69	5767
823.83	5794
823.97	5668
824.11	5551
824.25	5516
824.389	5573
824.529	5627
824.669	5535
824.809	5630
824.949	5653
825.089	5577
825.228	5516
825.368	5387
825.508	5372
825.648	5406
825.787	5387
825.927	5398
826.067	5326
826.206	5303
826.346	5376
826.485	5364
826.625	5463
826.765	5562
826.904	5471
827.044	5231
827.183	5193
827.323	5105
827.462	5277
827.601	5181
827.741	5178
827.88	5250
828.02	5090
828.159	5250
828.298	5280
828.437	5357
828.577	5246
828.716	5543
828.855	5273
828.994	5143
829.134	5132
829.273	5258
829.412	5136
829.551	5166
829.69	5162
829.829	5265
829.968	5337
830.107	5258
830.246	5292
830.385	5159
830.524	5109
830.663	5060
830.802	4949
830.941	4873
831.08	4896
831.219	5018
831.357	4953
831.496	5128
831.635	4908
831.774	4866
831.913	4847
832.051	4733
832.19	4740
832.329	4831
832.467	4694
832.606	4603
832.744	4725
832.883	4702
833.022	4706
833.16	4801
833.299	4847
833.437	4816
833.576	4831
833.714	4908
833.852	4858
833.991	4847
834.129	4946
834.267	4934
834.406	4904
834.544	4984
834.682	4972
834.821	4904
834.959	5178
835.097	4953
835.235	5155
835.373	5090
835.511	5086
835.65	5010
835.788	5022
835.926	4896
836.064	4915
836.202	4923
836.34	5117
836.478	5250
836.615	5064
836.753	5197
836.891	5242
837.029	5220
837.167	5197
837.305	5162
837.443	5185
837.58	5094
837.718	5246
837.856	5216
837.993	5147
838.131	5254
838.269	5174
838.406	5212
838.544	5231
838.681	5025
838.819	4995
838.956	4850
839.094	4870
839.231	5003
839.369	5117
839.506	5444
839.643	5258
839.781	5067
839.918	5075
840.055	5098
840.193	5083
840.33	5064
840.467	5166
840.604	5147
840.742	5364
840.879	5025
841.016	5086
841.153	5140
841.29	5387
841.427	5307
841.564	5299
841.701	5387
841.838	5273
841.975	5258
842.112	5254
842.249	5132
842.385	5151
842.522	5326
842.659	5136
842.796	5136
842.933	5185
843.069	5147
843.206	5147
843.343	5292
843.479	5231
843.616	5231
843.752	5018
843.889	4961
844.025	5140
844.162	4976
844.298	5197
844.435	5140
844.571	5075
844.708	5220
844.844	5303
844.98	5395
845.117	5277
845.253	5113
845.389	5147
845.525	5166
845.661	5178
845.798	5037
845.934	5102
846.07	5083
846.206	5197
846.342	5284
846.478	5216
846.614	5071
846.75	4923
846.886	4961
847.022	5136
847.158	5029
847.294	5071
847.429	5056
847.565	5083
847.701	5357
847.837	4873
847.972	4850
848.108	4915
848.244	4915
848.379	4816
848.515	4706
848.65	4744
848.786	4774
848.921	4763
849.057	4847
849.192	4900
849.328	4850
849.463	4820
849.598	4759
849.734	4790
849.869	4702
850.004	4634
850.14	4630
850.275	4607
850.41	4519
850.545	4592
850.68	4542
850.815	4672
850.95	4653
851.085	4809
851.22	4748
851.355	4645
851.49	4599
851.625	4603
851.76	4577
851.895	4550
852.03	4599
852.165	4675
852.299	4714
852.434	4752
852.569	4755
852.703	4812
852.838	4843
852.973	4995
853.107	4911
853.242	4733
853.376	4672
853.511	4569
853.645	4634
853.78	4820
853.914	4691
854.048	4596
854.183	4626
854.317	4675
854.451	4850
854.585	4733
854.72	4641
854.854	4740
854.988	4611
855.122	4603
855.256	4538
855.39	4691
855.524	4782
855.658	4691
855.792	4694
855.926	4702
856.06	4771
856.194	4767
856.327	4679
856.461	4645
856.595	4573
856.729	4615
856.862	4786
856.996	4660
857.13	4763
857.263	4714
857.397	4759
857.53	4691
857.664	4725
857.797	4717
857.931	4801
858.064	4698
858.197	4752
858.331	4603
858.464	4580
858.597	4523
858.731	4618
858.864	4626
858.997	4588
859.13	4656
859.263	4687
859.396	4717
859.529	4569
859.662	4554
859.795	4580
859.928	4645
860.061	4793
860.194	4797
860.327	4641
860.46	4550
860.592	4691
860.725	4702
860.858	4706
860.99	4554
861.123	4516
861.256	4500
861.388	4622
861.521	5204
861.653	4451
861.786	4455
861.918	4485
862.05	4519
862.183	4535
862.315	4592
862.447	4679
862.58	4523
862.712	4375
862.844	4367
862.976	4447
863.108	4470
863.24	4710
863.372	4333
863.504	4424
863.636	4390
863.768	4481
863.9	4398
864.032	4333
864.164	4379
864.296	4413
864.428	4535
864.559	4592
864.691	4569
864.823	4516
864.954	4489
865.086	4508
865.217	4474
865.349	4402
865.48	4432
865.612	4462
865.743	4637
865.875	4428
866.006	4440
866.137	4481
866.269	4417
866.4	4421
866.531	4432
866.662	4379
866.793	4405
866.924	4413
867.055	4466
867.186	4455
867.317	4455
867.448	4352
867.579	4360
867.71	4402
867.841	4379
867.972	4436
868.103	4451
868.233	4432
868.364	4436
868.495	4504
868.625	4645
868.756	4763
868.886	4558
869.017	4615
869.147	4782
869.278	4793
869.408	4672
869.539	4634
869.669	4698
869.799	4626
869.929	4759
870.06	4752
870.19	4946
870.32	4873
870.45	4908
870.58	5022
870.71	5121
870.84	5075
870.97	4934
871.1	4900
871.23	5105
871.36	5143
871.489	5014
871.619	5075
871.749	5109
871.879	5105
872.008	5159
872.138	5037
872.267	4976
872.397	4824
872.526	4812
872.656	4763
872.785	4797
872.915	4972
873.044	5022
873.173	4923
873.303	4984
873.432	4953
873.561	4965
873.69	4820
873.819	4885
873.948	4892
874.077	4809
874.206	4717
874.335	4816
874.464	4900
874.593	5086
874.722	4911
874.851	5083
874.979	5022
875.108	5071
875.237	4923
875.365	4889
875.494	4862
875.623	4991
875.751	4835
875.88	4873
876.008	4949
876.136	4991
876.265	5166
876.393	5299
876.521	5193
876.65	5235
876.778	5174
876.906	5075
877.034	5064
877.162	5048
877.29	5018
877.418	5060
877.546	5033
877.674	5018
877.802	5071
877.93	4961
878.058	4934
878.185	4858
878.313	4953
878.441	4984
878.568	4790
878.696	4877
878.824	4942
878.951	5006
879.079	5124
879.206	5254
879.333	5067
879.461	4976
879.588	4976
879.715	5117
879.842	5250
879.97	4991
880.097	4790
880.224	4725
880.351	4809
880.478	4816
880.605	4782
880.732	4816
880.859	5052
880.986	4896
881.112	4881
881.239	4771
881.366	4664
881.493	4577
881.619	4626
881.746	4622
881.872	4649
881.999	4634
882.125	4706
882.252	4744
882.378	4812
882.505	4927
882.631	4809
882.757	4649
882.883	4736
883.01	4653
883.136	4694
883.262	4603
883.388	4611
883.514	4820
883.64	4870
883.766	4786
883.892	4660
884.018	4660
884.143	4858
884.269	4987
884.395	4668
884.52	4603
884.646	4653
884.772	4561
884.897	4538
885.023	4660
885.148	4774
885.274	4870
885.399	4782
885.524	4725
885.65	4706
885.775	4763
885.9	4717
886.025	4862
886.15	4771
886.275	4683
886.4	4611
886.525	4752
886.65	4694
886.775	4668
886.9	4892
887.025	5045
887.149	4759
887.274	4588
887.399	4584
887.523	4611
887.648	4542
887.773	4573
887.897	4786
888.021	4755
888.146	4649
888.27	4816
888.395	4892
888.519	4767
888.643	4828
888.767	4763
888.891	4683
889.015	4626
889.139	4641
889.263	4588
889.387	4740
889.511	4828
889.635	4752
889.759	4687
889.883	4649
890.006	4706
890.13	4809
890.254	4596
890.377	4664
890.501	4596
890.624	4531
890.748	4645
890.871	4535
890.995	4462
891.118	4379
891.241	4512
891.364	4504
891.488	4626
891.611	4489
891.734	4512
891.857	4607
891.98	4573
892.103	4668
892.226	4634
892.349	4527
892.471	4409
892.594	4580
892.717	4561
892.839	4535
892.962	4611
893.085	4641
893.207	4573
893.33	4500
893.452	4538
893.575	4664
893.697	4577
893.819	4835
893.941	4820
894.064	4790
894.186	4630
894.308	4596
894.43	4782
894.552	4812
894.674	4809
894.796	4603
894.918	4599
895.04	4611
895.161	4694
895.283	4717
895.405	4573
895.526	4656
895.648	4717
895.769	4725
895.891	4736
896.012	4744
896.134	4778
896.255	4710
896.376	4687
896.498	4672
896.619	4717
896.74	4622
896.861	4744
896.982	4949
897.103	5132
897.224	4858
897.345	4793
897.466	4721
897.587	4759
897.708	4900
897.828	4854
897.949	4725
898.07	4630
898.19	4725
898.311	4866
898.431	4752
898.552	4786
898.672	4866
898.792	4850
898.913	4835
899.033	4706
899.153	4538
899.273	4500
899.393	4584
899.513	4599
899.633	4577
899.753	4596
899.873	4577
899.993	4550
900.113	4584
900.232	4634
900.352	4618
900.472	4538
900.591	4443
900.711	4550
900.83	4493
900.95	4653
901.069	4725
901.189	4561
901.308	4417
901.427	4390
901.546	4421
901.665	4497
901.784	4535
901.904	4417
902.023	4360
902.141	4261
902.26	4211
902.379	4337
902.498	4246
902.617	4280
902.735	4424
902.854	4436
902.973	4409
903.091	4238
903.21	4246
903.328	4314
903.446	4337
903.565	4306
903.683	4394
903.801	4348
903.919	4436
904.038	4500
904.156	4337
904.274	4451
904.392	4447
904.51	4470
904.627	4558
904.745	4577
904.863	4653
904.981	4405
905.098	4363
905.216	4413
905.334	4390
905.451	4500
905.569	4493
905.686	4550
905.803	4611
905.921	4417
906.038	4577
906.155	4500
906.272	4402
906.389	4519
906.506	4363
906.623	4394
906.74	4451
906.857	4348
906.974	4421
907.091	4569
907.208	4740
907.324	4580
907.441	4481
907.557	4375
907.674	4356
907.79	4371
907.907	4428
908.023	4497
908.139	4516
908.256	4459
908.372	4485
908.488	4481
908.604	4333
908.72	4367
908.836	4375
908.952	4363
909.068	4443
909.184	4599
909.3	4474
909.415	4618
909.531	4592
909.647	4352
909.762	4402
909.878	4348
909.993	4504
910.108	4474
910.224	4474
910.339	4428
910.454	4470
910.57	4383
910.685	4360
910.8	4668
910.915	4656
911.03	4565
911.145	4344
911.259	4371
911.374	4386
911.489	4318
911.604	4341
911.718	4196
911.833	4230
911.947	4109
912.062	4063
912.176	4211
912.291	4253
912.405	4299
912.519	4504
912.633	4523
912.748	4402
912.862	4333
912.976	4242
913.09	4131
913.204	4230
913.318	4303
913.431	4402
913.545	4432
913.659	4489
913.772	4394
913.886	4341
914	4268
914.113	4432
914.226	4466
914.34	4451
914.453	4299
914.566	4440
914.68	4371
914.793	4341
914.906	4192
915.019	4162
915.132	4135
915.245	4204
915.358	4249
915.47	4284
915.583	4284
915.696	4352
915.809	4421
915.921	4447
916.034	4287
916.146	4261
916.259	4230
916.371	4383
916.483	4421
916.595	4249
916.708	4375
916.82	4348
916.932	4333
917.044	4344
917.156	4314
917.268	4272
917.38	4352
917.491	4325
917.603	4371
917.715	4409
917.826	4478
917.938	4333
918.049	4261
918.161	4462
918.272	4558
918.384	4588
918.495	4440
918.606	4329
918.717	4265
918.828	4375
918.939	4394
919.05	4276
919.161	4405
919.272	4143
919.383	4257
919.494	4478
919.604	4656
919.715	4504
919.826	4356
919.936	4470
920.047	4531
920.157	4497
920.267	4729
920.378	4618
920.488	4527
920.598	4755
920.708	4965
920.818	4793
920.928	4801
921.038	4999
921.148	4919
921.258	4660
921.368	4546
921.477	4474
921.587	4455
921.697	4428
921.806	4599
921.916	4428
922.025	4310
922.134	4341
922.244	4284
922.353	4333
922.462	4162
922.571	4169
922.68	4025
922.789	3979
922.898	4029
923.007	3968
923.116	4105
923.224	4067
923.333	4116
923.442	4051
923.55	4040
923.659	4063
923.767	4105
923.876	4010
923.984	4166
924.092	3998
924.201	4112
924.309	4120
924.417	4112
924.525	4109
924.633	4105
924.741	5064
924.849	3956
924.956	4124
925.064	4006
925.172	3915
925.279	3987
925.387	4067
925.494	4074
925.602	4204
925.709	4196
925.816	4074
925.924	4166
926.031	4280
926.138	4188
926.245	4253
926.352	4131
926.459	4303
926.566	4322
926.673	4158
926.779	4128
926.886	4101
926.993	3987
927.099	3991
927.206	3941
927.312	3964
927.419	4093
927.525	4036
927.631	4131
927.737	4040
927.843	3972
927.95	3842
928.056	3960
928.162	4021
928.267	4124
928.373	4607
928.479	4116
928.585	3922
928.69	4093
928.796	4101
928.901	3975
929.007	3896
929.112	4017
929.218	4051
929.323	3911
929.428	3968
929.533	4093
929.638	3941
929.743	3987
929.848	4078
929.953	4078
930.058	4002
930.163	3812
930.267	3865
930.372	3991
930.477	3846
930.581	4078
930.685	3994
930.79	3808
930.894	3941
930.998	3846
931.103	4029
931.207	3751
931.311	3679
931.415	3663
931.519	3553
931.623	3584
