Data from test_V78500241_672.txt Node
Date: Fri Mar 25 16:53:40 CST 2022
User: usil
Spectrometer: V785-0024
Trigger mode: 0
Integration Time (sec): 4.000000E-1
Scans to average: 1
Nonlinearity correction enabled: false
Boxcar width: 0
Storing dark spectrum: false
XAxis mode: Wavelengths
Number of Pixels in Spectrum: 1024
>>>>>Begin Spectral Data<<<<<
801.071	7936
801.214	8016
801.356	7925
801.499	7883
801.641	7727
801.783	7822
801.926	8001
802.068	7959
802.211	7947
802.353	8035
802.496	7906
802.638	7906
802.78	7932
802.923	7852
803.065	7887
803.208	7864
803.35	8012
803.492	8172
803.635	8168
803.777	8035
803.919	8103
804.061	8480
804.204	8092
804.346	8024
804.488	7928
804.63	8100
804.773	7993
804.915	8084
805.057	8298
805.199	8103
805.341	8225
805.483	8244
805.626	8240
805.768	8100
805.91	8164
806.052	8309
806.194	8081
806.336	8339
806.478	8073
806.62	8046
806.762	8157
806.904	8210
807.046	8446
807.188	8358
807.33	8370
807.472	8339
807.614	8218
807.756	8100
807.898	7982
808.04	7830
808.182	7951
808.324	7890
808.465	7902
808.607	8069
808.749	8065
808.891	8176
809.033	8244
809.174	8225
809.316	8020
809.458	8073
809.6	7997
809.741	8062
809.883	8024
810.025	8149
810.166	8088
810.308	8043
810.45	8005
810.591	7890
810.733	7753
810.875	7666
811.016	7548
811.158	7476
811.299	7643
811.441	7670
811.582	7632
811.724	7529
811.865	7556
812.007	7601
812.148	7605
812.29	7544
812.431	7681
812.573	7883
812.714	7982
812.855	8103
812.997	8221
813.138	8271
813.279	8214
813.421	8096
813.562	8027
813.703	7841
813.845	7765
813.986	7468
814.127	7327
814.268	7259
814.41	7225
814.551	7122
814.692	7160
814.833	7023
814.974	7065
815.115	7088
815.256	6939
815.397	6920
815.539	6928
815.68	6852
815.821	6776
815.962	6894
816.103	6844
816.244	6669
816.385	6669
816.526	6551
816.666	6441
816.807	6315
816.948	6437
817.089	6429
817.23	6426
817.371	6369
817.512	6357
817.653	6448
817.793	6403
817.934	6475
818.075	6475
818.216	6388
818.356	6395
818.497	6216
818.638	6114
818.778	6129
818.919	6148
819.06	6121
819.2	6285
819.341	6323
819.481	6285
819.622	6536
819.762	6726
819.903	6627
820.043	6517
820.184	6555
820.324	6536
820.465	6681
820.605	6612
820.746	6547
820.886	6452
821.026	6623
821.167	6604
821.307	6795
821.447	6730
821.588	6639
821.728	6509
821.868	6464
822.008	6334
822.149	6308
822.289	6304
822.429	6209
822.569	6057
822.709	6121
822.849	5920
822.99	5821
823.13	5882
823.27	5893
823.41	5798
823.55	5783
823.69	5790
823.83	5771
823.97	5638
824.11	5554
824.25	5493
824.389	5520
824.529	5524
824.669	5509
824.809	5585
824.949	5630
825.089	5627
825.228	5596
825.368	5372
825.508	5353
825.648	5357
825.787	5357
825.927	5357
826.067	5311
826.206	5261
826.346	5376
826.485	5406
826.625	5421
826.765	5562
826.904	5482
827.044	5261
827.183	5227
827.323	5094
827.462	5189
827.601	5159
827.741	5143
827.88	5204
828.02	5048
828.159	5197
828.298	5303
828.437	5353
828.577	5296
828.716	5505
828.855	5292
828.994	5185
829.134	5166
829.273	5197
829.412	5121
829.551	5109
829.69	5162
829.829	5239
829.968	5383
830.107	5292
830.246	5258
830.385	5216
830.524	5204
830.663	5083
830.802	4976
830.941	4908
831.08	4934
831.219	5037
831.357	5003
831.496	5208
831.635	4999
831.774	4877
831.913	4889
832.051	4763
832.19	4755
832.329	4885
832.467	4736
832.606	4656
832.744	4729
832.883	4668
833.022	4736
833.16	4820
833.299	4885
833.437	4824
833.576	4896
833.714	4900
833.852	4873
833.991	4938
834.129	4984
834.267	4987
834.406	5010
834.544	4995
834.682	4984
834.821	5056
834.959	5235
835.097	5006
835.235	5128
835.373	5136
835.511	5159
835.65	5064
835.788	5018
835.926	4965
836.064	4892
836.202	4927
836.34	5155
836.478	5250
836.615	5162
836.753	5197
836.891	5292
837.029	5303
837.167	5258
837.305	5170
837.443	5178
837.58	5124
837.718	5337
837.856	5212
837.993	5143
838.131	5265
838.269	5250
838.406	5269
838.544	5174
838.681	5083
838.819	5029
838.956	4949
839.094	4938
839.231	5003
839.369	5121
839.506	5463
839.643	5258
839.781	5064
839.918	5022
840.055	5132
840.193	5140
840.33	5155
840.467	5151
840.604	5204
840.742	5444
840.879	5064
841.016	5113
841.153	5231
841.29	5337
841.427	5364
841.564	5364
841.701	5353
841.838	5341
841.975	5273
842.112	5349
842.249	5166
842.385	5193
842.522	5353
842.659	5162
842.796	5155
842.933	5235
843.069	5185
843.206	5162
843.343	5353
843.479	5261
843.616	5280
843.752	5109
843.889	5018
844.025	5170
844.162	5079
844.298	5227
844.435	5113
844.571	5071
844.708	5223
844.844	5330
844.98	5368
845.117	5303
845.253	5140
845.389	5086
845.525	5239
845.661	5189
845.798	5041
845.934	5212
846.07	5136
846.206	5216
846.342	5311
846.478	5185
846.614	4999
846.75	4972
846.886	4976
847.022	5204
847.158	5075
847.294	5147
847.429	5105
847.565	5094
847.701	5372
847.837	4900
847.972	4847
848.108	5025
848.244	4938
848.379	4824
848.515	4790
848.65	4759
848.786	4759
848.921	4809
849.057	4862
849.192	4915
849.328	4866
849.463	4900
849.598	4847
849.734	4824
849.869	4714
850.004	4615
850.14	4725
850.275	4603
850.41	4577
850.545	4626
850.68	4675
850.815	4637
850.95	4596
851.085	4919
851.22	4771
851.355	4683
851.49	4645
851.625	4656
851.76	4660
851.895	4615
852.03	4542
852.165	4691
852.299	4698
852.434	4805
852.569	4740
852.703	4782
852.838	4873
852.973	4946
853.107	4942
853.242	4816
853.376	4706
853.511	4569
853.645	4630
853.78	4835
853.914	4710
854.048	4691
854.183	4691
854.317	4717
854.451	4854
854.585	4698
854.72	4698
854.854	4767
854.988	4626
855.122	4717
855.256	4588
855.39	4668
855.524	4782
855.658	4752
855.792	4729
855.926	4752
856.06	4778
856.194	4831
856.327	4691
856.461	4664
856.595	4656
856.729	4615
856.862	4729
856.996	4721
857.13	4767
857.263	4835
857.397	4809
857.53	4733
857.664	4717
857.797	4805
857.931	4850
858.064	4736
858.197	4736
858.331	4637
858.464	4626
858.597	4531
858.731	4672
858.864	4679
858.997	4622
859.13	4687
859.263	4717
859.396	4721
859.529	4618
859.662	4546
859.795	4603
859.928	4691
860.061	4736
860.194	4763
860.327	4672
860.46	4584
860.592	4740
860.725	4714
860.858	4717
860.99	4573
861.123	4558
861.256	4542
861.388	4668
861.521	5330
861.653	4504
861.786	4485
861.918	4436
862.05	4538
862.183	4599
862.315	4588
862.447	4706
862.58	4584
862.712	4459
862.844	4314
862.976	4485
863.108	4459
863.24	4889
863.372	4318
863.504	4497
863.636	4428
863.768	4474
863.9	4455
864.032	4383
864.164	4443
864.296	4538
864.428	4573
864.559	4569
864.691	4573
864.823	4535
864.954	4531
865.086	4546
865.217	4497
865.349	4455
865.48	4443
865.612	4535
865.743	4672
865.875	4504
866.006	4455
866.137	4500
866.269	4455
866.4	4470
866.531	4447
866.662	4428
866.793	4417
866.924	4470
867.055	4466
867.186	4504
867.317	4440
867.448	4383
867.579	4413
867.71	4421
867.841	4398
867.972	4497
868.103	4527
868.233	4447
868.364	4493
868.495	4504
868.625	4645
868.756	4771
868.886	4569
869.017	4672
869.147	4828
869.278	4790
869.408	4660
869.539	4755
869.669	4744
869.799	4683
869.929	4782
870.06	4767
870.19	5003
870.32	4999
870.45	4919
870.58	5052
870.71	5124
870.84	5098
870.97	4968
871.1	4957
871.23	5197
871.36	5132
871.489	5029
871.619	5052
871.749	5079
871.879	5140
872.008	5273
872.138	5060
872.267	5006
872.397	4877
872.526	4824
872.656	4721
872.785	4839
872.915	4953
873.044	4953
873.173	4972
873.303	4995
873.432	4995
873.561	4949
873.69	4923
873.819	4896
873.948	4930
874.077	4820
874.206	4816
874.335	4881
874.464	4976
874.593	5109
874.722	5006
874.851	5128
874.979	5041
875.108	5033
875.237	4968
875.365	4877
875.494	4881
875.623	5033
875.751	4889
875.88	4938
876.008	4976
876.136	5067
876.265	5197
876.393	5349
876.521	5326
876.65	5265
876.778	5204
876.906	5098
877.034	5037
877.162	5045
877.29	5025
877.418	5090
877.546	4999
877.674	5064
877.802	5086
877.93	5056
878.058	4942
878.185	4904
878.313	5033
878.441	4995
878.568	4816
878.696	4889
878.824	4980
878.951	5029
879.079	5185
879.206	5273
879.333	5105
879.461	5029
879.588	5033
879.715	5109
879.842	5250
879.97	5033
880.097	4774
880.224	4805
880.351	4835
880.478	4892
880.605	4774
880.732	4847
880.859	5128
880.986	4919
881.112	4900
881.239	4816
881.366	4702
881.493	4615
881.619	4634
881.746	4645
881.872	4702
881.999	4687
882.125	4687
882.252	4809
882.378	4828
882.505	4949
882.631	4801
882.757	4729
882.883	4702
883.01	4752
883.136	4672
883.262	4622
883.388	4649
883.514	4866
883.64	4892
883.766	4835
883.892	4672
884.018	4759
884.143	4919
884.269	5010
884.395	4706
884.52	4634
884.646	4675
884.772	4626
884.897	4584
885.023	4653
885.148	4824
885.274	4892
885.399	4809
885.524	4702
885.65	4702
885.775	4710
885.9	4733
886.025	4850
886.15	4866
886.275	4706
886.4	4733
886.525	4748
886.65	4679
886.775	4691
886.9	4968
887.025	5022
887.149	4831
887.274	4721
887.399	4569
887.523	4641
887.648	4584
887.773	4558
887.897	4786
888.021	4786
888.146	4706
888.27	4843
888.395	4881
888.519	4828
888.643	4862
888.767	4828
888.891	4710
889.015	4596
889.139	4721
889.263	4649
889.387	4740
889.511	4870
889.635	4847
889.759	4645
889.883	4649
890.006	4763
890.13	4854
890.254	4626
890.377	4672
890.501	4508
890.624	4561
890.748	4672
890.871	4550
890.995	4481
891.118	4428
891.241	4516
891.364	4603
891.488	4656
891.611	4554
891.734	4542
891.857	4603
891.98	4622
892.103	4679
892.226	4603
892.349	4580
892.471	4447
892.594	4558
892.717	4592
892.839	4561
892.962	4630
893.085	4637
893.207	4618
893.33	4459
893.452	4508
893.575	4622
893.697	4626
893.819	4843
893.941	4805
894.064	4790
894.186	4577
894.308	4596
894.43	4694
894.552	4862
894.674	4824
894.796	4554
894.918	4588
895.04	4550
895.161	4725
895.283	4653
895.405	4622
895.526	4675
895.648	4698
895.769	4675
895.891	4714
896.012	4778
896.134	4752
896.255	4675
896.376	4664
896.498	4634
896.619	4729
896.74	4641
896.861	4710
896.982	4942
897.103	5075
897.224	4812
897.345	4809
897.466	4714
897.587	4733
897.708	4866
897.828	4786
897.949	4637
898.07	4592
898.19	4649
898.311	4828
898.431	4660
898.552	4729
898.672	4790
898.792	4809
898.913	4759
899.033	4645
899.153	4462
899.273	4443
899.393	4508
899.513	4535
899.633	4523
899.753	4580
899.873	4466
899.993	4607
900.113	4554
900.232	4565
900.352	4573
900.472	4512
900.591	4363
900.711	4451
900.83	4451
900.95	4565
901.069	4683
901.189	4584
901.308	4360
901.427	4402
901.546	4333
901.665	4459
901.784	4523
901.904	4436
902.023	4306
902.141	4177
902.26	4169
902.379	4318
902.498	4230
902.617	4227
902.735	4390
902.854	4405
902.973	4379
903.091	4230
903.21	4238
903.328	4333
903.446	4257
903.565	4261
903.683	4390
903.801	4337
903.919	4390
904.038	4470
904.156	4375
904.274	4424
904.392	4455
904.51	4459
904.627	4485
904.745	4580
904.863	4641
904.981	4440
905.098	4314
905.216	4386
905.334	4428
905.451	4432
905.569	4470
905.686	4538
905.803	4599
905.921	4417
906.038	4573
906.155	4493
906.272	4383
906.389	4432
906.506	4352
906.623	4390
906.74	4413
906.857	4242
906.974	4379
907.091	4535
907.208	4679
907.324	4588
907.441	4497
907.557	4333
907.674	4329
907.79	4325
907.907	4363
908.023	4466
908.139	4516
908.256	4474
908.372	4440
908.488	4485
908.604	4386
908.72	4322
908.836	4413
908.952	4405
909.068	4451
909.184	4580
909.3	4470
909.415	4611
909.531	4599
909.647	4375
909.762	4424
909.878	4287
909.993	4462
910.108	4451
910.224	4436
910.339	4481
910.454	4424
910.57	4344
910.685	4295
910.8	4660
910.915	4577
911.03	4478
911.145	4329
911.259	4348
911.374	4390
911.489	4337
911.604	4230
911.718	4227
911.833	4234
911.947	4097
912.062	4010
912.176	4234
912.291	4242
912.405	4276
912.519	4478
912.633	4542
912.748	4329
912.862	4322
912.976	4234
913.09	4109
913.204	4238
913.318	4287
913.431	4390
913.545	4360
913.659	4470
913.772	4394
913.886	4287
914	4238
914.113	4417
914.226	4470
914.34	4348
914.453	4280
914.566	4417
914.68	4265
914.793	4348
914.906	4196
915.019	4147
915.132	4101
915.245	4162
915.358	4223
915.47	4211
915.583	4287
915.696	4303
915.809	4402
915.921	4443
916.034	4272
916.146	4276
916.259	4249
916.371	4409
916.483	4383
916.595	4276
916.708	4291
916.82	4333
916.932	4318
917.044	4360
917.156	4333
917.268	4249
917.38	4299
917.491	4261
917.603	4348
917.715	4390
917.826	4390
917.938	4329
918.049	4215
918.161	4386
918.272	4535
918.384	4554
918.495	4432
918.606	4329
918.717	4215
918.828	4318
918.939	4394
919.05	4265
919.161	4337
919.272	4139
919.383	4234
919.494	4508
919.604	4615
919.715	4440
919.826	4375
919.936	4394
920.047	4558
920.157	4497
920.267	4725
920.378	4550
920.488	4535
920.598	4698
920.708	4892
920.818	4763
920.928	4736
921.038	4984
921.148	4908
921.258	4630
921.368	4592
921.477	4531
921.587	4500
921.697	4413
921.806	4516
921.916	4413
922.025	4249
922.134	4306
922.244	4234
922.353	4291
922.462	4185
922.571	4147
922.68	4002
922.789	4017
922.898	4006
923.007	4021
923.116	4078
923.224	4025
923.333	4055
923.442	3972
923.55	3991
923.659	4006
923.767	4074
923.876	4029
923.984	4124
924.092	3968
924.201	4093
924.309	4090
924.417	4154
924.525	4029
924.633	4124
924.741	5048
924.849	3991
924.956	4177
925.064	3968
925.172	3922
925.279	3953
925.387	4021
925.494	4025
925.602	4192
925.709	4204
925.816	4044
925.924	4177
926.031	4219
926.138	4177
926.245	4227
926.352	4090
926.459	4249
926.566	4329
926.673	4173
926.779	4105
926.886	4101
926.993	3949
927.099	3953
927.206	3975
927.312	3945
927.419	4067
927.525	4040
927.631	4116
927.737	3972
927.843	3934
927.95	3842
928.056	3934
928.162	3994
928.267	4051
928.373	4702
928.479	4139
928.585	3915
928.69	4013
928.796	4040
928.901	3945
929.007	3823
929.112	4006
929.218	3972
929.323	3945
929.428	3979
929.533	4082
929.638	3903
929.743	3972
929.848	4078
929.953	4025
930.058	3960
930.163	3804
930.267	3827
930.372	3983
930.477	3823
930.581	4074
930.685	3937
930.79	3819
930.894	3854
930.998	3816
931.103	4044
931.207	3713
931.311	3690
931.415	3686
931.519	3523
931.623	3542
