Data from test_V78500241_2163.txt Node
Date: Fri Mar 25 17:04:02 CST 2022
User: usil
Spectrometer: V785-0024
Trigger mode: 0
Integration Time (sec): 4.000000E-1
Scans to average: 1
Nonlinearity correction enabled: false
Boxcar width: 0
Storing dark spectrum: false
XAxis mode: Wavelengths
Number of Pixels in Spectrum: 1024
>>>>>Begin Spectral Data<<<<<
801.071	8024
801.214	8043
801.356	7868
801.499	7864
801.641	7841
801.783	7841
801.926	7993
802.068	7993
802.211	8024
802.353	8046
802.496	7944
802.638	7902
802.78	7887
802.923	7940
803.065	7875
803.208	7917
803.35	7974
803.492	8115
803.635	8221
803.777	8058
803.919	8142
804.061	8454
804.204	8237
804.346	8134
804.488	8046
804.63	8069
804.773	8054
804.915	8084
805.057	8309
805.199	8195
805.341	8301
805.483	8347
805.626	8259
805.768	8172
805.91	8252
806.052	8248
806.194	8149
806.336	8366
806.478	8164
806.62	8039
806.762	8172
806.904	8271
807.046	8473
807.188	8393
807.33	8332
807.472	8396
807.614	8221
807.756	8123
807.898	8065
808.04	7928
808.182	7921
808.324	7898
808.465	7986
808.607	8062
808.749	8157
808.891	8221
809.033	8324
809.174	8286
809.316	8134
809.458	8062
809.6	7993
809.741	8046
809.883	8001
810.025	8088
810.166	8084
810.308	8043
810.45	7970
810.591	7879
810.733	7795
810.875	7639
811.016	7567
811.158	7506
811.299	7552
811.441	7769
811.582	7727
811.724	7537
811.865	7559
812.007	7681
812.148	7582
812.29	7605
812.431	7685
812.573	7967
812.714	8050
812.855	8145
812.997	8244
813.138	8279
813.279	8214
813.421	8058
813.562	7955
813.703	7807
813.845	7719
813.986	7495
814.127	7225
814.268	7244
814.41	7217
814.551	7183
814.692	7217
814.833	7118
814.974	7137
815.115	7137
815.256	6985
815.397	6973
815.539	6916
815.68	6859
815.821	6749
815.962	6829
816.103	6829
816.244	6798
816.385	6692
816.526	6654
816.666	6532
816.807	6410
816.948	6429
817.089	6490
817.23	6433
817.371	6426
817.512	6403
817.653	6399
817.793	6342
817.934	6384
818.075	6445
818.216	6502
818.356	6448
818.497	6232
818.638	6171
818.778	6194
818.919	6144
819.06	6171
819.2	6304
819.341	6323
819.481	6372
819.622	6544
819.762	6738
819.903	6730
820.043	6635
820.184	6612
820.324	6620
820.465	6741
820.605	6722
820.746	6730
820.886	6521
821.026	6730
821.167	6741
821.307	6787
821.447	6779
821.588	6662
821.728	6608
821.868	6551
822.008	6372
822.149	6410
822.289	6308
822.429	6106
822.569	6098
822.709	6224
822.849	5973
822.99	5977
823.13	6015
823.27	5836
823.41	5786
823.55	5821
823.69	5783
823.83	5832
823.97	5672
824.11	5573
824.25	5478
824.389	5589
824.529	5577
824.669	5543
824.809	5630
824.949	5630
825.089	5649
825.228	5539
825.368	5391
825.508	5345
825.648	5360
825.787	5406
825.927	5433
826.067	5330
826.206	5349
826.346	5398
826.485	5440
826.625	5421
826.765	5535
826.904	5543
827.044	5227
827.183	5185
827.323	5162
827.462	5284
827.601	5201
827.741	5216
827.88	5223
828.02	5124
828.159	5239
828.298	5277
828.437	5353
828.577	5303
828.716	5493
828.855	5364
828.994	5159
829.134	5147
829.273	5235
829.412	5204
829.551	5140
829.69	5174
829.829	5261
829.968	5395
830.107	5265
830.246	5280
830.385	5197
830.524	5159
830.663	5083
830.802	4999
830.941	4892
831.08	4900
831.219	4999
831.357	4904
831.496	5227
831.635	4961
831.774	4839
831.913	4877
832.051	4774
832.19	4774
832.329	4889
832.467	4717
832.606	4679
832.744	4740
832.883	4706
833.022	4729
833.16	4797
833.299	4911
833.437	4866
833.576	4828
833.714	4870
833.852	4870
833.991	4889
834.129	4991
834.267	4995
834.406	4946
834.544	4987
834.682	5010
834.821	5025
834.959	5166
835.097	5045
835.235	5143
835.373	5113
835.511	5113
835.65	5090
835.788	5056
835.926	4919
836.064	4866
836.202	4919
836.34	5178
836.478	5239
836.615	5102
836.753	5227
836.891	5311
837.029	5280
837.167	5189
837.305	5204
837.443	5151
837.58	5090
837.718	5334
837.856	5242
837.993	5124
838.131	5273
838.269	5189
838.406	5193
838.544	5212
838.681	5075
838.819	4991
838.956	4908
839.094	4927
839.231	4991
839.369	5102
839.506	5402
839.643	5288
839.781	5132
839.918	4995
840.055	5071
840.193	5159
840.33	5136
840.467	5155
840.604	5155
840.742	5436
840.879	5151
841.016	5105
841.153	5109
841.29	5383
841.427	5326
841.564	5337
841.701	5406
841.838	5258
841.975	5280
842.112	5284
842.249	5117
842.385	5151
842.522	5330
842.659	5181
842.796	5136
842.933	5147
843.069	5162
843.206	5151
843.343	5315
843.479	5223
843.616	5299
843.752	5079
843.889	5029
844.025	5223
844.162	5029
844.298	5147
844.435	5124
844.571	5045
844.708	5216
844.844	5345
844.98	5315
845.117	5307
845.253	5162
845.389	5121
845.525	5162
845.661	5117
845.798	5056
845.934	5151
846.07	5121
846.206	5223
846.342	5280
846.478	5166
846.614	5010
846.75	4999
846.886	4934
847.022	5151
847.158	5037
847.294	5086
847.429	5113
847.565	5045
847.701	5334
847.837	4850
847.972	4759
848.108	4972
848.244	4965
848.379	4801
848.515	4721
848.65	4721
848.786	4759
848.921	4740
849.057	4870
849.192	4938
849.328	4812
849.463	4797
849.598	4831
849.734	4729
849.869	4706
850.004	4641
850.14	4687
850.275	4649
850.41	4565
850.545	4569
850.68	4561
850.815	4702
850.95	4618
851.085	4862
851.22	4771
851.355	4679
851.49	4656
851.625	4656
851.76	4626
851.895	4607
852.03	4531
852.165	4653
852.299	4691
852.434	4816
852.569	4748
852.703	4790
852.838	4877
852.973	4934
853.107	4930
853.242	4759
853.376	4649
853.511	4565
853.645	4569
853.78	4778
853.914	4706
854.048	4702
854.183	4668
854.317	4702
854.451	4862
854.585	4653
854.72	4668
854.854	4752
854.988	4603
855.122	4615
855.256	4516
855.39	4668
855.524	4790
855.658	4740
855.792	4740
855.926	4744
856.06	4793
856.194	4805
856.327	4706
856.461	4637
856.595	4596
856.729	4641
856.862	4767
856.996	4687
857.13	4698
857.263	4793
857.397	4778
857.53	4683
857.664	4736
857.797	4740
857.931	4793
858.064	4687
858.197	4763
858.331	4679
858.464	4641
858.597	4478
858.731	4607
858.864	4653
858.997	4622
859.13	4694
859.263	4668
859.396	4736
859.529	4504
859.662	4588
859.795	4558
859.928	4641
860.061	4755
860.194	4786
860.327	4584
860.46	4599
860.592	4675
860.725	4717
860.858	4729
860.99	4588
861.123	4519
861.256	4527
861.388	4641
861.521	5398
861.653	4493
861.786	4447
861.918	4478
862.05	4561
862.183	4580
862.315	4596
862.447	4672
862.58	4546
862.712	4413
862.844	4390
862.976	4459
863.108	4436
863.24	4805
863.372	4379
863.504	4421
863.636	4348
863.768	4516
863.9	4436
864.032	4363
864.164	4440
864.296	4508
864.428	4535
864.559	4546
864.691	4519
864.823	4554
864.954	4523
865.086	4535
865.217	4466
865.349	4421
865.48	4470
865.612	4504
865.743	4626
865.875	4470
866.006	4417
866.137	4489
866.269	4500
866.4	4451
866.531	4424
866.662	4360
866.793	4398
866.924	4424
867.055	4497
867.186	4455
867.317	4390
867.448	4371
867.579	4337
867.71	4440
867.841	4325
867.972	4538
868.103	4451
868.233	4470
868.364	4447
868.495	4531
868.625	4683
868.756	4736
868.886	4561
869.017	4649
869.147	4740
869.278	4725
869.408	4626
869.539	4634
869.669	4763
869.799	4660
869.929	4767
870.06	4710
870.19	4927
870.32	4919
870.45	4942
870.58	4946
870.71	5121
870.84	5094
870.97	4919
871.1	4870
871.23	5193
871.36	5155
871.489	5006
871.619	5102
871.749	5098
871.879	5105
872.008	5185
872.138	5014
872.267	4999
872.397	4835
872.526	4809
872.656	4755
872.785	4828
872.915	4949
873.044	5060
873.173	4934
873.303	4892
873.432	4972
873.561	4965
873.69	4889
873.819	4816
873.948	4889
874.077	4835
874.206	4714
874.335	4809
874.464	4938
874.593	5094
874.722	4991
874.851	5086
874.979	5045
875.108	5079
875.237	4934
875.365	4923
875.494	4923
875.623	5014
875.751	4812
875.88	4896
876.008	4957
876.136	5014
876.265	5197
876.393	5315
876.521	5322
876.65	5258
876.778	5162
876.906	5083
877.034	5029
877.162	5045
877.29	5003
877.418	5025
877.546	5029
877.674	5075
877.802	5037
877.93	5029
878.058	4957
878.185	4877
878.313	4961
878.441	4942
878.568	4820
878.696	4915
878.824	4961
878.951	4991
879.079	5147
879.206	5307
879.333	5121
879.461	5022
879.588	4946
879.715	5140
879.842	5181
879.97	5025
880.097	4771
880.224	4797
880.351	4786
880.478	4824
880.605	4816
880.732	4843
880.859	5071
880.986	4908
881.112	4927
881.239	4752
881.366	4721
881.493	4596
881.619	4588
881.746	4637
881.872	4645
881.999	4679
882.125	4736
882.252	4805
882.378	4805
882.505	4934
882.631	4774
882.757	4656
882.883	4748
883.01	4717
883.136	4691
883.262	4656
883.388	4569
883.514	4786
883.64	4858
883.766	4820
883.892	4675
884.018	4653
884.143	4858
884.269	5048
884.395	4649
884.52	4618
884.646	4637
884.772	4538
884.897	4527
885.023	4656
885.148	4831
885.274	4839
885.399	4824
885.524	4694
885.65	4706
885.775	4752
885.9	4729
886.025	4866
886.15	4778
886.275	4675
886.4	4668
886.525	4763
886.65	4694
886.775	4702
886.9	4870
887.025	5022
887.149	4763
887.274	4645
887.399	4573
887.523	4554
887.648	4626
887.773	4573
887.897	4790
888.021	4809
888.146	4672
888.27	4816
888.395	4881
888.519	4759
888.643	4820
888.767	4820
888.891	4687
889.015	4660
889.139	4672
889.263	4596
889.387	4763
889.511	4850
889.635	4782
889.759	4649
889.883	4599
890.006	4752
890.13	4801
890.254	4607
890.377	4698
890.501	4538
890.624	4531
890.748	4653
890.871	4485
890.995	4451
891.118	4352
891.241	4523
891.364	4504
891.488	4664
891.611	4485
891.734	4500
891.857	4584
891.98	4569
892.103	4664
892.226	4569
892.349	4558
892.471	4428
892.594	4538
892.717	4637
892.839	4569
892.962	4618
893.085	4641
893.207	4634
893.33	4459
893.452	4516
893.575	4675
893.697	4573
893.819	4778
893.941	4797
894.064	4748
894.186	4584
894.308	4580
894.43	4725
894.552	4793
894.674	4778
894.796	4561
894.918	4584
895.04	4546
895.161	4687
895.283	4645
895.405	4554
895.526	4607
895.648	4668
895.769	4679
895.891	4706
896.012	4694
896.134	4736
896.255	4664
896.376	4641
896.498	4573
896.619	4691
896.74	4626
896.861	4656
896.982	4900
897.103	5067
897.224	4835
897.345	4740
897.466	4675
897.587	4733
897.708	4812
897.828	4786
897.949	4717
898.07	4546
898.19	4649
898.311	4812
898.431	4668
898.552	4672
898.672	4809
898.792	4786
898.913	4714
899.033	4634
899.153	4478
899.273	4417
899.393	4478
899.513	4550
899.633	4546
899.753	4508
899.873	4527
899.993	4588
900.113	4523
900.232	4569
900.352	4527
900.472	4478
900.591	4409
900.711	4466
900.83	4428
900.95	4584
901.069	4656
901.189	4516
901.308	4367
901.427	4341
901.546	4405
901.665	4417
901.784	4527
901.904	4390
902.023	4280
902.141	4150
902.26	4200
902.379	4295
902.498	4284
902.617	4230
902.735	4352
902.854	4352
902.973	4322
903.091	4207
903.21	4238
903.328	4276
903.446	4284
903.565	4287
903.683	4386
903.801	4318
903.919	4402
904.038	4436
904.156	4356
904.274	4398
904.392	4383
904.51	4432
904.627	4519
904.745	4611
904.863	4584
904.981	4413
905.098	4367
905.216	4363
905.334	4398
905.451	4451
905.569	4462
905.686	4565
905.803	4577
905.921	4421
906.038	4538
906.155	4512
906.272	4379
906.389	4398
906.506	4314
906.623	4402
906.74	4424
906.857	4280
906.974	4352
907.091	4554
907.208	4679
907.324	4554
907.441	4508
907.557	4367
907.674	4348
907.79	4303
907.907	4360
908.023	4478
908.139	4470
908.256	4413
908.372	4462
908.488	4451
908.604	4325
908.72	4375
908.836	4360
908.952	4337
909.068	4436
909.184	4550
909.3	4459
909.415	4523
909.531	4561
909.647	4360
909.762	4363
909.878	4322
909.993	4451
910.108	4409
910.224	4371
910.339	4421
910.454	4417
910.57	4360
910.685	4333
910.8	4694
910.915	4592
911.03	4474
911.145	4325
911.259	4310
911.374	4356
911.489	4303
911.604	4253
911.718	4200
911.833	4188
911.947	4051
912.062	4040
912.176	4185
912.291	4234
912.405	4192
912.519	4478
912.633	4504
912.748	4341
912.862	4314
912.976	4181
913.09	4097
913.204	4158
913.318	4204
913.431	4371
913.545	4367
913.659	4402
913.772	4314
913.886	4242
914	4253
914.113	4348
914.226	4451
914.34	4417
914.453	4242
914.566	4451
914.68	4344
914.793	4329
914.906	4158
915.019	4131
915.132	4013
915.245	4188
915.358	4207
915.47	4230
915.583	4238
915.696	4246
915.809	4390
915.921	4417
916.034	4211
916.146	4249
916.259	4211
916.371	4329
916.483	4337
916.595	4268
916.708	4314
916.82	4360
916.932	4322
917.044	4360
917.156	4341
917.268	4192
917.38	4276
917.491	4261
917.603	4310
917.715	4432
917.826	4447
917.938	4356
918.049	4223
918.161	4386
918.272	4523
918.384	4508
918.495	4443
918.606	4291
918.717	4253
918.828	4284
918.939	4367
919.05	4287
919.161	4360
919.272	4158
919.383	4211
919.494	4466
919.604	4546
919.715	4470
919.826	4363
919.936	4371
920.047	4535
920.157	4447
920.267	4660
920.378	4550
920.488	4493
920.598	4706
920.708	4911
920.818	4801
920.928	4702
921.038	4953
921.148	4885
921.258	4656
921.368	4554
921.477	4462
921.587	4451
921.697	4409
921.806	4504
921.916	4466
922.025	4287
922.134	4299
922.244	4242
922.353	4356
922.462	4192
922.571	4143
922.68	3998
922.789	3972
922.898	4021
923.007	4002
923.116	4112
923.224	4051
923.333	4097
923.442	3922
923.55	3991
923.659	3979
923.767	4074
923.876	3983
923.984	4078
924.092	4013
924.201	4059
924.309	4067
924.417	4109
924.525	4082
924.633	4109
924.741	5041
924.849	3937
924.956	4124
925.064	3960
925.172	3907
925.279	3968
925.387	4059
925.494	4002
925.602	4162
925.709	4169
925.816	4055
925.924	4116
926.031	4215
926.138	4150
926.245	4196
926.352	4093
926.459	4211
926.566	4291
926.673	4158
926.779	4055
926.886	4036
926.993	3979
927.099	3968
927.206	3945
927.312	3915
927.419	4036
927.525	3964
927.631	4051
927.737	3972
927.843	3941
927.95	3846
928.056	3972
928.162	3994
928.267	4010
928.373	4622
928.479	4120
928.585	3865
928.69	4025
928.796	4006
928.901	3979
929.007	3857
929.112	3983
929.218	3983
929.323	3907
929.428	3922
929.533	4124
929.638	3892
929.743	3968
929.848	4063
929.953	4013
930.058	3896
930.163	3762
930.267	3785
930.372	3953
930.477	3804
930.581	4044
930.685	3945
930.79	3842
930.894	3861
930.998	3838
931.103	4010
931.207	3732
931.311	3694
931.415	3648
931.519	3511
931.623	3564
