Data from test_V78500241_1599.txt Node
Date: Fri Mar 25 17:00:07 CST 2022
User: usil
Spectrometer: V785-0024
Trigger mode: 0
Integration Time (sec): 4.000000E-1
Scans to average: 1
Nonlinearity correction enabled: false
Boxcar width: 0
Storing dark spectrum: false
XAxis mode: Wavelengths
Number of Pixels in Spectrum: 1024
>>>>>Begin Spectral Data<<<<<
801.071	8031
801.214	7940
801.356	7925
801.499	7868
801.641	7776
801.783	7830
801.926	7974
802.068	7906
802.211	7978
802.353	7993
802.496	7879
802.638	7925
802.78	7944
802.923	7959
803.065	7944
803.208	7849
803.35	8008
803.492	8130
803.635	8103
803.777	8103
803.919	8134
804.061	8454
804.204	8130
804.346	8031
804.488	7963
804.63	8176
804.773	7974
804.915	8138
805.057	8259
805.199	8130
805.341	8259
805.483	8290
805.626	8195
805.768	8103
805.91	8149
806.052	8218
806.194	8107
806.336	8259
806.478	8046
806.62	8001
806.762	8161
806.904	8294
807.046	8473
807.188	8309
807.33	8298
807.472	8279
807.614	8172
807.756	8195
807.898	7963
808.04	7803
808.182	7887
808.324	7894
808.465	7955
808.607	8050
808.749	8126
808.891	8157
809.033	8271
809.174	8176
809.316	8062
809.458	8084
809.6	8001
809.741	8046
809.883	8039
810.025	8084
810.166	8096
810.308	8054
810.45	8024
810.591	7906
810.733	7742
810.875	7658
811.016	7548
811.158	7468
811.299	7613
811.441	7685
811.582	7639
811.724	7563
811.865	7460
812.007	7502
812.148	7590
812.29	7632
812.431	7719
812.573	7894
812.714	7951
812.855	8092
812.997	8161
813.138	8298
813.279	8172
813.421	8081
813.562	7967
813.703	7871
813.845	7761
813.986	7480
814.127	7293
814.268	7232
814.41	7255
814.551	7168
814.692	7217
814.833	7114
814.974	7175
815.115	7103
815.256	7008
815.397	6859
815.539	6939
815.68	6875
815.821	6730
815.962	6875
816.103	6818
816.244	6738
816.385	6627
816.526	6635
816.666	6528
816.807	6323
816.948	6441
817.089	6467
817.23	6471
817.371	6365
817.512	6403
817.653	6391
817.793	6346
817.934	6380
818.075	6445
818.216	6437
818.356	6422
818.497	6266
818.638	6117
818.778	6159
818.919	6133
819.06	6106
819.2	6285
819.341	6365
819.481	6372
819.622	6570
819.762	6711
819.903	6700
820.043	6627
820.184	6616
820.324	6654
820.465	6764
820.605	6715
820.746	6650
820.886	6578
821.026	6654
821.167	6703
821.307	6821
821.447	6749
821.588	6749
821.728	6631
821.868	6517
822.008	6296
822.149	6376
822.289	6327
822.429	6228
822.569	6155
822.709	6125
822.849	5946
822.99	5912
823.13	5908
823.27	5973
823.41	5745
823.55	5859
823.69	5775
823.83	5779
823.97	5672
824.11	5604
824.25	5535
824.389	5501
824.529	5604
824.669	5524
824.809	5680
824.949	5668
825.089	5619
825.228	5535
825.368	5406
825.508	5353
825.648	5284
825.787	5383
825.927	5383
826.067	5315
826.206	5311
826.346	5398
826.485	5425
826.625	5455
826.765	5570
826.904	5509
827.044	5250
827.183	5208
827.323	5132
827.462	5265
827.601	5109
827.741	5166
827.88	5185
828.02	5102
828.159	5239
828.298	5330
828.437	5379
828.577	5322
828.716	5474
828.855	5311
828.994	5132
829.134	5143
829.273	5170
829.412	5155
829.551	5151
829.69	5181
829.829	5235
829.968	5372
830.107	5303
830.246	5311
830.385	5143
830.524	5166
830.663	5052
830.802	4991
830.941	4919
831.08	4934
831.219	4980
831.357	4934
831.496	5178
831.635	4961
831.774	4828
831.913	4896
832.051	4755
832.19	4774
832.329	4847
832.467	4675
832.606	4580
832.744	4694
832.883	4736
833.022	4687
833.16	4797
833.299	4862
833.437	4843
833.576	4828
833.714	4881
833.852	4927
833.991	4839
834.129	4934
834.267	4972
834.406	4923
834.544	5037
834.682	5048
834.821	4995
834.959	5185
835.097	5029
835.235	5102
835.373	5094
835.511	5121
835.65	5060
835.788	5075
835.926	4873
836.064	4892
836.202	4908
836.34	5174
836.478	5216
836.615	5136
836.753	5204
836.891	5326
837.029	5231
837.167	5197
837.305	5124
837.443	5124
837.58	5064
837.718	5261
837.856	5162
837.993	5124
838.131	5254
838.269	5227
838.406	5288
838.544	5132
838.681	5025
838.819	5041
838.956	4877
839.094	4870
839.231	4942
839.369	5090
839.506	5436
839.643	5273
839.781	5041
839.918	4972
840.055	5105
840.193	5102
840.33	5098
840.467	5166
840.604	5181
840.742	5512
840.879	5098
841.016	5079
841.153	5117
841.29	5391
841.427	5292
841.564	5296
841.701	5368
841.838	5239
841.975	5246
842.112	5269
842.249	5132
842.385	5128
842.522	5254
842.659	5174
842.796	5140
842.933	5166
843.069	5170
843.206	5197
843.343	5299
843.479	5258
843.616	5273
843.752	5041
843.889	4991
844.025	5220
844.162	5010
844.298	5189
844.435	5143
844.571	5014
844.708	5124
844.844	5353
844.98	5345
845.117	5277
845.253	5170
845.389	5083
845.525	5197
845.661	5189
845.798	5014
845.934	5113
846.07	5052
846.206	5181
846.342	5273
846.478	5178
846.614	4980
846.75	4961
846.886	4904
847.022	5136
847.158	5045
847.294	5113
847.429	5067
847.565	5117
847.701	5357
847.837	4892
847.972	4850
848.108	4930
848.244	4934
848.379	4786
848.515	4755
848.65	4748
848.786	4752
848.921	4767
849.057	4854
849.192	4854
849.328	4805
849.463	4828
849.598	4828
849.734	4771
849.869	4687
850.004	4653
850.14	4656
850.275	4637
850.41	4485
850.545	4607
850.68	4668
850.815	4630
850.95	4645
851.085	4866
851.22	4774
851.355	4641
851.49	4664
851.625	4645
851.76	4641
851.895	4519
852.03	4573
852.165	4618
852.299	4725
852.434	4748
852.569	4790
852.703	4736
852.838	4870
852.973	4904
853.107	4896
853.242	4656
853.376	4660
853.511	4565
853.645	4607
853.78	4847
853.914	4740
854.048	4660
854.183	4683
854.317	4683
854.451	4831
854.585	4656
854.72	4618
854.854	4733
854.988	4599
855.122	4615
855.256	4531
855.39	4675
855.524	4816
855.658	4729
855.792	4679
855.926	4714
856.06	4725
856.194	4793
856.327	4679
856.461	4596
856.595	4618
856.729	4596
856.862	4771
856.996	4694
857.13	4717
857.263	4736
857.397	4820
857.53	4637
857.664	4714
857.797	4809
857.931	4797
858.064	4641
858.197	4736
858.331	4683
858.464	4618
858.597	4516
858.731	4618
858.864	4599
858.997	4596
859.13	4653
859.263	4710
859.396	4714
859.529	4603
859.662	4569
859.795	4565
859.928	4622
860.061	4736
860.194	4759
860.327	4615
860.46	4542
860.592	4691
860.725	4721
860.858	4736
860.99	4577
861.123	4516
861.256	4535
861.388	4622
861.521	5220
861.653	4527
861.786	4405
861.918	4462
862.05	4500
862.183	4611
862.315	4592
862.447	4664
862.58	4508
862.712	4348
862.844	4352
862.976	4485
863.108	4440
863.24	4748
863.372	4379
863.504	4436
863.636	4405
863.768	4550
863.9	4440
864.032	4363
864.164	4409
864.296	4447
864.428	4592
864.559	4580
864.691	4531
864.823	4497
864.954	4489
865.086	4516
865.217	4497
865.349	4386
865.48	4424
865.612	4485
865.743	4611
865.875	4478
866.006	4421
866.137	4523
866.269	4451
866.4	4436
866.531	4440
866.662	4371
866.793	4405
866.924	4421
867.055	4504
867.186	4432
867.317	4443
867.448	4402
867.579	4413
867.71	4398
867.841	4356
867.972	4436
868.103	4462
868.233	4447
868.364	4436
868.495	4474
868.625	4660
868.756	4790
868.886	4569
869.017	4645
869.147	4816
869.278	4763
869.408	4660
869.539	4645
869.669	4710
869.799	4668
869.929	4729
870.06	4744
870.19	5010
870.32	4953
870.45	4995
870.58	4991
870.71	5067
870.84	5102
870.97	4938
871.1	4900
871.23	5162
871.36	5105
871.489	5003
871.619	5071
871.749	5056
871.879	5136
872.008	5174
872.138	5048
872.267	4968
872.397	4812
872.526	4862
872.656	4744
872.785	4778
872.915	4930
873.044	5029
873.173	4923
873.303	4892
873.432	4995
873.561	4987
873.69	4889
873.819	4847
873.948	4923
874.077	4831
874.206	4736
874.335	4805
874.464	4870
874.593	5079
874.722	4980
874.851	5109
874.979	5037
875.108	5037
875.237	4930
875.365	4915
875.494	4919
875.623	4923
875.751	4854
875.88	4885
876.008	4991
876.136	5037
876.265	5201
876.393	5303
876.521	5212
876.65	5242
876.778	5174
876.906	5064
877.034	5067
877.162	5014
877.29	5006
877.418	5052
877.546	5003
877.674	5033
877.802	5067
877.93	5037
878.058	4972
878.185	4858
878.313	4934
878.441	4923
878.568	4835
878.696	4839
878.824	4961
878.951	4991
879.079	5147
879.206	5288
879.333	5094
879.461	4991
879.588	4965
879.715	5102
879.842	5201
879.97	4949
880.097	4771
880.224	4755
880.351	4786
880.478	4816
880.605	4809
880.732	4820
880.859	5064
880.986	4889
881.112	4881
881.239	4759
881.366	4694
881.493	4641
881.619	4588
881.746	4622
881.872	4656
881.999	4622
882.125	4679
882.252	4767
882.378	4847
882.505	4965
882.631	4816
882.757	4653
882.883	4710
883.01	4755
883.136	4683
883.262	4577
883.388	4599
883.514	4843
883.64	4835
883.766	4812
883.892	4618
884.018	4694
884.143	4885
884.269	5056
884.395	4626
884.52	4603
884.646	4691
884.772	4588
884.897	4519
885.023	4622
885.148	4782
885.274	4828
885.399	4767
885.524	4774
885.65	4656
885.775	4736
885.9	4725
886.025	4843
886.15	4797
886.275	4717
886.4	4649
886.525	4740
886.65	4702
886.775	4675
886.9	4930
887.025	5022
887.149	4793
887.274	4615
887.399	4588
887.523	4596
887.648	4554
887.773	4577
887.897	4767
888.021	4809
888.146	4668
888.27	4809
888.395	4889
888.519	4790
888.643	4824
888.767	4797
888.891	4687
889.015	4603
889.139	4660
889.263	4637
889.387	4744
889.511	4877
889.635	4786
889.759	4694
889.883	4645
890.006	4771
890.13	4824
890.254	4588
890.377	4679
890.501	4478
890.624	4508
890.748	4664
890.871	4489
890.995	4451
891.118	4390
891.241	4485
891.364	4508
891.488	4637
891.611	4535
891.734	4542
891.857	4569
891.98	4596
892.103	4622
892.226	4618
892.349	4497
892.471	4390
892.594	4550
892.717	4584
892.839	4558
892.962	4577
893.085	4626
893.207	4573
893.33	4451
893.452	4493
893.575	4668
893.697	4565
893.819	4782
893.941	4805
894.064	4748
894.186	4554
894.308	4531
894.43	4740
894.552	4805
894.674	4714
894.796	4527
894.918	4611
895.04	4531
895.161	4679
895.283	4687
895.405	4569
895.526	4618
895.648	4706
895.769	4664
895.891	4729
896.012	4733
896.134	4740
896.255	4645
896.376	4653
896.498	4607
896.619	4656
896.74	4592
896.861	4649
896.982	4915
897.103	5086
897.224	4854
897.345	4801
897.466	4599
897.587	4694
897.708	4831
897.828	4782
897.949	4679
898.07	4554
898.19	4611
898.311	4793
898.431	4630
898.552	4755
898.672	4763
898.792	4759
898.913	4714
899.033	4630
899.153	4497
899.273	4405
899.393	4508
899.513	4538
899.633	4531
899.753	4519
899.873	4538
899.993	4634
900.113	4542
900.232	4558
900.352	4558
900.472	4500
900.591	4413
900.711	4462
900.83	4379
900.95	4584
901.069	4706
901.189	4546
901.308	4390
901.427	4329
901.546	4394
901.665	4481
901.784	4527
901.904	4383
902.023	4291
902.141	4154
902.26	4158
902.379	4306
902.498	4303
902.617	4238
902.735	4371
902.854	4367
902.973	4360
903.091	4177
903.21	4238
903.328	4386
903.446	4246
903.565	4257
903.683	4398
903.801	4272
903.919	4409
904.038	4428
904.156	4325
904.274	4413
904.392	4440
904.51	4459
904.627	4493
904.745	4504
904.863	4656
904.981	4455
905.098	4295
905.216	4375
905.334	4470
905.451	4451
905.569	4466
905.686	4558
905.803	4565
905.921	4390
906.038	4592
906.155	4443
906.272	4421
906.389	4519
906.506	4379
906.623	4348
906.74	4398
906.857	4253
906.974	4375
907.091	4561
907.208	4698
907.324	4592
907.441	4485
907.557	4352
907.674	4310
907.79	4291
907.907	4402
908.023	4462
908.139	4459
908.256	4424
908.372	4459
908.488	4455
908.604	4352
908.72	4348
908.836	4375
908.952	4363
909.068	4383
909.184	4577
909.3	4489
909.415	4630
909.531	4561
909.647	4394
909.762	4367
909.878	4299
909.993	4436
910.108	4379
910.224	4424
910.339	4462
910.454	4371
910.57	4363
910.685	4314
910.8	4653
910.915	4573
911.03	4443
911.145	4314
911.259	4325
911.374	4375
911.489	4265
911.604	4227
911.718	4173
911.833	4234
911.947	4067
912.062	4055
912.176	4211
912.291	4287
912.405	4257
912.519	4462
912.633	4516
912.748	4356
912.862	4246
912.976	4185
913.09	4063
913.204	4150
913.318	4253
913.431	4360
913.545	4348
913.659	4413
913.772	4375
913.886	4200
914	4215
914.113	4318
914.226	4428
914.34	4466
914.453	4261
914.566	4440
914.68	4299
914.793	4341
914.906	4143
915.019	4147
915.132	4090
915.245	4143
915.358	4219
915.47	4253
915.583	4268
915.696	4333
915.809	4394
915.921	4383
916.034	4242
916.146	4234
916.259	4158
916.371	4386
916.483	4329
916.595	4219
916.708	4329
916.82	4329
916.932	4333
917.044	4303
917.156	4352
917.268	4249
917.38	4257
917.491	4242
917.603	4356
917.715	4455
917.826	4462
917.938	4405
918.049	4181
918.161	4371
918.272	4500
918.384	4523
918.495	4451
918.606	4303
918.717	4223
918.828	4375
918.939	4360
919.05	4230
919.161	4360
919.272	4173
919.383	4238
919.494	4451
919.604	4641
919.715	4371
919.826	4428
919.936	4398
920.047	4512
920.157	4478
920.267	4687
920.378	4512
920.488	4516
920.598	4641
920.708	4866
920.818	4812
920.928	4755
921.038	4953
921.148	4904
921.258	4603
921.368	4542
921.477	4455
921.587	4481
921.697	4360
921.806	4542
921.916	4424
922.025	4257
922.134	4219
922.244	4227
922.353	4303
922.462	4169
922.571	4166
922.68	3979
922.789	3953
922.898	4025
923.007	3960
923.116	4112
923.224	4067
923.333	4090
923.442	3991
923.55	3964
923.659	4010
923.767	4112
923.876	4006
923.984	4109
924.092	3998
924.201	4036
924.309	4120
924.417	4074
924.525	4044
924.633	4086
924.741	4896
924.849	3896
924.956	4093
925.064	3953
925.172	3915
925.279	3922
925.387	4071
925.494	4002
925.602	4219
925.709	4188
925.816	4071
925.924	4131
926.031	4200
926.138	4150
926.245	4204
926.352	4090
926.459	4261
926.566	4268
926.673	4139
926.779	4112
926.886	4074
926.993	3922
927.099	3941
927.206	3941
927.312	3979
927.419	4071
927.525	4051
927.631	4082
927.737	3979
927.843	3937
927.95	3835
928.056	3937
928.162	3994
928.267	4032
928.373	4558
928.479	4082
928.585	3892
928.69	3949
928.796	4135
928.901	3937
929.007	3854
929.112	3979
929.218	3983
929.323	3903
929.428	3915
929.533	4082
929.638	3899
929.743	3941
929.848	4051
929.953	3964
930.058	3888
930.163	3800
930.267	3854
930.372	3975
930.477	3781
930.581	4124
930.685	3964
930.79	3816
930.894	3892
930.998	3842
931.103	4006
931.207	3709
931.311	3675
931.415	3728
931.519	3519
931.623	3553
