Data from test_V78500241_561.txt Node
Date: Fri Mar 25 16:52:54 CST 2022
User: usil
Spectrometer: V785-0024
Trigger mode: 0
Integration Time (sec): 4.000000E-1
Scans to average: 1
Nonlinearity correction enabled: false
Boxcar width: 0
Storing dark spectrum: false
XAxis mode: Wavelengths
Number of Pixels in Spectrum: 1024
>>>>>Begin Spectral Data<<<<<
801.071	8084
801.214	8024
801.356	7906
801.499	7898
801.641	7845
801.783	7909
801.926	8046
802.068	8027
802.211	8046
802.353	8043
802.496	7959
802.638	8012
802.78	7963
802.923	7978
803.065	7875
803.208	7879
803.35	7989
803.492	8081
803.635	8183
803.777	8031
803.919	8149
804.061	8454
804.204	8130
804.346	8084
804.488	7986
804.63	8191
804.773	7997
804.915	8092
805.057	8294
805.199	8191
805.341	8244
805.483	8259
805.626	8233
805.768	8077
805.91	8183
806.052	8199
806.194	8054
806.336	8370
806.478	8123
806.62	8111
806.762	8202
806.904	8275
807.046	8469
807.188	8381
807.33	8339
807.472	8351
807.614	8138
807.756	8149
807.898	7989
808.04	7864
808.182	7925
808.324	7871
808.465	7932
808.607	8081
808.749	8199
808.891	8214
809.033	8309
809.174	8157
809.316	8043
809.458	8027
809.6	8035
809.741	8046
809.883	8031
810.025	8054
810.166	8035
810.308	8134
810.45	8027
810.591	7875
810.733	7795
810.875	7738
811.016	7590
811.158	7537
811.299	7681
811.441	7753
811.582	7753
811.724	7605
811.865	7590
812.007	7605
812.148	7643
812.29	7677
812.431	7670
812.573	7879
812.714	8001
812.855	8172
812.997	8180
813.138	8408
813.279	8244
813.421	8221
813.562	8115
813.703	7978
813.845	7807
813.986	7487
814.127	7377
814.268	7301
814.41	7247
814.551	7206
814.692	7293
814.833	7076
814.974	7129
815.115	7160
815.256	6920
815.397	6878
815.539	6932
815.68	6833
815.821	6753
815.962	6859
816.103	6856
816.244	6741
816.385	6658
816.526	6696
816.666	6490
816.807	6376
816.948	6452
817.089	6464
817.23	6464
817.371	6445
817.512	6426
817.653	6342
817.793	6414
817.934	6479
818.075	6456
818.216	6456
818.356	6403
818.497	6270
818.638	6167
818.778	6087
818.919	6136
819.06	6178
819.2	6273
819.341	6369
819.481	6331
819.622	6544
819.762	6779
819.903	6719
820.043	6585
820.184	6627
820.324	6585
820.465	6665
820.605	6608
820.746	6620
820.886	6486
821.026	6703
821.167	6734
821.307	6825
821.447	6741
821.588	6677
821.728	6589
821.868	6479
822.008	6327
822.149	6380
822.289	6327
822.429	6125
822.569	6117
822.709	6136
822.849	5946
822.99	5901
823.13	5866
823.27	5942
823.41	5798
823.55	5824
823.69	5809
823.83	5809
823.97	5718
824.11	5535
824.25	5573
824.389	5581
824.529	5547
824.669	5520
824.809	5688
824.949	5699
825.089	5646
825.228	5566
825.368	5444
825.508	5372
825.648	5402
825.787	5376
825.927	5455
826.067	5372
826.206	5368
826.346	5398
826.485	5436
826.625	5417
826.765	5573
826.904	5505
827.044	5284
827.183	5208
827.323	5181
827.462	5284
827.601	5208
827.741	5197
827.88	5231
828.02	5140
828.159	5254
828.298	5318
828.437	5357
828.577	5318
828.716	5501
828.855	5341
828.994	5280
829.134	5216
829.273	5121
829.412	5159
829.551	5170
829.69	5193
829.829	5269
829.968	5383
830.107	5288
830.246	5299
830.385	5193
830.524	5162
830.663	5109
830.802	4953
830.941	4885
831.08	4930
831.219	5006
831.357	4991
831.496	5166
831.635	4938
831.774	4877
831.913	4866
832.051	4694
832.19	4774
832.329	4870
832.467	4748
832.606	4672
832.744	4752
832.883	4679
833.022	4763
833.16	4809
833.299	4843
833.437	4835
833.576	4831
833.714	4858
833.852	4896
833.991	4942
834.129	4984
834.267	4923
834.406	4934
834.544	4987
834.682	5003
834.821	4976
834.959	5220
835.097	5048
835.235	5147
835.373	5105
835.511	5124
835.65	5041
835.788	5079
835.926	4911
836.064	4873
836.202	4927
836.34	5162
836.478	5174
836.615	5102
836.753	5208
836.891	5261
837.029	5277
837.167	5204
837.305	5223
837.443	5128
837.58	5128
837.718	5280
837.856	5220
837.993	5121
838.131	5216
838.269	5197
838.406	5235
838.544	5223
838.681	5090
838.819	5003
838.956	4911
839.094	4889
839.231	4991
839.369	5113
839.506	5436
839.643	5292
839.781	5083
839.918	5025
840.055	5109
840.193	5079
840.33	5124
840.467	5155
840.604	5170
840.742	5402
840.879	5086
841.016	5052
841.153	5178
841.29	5421
841.427	5395
841.564	5318
841.701	5372
841.838	5250
841.975	5311
842.112	5261
842.249	5201
842.385	5067
842.522	5322
842.659	5143
842.796	5124
842.933	5250
843.069	5174
843.206	5094
843.343	5292
843.479	5250
843.616	5315
843.752	5060
843.889	5003
844.025	5201
844.162	5045
844.298	5265
844.435	5102
844.571	5086
844.708	5212
844.844	5330
844.98	5334
845.117	5326
845.253	5155
845.389	5109
845.525	5140
845.661	5166
845.798	5056
845.934	5166
846.07	5079
846.206	5220
846.342	5288
846.478	5121
846.614	5029
846.75	4957
846.886	4946
847.022	5113
847.158	5025
847.294	5136
847.429	5201
847.565	5102
847.701	5330
847.837	4850
847.972	4866
848.108	4961
848.244	4930
848.379	4755
848.515	4714
848.65	4714
848.786	4786
848.921	4774
849.057	4870
849.192	4900
849.328	4786
849.463	4843
849.598	4824
849.734	4812
849.869	4721
850.004	4584
850.14	4687
850.275	4607
850.41	4546
850.545	4622
850.68	4622
850.815	4634
850.95	4634
851.085	4877
851.22	4755
851.355	4664
851.49	4615
851.625	4649
851.76	4653
851.895	4527
852.03	4588
852.165	4630
852.299	4774
852.434	4797
852.569	4748
852.703	4755
852.838	4896
852.973	4923
853.107	4946
853.242	4793
853.376	4698
853.511	4584
853.645	4596
853.78	4873
853.914	4706
854.048	4698
854.183	4656
854.317	4740
854.451	4873
854.585	4637
854.72	4645
854.854	4801
854.988	4580
855.122	4694
855.256	4569
855.39	4679
855.524	4801
855.658	4702
855.792	4748
855.926	4771
856.06	4748
856.194	4786
856.327	4691
856.461	4580
856.595	4626
856.729	4630
856.862	4801
856.996	4721
857.13	4691
857.263	4763
857.397	4801
857.53	4683
857.664	4733
857.797	4736
857.931	4748
858.064	4725
858.197	4763
858.331	4668
858.464	4645
858.597	4611
858.731	4637
858.864	4664
858.997	4596
859.13	4714
859.263	4660
859.396	4672
859.529	4569
859.662	4596
859.795	4546
859.928	4656
860.061	4782
860.194	4733
860.327	4626
860.46	4558
860.592	4733
860.725	4748
860.858	4721
860.99	4630
861.123	4527
861.256	4569
861.388	4615
861.521	5398
861.653	4481
861.786	4436
861.918	4481
862.05	4508
862.183	4565
862.315	4634
862.447	4656
862.58	4538
862.712	4360
862.844	4329
862.976	4504
863.108	4508
863.24	4904
863.372	4333
863.504	4428
863.636	4402
863.768	4497
863.9	4443
864.032	4386
864.164	4455
864.296	4470
864.428	4588
864.559	4596
864.691	4558
864.823	4527
864.954	4504
865.086	4531
865.217	4478
865.349	4409
865.48	4497
865.612	4504
865.743	4664
865.875	4485
866.006	4432
866.137	4481
866.269	4474
866.4	4459
866.531	4489
866.662	4421
866.793	4428
866.924	4428
867.055	4535
867.186	4489
867.317	4443
867.448	4363
867.579	4462
867.71	4398
867.841	4398
867.972	4478
868.103	4481
868.233	4455
868.364	4402
868.495	4508
868.625	4611
868.756	4733
868.886	4592
869.017	4660
869.147	4736
869.278	4782
869.408	4634
869.539	4630
869.669	4759
869.799	4634
869.929	4725
870.06	4717
870.19	4965
870.32	4930
870.45	4908
870.58	5071
870.71	5075
870.84	5090
870.97	4938
871.1	4927
871.23	5132
871.36	5136
871.489	5083
871.619	5094
871.749	5113
871.879	5098
872.008	5216
872.138	5022
872.267	4957
872.397	4824
872.526	4809
872.656	4748
872.785	4820
872.915	4934
873.044	5048
873.173	4938
873.303	5037
873.432	4976
873.561	4976
873.69	4870
873.819	4919
873.948	4911
874.077	4801
874.206	4733
874.335	4797
874.464	4942
874.593	5109
874.722	4972
874.851	5109
874.979	5064
875.108	5060
875.237	4915
875.365	4896
875.494	4892
875.623	4961
875.751	4790
875.88	4885
876.008	5010
876.136	4999
876.265	5201
876.393	5376
876.521	5318
876.65	5201
876.778	5128
876.906	5083
877.034	4991
877.162	5048
877.29	4980
877.418	5033
877.546	5041
877.674	5006
877.802	5022
877.93	5018
878.058	4946
878.185	4900
878.313	4927
878.441	4938
878.568	4790
878.696	4858
878.824	4927
878.951	4999
879.079	5204
879.206	5334
879.333	5075
879.461	4980
879.588	5014
879.715	5147
879.842	5216
879.97	5006
880.097	4774
880.224	4778
880.351	4835
880.478	4854
880.605	4801
880.732	4839
880.859	5105
880.986	4908
881.112	4949
881.239	4797
881.366	4672
881.493	4599
881.619	4607
881.746	4611
881.872	4668
881.999	4645
882.125	4702
882.252	4801
882.378	4889
882.505	4972
882.631	4850
882.757	4660
882.883	4733
883.01	4752
883.136	4710
883.262	4615
883.388	4645
883.514	4805
883.64	4858
883.766	4824
883.892	4664
884.018	4698
884.143	4923
884.269	4999
884.395	4691
884.52	4641
884.646	4637
884.772	4561
884.897	4550
885.023	4675
885.148	4790
885.274	4847
885.399	4831
885.524	4767
885.65	4721
885.775	4721
885.9	4706
886.025	4816
886.15	4763
886.275	4721
886.4	4672
886.525	4717
886.65	4679
886.775	4672
886.9	4889
887.025	5022
887.149	4839
887.274	4626
887.399	4588
887.523	4615
887.648	4550
887.773	4599
887.897	4736
888.021	4778
888.146	4679
888.27	4816
888.395	4896
888.519	4809
888.643	4850
888.767	4820
888.891	4706
889.015	4577
889.139	4668
889.263	4584
889.387	4702
889.511	4896
889.635	4816
889.759	4679
889.883	4656
890.006	4706
890.13	4843
890.254	4596
890.377	4660
890.501	4546
890.624	4497
890.748	4645
890.871	4558
890.995	4394
891.118	4348
891.241	4500
891.364	4546
891.488	4634
891.611	4497
891.734	4550
891.857	4664
891.98	4565
892.103	4679
892.226	4565
892.349	4554
892.471	4462
892.594	4546
892.717	4603
892.839	4603
892.962	4618
893.085	4656
893.207	4588
893.33	4447
893.452	4542
893.575	4630
893.697	4561
893.819	4790
893.941	4824
894.064	4771
894.186	4554
894.308	4538
894.43	4748
894.552	4797
894.674	4763
894.796	4535
894.918	4558
895.04	4535
895.161	4691
895.283	4634
895.405	4592
895.526	4649
895.648	4694
895.769	4706
895.891	4668
896.012	4748
896.134	4733
896.255	4668
896.376	4626
896.498	4565
896.619	4748
896.74	4618
896.861	4634
896.982	4915
897.103	5094
897.224	4805
897.345	4748
897.466	4691
897.587	4721
897.708	4881
897.828	4767
897.949	4656
898.07	4615
898.19	4596
898.311	4866
898.431	4634
898.552	4752
898.672	4778
898.792	4835
898.913	4774
899.033	4615
899.153	4527
899.273	4413
899.393	4523
899.513	4508
899.633	4531
899.753	4546
899.873	4489
899.993	4542
900.113	4527
900.232	4637
900.352	4538
900.472	4489
900.591	4417
900.711	4516
900.83	4432
900.95	4607
901.069	4672
901.189	4565
901.308	4394
901.427	4284
901.546	4375
901.665	4440
901.784	4489
901.904	4409
902.023	4318
902.141	4162
902.26	4074
902.379	4303
902.498	4253
902.617	4234
902.735	4398
902.854	4379
902.973	4405
903.091	4219
903.21	4223
903.328	4318
903.446	4276
903.565	4261
903.683	4356
903.801	4318
903.919	4424
904.038	4402
904.156	4257
904.274	4421
904.392	4417
904.51	4398
904.627	4466
904.745	4550
904.863	4588
904.981	4379
905.098	4291
905.216	4337
905.334	4421
905.451	4413
905.569	4417
905.686	4554
905.803	4542
905.921	4402
906.038	4573
906.155	4516
906.272	4398
906.389	4447
906.506	4402
906.623	4383
906.74	4402
906.857	4295
906.974	4394
907.091	4558
907.208	4656
907.324	4584
907.441	4508
907.557	4329
907.674	4341
907.79	4329
907.907	4386
908.023	4466
908.139	4462
908.256	4462
908.372	4485
908.488	4470
908.604	4363
908.72	4314
908.836	4356
908.952	4379
909.068	4428
909.184	4554
909.3	4481
909.415	4554
909.531	4580
909.647	4348
909.762	4409
909.878	4367
909.993	4413
910.108	4394
910.224	4436
910.339	4489
910.454	4432
910.57	4344
910.685	4299
910.8	4615
910.915	4588
911.03	4512
911.145	4280
911.259	4318
911.374	4318
911.489	4322
911.604	4284
911.718	4169
911.833	4196
911.947	4048
912.062	4025
912.176	4234
912.291	4230
912.405	4261
912.519	4474
912.633	4500
912.748	4436
912.862	4272
912.976	4177
913.09	4116
913.204	4181
913.318	4261
913.431	4386
913.545	4383
913.659	4455
913.772	4348
913.886	4261
914	4207
914.113	4379
914.226	4443
914.34	4356
914.453	4318
914.566	4443
914.68	4306
914.793	4341
914.906	4166
915.019	4143
915.132	4067
915.245	4169
915.358	4268
915.47	4249
915.583	4265
915.696	4306
915.809	4379
915.921	4383
916.034	4223
916.146	4223
916.259	4227
916.371	4337
916.483	4356
916.595	4238
916.708	4306
916.82	4318
916.932	4318
917.044	4348
917.156	4310
917.268	4162
917.38	4314
917.491	4257
917.603	4325
917.715	4459
917.826	4413
917.938	4367
918.049	4200
918.161	4394
918.272	4550
918.384	4569
918.495	4432
918.606	4284
918.717	4192
918.828	4310
918.939	4379
919.05	4246
919.161	4356
919.272	4154
919.383	4188
919.494	4443
919.604	4637
919.715	4451
919.826	4348
919.936	4375
920.047	4527
920.157	4504
920.267	4664
920.378	4554
920.488	4493
920.598	4694
920.708	4904
920.818	4729
920.928	4774
921.038	4942
921.148	4866
921.258	4550
921.368	4512
921.477	4527
921.587	4447
921.697	4344
921.806	4527
921.916	4428
922.025	4249
922.134	4230
922.244	4207
922.353	4310
922.462	4158
922.571	4124
922.68	4036
922.789	3949
922.898	3987
923.007	3960
923.116	4029
923.224	4082
923.333	4059
923.442	3991
923.55	3964
923.659	4017
923.767	4101
923.876	4013
923.984	4131
924.092	3991
924.201	4071
924.309	4078
924.417	4086
924.525	4006
924.633	4143
924.741	5018
924.849	3903
924.956	4120
925.064	3922
925.172	3869
925.279	3937
925.387	4109
925.494	4025
925.602	4223
925.709	4219
925.816	3998
925.924	4086
926.031	4246
926.138	4162
926.245	4166
926.352	4086
926.459	4211
926.566	4314
926.673	4162
926.779	4055
926.886	4067
926.993	3945
927.099	3987
927.206	3937
927.312	3949
927.419	4082
927.525	3972
927.631	4116
927.737	3941
927.843	3953
927.95	3835
928.056	3975
928.162	3964
928.267	4040
928.373	4664
928.479	4166
928.585	3865
928.69	4032
928.796	4055
928.901	3934
929.007	3854
929.112	4002
929.218	3975
929.323	3926
929.428	3930
929.533	4109
929.638	3896
929.743	3941
929.848	4010
929.953	4006
930.058	3945
930.163	3751
930.267	3854
930.372	3953
930.477	3797
930.581	4097
930.685	3918
930.79	3835
930.894	3922
930.998	3857
931.103	4044
931.207	3705
931.311	3717
931.415	3675
931.519	3526
931.623	3523
