Data from test_V78500241_1726.txt Node
Date: Fri Mar 25 17:01:00 CST 2022
User: usil
Spectrometer: V785-0024
Trigger mode: 0
Integration Time (sec): 4.000000E-1
Scans to average: 1
Nonlinearity correction enabled: false
Boxcar width: 0
Storing dark spectrum: false
XAxis mode: Wavelengths
Number of Pixels in Spectrum: 1024
>>>>>Begin Spectral Data<<<<<
801.071	8012
801.214	7997
801.356	7887
801.499	7860
801.641	7780
801.783	7772
801.926	7894
802.068	7883
802.211	7951
802.353	8054
802.496	7837
802.638	7833
802.78	7879
802.923	7898
803.065	7849
803.208	7947
803.35	7963
803.492	8073
803.635	8157
803.777	7978
803.919	8134
804.061	8412
804.204	8145
804.346	8069
804.488	7928
804.63	8084
804.773	7986
804.915	8084
805.057	8275
805.199	8172
805.341	8252
805.483	8279
805.626	8153
805.768	8149
805.91	8252
806.052	8138
806.194	8084
806.336	8313
806.478	8100
806.62	8016
806.762	8142
806.904	8263
807.046	8537
807.188	8351
807.33	8347
807.472	8339
807.614	8199
807.756	8187
807.898	8005
808.04	7898
808.182	7925
808.324	7921
808.465	7906
808.607	8107
808.749	8134
808.891	8168
809.033	8336
809.174	8187
809.316	8096
809.458	8001
809.6	8058
809.741	8058
809.883	8031
810.025	8039
810.166	8058
810.308	7959
810.45	7955
810.591	7902
810.733	7719
810.875	7628
811.016	7521
811.158	7548
811.299	7567
811.441	7658
811.582	7632
811.724	7594
811.865	7537
812.007	7567
812.148	7586
812.29	7670
812.431	7795
812.573	7860
812.714	7963
812.855	8149
812.997	8202
813.138	8343
813.279	8161
813.421	8149
813.562	7928
813.703	7818
813.845	7742
813.986	7426
814.127	7232
814.268	7221
814.41	7240
814.551	7152
814.692	7217
814.833	7095
814.974	7156
815.115	7069
815.256	6977
815.397	6878
815.539	6958
815.68	6859
815.821	6776
815.962	6890
816.103	6806
816.244	6726
816.385	6642
816.526	6639
816.666	6525
816.807	6300
816.948	6361
817.089	6452
817.23	6452
817.371	6353
817.512	6380
817.653	6384
817.793	6338
817.934	6395
818.075	6433
818.216	6410
818.356	6380
818.497	6228
818.638	6117
818.778	6136
818.919	6121
819.06	6159
819.2	6311
819.341	6311
819.481	6388
819.622	6544
819.762	6684
819.903	6749
820.043	6601
820.184	6616
820.324	6601
820.465	6665
820.605	6669
820.746	6604
820.886	6540
821.026	6593
821.167	6719
821.307	6829
821.447	6829
821.588	6726
821.728	6536
821.868	6437
822.008	6391
822.149	6365
822.289	6372
822.429	6144
822.569	6091
822.709	6129
822.849	5916
822.99	5942
823.13	5973
823.27	5942
823.41	5813
823.55	5828
823.69	5805
823.83	5786
823.97	5688
824.11	5528
824.25	5516
824.389	5653
824.529	5581
824.669	5520
824.809	5729
824.949	5661
825.089	5665
825.228	5570
825.368	5459
825.508	5349
825.648	5345
825.787	5429
825.927	5357
826.067	5337
826.206	5299
826.346	5353
826.485	5429
826.625	5429
826.765	5604
826.904	5490
827.044	5273
827.183	5227
827.323	5151
827.462	5284
827.601	5170
827.741	5235
827.88	5223
828.02	5170
828.159	5277
828.298	5353
828.437	5376
828.577	5318
828.716	5493
828.855	5383
828.994	5231
829.134	5140
829.273	5239
829.412	5128
829.551	5159
829.69	5216
829.829	5299
829.968	5391
830.107	5258
830.246	5326
830.385	5189
830.524	5151
830.663	5128
830.802	5003
830.941	4953
831.08	4892
831.219	5018
831.357	5003
831.496	5166
831.635	4968
831.774	4908
831.913	4873
832.051	4714
832.19	4752
832.329	4858
832.467	4736
832.606	4691
832.744	4736
832.883	4759
833.022	4721
833.16	4824
833.299	4858
833.437	4828
833.576	4801
833.714	4870
833.852	4892
833.991	4923
834.129	5003
834.267	4961
834.406	4938
834.544	5018
834.682	5033
834.821	4980
834.959	5223
835.097	5056
835.235	5143
835.373	5136
835.511	5162
835.65	5079
835.788	5067
835.926	4934
836.064	4946
836.202	4953
836.34	5216
836.478	5223
836.615	5212
836.753	5250
836.891	5284
837.029	5227
837.167	5246
837.305	5204
837.443	5159
837.58	5109
837.718	5250
837.856	5235
837.993	5185
838.131	5204
838.269	5242
838.406	5277
838.544	5254
838.681	5052
838.819	5041
838.956	4934
839.094	4911
839.231	5056
839.369	5075
839.506	5493
839.643	5307
839.781	5079
839.918	5052
840.055	5128
840.193	5143
840.33	5140
840.467	5174
840.604	5216
840.742	5410
840.879	5140
841.016	5079
841.153	5174
841.29	5429
841.427	5349
841.564	5318
841.701	5376
841.838	5326
841.975	5265
842.112	5273
842.249	5193
842.385	5083
842.522	5391
842.659	5185
842.796	5155
842.933	5227
843.069	5178
843.206	5197
843.343	5364
843.479	5288
843.616	5265
843.752	5075
843.889	5029
844.025	5223
844.162	5052
844.298	5239
844.435	5098
844.571	5098
844.708	5201
844.844	5364
844.98	5330
845.117	5303
845.253	5166
845.389	5174
845.525	5170
845.661	5159
845.798	5064
845.934	5170
846.07	5033
846.206	5231
846.342	5265
846.478	5250
846.614	5060
846.75	4999
846.886	4965
847.022	5166
847.158	5048
847.294	5098
847.429	5117
847.565	5102
847.701	5357
847.837	4885
847.972	4843
848.108	4968
848.244	4942
848.379	4763
848.515	4778
848.65	4672
848.786	4752
848.921	4786
849.057	4862
849.192	4938
849.328	4839
849.463	4862
849.598	4809
849.734	4774
849.869	4694
850.004	4664
850.14	4710
850.275	4660
850.41	4561
850.545	4584
850.68	4615
850.815	4664
850.95	4607
851.085	4850
851.22	4714
851.355	4698
851.49	4641
851.625	4668
851.76	4626
851.895	4580
852.03	4577
852.165	4729
852.299	4744
852.434	4809
852.569	4702
852.703	4782
852.838	4889
852.973	4980
853.107	4946
853.242	4790
853.376	4698
853.511	4607
853.645	4637
853.78	4816
853.914	4683
854.048	4725
854.183	4675
854.317	4710
854.451	4934
854.585	4687
854.72	4626
854.854	4782
854.988	4630
855.122	4672
855.256	4558
855.39	4694
855.524	4793
855.658	4782
855.792	4672
855.926	4771
856.06	4759
856.194	4797
856.327	4698
856.461	4634
856.595	4611
856.729	4664
856.862	4733
856.996	4717
857.13	4744
857.263	4797
857.397	4824
857.53	4679
857.664	4763
857.797	4793
857.931	4801
858.064	4755
858.197	4759
858.331	4702
858.464	4653
858.597	4504
858.731	4660
858.864	4668
858.997	4599
859.13	4607
859.263	4645
859.396	4698
859.529	4611
859.662	4565
859.795	4546
859.928	4679
860.061	4790
860.194	4790
860.327	4649
860.46	4565
860.592	4714
860.725	4702
860.858	4736
860.99	4603
861.123	4546
861.256	4558
861.388	4611
861.521	5288
861.653	4443
861.786	4432
861.918	4485
862.05	4535
862.183	4603
862.315	4622
862.447	4694
862.58	4577
862.712	4402
862.844	4310
862.976	4500
863.108	4493
863.24	4892
863.372	4375
863.504	4447
863.636	4455
863.768	4493
863.9	4421
864.032	4405
864.164	4447
864.296	4478
864.428	4611
864.559	4596
864.691	4577
864.823	4554
864.954	4542
865.086	4558
865.217	4474
865.349	4436
865.48	4466
865.612	4485
865.743	4664
865.875	4489
866.006	4493
866.137	4489
866.269	4500
866.4	4459
866.531	4432
866.662	4443
866.793	4424
866.924	4478
867.055	4546
867.186	4455
867.317	4405
867.448	4436
867.579	4394
867.71	4394
867.841	4398
867.972	4485
868.103	4485
868.233	4470
868.364	4481
868.495	4497
868.625	4706
868.756	4809
868.886	4599
869.017	4653
869.147	4801
869.278	4767
869.408	4672
869.539	4675
869.669	4755
869.799	4668
869.929	4740
870.06	4729
870.19	4980
870.32	4987
870.45	4953
870.58	5048
870.71	5117
870.84	5109
870.97	4961
871.1	4965
871.23	5162
871.36	5113
871.489	5045
871.619	5105
871.749	5094
871.879	5083
872.008	5242
872.138	5071
872.267	5033
872.397	4889
872.526	4790
872.656	4736
872.785	4797
872.915	4968
873.044	5094
873.173	4946
873.303	4953
873.432	4968
873.561	4984
873.69	4930
873.819	4862
873.948	4892
874.077	4793
874.206	4740
874.335	4839
874.464	4942
874.593	5048
874.722	4995
874.851	5136
874.979	5037
875.108	5067
875.237	4942
875.365	4938
875.494	4873
875.623	4999
875.751	4850
875.88	4873
876.008	5003
876.136	5090
876.265	5208
876.393	5357
876.521	5227
876.65	5261
876.778	5117
876.906	5090
877.034	5022
877.162	5056
877.29	4965
877.418	5048
877.546	5060
877.674	5029
877.802	5052
877.93	5071
878.058	4908
878.185	4850
878.313	5003
878.441	4972
878.568	4801
878.696	4896
878.824	5003
878.951	5037
879.079	5162
879.206	5326
879.333	5143
879.461	4942
879.588	5029
879.715	5170
879.842	5242
879.97	4987
880.097	4771
880.224	4774
880.351	4767
880.478	4847
880.605	4782
880.732	4828
880.859	5094
880.986	4892
881.112	4927
881.239	4801
881.366	4679
881.493	4660
881.619	4554
881.746	4634
881.872	4694
881.999	4656
882.125	4698
882.252	4831
882.378	4866
882.505	4953
882.631	4820
882.757	4679
882.883	4721
883.01	4763
883.136	4664
883.262	4656
883.388	4637
883.514	4839
883.64	4873
883.766	4816
883.892	4683
884.018	4710
884.143	4938
884.269	5018
884.395	4694
884.52	4618
884.646	4668
884.772	4573
884.897	4588
885.023	4645
885.148	4820
885.274	4862
885.399	4797
885.524	4725
885.65	4706
885.775	4812
885.9	4714
886.025	4866
886.15	4782
886.275	4717
886.4	4679
886.525	4672
886.65	4679
886.775	4683
886.9	4949
887.025	5052
887.149	4793
887.274	4645
887.399	4611
887.523	4596
887.648	4607
887.773	4584
887.897	4748
888.021	4820
888.146	4702
888.27	4854
888.395	4866
888.519	4812
888.643	4847
888.767	4824
888.891	4721
889.015	4668
889.139	4706
889.263	4622
889.387	4805
889.511	4934
889.635	4812
889.759	4618
889.883	4694
890.006	4725
890.13	4831
890.254	4615
890.377	4645
890.501	4554
890.624	4554
890.748	4675
890.871	4512
890.995	4466
891.118	4394
891.241	4500
891.364	4508
891.488	4637
891.611	4535
891.734	4554
891.857	4622
891.98	4542
892.103	4607
892.226	4565
892.349	4550
892.471	4451
892.594	4523
892.717	4596
892.839	4569
892.962	4577
893.085	4668
893.207	4577
893.33	4493
893.452	4516
893.575	4626
893.697	4596
893.819	4831
893.941	4843
894.064	4801
894.186	4626
894.308	4577
894.43	4790
894.552	4835
894.674	4786
894.796	4569
894.918	4645
895.04	4622
895.161	4668
895.283	4656
895.405	4550
895.526	4664
895.648	4691
895.769	4714
895.891	4729
896.012	4774
896.134	4733
896.255	4656
896.376	4645
896.498	4645
896.619	4706
896.74	4592
896.861	4691
896.982	4965
897.103	5060
897.224	4816
897.345	4801
897.466	4706
897.587	4691
897.708	4862
897.828	4778
897.949	4733
898.07	4535
898.19	4611
898.311	4816
898.431	4691
898.552	4717
898.672	4850
898.792	4831
898.913	4736
899.033	4622
899.153	4481
899.273	4497
899.393	4489
899.513	4561
899.633	4554
899.753	4527
899.873	4478
899.993	4584
900.113	4519
900.232	4618
900.352	4580
900.472	4546
900.591	4417
900.711	4523
900.83	4443
900.95	4630
901.069	4691
901.189	4550
901.308	4348
901.427	4318
901.546	4379
901.665	4478
901.784	4538
901.904	4424
902.023	4329
902.141	4196
902.26	4131
902.379	4306
902.498	4257
902.617	4257
902.735	4360
902.854	4405
902.973	4405
903.091	4200
903.21	4268
903.328	4310
903.446	4238
903.565	4268
903.683	4348
903.801	4291
903.919	4421
904.038	4413
904.156	4337
904.274	4443
904.392	4405
904.51	4417
904.627	4538
904.745	4558
904.863	4645
904.981	4436
905.098	4333
905.216	4329
905.334	4455
905.451	4432
905.569	4436
905.686	4569
905.803	4596
905.921	4447
906.038	4546
906.155	4485
906.272	4363
906.389	4424
906.506	4356
906.623	4409
906.74	4436
906.857	4333
906.974	4383
907.091	4569
907.208	4668
907.324	4546
907.441	4516
907.557	4379
907.674	4356
907.79	4276
907.907	4428
908.023	4462
908.139	4512
908.256	4462
908.372	4497
908.488	4481
908.604	4363
908.72	4310
908.836	4413
908.952	4386
909.068	4383
909.184	4577
909.3	4478
909.415	4599
909.531	4531
909.647	4325
909.762	4405
909.878	4344
909.993	4455
910.108	4371
910.224	4394
910.339	4500
910.454	4375
910.57	4367
910.685	4291
910.8	4637
910.915	4622
911.03	4478
911.145	4295
911.259	4402
911.374	4386
911.489	4303
911.604	4284
911.718	4158
911.833	4242
911.947	4105
912.062	4059
912.176	4238
912.291	4215
912.405	4242
912.519	4489
912.633	4481
912.748	4333
912.862	4322
912.976	4249
913.09	4101
913.204	4169
913.318	4284
913.431	4337
913.545	4390
913.659	4447
913.772	4352
913.886	4249
914	4223
914.113	4360
914.226	4394
914.34	4363
914.453	4272
914.566	4436
914.68	4333
914.793	4363
914.906	4147
915.019	4143
915.132	4109
915.245	4223
915.358	4215
915.47	4234
915.583	4249
915.696	4276
915.809	4451
915.921	4440
916.034	4276
916.146	4310
916.259	4242
916.371	4383
916.483	4405
916.595	4204
916.708	4314
916.82	4322
916.932	4284
917.044	4314
917.156	4318
917.268	4249
917.38	4246
917.491	4318
917.603	4348
917.715	4383
917.826	4451
917.938	4360
918.049	4234
918.161	4367
918.272	4538
918.384	4527
918.495	4436
918.606	4284
918.717	4257
918.828	4306
918.939	4379
919.05	4230
919.161	4344
919.272	4139
919.383	4219
919.494	4466
919.604	4592
919.715	4443
919.826	4356
919.936	4390
920.047	4546
920.157	4481
920.267	4714
920.378	4497
920.488	4493
920.598	4656
920.708	4904
920.818	4733
920.928	4793
921.038	4942
921.148	4946
921.258	4641
921.368	4561
921.477	4512
921.587	4417
921.697	4394
921.806	4542
921.916	4390
922.025	4276
922.134	4272
922.244	4238
922.353	4287
922.462	4169
922.571	4131
922.68	3987
922.789	3983
922.898	4010
923.007	3964
923.116	4124
923.224	4078
923.333	4032
923.442	4025
923.55	3964
923.659	4017
923.767	4116
923.876	4029
923.984	4154
924.092	4002
924.201	4063
924.309	4097
924.417	4131
924.525	4071
924.633	4135
924.741	4877
924.849	3915
924.956	4169
925.064	3945
925.172	3911
925.279	3994
925.387	4067
925.494	3998
925.602	4219
925.709	4177
925.816	4044
925.924	4101
926.031	4265
926.138	4147
926.245	4234
926.352	4135
926.459	4227
926.566	4322
926.673	4162
926.779	4067
926.886	4059
926.993	3975
927.099	3960
927.206	3941
927.312	3956
927.419	4078
927.525	4029
927.631	4109
927.737	3998
927.843	3926
927.95	3876
928.056	3972
928.162	3945
928.267	4017
928.373	4656
928.479	4116
928.585	3850
928.69	4010
928.796	4101
928.901	3941
929.007	3827
929.112	3949
929.218	3991
929.323	3934
929.428	3949
929.533	4109
929.638	3876
929.743	3930
929.848	4036
929.953	4010
930.058	3968
930.163	3789
930.267	3861
930.372	3975
930.477	3823
930.581	4101
930.685	3941
930.79	3804
930.894	3903
930.998	3838
931.103	4017
931.207	3740
931.311	3701
931.415	3637
931.519	3492
931.623	3568
