Data from test_V78500241_529.txt Node
Date: Fri Mar 25 16:52:40 CST 2022
User: usil
Spectrometer: V785-0024
Trigger mode: 0
Integration Time (sec): 4.000000E-1
Scans to average: 1
Nonlinearity correction enabled: false
Boxcar width: 0
Storing dark spectrum: false
XAxis mode: Wavelengths
Number of Pixels in Spectrum: 1024
>>>>>Begin Spectral Data<<<<<
801.071	8039
801.214	7997
801.356	7868
801.499	7792
801.641	7807
801.783	7803
801.926	8020
802.068	7947
802.211	7989
802.353	7963
802.496	7906
802.638	7921
802.78	7898
802.923	7887
803.065	7826
803.208	7871
803.35	7921
803.492	8065
803.635	8092
803.777	8024
803.919	8115
804.061	8400
804.204	8119
804.346	8012
804.488	7967
804.63	8073
804.773	7982
804.915	8081
805.057	8240
805.199	8149
805.341	8221
805.483	8313
805.626	8161
805.768	8050
805.91	8084
806.052	8206
806.194	8100
806.336	8244
806.478	8103
806.62	8111
806.762	8062
806.904	8294
807.046	8385
807.188	8279
807.33	8195
807.472	8240
807.614	8103
807.756	8111
807.898	7986
808.04	7909
808.182	7902
808.324	7917
808.465	7925
808.607	8005
808.749	8096
808.891	8157
809.033	8294
809.174	8183
809.316	7967
809.458	8020
809.6	8008
809.741	8008
809.883	7986
810.025	8073
810.166	8058
810.308	8016
810.45	8001
810.591	7864
810.733	7693
810.875	7674
811.016	7548
811.158	7506
811.299	7552
811.441	7723
811.582	7685
811.724	7613
811.865	7559
812.007	7597
812.148	7533
812.29	7685
812.431	7784
812.573	7841
812.714	8069
812.855	8176
812.997	8225
813.138	8374
813.279	8263
813.421	8145
813.562	8031
813.703	7894
813.845	7826
813.986	7525
814.127	7327
814.268	7320
814.41	7225
814.551	7198
814.692	7236
814.833	7152
814.974	7042
815.115	7118
815.256	6985
815.397	6878
815.539	6913
815.68	6848
815.821	6753
815.962	6833
816.103	6837
816.244	6677
816.385	6707
816.526	6631
816.666	6494
816.807	6365
816.948	6418
817.089	6475
817.23	6486
817.371	6331
817.512	6369
817.653	6369
817.793	6353
817.934	6403
818.075	6517
818.216	6395
818.356	6350
818.497	6243
818.638	6114
818.778	6095
818.919	6030
819.06	6201
819.2	6350
819.341	6262
819.481	6254
819.622	6509
819.762	6772
819.903	6696
820.043	6563
820.184	6578
820.324	6506
820.465	6631
820.605	6650
820.746	6582
820.886	6509
821.026	6669
821.167	6715
821.307	6738
821.447	6688
821.588	6654
821.728	6620
821.868	6498
822.008	6273
822.149	6353
822.289	6384
822.429	6175
822.569	6106
822.709	6102
822.849	5897
822.99	5912
823.13	5950
823.27	5904
823.41	5824
823.55	5798
823.69	5760
823.83	5798
823.97	5642
824.11	5520
824.25	5543
824.389	5539
824.529	5547
824.669	5589
824.809	5611
824.949	5661
825.089	5615
825.228	5573
825.368	5341
825.508	5330
825.648	5322
825.787	5398
825.927	5326
826.067	5307
826.206	5204
826.346	5379
826.485	5364
826.625	5391
826.765	5528
826.904	5490
827.044	5273
827.183	5193
827.323	5132
827.462	5250
827.601	5109
827.741	5204
827.88	5216
828.02	5071
828.159	5204
828.298	5280
828.437	5368
828.577	5273
828.716	5501
828.855	5307
828.994	5109
829.134	5075
829.273	5143
829.412	5170
829.551	5117
829.69	5155
829.829	5254
829.968	5360
830.107	5284
830.246	5265
830.385	5121
830.524	5140
830.663	5041
830.802	5010
830.941	4930
831.08	4858
831.219	4991
831.357	5006
831.496	5132
831.635	4927
831.774	4843
831.913	4873
832.051	4786
832.19	4725
832.329	4824
832.467	4714
832.606	4668
832.744	4725
832.883	4740
833.022	4698
833.16	4778
833.299	4767
833.437	4774
833.576	4828
833.714	4870
833.852	4896
833.991	4828
834.129	4934
834.267	4942
834.406	4915
834.544	5003
834.682	4987
834.821	4984
834.959	5159
835.097	4965
835.235	5124
835.373	5102
835.511	5128
835.65	5075
835.788	5006
835.926	4919
836.064	4881
836.202	4930
836.34	5201
836.478	5273
836.615	5105
836.753	5204
836.891	5296
837.029	5223
837.167	5159
837.305	5132
837.443	5090
837.58	5083
837.718	5181
837.856	5193
837.993	5170
838.131	5261
838.269	5197
838.406	5223
838.544	5147
838.681	5010
838.819	5025
838.956	4896
839.094	4892
839.231	5003
839.369	5094
839.506	5402
839.643	5296
839.781	5090
839.918	5029
840.055	5094
840.193	5067
840.33	5056
840.467	5117
840.604	5170
840.742	5421
840.879	5071
841.016	5071
841.153	5174
841.29	5349
841.427	5315
841.564	5265
841.701	5349
841.838	5269
841.975	5174
842.112	5197
842.249	5166
842.385	5064
842.522	5307
842.659	5147
842.796	5151
842.933	5174
843.069	5136
843.206	5155
843.343	5280
843.479	5235
843.616	5242
843.752	5029
843.889	5010
844.025	5189
844.162	5045
844.298	5155
844.435	5102
844.571	5075
844.708	5105
844.844	5265
844.98	5299
845.117	5254
845.253	5140
845.389	5056
845.525	5170
845.661	5128
845.798	5006
845.934	5121
846.07	4995
846.206	5216
846.342	5273
846.478	5128
846.614	5014
846.75	4961
846.886	4923
847.022	5109
847.158	4984
847.294	5094
847.429	5033
847.565	5018
847.701	5349
847.837	4847
847.972	4805
848.108	4965
848.244	4877
848.379	4763
848.515	4706
848.65	4733
848.786	4733
848.921	4816
849.057	4877
849.192	4870
849.328	4824
849.463	4854
849.598	4828
849.734	4786
849.869	4660
850.004	4596
850.14	4630
850.275	4645
850.41	4512
850.545	4584
850.68	4611
850.815	4599
850.95	4637
851.085	4820
851.22	4759
851.355	4622
851.49	4584
851.625	4653
851.76	4641
851.895	4561
852.03	4485
852.165	4637
852.299	4733
852.434	4778
852.569	4774
852.703	4748
852.838	4850
852.973	4911
853.107	4900
853.242	4759
853.376	4664
853.511	4558
853.645	4622
853.78	4793
853.914	4744
854.048	4615
854.183	4641
854.317	4740
854.451	4885
854.585	4679
854.72	4630
854.854	4733
854.988	4618
855.122	4611
855.256	4531
855.39	4649
855.524	4786
855.658	4744
855.792	4672
855.926	4755
856.06	4725
856.194	4797
856.327	4687
856.461	4618
856.595	4653
856.729	4626
856.862	4755
856.996	4714
857.13	4710
857.263	4740
857.397	4831
857.53	4630
857.664	4759
857.797	4755
857.931	4771
858.064	4706
858.197	4706
858.331	4626
858.464	4577
858.597	4504
858.731	4615
858.864	4630
858.997	4611
859.13	4675
859.263	4649
859.396	4675
859.529	4569
859.662	4561
859.795	4542
859.928	4611
860.061	4736
860.194	4793
860.327	4596
860.46	4550
860.592	4698
860.725	4767
860.858	4725
860.99	4592
861.123	4535
861.256	4523
861.388	4607
861.521	5398
861.653	4493
861.786	4451
861.918	4485
862.05	4508
862.183	4485
862.315	4565
862.447	4668
862.58	4550
862.712	4417
862.844	4348
862.976	4478
863.108	4466
863.24	4839
863.372	4310
863.504	4413
863.636	4424
863.768	4493
863.9	4440
864.032	4363
864.164	4398
864.296	4443
864.428	4542
864.559	4527
864.691	4554
864.823	4527
864.954	4527
865.086	4512
865.217	4481
865.349	4455
865.48	4462
865.612	4489
865.743	4645
865.875	4470
866.006	4443
866.137	4489
866.269	4443
866.4	4451
866.531	4413
866.662	4417
866.793	4417
866.924	4440
867.055	4497
867.186	4459
867.317	4459
867.448	4356
867.579	4360
867.71	4417
867.841	4337
867.972	4500
868.103	4474
868.233	4470
868.364	4478
868.495	4459
868.625	4596
868.756	4717
868.886	4561
869.017	4630
869.147	4763
869.278	4790
869.408	4691
869.539	4626
869.669	4710
869.799	4622
869.929	4809
870.06	4721
870.19	4934
870.32	4889
870.45	4949
870.58	5010
870.71	5086
870.84	5109
870.97	4927
871.1	4896
871.23	5174
871.36	5102
871.489	5010
871.619	5064
871.749	5086
871.879	5170
872.008	5201
872.138	5056
872.267	5041
872.397	4881
872.526	4831
872.656	4706
872.785	4782
872.915	4957
873.044	5064
873.173	4927
873.303	4984
873.432	4965
873.561	4984
873.69	4900
873.819	4866
873.948	4896
874.077	4866
874.206	4774
874.335	4797
874.464	4889
874.593	5052
874.722	4957
874.851	5132
874.979	5048
875.108	5086
875.237	4904
875.365	4923
875.494	4915
875.623	4953
875.751	4812
875.88	4881
876.008	4949
876.136	5052
876.265	5181
876.393	5307
876.521	5220
876.65	5193
876.778	5166
876.906	5113
877.034	5010
877.162	5025
877.29	4984
877.418	5060
877.546	4999
877.674	5037
877.802	5048
877.93	5041
878.058	4953
878.185	4873
878.313	4927
878.441	4991
878.568	4801
878.696	4896
878.824	4957
878.951	4995
879.079	5151
879.206	5212
879.333	5083
879.461	4942
879.588	4961
879.715	5124
879.842	5280
879.97	4984
880.097	4790
880.224	4755
880.351	4763
880.478	4839
880.605	4839
880.732	4790
880.859	5109
880.986	4923
881.112	4904
881.239	4759
881.366	4683
881.493	4615
881.619	4607
881.746	4649
881.872	4645
881.999	4626
882.125	4729
882.252	4752
882.378	4816
882.505	4984
882.631	4820
882.757	4656
882.883	4744
883.01	4729
883.136	4687
883.262	4584
883.388	4592
883.514	4774
883.64	4866
883.766	4809
883.892	4679
884.018	4736
884.143	4862
884.269	5033
884.395	4691
884.52	4596
884.646	4656
884.772	4588
884.897	4561
885.023	4679
885.148	4778
885.274	4870
885.399	4809
885.524	4748
885.65	4725
885.775	4748
885.9	4706
886.025	4782
886.15	4786
886.275	4725
886.4	4645
886.525	4721
886.65	4706
886.775	4748
886.9	4942
887.025	5025
887.149	4831
887.274	4660
887.399	4565
887.523	4592
887.648	4550
887.773	4569
887.897	4771
888.021	4759
888.146	4721
888.27	4828
888.395	4896
888.519	4812
888.643	4778
888.767	4774
888.891	4717
889.015	4618
889.139	4683
889.263	4603
889.387	4797
889.511	4873
889.635	4809
889.759	4641
889.883	4675
890.006	4740
890.13	4812
890.254	4618
890.377	4641
890.501	4569
890.624	4538
890.748	4683
890.871	4500
890.995	4428
891.118	4398
891.241	4497
891.364	4569
891.488	4603
891.611	4569
891.734	4554
891.857	4637
891.98	4538
892.103	4687
892.226	4607
892.349	4527
892.471	4405
892.594	4596
892.717	4618
892.839	4554
892.962	4599
893.085	4694
893.207	4611
893.33	4485
893.452	4538
893.575	4672
893.697	4577
893.819	4771
893.941	4850
894.064	4736
894.186	4618
894.308	4599
894.43	4721
894.552	4786
894.674	4782
894.796	4531
894.918	4618
895.04	4558
895.161	4702
895.283	4656
895.405	4558
895.526	4637
895.648	4691
895.769	4698
895.891	4702
896.012	4733
896.134	4733
896.255	4694
896.376	4675
896.498	4615
896.619	4698
896.74	4634
896.861	4660
896.982	4972
897.103	5090
897.224	4873
897.345	4744
897.466	4668
897.587	4725
897.708	4843
897.828	4774
897.949	4664
898.07	4527
898.19	4622
898.311	4858
898.431	4702
898.552	4717
898.672	4831
898.792	4725
898.913	4778
899.033	4618
899.153	4485
899.273	4424
899.393	4478
899.513	4497
899.633	4462
899.753	4538
899.873	4535
899.993	4573
900.113	4516
900.232	4592
900.352	4580
900.472	4466
900.591	4413
900.711	4516
900.83	4440
900.95	4588
901.069	4679
901.189	4523
901.308	4390
901.427	4284
901.546	4379
901.665	4481
901.784	4519
901.904	4394
902.023	4314
902.141	4147
902.26	4162
902.379	4303
902.498	4276
902.617	4230
902.735	4348
902.854	4383
902.973	4424
903.091	4196
903.21	4227
903.328	4303
903.446	4265
903.565	4257
903.683	4360
903.801	4238
903.919	4390
904.038	4432
904.156	4303
904.274	4409
904.392	4398
904.51	4466
904.627	4451
904.745	4527
904.863	4634
904.981	4383
905.098	4287
905.216	4348
905.334	4405
905.451	4424
905.569	4447
905.686	4523
905.803	4573
905.921	4417
906.038	4561
906.155	4493
906.272	4402
906.389	4474
906.506	4348
906.623	4371
906.74	4360
906.857	4310
906.974	4383
907.091	4599
907.208	4664
907.324	4527
907.441	4500
907.557	4352
907.674	4360
907.79	4322
907.907	4360
908.023	4462
908.139	4523
908.256	4451
908.372	4421
908.488	4436
908.604	4371
908.72	4344
908.836	4394
908.952	4341
909.068	4432
909.184	4569
909.3	4474
909.415	4550
909.531	4580
909.647	4363
909.762	4413
909.878	4341
909.993	4428
910.108	4379
910.224	4386
910.339	4531
910.454	4367
910.57	4348
910.685	4318
910.8	4637
910.915	4599
911.03	4485
911.145	4325
911.259	4322
911.374	4344
911.489	4284
911.604	4261
911.718	4177
911.833	4227
911.947	4040
912.062	4063
912.176	4196
912.291	4211
912.405	4238
912.519	4474
912.633	4481
912.748	4383
912.862	4310
912.976	4207
913.09	4124
913.204	4200
913.318	4249
913.431	4371
913.545	4318
913.659	4481
913.772	4337
913.886	4276
914	4204
914.113	4310
914.226	4451
914.34	4383
914.453	4246
914.566	4413
914.68	4268
914.793	4299
914.906	4192
915.019	4120
915.132	4093
915.245	4204
915.358	4223
915.47	4234
915.583	4280
915.696	4303
915.809	4443
915.921	4432
916.034	4284
916.146	4242
916.259	4257
916.371	4318
916.483	4375
916.595	4280
916.708	4337
916.82	4337
916.932	4314
917.044	4303
917.156	4287
917.268	4261
917.38	4280
917.491	4272
917.603	4348
917.715	4436
917.826	4405
917.938	4360
918.049	4204
918.161	4390
918.272	4546
918.384	4527
918.495	4451
918.606	4284
918.717	4223
918.828	4344
918.939	4394
919.05	4268
919.161	4383
919.272	4124
919.383	4188
919.494	4421
919.604	4584
919.715	4440
919.826	4348
919.936	4394
920.047	4523
920.157	4455
920.267	4691
920.378	4542
920.488	4508
920.598	4694
920.708	4889
920.818	4755
920.928	4740
921.038	4991
921.148	4953
921.258	4660
921.368	4485
921.477	4500
921.587	4451
921.697	4383
921.806	4538
921.916	4493
922.025	4284
922.134	4268
922.244	4227
922.353	4322
922.462	4154
922.571	4166
922.68	3991
922.789	3998
922.898	4055
923.007	3960
923.116	4093
923.224	4048
923.333	4112
923.442	3972
923.55	3979
923.659	4006
923.767	4059
923.876	4021
923.984	4105
924.092	3953
924.201	4063
924.309	4097
924.417	4154
924.525	4040
924.633	4112
924.741	4991
924.849	3911
924.956	4166
925.064	3911
925.172	3915
925.279	3945
925.387	4055
925.494	4021
925.602	4238
925.709	4158
925.816	4013
925.924	4131
926.031	4223
926.138	4173
926.245	4215
926.352	4063
926.459	4246
926.566	4287
926.673	4162
926.779	4097
926.886	4059
926.993	3953
927.099	3979
927.206	3915
927.312	3941
927.419	4032
927.525	4051
927.631	4048
927.737	3941
927.843	3960
927.95	3865
928.056	3934
928.162	4002
928.267	4044
928.373	4672
928.479	4105
928.585	3831
928.69	3998
928.796	4063
928.901	3915
929.007	3808
929.112	3968
929.218	3953
929.323	3915
929.428	3975
929.533	4097
929.638	3884
929.743	3956
929.848	4036
929.953	4002
930.058	3945
930.163	3789
930.267	3812
930.372	3960
930.477	3808
930.581	4086
930.685	3968
930.79	3854
930.894	3911
930.998	3861
931.103	4013
931.207	3705
931.311	3713
931.415	3698
931.519	3526
931.623	3561
