Data from test_V78500241_1928.txt Node
Date: Fri Mar 25 17:02:24 CST 2022
User: usil
Spectrometer: V785-0024
Trigger mode: 0
Integration Time (sec): 4.000000E-1
Scans to average: 1
Nonlinearity correction enabled: false
Boxcar width: 0
Storing dark spectrum: false
XAxis mode: Wavelengths
Number of Pixels in Spectrum: 1024
>>>>>Begin Spectral Data<<<<<
801.071	8024
801.214	7993
801.356	7940
801.499	7875
801.641	7822
801.783	7856
801.926	7936
802.068	7875
802.211	7963
802.353	8012
802.496	7830
802.638	7826
802.78	7902
802.923	7864
803.065	7887
803.208	7925
803.35	7993
803.492	8065
803.635	8111
803.777	7982
803.919	8103
804.061	8499
804.204	8130
804.346	8016
804.488	7936
804.63	8092
804.773	7993
804.915	8142
805.057	8294
805.199	8157
805.341	8218
805.483	8221
805.626	8195
805.768	8145
805.91	8240
806.052	8267
806.194	8058
806.336	8298
806.478	8073
806.62	8005
806.762	8142
806.904	8259
807.046	8438
807.188	8377
807.33	8328
807.472	8339
807.614	8180
807.756	8183
807.898	8062
808.04	7818
808.182	7894
808.324	7818
808.465	7951
808.607	7982
808.749	8081
808.891	8187
809.033	8305
809.174	8252
809.316	8081
809.458	8081
809.6	7970
809.741	8027
809.883	8031
810.025	8096
810.166	8035
810.308	8020
810.45	7986
810.591	7807
810.733	7731
810.875	7693
811.016	7597
811.158	7472
811.299	7597
811.441	7700
811.582	7613
811.724	7559
811.865	7453
812.007	7597
812.148	7586
812.29	7613
812.431	7792
812.573	7871
812.714	7928
812.855	8092
812.997	8202
813.138	8263
813.279	8199
813.421	8123
813.562	7947
813.703	7841
813.845	7693
813.986	7449
814.127	7255
814.268	7187
814.41	7149
814.551	7149
814.692	7236
814.833	7107
814.974	7110
815.115	7126
815.256	7034
815.397	6920
815.539	6947
815.68	6757
815.821	6795
815.962	6886
816.103	6814
816.244	6738
816.385	6616
816.526	6578
816.666	6475
816.807	6311
816.948	6433
817.089	6456
817.23	6486
817.371	6372
817.512	6399
817.653	6407
817.793	6395
817.934	6410
818.075	6441
818.216	6452
818.356	6433
818.497	6292
818.638	6110
818.778	6144
818.919	6171
819.06	6148
819.2	6319
819.341	6357
819.481	6395
819.622	6570
819.762	6722
819.903	6707
820.043	6620
820.184	6517
820.324	6601
820.465	6684
820.605	6681
820.746	6692
820.886	6528
821.026	6635
821.167	6757
821.307	6795
821.447	6753
821.588	6688
821.728	6555
821.868	6486
822.008	6331
822.149	6391
822.289	6384
822.429	6171
822.569	6136
822.709	6167
822.849	5920
822.99	5969
823.13	5897
823.27	5958
823.41	5840
823.55	5802
823.69	5748
823.83	5760
823.97	5733
824.11	5558
824.25	5589
824.389	5600
824.529	5691
824.669	5532
824.809	5661
824.949	5722
825.089	5611
825.228	5638
825.368	5440
825.508	5395
825.648	5357
825.787	5429
825.927	5433
826.067	5322
826.206	5357
826.346	5379
826.485	5440
826.625	5425
826.765	5581
826.904	5501
827.044	5269
827.183	5231
827.323	5140
827.462	5322
827.601	5189
827.741	5258
827.88	5242
828.02	5174
828.159	5303
828.298	5364
828.437	5372
828.577	5341
828.716	5512
828.855	5353
828.994	5170
829.134	5178
829.273	5208
829.412	5166
829.551	5181
829.69	5212
829.829	5284
829.968	5379
830.107	5315
830.246	5292
830.385	5204
830.524	5147
830.663	5090
830.802	5025
830.941	4919
831.08	4923
831.219	5018
831.357	5025
831.496	5174
831.635	4999
831.774	4850
831.913	4938
832.051	4755
832.19	4790
832.329	4881
832.467	4710
832.606	4672
832.744	4755
832.883	4774
833.022	4744
833.16	4816
833.299	4828
833.437	4850
833.576	4809
833.714	4900
833.852	4915
833.991	4904
834.129	4980
834.267	4953
834.406	4915
834.544	5014
834.682	5018
834.821	4999
834.959	5155
835.097	5022
835.235	5189
835.373	5105
835.511	5162
835.65	5067
835.788	5029
835.926	4911
836.064	4919
836.202	4904
836.34	5155
836.478	5277
836.615	5181
836.753	5231
836.891	5307
837.029	5269
837.167	5227
837.305	5189
837.443	5223
837.58	5143
837.718	5299
837.856	5273
837.993	5181
838.131	5269
838.269	5231
838.406	5212
838.544	5216
838.681	5090
838.819	5033
838.956	4938
839.094	4934
839.231	5014
839.369	5140
839.506	5516
839.643	5277
839.781	5124
839.918	5075
840.055	5128
840.193	5121
840.33	5155
840.467	5174
840.604	5269
840.742	5509
840.879	5132
841.016	5079
841.153	5201
841.29	5398
841.427	5353
841.564	5402
841.701	5360
841.838	5299
841.975	5280
842.112	5292
842.249	5162
842.385	5079
842.522	5330
842.659	5174
842.796	5166
842.933	5216
843.069	5162
843.206	5178
843.343	5303
843.479	5246
843.616	5296
843.752	5079
843.889	5048
844.025	5189
844.162	5029
844.298	5201
844.435	5124
844.571	5056
844.708	5223
844.844	5299
844.98	5372
845.117	5368
845.253	5159
845.389	5140
845.525	5162
845.661	5193
845.798	4991
845.934	5185
846.07	5094
846.206	5189
846.342	5349
846.478	5231
846.614	5003
846.75	4961
846.886	4976
847.022	5189
847.158	5037
847.294	5098
847.429	5132
847.565	5098
847.701	5345
847.837	4873
847.972	4870
848.108	4976
848.244	4999
848.379	4812
848.515	4771
848.65	4736
848.786	4790
848.921	4786
849.057	4923
849.192	4908
849.328	4786
849.463	4858
849.598	4805
849.734	4805
849.869	4721
850.004	4653
850.14	4694
850.275	4660
850.41	4569
850.545	4622
850.68	4626
850.815	4668
850.95	4698
851.085	4862
851.22	4801
851.355	4664
851.49	4656
851.625	4645
851.76	4649
851.895	4577
852.03	4573
852.165	4694
852.299	4725
852.434	4774
852.569	4710
852.703	4839
852.838	4866
852.973	4968
853.107	4934
853.242	4774
853.376	4687
853.511	4584
853.645	4618
853.78	4843
853.914	4694
854.048	4664
854.183	4656
854.317	4767
854.451	4889
854.585	4733
854.72	4660
854.854	4816
854.988	4630
855.122	4656
855.256	4561
855.39	4694
855.524	4778
855.658	4740
855.792	4683
855.926	4752
856.06	4805
856.194	4870
856.327	4691
856.461	4599
856.595	4622
856.729	4630
856.862	4805
856.996	4694
857.13	4759
857.263	4828
857.397	4843
857.53	4668
857.664	4698
857.797	4820
857.931	4824
858.064	4698
858.197	4740
858.331	4664
858.464	4691
858.597	4531
858.731	4672
858.864	4664
858.997	4660
859.13	4668
859.263	4664
859.396	4733
859.529	4615
859.662	4569
859.795	4565
859.928	4653
860.061	4733
860.194	4736
860.327	4618
860.46	4565
860.592	4714
860.725	4687
860.858	4744
860.99	4588
861.123	4592
861.256	4565
861.388	4637
861.521	5292
861.653	4459
861.786	4489
861.918	4466
862.05	4558
862.183	4588
862.315	4645
862.447	4672
862.58	4603
862.712	4447
862.844	4367
862.976	4459
863.108	4504
863.24	4744
863.372	4413
863.504	4451
863.636	4447
863.768	4489
863.9	4428
864.032	4375
864.164	4413
864.296	4508
864.428	4565
864.559	4565
864.691	4516
864.823	4573
864.954	4516
865.086	4538
865.217	4504
865.349	4432
865.48	4478
865.612	4497
865.743	4596
865.875	4470
866.006	4451
866.137	4538
866.269	4443
866.4	4497
866.531	4478
866.662	4417
866.793	4394
866.924	4443
867.055	4535
867.186	4474
867.317	4413
867.448	4390
867.579	4390
867.71	4474
867.841	4402
867.972	4497
868.103	4478
868.233	4459
868.364	4493
868.495	4508
868.625	4672
868.756	4721
868.886	4580
869.017	4683
869.147	4809
869.278	4793
869.408	4637
869.539	4672
869.669	4759
869.799	4630
869.929	4763
870.06	4736
870.19	4953
870.32	4984
870.45	4953
870.58	5029
870.71	5155
870.84	5094
870.97	4976
871.1	4942
871.23	5121
871.36	5109
871.489	5025
871.619	5037
871.749	5086
871.879	5162
872.008	5201
872.138	5086
872.267	4968
872.397	4881
872.526	4793
872.656	4767
872.785	4797
872.915	4972
873.044	5105
873.173	4934
873.303	4965
873.432	4991
873.561	4995
873.69	4881
873.819	4900
873.948	4976
874.077	4824
874.206	4748
874.335	4847
874.464	4965
874.593	5067
874.722	5029
874.851	5098
874.979	5064
875.108	5048
875.237	4915
875.365	4919
875.494	4885
875.623	5025
875.751	4862
875.88	4961
876.008	5029
876.136	5010
876.265	5231
876.393	5330
876.521	5239
876.65	5292
876.778	5155
876.906	5052
877.034	5048
877.162	5090
877.29	5033
877.418	5071
877.546	5022
877.674	5033
877.802	5003
877.93	5056
878.058	4923
878.185	4896
878.313	4961
878.441	4934
878.568	4816
878.696	4919
878.824	5022
878.951	5048
879.079	5132
879.206	5318
879.333	5109
879.461	5010
879.588	4976
879.715	5105
879.842	5227
879.97	4976
880.097	4809
880.224	4721
880.351	4786
880.478	4831
880.605	4812
880.732	4752
880.859	5136
880.986	4896
881.112	4957
881.239	4828
881.366	4702
881.493	4634
881.619	4626
881.746	4656
881.872	4634
881.999	4698
882.125	4706
882.252	4793
882.378	4870
882.505	4965
882.631	4801
882.757	4687
882.883	4721
883.01	4748
883.136	4744
883.262	4626
883.388	4656
883.514	4790
883.64	4877
883.766	4793
883.892	4721
884.018	4752
884.143	4866
884.269	4980
884.395	4702
884.52	4687
884.646	4687
884.772	4607
884.897	4542
885.023	4653
885.148	4809
885.274	4847
885.399	4801
885.524	4694
885.65	4694
885.775	4748
885.9	4733
886.025	4870
886.15	4778
886.275	4691
886.4	4664
886.525	4714
886.65	4721
886.775	4740
886.9	4881
887.025	5079
887.149	4820
887.274	4653
887.399	4626
887.523	4584
887.648	4611
887.773	4569
887.897	4759
888.021	4782
888.146	4656
888.27	4805
888.395	4904
888.519	4790
888.643	4801
888.767	4847
888.891	4630
889.015	4592
889.139	4656
889.263	4569
889.387	4706
889.511	4900
889.635	4778
889.759	4653
889.883	4653
890.006	4748
890.13	4881
890.254	4672
890.377	4702
890.501	4550
890.624	4516
890.748	4634
890.871	4493
890.995	4443
891.118	4421
891.241	4504
891.364	4573
891.488	4622
891.611	4497
891.734	4565
891.857	4618
891.98	4523
892.103	4656
892.226	4550
892.349	4519
892.471	4405
892.594	4512
892.717	4538
892.839	4596
892.962	4630
893.085	4706
893.207	4634
893.33	4489
893.452	4550
893.575	4698
893.697	4596
893.819	4782
893.941	4812
894.064	4774
894.186	4546
894.308	4573
894.43	4763
894.552	4812
894.674	4714
894.796	4550
894.918	4611
895.04	4538
895.161	4706
895.283	4675
895.405	4603
895.526	4637
895.648	4664
895.769	4683
895.891	4710
896.012	4763
896.134	4733
896.255	4714
896.376	4645
896.498	4618
896.619	4729
896.74	4607
896.861	4679
896.982	4949
897.103	5094
897.224	4820
897.345	4778
897.466	4698
897.587	4759
897.708	4870
897.828	4820
897.949	4656
898.07	4588
898.19	4691
898.311	4793
898.431	4649
898.552	4755
898.672	4809
898.792	4793
898.913	4755
899.033	4611
899.153	4550
899.273	4447
899.393	4478
899.513	4569
899.633	4531
899.753	4535
899.873	4512
899.993	4584
900.113	4569
900.232	4618
900.352	4523
900.472	4466
900.591	4413
900.711	4493
900.83	4424
900.95	4622
901.069	4649
901.189	4550
901.308	4367
901.427	4310
901.546	4413
901.665	4455
901.784	4508
901.904	4398
902.023	4341
902.141	4242
902.26	4204
902.379	4341
902.498	4253
902.617	4223
902.735	4386
902.854	4417
902.973	4318
903.091	4249
903.21	4261
903.328	4322
903.446	4284
903.565	4261
903.683	4390
903.801	4287
903.919	4440
904.038	4432
904.156	4306
904.274	4428
904.392	4386
904.51	4470
904.627	4489
904.745	4554
904.863	4656
904.981	4443
905.098	4322
905.216	4409
905.334	4405
905.451	4466
905.569	4493
905.686	4599
905.803	4592
905.921	4417
906.038	4596
906.155	4512
906.272	4352
906.389	4481
906.506	4379
906.623	4413
906.74	4409
906.857	4344
906.974	4375
907.091	4615
907.208	4710
907.324	4596
907.441	4531
907.557	4333
907.674	4333
907.79	4325
907.907	4363
908.023	4497
908.139	4516
908.256	4421
908.372	4489
908.488	4440
908.604	4375
908.72	4329
908.836	4360
908.952	4344
909.068	4363
909.184	4527
909.3	4489
909.415	4611
909.531	4577
909.647	4348
909.762	4402
909.878	4322
909.993	4386
910.108	4443
910.224	4409
910.339	4447
910.454	4417
910.57	4363
910.685	4291
910.8	4634
910.915	4618
911.03	4493
911.145	4322
911.259	4344
911.374	4375
911.489	4295
911.604	4246
911.718	4188
911.833	4200
911.947	4105
912.062	4006
912.176	4173
912.291	4261
912.405	4204
912.519	4432
912.633	4538
912.748	4402
912.862	4333
912.976	4158
913.09	4074
913.204	4162
913.318	4253
913.431	4341
913.545	4402
913.659	4451
913.772	4360
913.886	4207
914	4246
914.113	4352
914.226	4455
914.34	4356
914.453	4287
914.566	4462
914.68	4333
914.793	4318
914.906	4177
915.019	4143
915.132	4082
915.245	4207
915.358	4196
915.47	4215
915.583	4284
915.696	4306
915.809	4421
915.921	4447
916.034	4261
916.146	4257
916.259	4238
916.371	4375
916.483	4367
916.595	4234
916.708	4322
916.82	4360
916.932	4318
917.044	4333
917.156	4318
917.268	4249
917.38	4287
917.491	4287
917.603	4348
917.715	4455
917.826	4409
917.938	4363
918.049	4227
918.161	4375
918.272	4523
918.384	4508
918.495	4462
918.606	4314
918.717	4246
918.828	4337
918.939	4371
919.05	4238
919.161	4344
919.272	4120
919.383	4215
919.494	4417
919.604	4645
919.715	4432
919.826	4363
919.936	4386
920.047	4569
920.157	4478
920.267	4706
920.378	4538
920.488	4489
920.598	4744
920.708	4805
920.818	4744
920.928	4793
921.038	4915
921.148	4889
921.258	4649
921.368	4561
921.477	4485
921.587	4474
921.697	4398
921.806	4573
921.916	4421
922.025	4261
922.134	4249
922.244	4257
922.353	4356
922.462	4181
922.571	4128
922.68	4025
922.789	4002
922.898	4044
923.007	3979
923.116	4101
923.224	4074
923.333	4090
923.442	3991
923.55	4017
923.659	4013
923.767	4086
923.876	3983
923.984	4105
924.092	4036
924.201	4055
924.309	4128
924.417	4143
924.525	4074
924.633	4135
924.741	5037
924.849	3937
924.956	4112
925.064	3960
925.172	3930
925.279	3960
925.387	4063
925.494	4059
925.602	4173
925.709	4162
925.816	4074
925.924	4143
926.031	4219
926.138	4143
926.245	4177
926.352	4051
926.459	4265
926.566	4306
926.673	4150
926.779	4097
926.886	4055
926.993	3968
927.099	3949
927.206	3968
927.312	3934
927.419	4090
927.525	4010
927.631	4128
927.737	3960
927.843	3937
927.95	3880
928.056	3998
928.162	4013
928.267	4071
928.373	4588
928.479	4097
928.585	3884
928.69	4025
928.796	4082
928.901	3975
929.007	3819
929.112	3998
929.218	3972
929.323	3934
929.428	3953
929.533	4082
929.638	3896
929.743	3953
929.848	4032
929.953	4006
930.058	3937
930.163	3789
930.267	3869
930.372	3937
930.477	3842
930.581	4128
930.685	3964
930.79	3861
930.894	3941
930.998	3880
931.103	4036
931.207	3743
931.311	3743
931.415	3641
931.519	3504
931.623	3564
