Data from test_V78500241_2623.txt Node
Date: Fri Mar 25 17:07:14 CST 2022
User: usil
Spectrometer: V785-0024
Trigger mode: 0
Integration Time (sec): 4.000000E-1
Scans to average: 1
Nonlinearity correction enabled: false
Boxcar width: 0
Storing dark spectrum: false
XAxis mode: Wavelengths
Number of Pixels in Spectrum: 1024
>>>>>Begin Spectral Data<<<<<
801.071	7986
801.214	8024
801.356	7913
801.499	7818
801.641	7818
801.783	7898
801.926	7955
802.068	7963
802.211	8046
802.353	7978
802.496	7833
802.638	7887
802.78	7909
802.923	7906
803.065	7909
803.208	7902
803.35	7978
803.492	8043
803.635	8199
803.777	8020
803.919	8126
804.061	8381
804.204	8183
804.346	8043
804.488	7970
804.63	8123
804.773	7978
804.915	8119
805.057	8240
805.199	8191
805.341	8191
805.483	8301
805.626	8199
805.768	8119
805.91	8199
806.052	8214
806.194	8103
806.336	8286
806.478	8077
806.62	8039
806.762	8084
806.904	8267
807.046	8434
807.188	8351
807.33	8259
807.472	8366
807.614	8142
807.756	8134
807.898	8039
808.04	7826
808.182	7799
808.324	7917
808.465	7947
808.607	8088
808.749	8111
808.891	8248
809.033	8248
809.174	8229
809.316	7997
809.458	8035
809.6	8005
809.741	8062
809.883	8016
810.025	8119
810.166	8046
810.308	7959
810.45	8008
810.591	7864
810.733	7693
810.875	7609
811.016	7521
811.158	7510
811.299	7502
811.441	7700
811.582	7719
811.724	7544
811.865	7537
812.007	7601
812.148	7590
812.29	7575
812.431	7719
812.573	7788
812.714	7974
812.855	8111
812.997	8210
813.138	8355
813.279	8214
813.421	8043
813.562	7944
813.703	7887
813.845	7738
813.986	7411
814.127	7198
814.268	7183
814.41	7187
814.551	7137
814.692	7194
814.833	7091
814.974	7129
815.115	7137
815.256	6970
815.397	6958
815.539	6989
815.68	6798
815.821	6711
815.962	6825
816.103	6798
816.244	6734
816.385	6589
816.526	6608
816.666	6547
816.807	6334
816.948	6509
817.089	6490
817.23	6464
817.371	6448
817.512	6407
817.653	6346
817.793	6338
817.934	6418
818.075	6460
818.216	6437
818.356	6403
818.497	6247
818.638	6110
818.778	6186
818.919	6171
819.06	6232
819.2	6300
819.341	6372
819.481	6376
819.622	6528
819.762	6730
819.903	6726
820.043	6566
820.184	6578
820.324	6604
820.465	6783
820.605	6669
820.746	6635
820.886	6574
821.026	6662
821.167	6696
821.307	6776
821.447	6764
821.588	6688
821.728	6604
821.868	6418
822.008	6319
822.149	6346
822.289	6376
822.429	6232
822.569	6079
822.709	6117
822.849	5904
822.99	5912
823.13	5866
823.27	5912
823.41	5775
823.55	5817
823.69	5798
823.83	5817
823.97	5642
824.11	5577
824.25	5524
824.389	5570
824.529	5592
824.669	5551
824.809	5619
824.949	5634
825.089	5581
825.228	5570
825.368	5398
825.508	5330
825.648	5322
825.787	5395
825.927	5410
826.067	5322
826.206	5303
826.346	5368
826.485	5376
826.625	5436
826.765	5562
826.904	5471
827.044	5254
827.183	5231
827.323	5151
827.462	5307
827.601	5140
827.741	5162
827.88	5254
828.02	5143
828.159	5296
828.298	5303
828.437	5376
828.577	5330
828.716	5535
828.855	5391
828.994	5162
829.134	5128
829.273	5143
829.412	5178
829.551	5170
829.69	5242
829.829	5277
829.968	5421
830.107	5311
830.246	5353
830.385	5201
830.524	5220
830.663	5060
830.802	4999
830.941	4904
831.08	4904
831.219	5025
831.357	5018
831.496	5140
831.635	5003
831.774	4919
831.913	4908
832.051	4755
832.19	4812
832.329	4892
832.467	4729
832.606	4698
832.744	4778
832.883	4740
833.022	4729
833.16	4847
833.299	4870
833.437	4862
833.576	4828
833.714	4896
833.852	4862
833.991	4923
834.129	5018
834.267	4984
834.406	4946
834.544	5006
834.682	4984
834.821	4987
834.959	5193
835.097	5018
835.235	5235
835.373	5121
835.511	5204
835.65	5079
835.788	5090
835.926	4949
836.064	4919
836.202	4980
836.34	5239
836.478	5280
836.615	5159
836.753	5242
836.891	5360
837.029	5364
837.167	5250
837.305	5239
837.443	5204
837.58	5174
837.718	5277
837.856	5204
837.993	5166
838.131	5277
838.269	5227
838.406	5216
838.544	5216
838.681	5071
838.819	5037
838.956	4923
839.094	4919
839.231	5022
839.369	5098
839.506	5425
839.643	5296
839.781	5098
839.918	5010
840.055	5174
840.193	5136
840.33	5117
840.467	5197
840.604	5216
840.742	5448
840.879	5132
841.016	5121
841.153	5189
841.29	5433
841.427	5410
841.564	5303
841.701	5410
841.838	5318
841.975	5258
842.112	5368
842.249	5162
842.385	5162
842.522	5326
842.659	5204
842.796	5159
842.933	5284
843.069	5174
843.206	5159
843.343	5337
843.479	5246
843.616	5261
843.752	5117
843.889	5064
844.025	5269
844.162	5022
844.298	5220
844.435	5124
844.571	5083
844.708	5181
844.844	5337
844.98	5364
845.117	5376
845.253	5185
845.389	5121
845.525	5212
845.661	5166
845.798	5094
845.934	5162
846.07	5033
846.206	5265
846.342	5311
846.478	5216
846.614	5018
846.75	4991
846.886	4965
847.022	5216
847.158	5067
847.294	5045
847.429	5193
847.565	5136
847.701	5372
847.837	4892
847.972	4801
848.108	4980
848.244	4968
848.379	4820
848.515	4812
848.65	4774
848.786	4767
848.921	4797
849.057	4919
849.192	4934
849.328	4847
849.463	4896
849.598	4850
849.734	4763
849.869	4702
850.004	4603
850.14	4645
850.275	4668
850.41	4508
850.545	4584
850.68	4622
850.815	4577
850.95	4645
851.085	4854
851.22	4812
851.355	4702
851.49	4672
851.625	4630
851.76	4683
851.895	4573
852.03	4580
852.165	4714
852.299	4710
852.434	4881
852.569	4767
852.703	4790
852.838	4873
852.973	4957
853.107	4938
853.242	4740
853.376	4702
853.511	4580
853.645	4622
853.78	4820
853.914	4725
854.048	4759
854.183	4626
854.317	4755
854.451	4850
854.585	4694
854.72	4706
854.854	4778
854.988	4615
855.122	4618
855.256	4519
855.39	4683
855.524	4774
855.658	4714
855.792	4714
855.926	4793
856.06	4778
856.194	4839
856.327	4710
856.461	4622
856.595	4679
856.729	4698
856.862	4778
856.996	4714
857.13	4744
857.263	4850
857.397	4809
857.53	4714
857.664	4797
857.797	4801
857.931	4797
858.064	4729
858.197	4744
858.331	4679
858.464	4660
858.597	4554
858.731	4668
858.864	4649
858.997	4664
859.13	4683
859.263	4733
859.396	4740
859.529	4607
859.662	4580
859.795	4584
859.928	4675
860.061	4793
860.194	4786
860.327	4626
860.46	4607
860.592	4725
860.725	4793
860.858	4714
860.99	4618
861.123	4546
861.256	4558
861.388	4615
861.521	5471
861.653	4451
861.786	4478
861.918	4489
862.05	4550
862.183	4550
862.315	4607
862.447	4675
862.58	4584
862.712	4421
862.844	4379
862.976	4497
863.108	4455
863.24	4820
863.372	4352
863.504	4428
863.636	4436
863.768	4546
863.9	4478
864.032	4394
864.164	4428
864.296	4485
864.428	4565
864.559	4611
864.691	4550
864.823	4603
864.954	4527
865.086	4584
865.217	4478
865.349	4466
865.48	4504
865.612	4577
865.743	4706
865.875	4470
866.006	4451
866.137	4489
866.269	4481
866.4	4481
866.531	4432
866.662	4421
866.793	4436
866.924	4413
867.055	4470
867.186	4504
867.317	4424
867.448	4383
867.579	4424
867.71	4440
867.841	4421
867.972	4504
868.103	4508
868.233	4428
868.364	4485
868.495	4500
868.625	4702
868.756	4774
868.886	4615
869.017	4645
869.147	4809
869.278	4755
869.408	4656
869.539	4664
869.669	4748
869.799	4672
869.929	4812
870.06	4767
870.19	4984
870.32	4946
870.45	4934
870.58	5025
870.71	5136
870.84	5159
870.97	4972
871.1	4900
871.23	5189
871.36	5094
871.489	5064
871.619	5045
871.749	5121
871.879	5155
872.008	5193
872.138	5098
872.267	5045
872.397	4877
872.526	4862
872.656	4744
872.785	4873
872.915	4965
873.044	5003
873.173	4984
873.303	4999
873.432	4995
873.561	4987
873.69	4915
873.819	4930
873.948	4965
874.077	4858
874.206	4786
874.335	4828
874.464	4972
874.593	5086
874.722	4999
874.851	5094
874.979	5075
875.108	5086
875.237	4915
875.365	4885
875.494	4915
875.623	4995
875.751	4862
875.88	4904
876.008	5014
876.136	5075
876.265	5185
876.393	5368
876.521	5261
876.65	5239
876.778	5220
876.906	5105
877.034	4999
877.162	5048
877.29	5003
877.418	5037
877.546	5025
877.674	5071
877.802	5083
877.93	5048
878.058	4995
878.185	4904
878.313	4953
878.441	4999
878.568	4816
878.696	4915
878.824	4999
878.951	5006
879.079	5159
879.206	5353
879.333	5121
879.461	5022
879.588	5010
879.715	5147
879.842	5235
879.97	5041
880.097	4805
880.224	4706
880.351	4790
880.478	4812
880.605	4786
880.732	4850
880.859	5128
880.986	4949
881.112	4946
881.239	4797
881.366	4645
881.493	4599
881.619	4565
881.746	4611
881.872	4675
881.999	4603
882.125	4725
882.252	4858
882.378	4812
882.505	4995
882.631	4820
882.757	4691
882.883	4752
883.01	4782
883.136	4717
883.262	4573
883.388	4607
883.514	4828
883.64	4885
883.766	4839
883.892	4721
884.018	4736
884.143	4873
884.269	5037
884.395	4702
884.52	4668
884.646	4687
884.772	4607
884.897	4584
885.023	4675
885.148	4793
885.274	4892
885.399	4870
885.524	4748
885.65	4710
885.775	4767
885.9	4721
886.025	4835
886.15	4816
886.275	4771
886.4	4656
886.525	4721
886.65	4706
886.775	4721
886.9	4949
887.025	5052
887.149	4816
887.274	4702
887.399	4573
887.523	4607
887.648	4637
887.773	4588
887.897	4793
888.021	4835
888.146	4721
888.27	4847
888.395	4915
888.519	4862
888.643	4831
888.767	4873
888.891	4679
889.015	4660
889.139	4694
889.263	4645
889.387	4763
889.511	4870
889.635	4801
889.759	4626
889.883	4668
890.006	4714
890.13	4850
890.254	4626
890.377	4740
890.501	4561
890.624	4580
890.748	4653
890.871	4489
890.995	4459
891.118	4402
891.241	4508
891.364	4554
891.488	4618
891.611	4516
891.734	4527
891.857	4599
891.98	4565
892.103	4660
892.226	4603
892.349	4596
892.471	4451
892.594	4577
892.717	4649
892.839	4626
892.962	4611
893.085	4664
893.207	4618
893.33	4508
893.452	4504
893.575	4668
893.697	4584
893.819	4816
893.941	4828
894.064	4782
894.186	4618
894.308	4561
894.43	4717
894.552	4839
894.674	4740
894.796	4558
894.918	4626
895.04	4573
895.161	4717
895.283	4641
895.405	4577
895.526	4656
895.648	4755
895.769	4660
895.891	4736
896.012	4755
896.134	4740
896.255	4672
896.376	4599
896.498	4615
896.619	4675
896.74	4615
896.861	4630
896.982	4953
897.103	5094
897.224	4835
897.345	4767
897.466	4679
897.587	4721
897.708	4896
897.828	4786
897.949	4714
898.07	4558
898.19	4630
898.311	4908
898.431	4656
898.552	4771
898.672	4824
898.792	4812
898.913	4740
899.033	4615
899.153	4516
899.273	4466
899.393	4478
899.513	4523
899.633	4577
899.753	4607
899.873	4516
899.993	4626
900.113	4592
900.232	4611
900.352	4558
900.472	4527
900.591	4428
900.711	4497
900.83	4443
900.95	4637
901.069	4729
901.189	4538
901.308	4394
901.427	4360
901.546	4428
901.665	4455
901.784	4603
901.904	4402
902.023	4325
902.141	4227
902.26	4215
902.379	4367
902.498	4257
902.617	4219
902.735	4413
902.854	4462
902.973	4405
903.091	4265
903.21	4280
903.328	4352
903.446	4318
903.565	4246
903.683	4432
903.801	4318
903.919	4455
904.038	4508
904.156	4329
904.274	4478
904.392	4470
904.51	4535
904.627	4523
904.745	4622
904.863	4687
904.981	4436
905.098	4322
905.216	4405
905.334	4497
905.451	4493
905.569	4474
905.686	4516
905.803	4630
905.921	4443
906.038	4588
906.155	4546
906.272	4447
906.389	4489
906.506	4409
906.623	4436
906.74	4447
906.857	4371
906.974	4428
907.091	4626
907.208	4687
907.324	4599
907.441	4580
907.557	4360
907.674	4398
907.79	4405
907.907	4455
908.023	4554
908.139	4474
908.256	4478
908.372	4569
908.488	4455
908.604	4390
908.72	4379
908.836	4386
908.952	4413
909.068	4443
909.184	4641
909.3	4550
909.415	4645
909.531	4615
909.647	4352
909.762	4421
909.878	4356
909.993	4474
910.108	4436
910.224	4428
910.339	4497
910.454	4466
910.57	4394
910.685	4356
910.8	4649
910.915	4596
911.03	4523
911.145	4409
911.259	4398
911.374	4413
911.489	4295
911.604	4341
911.718	4234
911.833	4234
911.947	4082
912.062	4139
912.176	4227
912.291	4272
912.405	4299
912.519	4512
912.633	4535
912.748	4436
912.862	4413
912.976	4261
913.09	4139
913.204	4219
913.318	4303
913.431	4402
913.545	4424
913.659	4504
913.772	4367
913.886	4272
914	4215
914.113	4428
914.226	4478
914.34	4421
914.453	4299
914.566	4516
914.68	4325
914.793	4379
914.906	4204
915.019	4177
915.132	4109
915.245	4211
915.358	4242
915.47	4249
915.583	4280
915.696	4386
915.809	4470
915.921	4432
916.034	4325
916.146	4295
916.259	4265
916.371	4424
916.483	4428
916.595	4344
916.708	4360
916.82	4318
916.932	4337
917.044	4341
917.156	4325
917.268	4234
917.38	4333
917.491	4314
917.603	4371
917.715	4451
917.826	4481
917.938	4379
918.049	4284
918.161	4440
918.272	4516
918.384	4550
918.495	4493
918.606	4341
918.717	4272
918.828	4348
918.939	4428
919.05	4314
919.161	4383
919.272	4177
919.383	4306
919.494	4466
919.604	4694
919.715	4447
919.826	4356
919.936	4459
920.047	4577
920.157	4504
920.267	4733
920.378	4565
920.488	4569
920.598	4755
920.708	4934
920.818	4793
920.928	4831
921.038	5025
921.148	4976
921.258	4668
921.368	4550
921.477	4565
921.587	4451
921.697	4394
921.806	4573
921.916	4485
922.025	4303
922.134	4276
922.244	4242
922.353	4337
922.462	4204
922.571	4162
922.68	4071
922.789	4021
922.898	4067
923.007	4055
923.116	4154
923.224	4143
923.333	4063
923.442	4048
923.55	3979
923.659	4013
923.767	4128
923.876	4086
923.984	4173
924.092	4013
924.201	4109
924.309	4131
924.417	4154
924.525	4071
924.633	4128
924.741	5064
924.849	3941
924.956	4143
925.064	4021
925.172	3892
925.279	4021
925.387	4101
925.494	4055
925.602	4242
925.709	4192
925.816	4059
925.924	4162
926.031	4253
926.138	4188
926.245	4219
926.352	4139
926.459	4257
926.566	4341
926.673	4177
926.779	4063
926.886	4109
926.993	4002
927.099	3983
927.206	3968
927.312	3922
927.419	4124
927.525	4044
927.631	4120
927.737	4013
927.843	3991
927.95	3880
928.056	4002
928.162	4036
928.267	4078
928.373	4599
928.479	4173
928.585	3911
928.69	4055
928.796	4109
928.901	3998
929.007	3873
929.112	3994
929.218	3975
929.323	3960
929.428	4025
929.533	4124
929.638	3968
929.743	3983
929.848	4055
929.953	4051
930.058	3979
930.163	3823
930.267	3857
930.372	4036
930.477	3827
930.581	4078
930.685	3956
930.79	3819
930.894	3907
930.998	3892
931.103	4032
931.207	3770
931.311	3724
931.415	3679
931.519	3549
931.623	3591
