Data from test_V78500241_2768.txt Node
Date: Fri Mar 25 17:08:14 CST 2022
User: usil
Spectrometer: V785-0024
Trigger mode: 0
Integration Time (sec): 4.000000E-1
Scans to average: 1
Nonlinearity correction enabled: false
Boxcar width: 0
Storing dark spectrum: false
XAxis mode: Wavelengths
Number of Pixels in Spectrum: 1024
>>>>>Begin Spectral Data<<<<<
801.071	7967
801.214	7986
801.356	7898
801.499	7955
801.641	7807
801.783	7879
801.926	8005
802.068	7967
802.211	8012
802.353	8054
802.496	7887
802.638	7921
802.78	7913
802.923	7921
803.065	7936
803.208	7875
803.35	8008
803.492	8149
803.635	8183
803.777	8054
803.919	8218
804.061	8511
804.204	8142
804.346	8084
804.488	8005
804.63	8123
804.773	8050
804.915	8157
805.057	8305
805.199	8130
805.341	8244
805.483	8374
805.626	8199
805.768	8183
805.91	8298
806.052	8187
806.194	8138
806.336	8374
806.478	8153
806.62	8039
806.762	8126
806.904	8202
807.046	8450
807.188	8377
807.33	8362
807.472	8347
807.614	8214
807.756	8176
807.898	8088
808.04	7871
808.182	7841
808.324	7936
808.465	7978
808.607	8103
808.749	8191
808.891	8183
809.033	8347
809.174	8187
809.316	8050
809.458	8016
809.6	7940
809.741	8035
809.883	8016
810.025	8107
810.166	8126
810.308	7936
810.45	8027
810.591	7890
810.733	7750
810.875	7613
811.016	7556
811.158	7506
811.299	7597
811.441	7769
811.582	7784
811.724	7521
811.865	7510
812.007	7597
812.148	7647
812.29	7594
812.431	7780
812.573	7879
812.714	8031
812.855	8126
812.997	8259
813.138	8279
813.279	8221
813.421	8119
813.562	8077
813.703	7879
813.845	7769
813.986	7460
814.127	7259
814.268	7217
814.41	7183
814.551	7107
814.692	7179
814.833	7053
814.974	7031
815.115	7076
815.256	6954
815.397	6890
815.539	6916
815.68	6814
815.821	6814
815.962	6890
816.103	6837
816.244	6715
816.385	6700
816.526	6639
816.666	6494
816.807	6315
816.948	6380
817.089	6456
817.23	6479
817.371	6437
817.512	6391
817.653	6361
817.793	6437
817.934	6388
818.075	6452
818.216	6433
818.356	6418
818.497	6292
818.638	6121
818.778	6182
818.919	6106
819.06	6190
819.2	6346
819.341	6319
819.481	6346
819.622	6525
819.762	6760
819.903	6719
820.043	6585
820.184	6604
820.324	6616
820.465	6757
820.605	6635
820.746	6642
820.886	6486
821.026	6669
821.167	6711
821.307	6757
821.447	6776
821.588	6681
821.728	6547
821.868	6513
822.008	6357
822.149	6395
822.289	6350
822.429	6175
822.569	6121
822.709	6140
822.849	5950
822.99	5901
823.13	5946
823.27	5885
823.41	5783
823.55	5779
823.69	5771
823.83	5828
823.97	5688
824.11	5547
824.25	5512
824.389	5589
824.529	5589
824.669	5501
824.809	5634
824.949	5703
825.089	5608
825.228	5562
825.368	5429
825.508	5383
825.648	5376
825.787	5360
825.927	5425
826.067	5387
826.206	5334
826.346	5364
826.485	5402
826.625	5436
826.765	5604
826.904	5490
827.044	5292
827.183	5204
827.323	5090
827.462	5284
827.601	5185
827.741	5220
827.88	5216
828.02	5121
828.159	5220
828.298	5337
828.437	5410
828.577	5292
828.716	5459
828.855	5376
828.994	5178
829.134	5170
829.273	5197
829.412	5117
829.551	5162
829.69	5143
829.829	5277
829.968	5364
830.107	5212
830.246	5311
830.385	5231
830.524	5147
830.663	5083
830.802	5022
830.941	4892
831.08	4896
831.219	4995
831.357	4965
831.496	5201
831.635	4934
831.774	4809
831.913	4873
832.051	4793
832.19	4763
832.329	4797
832.467	4668
832.606	4626
832.744	4721
832.883	4767
833.022	4714
833.16	4782
833.299	4847
833.437	4858
833.576	4835
833.714	4870
833.852	4870
833.991	4938
834.129	4972
834.267	4934
834.406	4923
834.544	5006
834.682	4953
834.821	4934
834.959	5208
835.097	4991
835.235	5143
835.373	5083
835.511	5143
835.65	5010
835.788	5071
835.926	4889
836.064	4892
836.202	4892
836.34	5181
836.478	5220
836.615	5132
836.753	5208
836.891	5391
837.029	5242
837.167	5159
837.305	5166
837.443	5170
837.58	5083
837.718	5208
837.856	5189
837.993	5216
838.131	5227
838.269	5227
838.406	5189
838.544	5197
838.681	5083
838.819	4976
838.956	4839
839.094	4908
839.231	4968
839.369	5102
839.506	5395
839.643	5212
839.781	5056
839.918	5113
840.055	5079
840.193	5121
840.33	5025
840.467	5132
840.604	5147
840.742	5433
840.879	5041
841.016	5098
841.153	5166
841.29	5372
841.427	5318
841.564	5288
841.701	5353
841.838	5284
841.975	5239
842.112	5277
842.249	5178
842.385	5136
842.522	5337
842.659	5185
842.796	5090
842.933	5151
843.069	5121
843.206	5189
843.343	5311
843.479	5220
843.616	5299
843.752	4999
843.889	5025
844.025	5216
844.162	5060
844.298	5216
844.435	5083
844.571	5060
844.708	5204
844.844	5307
844.98	5311
845.117	5299
845.253	5136
845.389	5079
845.525	5140
845.661	5128
845.798	5067
845.934	5136
846.07	5094
846.206	5170
846.342	5227
846.478	5208
846.614	5060
846.75	4984
846.886	4953
847.022	5147
847.158	5041
847.294	5048
847.429	5067
847.565	5056
847.701	5334
847.837	4873
847.972	4831
848.108	4968
848.244	4946
848.379	4782
848.515	4653
848.65	4710
848.786	4790
848.921	4771
849.057	4881
849.192	4896
849.328	4839
849.463	4938
849.598	4790
849.734	4759
849.869	4710
850.004	4649
850.14	4683
850.275	4626
850.41	4519
850.545	4580
850.68	4561
850.815	4664
850.95	4622
851.085	4881
851.22	4778
851.355	4668
851.49	4588
851.625	4622
851.76	4653
851.895	4535
852.03	4516
852.165	4641
852.299	4721
852.434	4801
852.569	4752
852.703	4733
852.838	4850
852.973	4949
853.107	4900
853.242	4725
853.376	4645
853.511	4550
853.645	4660
853.78	4797
853.914	4694
854.048	4645
854.183	4691
854.317	4733
854.451	4816
854.585	4698
854.72	4618
854.854	4771
854.988	4569
855.122	4630
855.256	4508
855.39	4691
855.524	4805
855.658	4721
855.792	4675
855.926	4717
856.06	4736
856.194	4809
856.327	4675
856.461	4599
856.595	4615
856.729	4596
856.862	4767
856.996	4748
857.13	4702
857.263	4736
857.397	4774
857.53	4668
857.664	4736
857.797	4752
857.931	4812
858.064	4714
858.197	4714
858.331	4656
858.464	4637
858.597	4535
858.731	4634
858.864	4580
858.997	4596
859.13	4653
859.263	4683
859.396	4702
859.529	4512
859.662	4561
859.795	4531
859.928	4668
860.061	4828
860.194	4752
860.327	4611
860.46	4611
860.592	4672
860.725	4725
860.858	4752
860.99	4599
861.123	4535
861.256	4558
861.388	4599
861.521	5318
861.653	4504
861.786	4462
861.918	4462
862.05	4497
862.183	4546
862.315	4588
862.447	4641
862.58	4554
862.712	4375
862.844	4375
862.976	4447
863.108	4470
863.24	4774
863.372	4352
863.504	4409
863.636	4398
863.768	4500
863.9	4440
864.032	4371
864.164	4413
864.296	4523
864.428	4607
864.559	4554
864.691	4550
864.823	4504
864.954	4466
865.086	4535
865.217	4443
865.349	4436
865.48	4432
865.612	4455
865.743	4611
865.875	4497
866.006	4398
866.137	4508
866.269	4440
866.4	4424
866.531	4409
866.662	4405
866.793	4398
866.924	4409
867.055	4512
867.186	4493
867.317	4451
867.448	4352
867.579	4421
867.71	4371
867.841	4405
867.972	4489
868.103	4421
868.233	4417
868.364	4500
868.495	4519
868.625	4736
868.756	4733
868.886	4535
869.017	4660
869.147	4755
869.278	4767
869.408	4702
869.539	4702
869.669	4774
869.799	4637
869.929	4717
870.06	4729
870.19	4953
870.32	4889
870.45	4957
870.58	5045
870.71	5079
870.84	5159
870.97	4999
871.1	4938
871.23	5159
871.36	5079
871.489	5025
871.619	5094
871.749	5113
871.879	5121
872.008	5185
872.138	5048
872.267	4987
872.397	4782
872.526	4759
872.656	4691
872.785	4774
872.915	4896
873.044	4984
873.173	4923
873.303	4930
873.432	5006
873.561	4927
873.69	4843
873.819	4843
873.948	4968
874.077	4854
874.206	4793
874.335	4801
874.464	4938
874.593	5064
874.722	4987
874.851	5056
874.979	5102
875.108	4995
875.237	4858
875.365	4873
875.494	4889
875.623	4984
875.751	4839
875.88	4877
876.008	4965
876.136	5029
876.265	5174
876.393	5353
876.521	5239
876.65	5239
876.778	5185
876.906	5052
877.034	4987
877.162	5041
877.29	4984
877.418	5102
877.546	5003
877.674	5029
877.802	5094
877.93	5010
878.058	4915
878.185	4881
878.313	4938
878.441	4949
878.568	4809
878.696	4854
878.824	5014
878.951	5025
879.079	5143
879.206	5265
879.333	5098
879.461	5003
879.588	4999
879.715	5162
879.842	5250
879.97	5029
880.097	4786
880.224	4774
880.351	4847
880.478	4778
880.605	4812
880.732	4790
880.859	5090
880.986	4881
881.112	4949
881.239	4752
881.366	4672
881.493	4592
881.619	4573
881.746	4649
881.872	4660
881.999	4675
882.125	4664
882.252	4774
882.378	4831
882.505	4927
882.631	4816
882.757	4706
882.883	4740
883.01	4721
883.136	4672
883.262	4615
883.388	4599
883.514	4828
883.64	4877
883.766	4786
883.892	4683
884.018	4698
884.143	4949
884.269	5003
884.395	4687
884.52	4672
884.646	4641
884.772	4588
884.897	4611
885.023	4660
885.148	4793
885.274	4892
885.399	4866
885.524	4698
885.65	4706
885.775	4755
885.9	4691
886.025	4889
886.15	4805
886.275	4694
886.4	4664
886.525	4767
886.65	4660
886.775	4733
886.9	4892
887.025	5033
887.149	4820
887.274	4641
887.399	4588
887.523	4596
887.648	4592
887.773	4603
887.897	4824
888.021	4793
888.146	4656
888.27	4786
888.395	4858
888.519	4793
888.643	4790
888.767	4877
888.891	4694
889.015	4626
889.139	4630
889.263	4675
889.387	4774
889.511	4847
889.635	4771
889.759	4618
889.883	4668
890.006	4702
890.13	4843
890.254	4588
890.377	4645
890.501	4538
890.624	4565
890.748	4603
890.871	4500
890.995	4424
891.118	4394
891.241	4531
891.364	4561
891.488	4656
891.611	4519
891.734	4516
891.857	4592
891.98	4561
892.103	4702
892.226	4584
892.349	4561
892.471	4500
892.594	4519
892.717	4615
892.839	4603
892.962	4565
893.085	4672
893.207	4592
893.33	4497
893.452	4500
893.575	4573
893.697	4550
893.819	4805
893.941	4839
894.064	4763
894.186	4615
894.308	4603
894.43	4771
894.552	4778
894.674	4767
894.796	4538
894.918	4554
895.04	4554
895.161	4698
895.283	4637
895.405	4615
895.526	4664
895.648	4660
895.769	4668
895.891	4694
896.012	4736
896.134	4763
896.255	4656
896.376	4622
896.498	4656
896.619	4656
896.74	4550
896.861	4645
896.982	4919
897.103	5109
897.224	4866
897.345	4786
897.466	4664
897.587	4698
897.708	4812
897.828	4782
897.949	4729
898.07	4577
898.19	4622
898.311	4850
898.431	4698
898.552	4714
898.672	4839
898.792	4767
898.913	4778
899.033	4615
899.153	4508
899.273	4421
899.393	4485
899.513	4527
899.633	4489
899.753	4569
899.873	4519
899.993	4535
900.113	4516
900.232	4569
900.352	4519
900.472	4493
900.591	4417
900.711	4481
900.83	4447
900.95	4599
901.069	4740
901.189	4504
901.308	4325
901.427	4348
901.546	4352
901.665	4478
901.784	4508
901.904	4379
902.023	4310
902.141	4234
902.26	4169
902.379	4303
902.498	4276
902.617	4265
902.735	4329
902.854	4390
902.973	4329
903.091	4246
903.21	4211
903.328	4318
903.446	4234
903.565	4261
903.683	4386
903.801	4276
903.919	4337
904.038	4405
904.156	4333
904.274	4466
904.392	4379
904.51	4424
904.627	4474
904.745	4634
904.863	4630
904.981	4424
905.098	4318
905.216	4356
905.334	4409
905.451	4424
905.569	4447
905.686	4565
905.803	4554
905.921	4451
906.038	4558
906.155	4451
906.272	4409
906.389	4470
906.506	4371
906.623	4341
906.74	4394
906.857	4284
906.974	4405
907.091	4558
907.208	4653
907.324	4599
907.441	4497
907.557	4390
907.674	4348
907.79	4341
907.907	4409
908.023	4527
908.139	4474
908.256	4417
908.372	4440
908.488	4443
908.604	4344
908.72	4318
908.836	4356
908.952	4360
909.068	4451
909.184	4577
909.3	4489
909.415	4618
909.531	4519
909.647	4341
909.762	4371
909.878	4337
909.993	4481
910.108	4413
910.224	4432
910.339	4493
910.454	4451
910.57	4322
910.685	4280
910.8	4645
910.915	4653
911.03	4523
911.145	4371
911.259	4299
911.374	4322
911.489	4291
911.604	4257
911.718	4181
911.833	4227
911.947	4093
912.062	4044
912.176	4230
912.291	4230
912.405	4230
912.519	4489
912.633	4474
912.748	4333
912.862	4303
912.976	4200
913.09	4112
913.204	4166
913.318	4200
913.431	4405
913.545	4344
913.659	4424
913.772	4394
913.886	4238
914	4219
914.113	4337
914.226	4417
914.34	4371
914.453	4253
914.566	4409
914.68	4261
914.793	4371
914.906	4192
915.019	4158
915.132	4135
915.245	4169
915.358	4215
915.47	4249
915.583	4299
915.696	4310
915.809	4432
915.921	4428
916.034	4238
916.146	4242
916.259	4227
916.371	4375
916.483	4375
916.595	4291
916.708	4344
916.82	4314
916.932	4363
917.044	4341
917.156	4310
917.268	4257
917.38	4249
917.491	4234
917.603	4303
917.715	4417
917.826	4360
917.938	4333
918.049	4215
918.161	4428
918.272	4531
918.384	4569
918.495	4500
918.606	4306
918.717	4257
918.828	4371
918.939	4413
919.05	4299
919.161	4265
919.272	4128
919.383	4219
919.494	4447
919.604	4660
919.715	4394
919.826	4314
919.936	4409
920.047	4508
920.157	4481
920.267	4668
920.378	4558
920.488	4500
920.598	4740
920.708	4889
920.818	4725
920.928	4729
921.038	4980
921.148	4927
921.258	4592
921.368	4508
921.477	4489
921.587	4466
921.697	4386
921.806	4584
921.916	4440
922.025	4337
922.134	4268
922.244	4249
922.353	4337
922.462	4200
922.571	4158
922.68	4002
922.789	3941
922.898	4017
923.007	4036
923.116	4097
923.224	4105
923.333	4071
923.442	4002
923.55	3972
923.659	4025
923.767	4086
923.876	4006
923.984	4101
924.092	3956
924.201	4093
924.309	4090
924.417	4131
924.525	4036
924.633	4048
924.741	4900
924.849	3975
924.956	4120
925.064	3949
925.172	3903
925.279	3960
925.387	4010
925.494	4040
925.602	4234
925.709	4185
925.816	4071
925.924	4135
926.031	4242
926.138	4211
926.245	4188
926.352	4071
926.459	4211
926.566	4280
926.673	4162
926.779	4055
926.886	4063
926.993	4021
927.099	3983
927.206	3945
927.312	3964
927.419	4032
927.525	4021
927.631	4082
927.737	3987
927.843	3918
927.95	3907
928.056	3998
928.162	4002
928.267	4044
928.373	4645
928.479	4067
928.585	3865
928.69	4029
928.796	4071
928.901	3968
929.007	3842
929.112	3994
929.218	3949
929.323	3934
929.428	3926
929.533	4086
929.638	3926
929.743	3975
929.848	4040
929.953	4021
930.058	3922
930.163	3747
930.267	3800
930.372	3968
930.477	3838
930.581	4090
930.685	3949
930.79	3865
930.894	3922
930.998	3880
931.103	4013
931.207	3701
931.311	3717
931.415	3717
931.519	3523
931.623	3545
