Data from test_V78500241_1903.txt Node
Date: Fri Mar 25 17:02:13 CST 2022
User: usil
Spectrometer: V785-0024
Trigger mode: 0
Integration Time (sec): 4.000000E-1
Scans to average: 1
Nonlinearity correction enabled: false
Boxcar width: 0
Storing dark spectrum: false
XAxis mode: Wavelengths
Number of Pixels in Spectrum: 1024
>>>>>Begin Spectral Data<<<<<
801.071	8020
801.214	8005
801.356	7868
801.499	7841
801.641	7761
801.783	7837
801.926	8005
802.068	7963
802.211	8046
802.353	8016
802.496	7799
802.638	7875
802.78	7883
802.923	7989
803.065	7936
803.208	7807
803.35	7989
803.492	8153
803.635	8180
803.777	8043
803.919	8183
804.061	8339
804.204	8229
804.346	8073
804.488	7986
804.63	8084
804.773	8046
804.915	8103
805.057	8271
805.199	8180
805.341	8248
805.483	8248
805.626	8290
805.768	8183
805.91	8259
806.052	8263
806.194	8153
806.336	8328
806.478	8134
806.62	8043
806.762	8172
806.904	8290
807.046	8473
807.188	8362
807.33	8282
807.472	8313
807.614	8206
807.756	8161
807.898	8035
808.04	7841
808.182	7963
808.324	7887
808.465	7940
808.607	8050
808.749	8103
808.891	8195
809.033	8301
809.174	8183
809.316	7986
809.458	8157
809.6	7993
809.741	8054
809.883	8031
810.025	8050
810.166	8020
810.308	8054
810.45	8027
810.591	7871
810.733	7727
810.875	7639
811.016	7514
811.158	7502
811.299	7559
811.441	7723
811.582	7636
811.724	7628
811.865	7521
812.007	7647
812.148	7628
812.29	7662
812.431	7788
812.573	7868
812.714	7936
812.855	8134
812.997	8298
813.138	8339
813.279	8202
813.421	8073
813.562	7986
813.703	7761
813.845	7792
813.986	7468
814.127	7217
814.268	7244
814.41	7221
814.551	7149
814.692	7190
814.833	7129
814.974	7069
815.115	7080
815.256	6989
815.397	6962
815.539	6951
815.68	6818
815.821	6806
815.962	6894
816.103	6848
816.244	6734
816.385	6612
816.526	6631
816.666	6513
816.807	6372
816.948	6471
817.089	6486
817.23	6429
817.371	6331
817.512	6391
817.653	6380
817.793	6361
817.934	6399
818.075	6448
818.216	6384
818.356	6441
818.497	6285
818.638	6083
818.778	6136
818.919	6155
819.06	6171
819.2	6384
819.341	6315
819.481	6388
819.622	6570
819.762	6772
819.903	6741
820.043	6635
820.184	6593
820.324	6601
820.465	6757
820.605	6722
820.746	6696
820.886	6536
821.026	6688
821.167	6711
821.307	6795
821.447	6779
821.588	6623
821.728	6536
821.868	6429
822.008	6327
822.149	6327
822.289	6391
822.429	6178
822.569	6053
822.709	6083
822.849	5961
822.99	5897
823.13	5912
823.27	5946
823.41	5851
823.55	5775
823.69	5790
823.83	5733
823.97	5615
824.11	5505
824.25	5493
824.389	5532
824.529	5570
824.669	5493
824.809	5623
824.949	5684
825.089	5581
825.228	5573
825.368	5398
825.508	5345
825.648	5349
825.787	5395
825.927	5318
826.067	5337
826.206	5284
826.346	5444
826.485	5421
826.625	5417
826.765	5562
826.904	5455
827.044	5212
827.183	5212
827.323	5124
827.462	5280
827.601	5159
827.741	5189
827.88	5159
828.02	5079
828.159	5208
828.298	5284
828.437	5398
828.577	5299
828.716	5467
828.855	5318
828.994	5155
829.134	5166
829.273	5189
829.412	5197
829.551	5162
829.69	5147
829.829	5174
829.968	5417
830.107	5231
830.246	5284
830.385	5174
830.524	5098
830.663	5079
830.802	5003
830.941	4919
831.08	4889
831.219	5010
831.357	5060
831.496	5162
831.635	5010
831.774	4847
831.913	4866
832.051	4714
832.19	4740
832.329	4854
832.467	4683
832.606	4649
832.744	4698
832.883	4729
833.022	4691
833.16	4774
833.299	4843
833.437	4847
833.576	4839
833.714	4870
833.852	4835
833.991	4889
834.129	4991
834.267	4919
834.406	4968
834.544	4984
834.682	4915
834.821	4976
834.959	5227
835.097	4984
835.235	5151
835.373	5105
835.511	5109
835.65	5037
835.788	5014
835.926	4934
836.064	4847
836.202	4908
836.34	5136
836.478	5254
836.615	5105
836.753	5227
836.891	5307
837.029	5193
837.167	5181
837.305	5109
837.443	5166
837.58	5071
837.718	5261
837.856	5231
837.993	5151
838.131	5216
838.269	5193
838.406	5220
838.544	5193
838.681	5003
838.819	5022
838.956	4900
839.094	4889
839.231	4980
839.369	5037
839.506	5414
839.643	5296
839.781	5086
839.918	4953
840.055	5064
840.193	5071
840.33	5128
840.467	5155
840.604	5197
840.742	5395
840.879	5124
841.016	5105
841.153	5174
841.29	5414
841.427	5322
841.564	5318
841.701	5284
841.838	5303
841.975	5178
842.112	5341
842.249	5128
842.385	5067
842.522	5353
842.659	5216
842.796	5113
842.933	5178
843.069	5181
843.206	5105
843.343	5296
843.479	5223
843.616	5231
843.752	5014
843.889	4965
844.025	5235
844.162	5006
844.298	5197
844.435	5113
844.571	5045
844.708	5181
844.844	5307
844.98	5368
845.117	5315
845.253	5132
845.389	5071
845.525	5143
845.661	5090
845.798	5041
845.934	5121
846.07	5041
846.206	5197
846.342	5258
846.478	5140
846.614	5018
846.75	4927
846.886	4934
847.022	5166
847.158	5025
847.294	5075
847.429	5140
847.565	5075
847.701	5288
847.837	4805
847.972	4809
848.108	4980
848.244	4938
848.379	4786
848.515	4710
848.65	4702
848.786	4736
848.921	4812
849.057	4828
849.192	4877
849.328	4793
849.463	4839
849.598	4733
849.734	4759
849.869	4706
850.004	4622
850.14	4691
850.275	4653
850.41	4500
850.545	4535
850.68	4596
850.815	4649
850.95	4645
851.085	4847
851.22	4729
851.355	4729
851.49	4573
851.625	4630
851.76	4645
851.895	4523
852.03	4561
852.165	4653
852.299	4706
852.434	4755
852.569	4717
852.703	4805
852.838	4870
852.973	4984
853.107	4927
853.242	4687
853.376	4626
853.511	4504
853.645	4615
853.78	4816
853.914	4710
854.048	4675
854.183	4653
854.317	4679
854.451	4805
854.585	4679
854.72	4618
854.854	4759
854.988	4592
855.122	4588
855.256	4527
855.39	4656
855.524	4793
855.658	4668
855.792	4683
855.926	4694
856.06	4774
856.194	4736
856.327	4656
856.461	4554
856.595	4618
856.729	4622
856.862	4717
856.996	4679
857.13	4755
857.263	4767
857.397	4782
857.53	4637
857.664	4729
857.797	4721
857.931	4767
858.064	4683
858.197	4759
858.331	4675
858.464	4577
858.597	4519
858.731	4622
858.864	4668
858.997	4596
859.13	4637
859.263	4702
859.396	4698
859.529	4596
859.662	4580
859.795	4523
859.928	4653
860.061	4748
860.194	4759
860.327	4653
860.46	4573
860.592	4752
860.725	4694
860.858	4710
860.99	4561
861.123	4508
861.256	4493
861.388	4634
861.521	5273
861.653	4478
861.786	4432
861.918	4451
862.05	4519
862.183	4596
862.315	4611
862.447	4649
862.58	4493
862.712	4436
862.844	4322
862.976	4542
863.108	4447
863.24	4752
863.372	4344
863.504	4440
863.636	4428
863.768	4489
863.9	4455
864.032	4344
864.164	4390
864.296	4489
864.428	4569
864.559	4565
864.691	4516
864.823	4550
864.954	4512
865.086	4504
865.217	4474
865.349	4367
865.48	4455
865.612	4421
865.743	4641
865.875	4462
866.006	4455
866.137	4497
866.269	4470
866.4	4451
866.531	4402
866.662	4371
866.793	4398
866.924	4424
867.055	4512
867.186	4459
867.317	4421
867.448	4394
867.579	4417
867.71	4356
867.841	4348
867.972	4527
868.103	4478
868.233	4474
868.364	4466
868.495	4527
868.625	4675
868.756	4740
868.886	4558
869.017	4634
869.147	4729
869.278	4812
869.408	4675
869.539	4675
869.669	4702
869.799	4664
869.929	4759
870.06	4717
870.19	4953
870.32	4881
870.45	4923
870.58	5071
870.71	5075
870.84	5079
870.97	4972
871.1	4873
871.23	5159
871.36	5143
871.489	5010
871.619	5067
871.749	5094
871.879	5067
872.008	5174
872.138	5064
872.267	4995
872.397	4892
872.526	4767
872.656	4706
872.785	4786
872.915	4927
873.044	4980
873.173	4915
873.303	4961
873.432	4968
873.561	4934
873.69	4889
873.819	4858
873.948	4896
874.077	4816
874.206	4721
874.335	4782
874.464	4896
874.593	5113
874.722	4965
874.851	5102
874.979	5060
875.108	5048
875.237	4946
875.365	4877
875.494	4904
875.623	4965
875.751	4843
875.88	4835
876.008	4927
876.136	5045
876.265	5231
876.393	5303
876.521	5258
876.65	5193
876.778	5166
876.906	5079
877.034	5006
877.162	4987
877.29	4968
877.418	5064
877.546	5029
877.674	5056
877.802	5037
877.93	5029
878.058	4919
878.185	4877
878.313	4938
878.441	4927
878.568	4805
878.696	4839
878.824	4991
878.951	4965
879.079	5170
879.206	5334
879.333	5079
879.461	4991
879.588	4953
879.715	5056
879.842	5258
879.97	5003
880.097	4774
880.224	4714
880.351	4809
880.478	4828
880.605	4759
880.732	4790
880.859	5052
880.986	4839
881.112	4870
881.239	4774
881.366	4607
881.493	4599
881.619	4561
881.746	4592
881.872	4630
881.999	4615
882.125	4675
882.252	4740
882.378	4812
882.505	4965
882.631	4778
882.757	4615
882.883	4755
883.01	4717
883.136	4637
883.262	4607
883.388	4641
883.514	4774
883.64	4892
883.766	4790
883.892	4702
884.018	4683
884.143	4820
884.269	5014
884.395	4714
884.52	4596
884.646	4668
884.772	4573
884.897	4592
885.023	4634
885.148	4786
885.274	4854
885.399	4778
885.524	4691
885.65	4721
885.775	4733
885.9	4710
886.025	4854
886.15	4759
886.275	4702
886.4	4626
886.525	4736
886.65	4607
886.775	4687
886.9	4911
887.025	4987
887.149	4778
887.274	4641
887.399	4618
887.523	4577
887.648	4588
887.773	4531
887.897	4748
888.021	4820
888.146	4672
888.27	4797
888.395	4870
888.519	4774
888.643	4774
888.767	4828
888.891	4664
889.015	4584
889.139	4675
889.263	4596
889.387	4774
889.511	4854
889.635	4824
889.759	4668
889.883	4592
890.006	4748
890.13	4805
890.254	4603
890.377	4660
890.501	4542
890.624	4546
890.748	4675
890.871	4546
890.995	4436
891.118	4402
891.241	4474
891.364	4519
891.488	4637
891.611	4504
891.734	4554
891.857	4580
891.98	4569
892.103	4603
892.226	4592
892.349	4481
892.471	4451
892.594	4565
892.717	4580
892.839	4615
892.962	4584
893.085	4664
893.207	4649
893.33	4508
893.452	4508
893.575	4683
893.697	4577
893.819	4771
893.941	4835
894.064	4771
894.186	4542
894.308	4546
894.43	4740
894.552	4812
894.674	4778
894.796	4588
894.918	4588
895.04	4573
895.161	4710
895.283	4626
895.405	4615
895.526	4649
895.648	4702
895.769	4687
895.891	4664
896.012	4729
896.134	4706
896.255	4691
896.376	4618
896.498	4653
896.619	4683
896.74	4611
896.861	4675
896.982	4908
897.103	5045
897.224	4862
897.345	4793
897.466	4706
897.587	4736
897.708	4824
897.828	4835
897.949	4641
898.07	4516
898.19	4630
898.311	4850
898.431	4675
898.552	4668
898.672	4790
898.792	4778
898.913	4744
899.033	4596
899.153	4535
899.273	4455
899.393	4478
899.513	4489
899.633	4447
899.753	4554
899.873	4558
899.993	4580
900.113	4504
900.232	4596
900.352	4542
900.472	4497
900.591	4375
900.711	4531
900.83	4455
900.95	4615
901.069	4641
901.189	4554
901.308	4375
901.427	4303
901.546	4405
901.665	4523
901.784	4512
901.904	4360
902.023	4310
902.141	4147
902.26	4150
902.379	4318
902.498	4230
902.617	4230
902.735	4390
902.854	4443
902.973	4337
903.091	4230
903.21	4215
903.328	4280
903.446	4261
903.565	4276
903.683	4360
903.801	4249
903.919	4360
904.038	4424
904.156	4303
904.274	4428
904.392	4405
904.51	4440
904.627	4451
904.745	4558
904.863	4626
904.981	4398
905.098	4287
905.216	4367
905.334	4383
905.451	4432
905.569	4413
905.686	4596
905.803	4546
905.921	4367
906.038	4519
906.155	4466
906.272	4379
906.389	4436
906.506	4314
906.623	4322
906.74	4383
906.857	4280
906.974	4405
907.091	4584
907.208	4653
907.324	4615
907.441	4512
907.557	4352
907.674	4375
907.79	4310
907.907	4398
908.023	4455
908.139	4428
908.256	4443
908.372	4413
908.488	4466
908.604	4333
908.72	4306
908.836	4371
908.952	4402
909.068	4413
909.184	4497
909.3	4523
909.415	4538
909.531	4523
909.647	4352
909.762	4329
909.878	4329
909.993	4417
910.108	4402
910.224	4424
910.339	4474
910.454	4417
910.57	4337
910.685	4284
910.8	4637
910.915	4603
911.03	4489
911.145	4295
911.259	4325
911.374	4344
911.489	4306
911.604	4253
911.718	4154
911.833	4154
911.947	4128
912.062	4017
912.176	4207
912.291	4265
912.405	4310
912.519	4440
912.633	4500
912.748	4390
912.862	4344
912.976	4192
913.09	4109
913.204	4135
913.318	4253
913.431	4356
913.545	4367
913.659	4402
913.772	4306
913.886	4238
914	4200
914.113	4352
914.226	4481
914.34	4413
914.453	4246
914.566	4405
914.68	4280
914.793	4348
914.906	4135
915.019	4120
915.132	4086
915.245	4135
915.358	4227
915.47	4280
915.583	4276
915.696	4303
915.809	4394
915.921	4451
916.034	4234
916.146	4242
916.259	4219
916.371	4367
916.483	4367
916.595	4291
916.708	4314
916.82	4310
916.932	4333
917.044	4337
917.156	4352
917.268	4223
917.38	4310
917.491	4306
917.603	4310
917.715	4424
917.826	4436
917.938	4348
918.049	4207
918.161	4363
918.272	4538
918.384	4512
918.495	4462
918.606	4265
918.717	4230
918.828	4314
918.939	4333
919.05	4261
919.161	4314
919.272	4150
919.383	4257
919.494	4424
919.604	4577
919.715	4424
919.826	4348
919.936	4421
920.047	4519
920.157	4516
920.267	4714
920.378	4527
920.488	4500
920.598	4702
920.708	4839
920.818	4721
920.928	4774
921.038	4927
921.148	4938
921.258	4634
921.368	4561
921.477	4478
921.587	4478
921.697	4341
921.806	4504
921.916	4398
922.025	4223
922.134	4249
922.244	4287
922.353	4268
922.462	4166
922.571	4166
922.68	4010
922.789	3960
922.898	4010
923.007	3964
923.116	4074
923.224	4017
923.333	4093
923.442	4029
923.55	3941
923.659	4013
923.767	4086
923.876	4002
923.984	4101
924.092	3979
924.201	4105
924.309	4124
924.417	4093
924.525	4105
924.633	4105
924.741	5056
924.849	3922
924.956	4139
925.064	3918
925.172	3911
925.279	3926
925.387	4021
925.494	3991
925.602	4230
925.709	4185
925.816	4029
925.924	4147
926.031	4238
926.138	4131
926.245	4173
926.352	4086
926.459	4223
926.566	4306
926.673	4177
926.779	4105
926.886	4074
926.993	4010
927.099	3937
927.206	3926
927.312	3979
927.419	4040
927.525	4002
927.631	4086
927.737	4017
927.843	3987
927.95	3827
928.056	3972
928.162	3960
928.267	4048
928.373	4584
928.479	4078
928.585	3876
928.69	4006
928.796	4097
928.901	3960
929.007	3903
929.112	3983
929.218	3956
929.323	3964
929.428	3926
929.533	4086
929.638	3892
929.743	3975
929.848	3998
929.953	4002
930.058	3937
930.163	3766
930.267	3842
930.372	4002
930.477	3804
930.581	4082
930.685	3918
930.79	3816
930.894	3880
930.998	3869
931.103	4006
931.207	3732
931.311	3679
931.415	3637
931.519	3507
931.623	3523
