Data from test_V78500241_2651.txt Node
Date: Fri Mar 25 17:07:26 CST 2022
User: usil
Spectrometer: V785-0024
Trigger mode: 0
Integration Time (sec): 4.000000E-1
Scans to average: 1
Nonlinearity correction enabled: false
Boxcar width: 0
Storing dark spectrum: false
XAxis mode: Wavelengths
Number of Pixels in Spectrum: 1024
>>>>>Begin Spectral Data<<<<<
801.071	8031
801.214	8043
801.356	7967
801.499	7913
801.641	7799
801.783	7833
801.926	8046
802.068	7951
802.211	8012
802.353	8054
802.496	7887
802.638	7963
802.78	8008
802.923	7947
803.065	7936
803.208	7902
803.35	8008
803.492	8130
803.635	8187
803.777	8130
803.919	8161
804.061	8415
804.204	8134
804.346	8008
804.488	7932
804.63	8153
804.773	8050
804.915	8138
805.057	8267
805.199	8183
805.341	8199
805.483	8248
805.626	8191
805.768	8157
805.91	8225
806.052	8138
806.194	8058
806.336	8290
806.478	8065
806.62	8096
806.762	8084
806.904	8271
807.046	8393
807.188	8366
807.33	8301
807.472	8305
807.614	8195
807.756	8195
807.898	8020
808.04	7898
808.182	7917
808.324	7921
808.465	7913
808.607	8046
808.749	8134
808.891	8172
809.033	8294
809.174	8172
809.316	8164
809.458	8031
809.6	8077
809.741	8058
809.883	8069
810.025	8092
810.166	8123
810.308	8035
810.45	7932
810.591	7879
810.733	7795
810.875	7685
811.016	7537
811.158	7426
811.299	7616
811.441	7742
811.582	7693
811.724	7575
811.865	7582
812.007	7567
812.148	7655
812.29	7689
812.431	7769
812.573	7849
812.714	7894
812.855	8088
812.997	8225
813.138	8256
813.279	8256
813.421	8073
813.562	8058
813.703	7822
813.845	7772
813.986	7453
814.127	7244
814.268	7225
814.41	7206
814.551	7209
814.692	7225
814.833	7118
814.974	7088
815.115	7141
815.256	6958
815.397	6993
815.539	6962
815.68	6901
815.821	6795
815.962	6890
816.103	6833
816.244	6768
816.385	6612
816.526	6570
816.666	6521
816.807	6304
816.948	6426
817.089	6445
817.23	6407
817.371	6380
817.512	6433
817.653	6372
817.793	6353
817.934	6464
818.075	6448
818.216	6486
818.356	6407
818.497	6216
818.638	6125
818.778	6121
818.919	6175
819.06	6133
819.2	6365
819.341	6315
819.481	6391
819.622	6521
819.762	6738
819.903	6688
820.043	6631
820.184	6608
820.324	6555
820.465	6688
820.605	6711
820.746	6669
820.886	6532
821.026	6688
821.167	6734
821.307	6798
821.447	6825
821.588	6745
821.728	6665
821.868	6544
822.008	6308
822.149	6380
822.289	6388
822.429	6140
822.569	6125
822.709	6171
822.849	6007
822.99	5908
823.13	5931
823.27	5885
823.41	5809
823.55	5840
823.69	5756
823.83	5718
823.97	5665
824.11	5570
824.25	5512
824.389	5577
824.529	5581
824.669	5543
824.809	5646
824.949	5657
825.089	5668
825.228	5577
825.368	5425
825.508	5376
825.648	5334
825.787	5376
825.927	5376
826.067	5307
826.206	5318
826.346	5368
826.485	5452
826.625	5406
826.765	5566
826.904	5474
827.044	5246
827.183	5185
827.323	5132
827.462	5254
827.601	5220
827.741	5162
827.88	5231
828.02	5124
828.159	5273
828.298	5311
828.437	5357
828.577	5258
828.716	5539
828.855	5318
828.994	5143
829.134	5170
829.273	5220
829.412	5109
829.551	5094
829.69	5159
829.829	5269
829.968	5357
830.107	5303
830.246	5318
830.385	5212
830.524	5220
830.663	5105
830.802	4976
830.941	4889
831.08	4881
831.219	4976
831.357	4965
831.496	5143
831.635	4889
831.774	4847
831.913	4870
832.051	4744
832.19	4725
832.329	4801
832.467	4675
832.606	4615
832.744	4748
832.883	4683
833.022	4710
833.16	4774
833.299	4915
833.437	4843
833.576	4847
833.714	4866
833.852	4919
833.991	4915
834.129	4919
834.267	4923
834.406	4930
834.544	4930
834.682	4961
834.821	4995
834.959	5181
835.097	5003
835.235	5143
835.373	5105
835.511	5105
835.65	4991
835.788	4953
835.926	4927
836.064	4873
836.202	4934
836.34	5185
836.478	5265
836.615	5140
836.753	5235
836.891	5273
837.029	5212
837.167	5208
837.305	5140
837.443	5178
837.58	5083
837.718	5220
837.856	5170
837.993	5117
838.131	5273
838.269	5201
838.406	5231
838.544	5185
838.681	5064
838.819	4991
838.956	4908
839.094	4870
839.231	4930
839.369	5113
839.506	5406
839.643	5239
839.781	5079
839.918	4976
840.055	5124
840.193	5117
840.33	5102
840.467	5140
840.604	5147
840.742	5467
840.879	5067
841.016	5113
841.153	5128
841.29	5353
841.427	5307
841.564	5315
841.701	5349
841.838	5277
841.975	5216
842.112	5273
842.249	5143
842.385	5147
842.522	5383
842.659	5166
842.796	5162
842.933	5216
843.069	5128
843.206	5090
843.343	5273
843.479	5220
843.616	5296
843.752	5025
843.889	5060
844.025	5242
844.162	5033
844.298	5227
844.435	5090
844.571	5083
844.708	5185
844.844	5280
844.98	5303
845.117	5296
845.253	5132
845.389	5090
845.525	5147
845.661	5193
845.798	5056
845.934	5136
846.07	5075
846.206	5242
846.342	5280
846.478	5216
846.614	5033
846.75	5025
846.886	4930
847.022	5128
847.158	5041
847.294	5037
847.429	5105
847.565	5075
847.701	5334
847.837	4835
847.972	4812
848.108	4911
848.244	4961
848.379	4774
848.515	4729
848.65	4771
848.786	4797
848.921	4797
849.057	4866
849.192	4942
849.328	4824
849.463	4847
849.598	4801
849.734	4759
849.869	4687
850.004	4622
850.14	4634
850.275	4603
850.41	4523
850.545	4611
850.68	4626
850.815	4607
850.95	4599
851.085	4805
851.22	4767
851.355	4668
851.49	4645
851.625	4618
851.76	4607
851.895	4569
852.03	4535
852.165	4675
852.299	4694
852.434	4710
852.569	4774
852.703	4763
852.838	4858
852.973	4927
853.107	4850
853.242	4721
853.376	4626
853.511	4603
853.645	4584
853.78	4805
853.914	4675
854.048	4694
854.183	4641
854.317	4653
854.451	4816
854.585	4714
854.72	4634
854.854	4797
854.988	4626
855.122	4622
855.256	4508
855.39	4687
855.524	4767
855.658	4767
855.792	4691
855.926	4752
856.06	4778
856.194	4850
856.327	4683
856.461	4607
856.595	4637
856.729	4626
856.862	4790
856.996	4679
857.13	4691
857.263	4759
857.397	4778
857.53	4626
857.664	4683
857.797	4774
857.931	4778
858.064	4687
858.197	4717
858.331	4714
858.464	4603
858.597	4523
858.731	4573
858.864	4645
858.997	4592
859.13	4694
859.263	4618
859.396	4668
859.529	4607
859.662	4580
859.795	4558
859.928	4660
860.061	4771
860.194	4774
860.327	4603
860.46	4565
860.592	4706
860.725	4725
860.858	4729
860.99	4577
861.123	4519
861.256	4478
861.388	4649
861.521	5414
861.653	4478
861.786	4432
861.918	4481
862.05	4565
862.183	4535
862.315	4634
862.447	4611
862.58	4523
862.712	4440
862.844	4348
862.976	4440
863.108	4440
863.24	4816
863.372	4356
863.504	4383
863.636	4405
863.768	4500
863.9	4424
864.032	4386
864.164	4379
864.296	4481
864.428	4538
864.559	4561
864.691	4451
864.823	4470
864.954	4500
865.086	4523
865.217	4424
865.349	4432
865.48	4466
865.612	4443
865.743	4687
865.875	4428
866.006	4421
866.137	4508
866.269	4413
866.4	4459
866.531	4489
866.662	4402
866.793	4417
866.924	4432
867.055	4497
867.186	4470
867.317	4432
867.448	4398
867.579	4379
867.71	4390
867.841	4394
867.972	4497
868.103	4432
868.233	4459
868.364	4443
868.495	4497
868.625	4664
868.756	4755
868.886	4550
869.017	4649
869.147	4793
869.278	4763
869.408	4691
869.539	4634
869.669	4672
869.799	4679
869.929	4755
870.06	4782
870.19	4957
870.32	4923
870.45	4976
870.58	4976
870.71	5151
870.84	5105
870.97	4919
871.1	4904
871.23	5109
871.36	5067
871.489	5018
871.619	5109
871.749	5102
871.879	5079
872.008	5155
872.138	5045
872.267	4968
872.397	4877
872.526	4812
872.656	4736
872.785	4801
872.915	4972
873.044	5041
873.173	4961
873.303	4991
873.432	4984
873.561	4953
873.69	4877
873.819	4828
873.948	4900
874.077	4812
874.206	4729
874.335	4843
874.464	4908
874.593	5052
874.722	4953
874.851	5083
874.979	5022
875.108	5045
875.237	4911
875.365	4870
875.494	4847
875.623	5022
875.751	4847
875.88	4889
876.008	4961
876.136	4980
876.265	5197
876.393	5349
876.521	5273
876.65	5231
876.778	5189
876.906	5071
877.034	4999
877.162	5064
877.29	5014
877.418	5075
877.546	4991
877.674	5064
877.802	5037
877.93	5022
878.058	4885
878.185	4862
878.313	4980
878.441	4946
878.568	4854
878.696	4873
878.824	4953
878.951	4999
879.079	5083
879.206	5299
879.333	5105
879.461	4968
879.588	5033
879.715	5147
879.842	5246
879.97	4965
880.097	4786
880.224	4752
880.351	4862
880.478	4877
880.605	4809
880.732	4812
880.859	5056
880.986	4892
881.112	4927
881.239	4816
881.366	4660
881.493	4618
881.619	4630
881.746	4607
881.872	4630
881.999	4729
882.125	4694
882.252	4763
882.378	4755
882.505	4949
882.631	4809
882.757	4714
882.883	4748
883.01	4717
883.136	4653
883.262	4622
883.388	4637
883.514	4824
883.64	4870
883.766	4786
883.892	4672
884.018	4717
884.143	4870
884.269	5033
884.395	4744
884.52	4649
884.646	4702
884.772	4584
884.897	4554
885.023	4637
885.148	4816
885.274	4911
885.399	4786
885.524	4702
885.65	4649
885.775	4698
885.9	4675
886.025	4866
886.15	4755
886.275	4729
886.4	4649
886.525	4717
886.65	4660
886.775	4706
886.9	4892
887.025	5048
887.149	4839
887.274	4664
887.399	4504
887.523	4569
887.648	4550
887.773	4618
887.897	4790
888.021	4786
888.146	4660
888.27	4786
888.395	4877
888.519	4790
888.643	4771
888.767	4805
888.891	4675
889.015	4580
889.139	4645
889.263	4558
889.387	4744
889.511	4847
889.635	4820
889.759	4649
889.883	4706
890.006	4717
890.13	4835
890.254	4611
890.377	4748
890.501	4519
890.624	4516
890.748	4607
890.871	4497
890.995	4424
891.118	4402
891.241	4512
891.364	4554
891.488	4626
891.611	4512
891.734	4546
891.857	4626
891.98	4538
892.103	4626
892.226	4637
892.349	4538
892.471	4394
892.594	4565
892.717	4596
892.839	4565
892.962	4569
893.085	4603
893.207	4542
893.33	4466
893.452	4519
893.575	4626
893.697	4558
893.819	4771
893.941	4843
894.064	4820
894.186	4592
894.308	4558
894.43	4729
894.552	4839
894.674	4717
894.796	4573
894.918	4596
895.04	4546
895.161	4702
895.283	4736
895.405	4615
895.526	4603
895.648	4691
895.769	4740
895.891	4656
896.012	4755
896.134	4725
896.255	4668
896.376	4622
896.498	4592
896.619	4672
896.74	4626
896.861	4641
896.982	4942
897.103	5048
897.224	4839
897.345	4748
897.466	4683
897.587	4755
897.708	4858
897.828	4774
897.949	4622
898.07	4558
898.19	4596
898.311	4870
898.431	4687
898.552	4755
898.672	4824
898.792	4812
898.913	4725
899.033	4611
899.153	4519
899.273	4428
899.393	4531
899.513	4504
899.633	4481
899.753	4500
899.873	4512
899.993	4584
900.113	4554
900.232	4592
900.352	4516
900.472	4519
900.591	4386
900.711	4519
900.83	4432
900.95	4618
901.069	4672
901.189	4481
901.308	4344
901.427	4329
901.546	4348
901.665	4459
901.784	4459
901.904	4371
902.023	4310
902.141	4173
902.26	4196
902.379	4310
902.498	4227
902.617	4211
902.735	4402
902.854	4402
902.973	4318
903.091	4215
903.21	4246
903.328	4280
903.446	4276
903.565	4284
903.683	4344
903.801	4272
903.919	4409
904.038	4417
904.156	4303
904.274	4432
904.392	4398
904.51	4413
904.627	4474
904.745	4596
904.863	4599
904.981	4440
905.098	4306
905.216	4348
905.334	4436
905.451	4424
905.569	4398
905.686	4580
905.803	4584
905.921	4466
906.038	4558
906.155	4504
906.272	4409
906.389	4485
906.506	4341
906.623	4409
906.74	4436
906.857	4314
906.974	4409
907.091	4546
907.208	4710
907.324	4565
907.441	4497
907.557	4352
907.674	4375
907.79	4333
907.907	4402
908.023	4519
908.139	4474
908.256	4451
908.372	4474
908.488	4455
908.604	4344
908.72	4303
908.836	4352
908.952	4383
909.068	4424
909.184	4558
909.3	4485
909.415	4592
909.531	4580
909.647	4322
909.762	4367
909.878	4280
909.993	4447
910.108	4436
910.224	4413
910.339	4470
910.454	4402
910.57	4341
910.685	4249
910.8	4630
910.915	4577
911.03	4527
911.145	4337
911.259	4322
911.374	4383
911.489	4325
911.604	4265
911.718	4158
911.833	4150
911.947	4109
912.062	4048
912.176	4257
912.291	4268
912.405	4268
912.519	4451
912.633	4481
912.748	4371
912.862	4299
912.976	4188
913.09	4101
913.204	4261
913.318	4276
913.431	4318
913.545	4383
913.659	4367
913.772	4341
913.886	4204
914	4185
914.113	4348
914.226	4447
914.34	4421
914.453	4207
914.566	4405
914.68	4265
914.793	4333
914.906	4158
915.019	4147
915.132	4078
915.245	4128
915.358	4219
915.47	4249
915.583	4280
915.696	4291
915.809	4383
915.921	4440
916.034	4238
916.146	4238
916.259	4227
916.371	4352
916.483	4356
916.595	4280
916.708	4325
916.82	4318
916.932	4344
917.044	4291
917.156	4344
917.268	4265
917.38	4230
917.491	4219
917.603	4356
917.715	4390
917.826	4375
917.938	4333
918.049	4265
918.161	4379
918.272	4538
918.384	4554
918.495	4455
918.606	4276
918.717	4207
918.828	4363
918.939	4371
919.05	4257
919.161	4348
919.272	4154
919.383	4249
919.494	4443
919.604	4607
919.715	4440
919.826	4348
919.936	4375
920.047	4500
920.157	4462
920.267	4702
920.378	4527
920.488	4531
920.598	4660
920.708	4911
920.818	4744
920.928	4721
921.038	4900
921.148	4896
921.258	4611
921.368	4565
921.477	4459
921.587	4462
921.697	4348
921.806	4607
921.916	4413
922.025	4207
922.134	4234
922.244	4242
922.353	4356
922.462	4204
922.571	4158
922.68	4078
922.789	4002
922.898	4055
923.007	3994
923.116	4112
923.224	4071
923.333	4109
923.442	3964
923.55	3949
923.659	4032
923.767	4067
923.876	4010
923.984	4124
924.092	3991
924.201	4090
924.309	4109
924.417	4116
924.525	4013
924.633	4093
924.741	5060
924.849	3934
924.956	4109
925.064	3979
925.172	3884
925.279	3964
925.387	4078
925.494	4139
925.602	4230
925.709	4177
925.816	4025
925.924	4109
926.031	4204
926.138	4177
926.245	4215
926.352	4078
926.459	4227
926.566	4295
926.673	4181
926.779	4093
926.886	4048
926.993	3983
927.099	3896
927.206	3926
927.312	3960
927.419	4074
927.525	4013
927.631	4147
927.737	4021
927.843	3972
927.95	3827
928.056	3987
928.162	3991
928.267	4078
928.373	4569
928.479	4128
928.585	3846
928.69	4032
928.796	4059
928.901	4040
929.007	3831
929.112	3991
929.218	3960
929.323	3941
929.428	3953
929.533	4071
929.638	3911
929.743	3983
929.848	4086
929.953	3975
930.058	3918
930.163	3781
930.267	3816
930.372	3937
930.477	3800
930.581	4120
930.685	3945
930.79	3869
930.894	3896
930.998	3827
931.103	4032
931.207	3747
931.311	3675
931.415	3648
931.519	3515
931.623	3557
