Data from test_V78500241_2016.txt Node
Date: Fri Mar 25 17:03:01 CST 2022
User: usil
Spectrometer: V785-0024
Trigger mode: 0
Integration Time (sec): 4.000000E-1
Scans to average: 1
Nonlinearity correction enabled: false
Boxcar width: 0
Storing dark spectrum: false
XAxis mode: Wavelengths
Number of Pixels in Spectrum: 1024
>>>>>Begin Spectral Data<<<<<
801.071	7997
801.214	8031
801.356	7947
801.499	7875
801.641	7856
801.783	7830
801.926	8050
802.068	7928
802.211	8008
802.353	8016
802.496	7849
802.638	7879
802.78	7883
802.923	7864
803.065	7792
803.208	7902
803.35	7940
803.492	8138
803.635	8191
803.777	8054
803.919	8107
804.061	8545
804.204	8164
804.346	8153
804.488	7982
804.63	8054
804.773	7970
804.915	8115
805.057	8343
805.199	8225
805.341	8221
805.483	8286
805.626	8210
805.768	8145
805.91	8256
806.052	8248
806.194	8138
806.336	8305
806.478	8130
806.62	8039
806.762	8123
806.904	8248
807.046	8533
807.188	8404
807.33	8233
807.472	8305
807.614	8199
807.756	8199
807.898	8016
808.04	7807
808.182	7947
808.324	7833
808.465	7940
808.607	8001
808.749	8119
808.891	8233
809.033	8267
809.174	8267
809.316	8046
809.458	8123
809.6	8058
809.741	8107
809.883	8081
810.025	8100
810.166	8039
810.308	8054
810.45	7986
810.591	7841
810.733	7784
810.875	7704
811.016	7533
811.158	7415
811.299	7586
811.441	7795
811.582	7696
811.724	7620
811.865	7540
812.007	7590
812.148	7616
812.29	7613
812.431	7746
812.573	7936
812.714	8081
812.855	8149
812.997	8256
813.138	8279
813.279	8138
813.421	8073
813.562	7997
813.703	7826
813.845	7708
813.986	7415
814.127	7278
814.268	7263
814.41	7247
814.551	7152
814.692	7244
814.833	7175
814.974	7076
815.115	7183
815.256	6962
815.397	6920
815.539	6970
815.68	6810
815.821	6776
815.962	6875
816.103	6787
816.244	6741
816.385	6582
816.526	6677
816.666	6506
816.807	6331
816.948	6437
817.089	6452
817.23	6422
817.371	6437
817.512	6429
817.653	6422
817.793	6369
817.934	6418
818.075	6452
818.216	6486
818.356	6506
818.497	6220
818.638	6129
818.778	6178
818.919	6201
819.06	6152
819.2	6403
819.341	6281
819.481	6399
819.622	6547
819.762	6707
819.903	6768
820.043	6650
820.184	6642
820.324	6559
820.465	6688
820.605	6665
820.746	6692
820.886	6490
821.026	6658
821.167	6772
821.307	6757
821.447	6757
821.588	6646
821.728	6616
821.868	6536
822.008	6350
822.149	6376
822.289	6353
822.429	6136
822.569	6087
822.709	6117
822.849	6007
822.99	5946
823.13	6022
823.27	5942
823.41	5813
823.55	5790
823.69	5805
823.83	5805
823.97	5665
824.11	5596
824.25	5566
824.389	5532
824.529	5596
824.669	5512
824.809	5627
824.949	5668
825.089	5653
825.228	5535
825.368	5417
825.508	5349
825.648	5353
825.787	5433
825.927	5406
826.067	5307
826.206	5311
826.346	5433
826.485	5425
826.625	5391
826.765	5581
826.904	5478
827.044	5318
827.183	5284
827.323	5128
827.462	5216
827.601	5212
827.741	5223
827.88	5193
828.02	5109
828.159	5261
828.298	5307
828.437	5349
828.577	5288
828.716	5436
828.855	5406
828.994	5162
829.134	5170
829.273	5189
829.412	5159
829.551	5189
829.69	5159
829.829	5242
829.968	5379
830.107	5174
830.246	5322
830.385	5201
830.524	5105
830.663	5067
830.802	4984
830.941	4915
831.08	4911
831.219	5025
831.357	4987
831.496	5208
831.635	4904
831.774	4881
831.913	4870
832.051	4733
832.19	4759
832.329	4862
832.467	4664
832.606	4626
832.744	4729
832.883	4744
833.022	4759
833.16	4771
833.299	4850
833.437	4854
833.576	4847
833.714	4889
833.852	4866
833.991	4953
834.129	4984
834.267	4942
834.406	4911
834.544	4965
834.682	4968
834.821	5010
834.959	5185
835.097	5006
835.235	5159
835.373	5079
835.511	5132
835.65	5060
835.788	5006
835.926	4942
836.064	4862
836.202	4923
836.34	5136
836.478	5254
836.615	5132
836.753	5159
836.891	5341
837.029	5201
837.167	5181
837.305	5140
837.443	5136
837.58	5041
837.718	5242
837.856	5250
837.993	5128
838.131	5223
838.269	5227
838.406	5201
838.544	5162
838.681	5022
838.819	5014
838.956	4908
839.094	4911
839.231	4995
839.369	5067
839.506	5402
839.643	5337
839.781	5079
839.918	5029
840.055	5117
840.193	5109
840.33	5094
840.467	5124
840.604	5181
840.742	5395
840.879	5109
841.016	5109
841.153	5181
841.29	5414
841.427	5341
841.564	5337
841.701	5318
841.838	5334
841.975	5185
842.112	5265
842.249	5105
842.385	5109
842.522	5387
842.659	5174
842.796	5166
842.933	5166
843.069	5197
843.206	5136
843.343	5349
843.479	5250
843.616	5273
843.752	5064
843.889	5037
844.025	5242
844.162	5094
844.298	5269
844.435	5037
844.571	5060
844.708	5201
844.844	5315
844.98	5357
845.117	5280
845.253	5121
845.389	5056
845.525	5143
845.661	5121
845.798	5022
845.934	5094
846.07	5052
846.206	5212
846.342	5311
846.478	5246
846.614	5018
846.75	4995
846.886	4908
847.022	5136
847.158	5029
847.294	5086
847.429	5075
847.565	5086
847.701	5357
847.837	4854
847.972	4805
848.108	5003
848.244	4938
848.379	4767
848.515	4706
848.65	4687
848.786	4759
848.921	4755
849.057	4858
849.192	4889
849.328	4778
849.463	4850
849.598	4812
849.734	4809
849.869	4649
850.004	4675
850.14	4672
850.275	4645
850.41	4546
850.545	4542
850.68	4569
850.815	4607
850.95	4672
851.085	4847
851.22	4725
851.355	4736
851.49	4637
851.625	4645
851.76	4698
851.895	4580
852.03	4485
852.165	4649
852.299	4740
852.434	4759
852.569	4782
852.703	4786
852.838	4881
852.973	4934
853.107	4949
853.242	4774
853.376	4717
853.511	4565
853.645	4626
853.78	4828
853.914	4714
854.048	4744
854.183	4656
854.317	4736
854.451	4889
854.585	4763
854.72	4664
854.854	4824
854.988	4679
855.122	4653
855.256	4569
855.39	4714
855.524	4748
855.658	4752
855.792	4733
855.926	4786
856.06	4816
856.194	4816
856.327	4786
856.461	4668
856.595	4656
856.729	4672
856.862	4793
856.996	4755
857.13	4790
857.263	4805
857.397	4812
857.53	4702
857.664	4702
857.797	4786
857.931	4854
858.064	4721
858.197	4839
858.331	4687
858.464	4668
858.597	4538
858.731	4683
858.864	4668
858.997	4611
859.13	4717
859.263	4710
859.396	4744
859.529	4618
859.662	4580
859.795	4588
859.928	4679
860.061	4767
860.194	4786
860.327	4668
860.46	4588
860.592	4763
860.725	4771
860.858	4748
860.99	4565
861.123	4615
861.256	4550
861.388	4675
861.521	5326
861.653	4554
861.786	4459
861.918	4466
862.05	4554
862.183	4603
862.315	4641
862.447	4698
862.58	4573
862.712	4455
862.844	4405
862.976	4470
863.108	4478
863.24	4793
863.372	4352
863.504	4485
863.636	4497
863.768	4527
863.9	4481
864.032	4363
864.164	4428
864.296	4516
864.428	4527
864.559	4554
864.691	4584
864.823	4603
864.954	4504
865.086	4516
865.217	4489
865.349	4432
865.48	4455
865.612	4535
865.743	4618
865.875	4519
866.006	4417
866.137	4474
866.269	4459
866.4	4459
866.531	4447
866.662	4455
866.793	4451
866.924	4470
867.055	4565
867.186	4478
867.317	4417
867.448	4390
867.579	4402
867.71	4398
867.841	4375
867.972	4493
868.103	4516
868.233	4478
868.364	4531
868.495	4485
868.625	4717
868.756	4782
868.886	4573
869.017	4649
869.147	4774
869.278	4797
869.408	4645
869.539	4706
869.669	4767
869.799	4683
869.929	4710
870.06	4759
870.19	4987
870.32	4984
870.45	4987
870.58	5037
870.71	5155
870.84	5151
870.97	4995
871.1	4911
871.23	5143
871.36	5159
871.489	5045
871.619	5083
871.749	5136
871.879	5155
872.008	5227
872.138	5086
872.267	5037
872.397	4980
872.526	4843
872.656	4725
872.785	4835
872.915	4980
873.044	5048
873.173	4980
873.303	5033
873.432	5018
873.561	4961
873.69	4942
873.819	4904
873.948	4911
874.077	4828
874.206	4786
874.335	4873
874.464	4946
874.593	5090
874.722	4927
874.851	5128
874.979	5102
875.108	5022
875.237	4968
875.365	4847
875.494	4923
875.623	5083
875.751	4843
875.88	4896
876.008	4995
876.136	5056
876.265	5208
876.393	5341
876.521	5277
876.65	5204
876.778	5181
876.906	5113
877.034	5045
877.162	5086
877.29	5060
877.418	5102
877.546	5083
877.674	5117
877.802	5086
877.93	5045
878.058	4938
878.185	4946
878.313	5025
878.441	4968
878.568	4824
878.696	4911
878.824	5006
878.951	5010
879.079	5140
879.206	5280
879.333	5128
879.461	5045
879.588	5006
879.715	5117
879.842	5227
879.97	5048
880.097	4831
880.224	4786
880.351	4870
880.478	4904
880.605	4809
880.732	4843
880.859	5140
880.986	4885
881.112	4919
881.239	4820
881.366	4729
881.493	4630
881.619	4645
881.746	4641
881.872	4687
881.999	4675
882.125	4748
882.252	4752
882.378	4850
882.505	4972
882.631	4752
882.757	4733
882.883	4778
883.01	4774
883.136	4675
883.262	4611
883.388	4683
883.514	4854
883.64	4896
883.766	4774
883.892	4687
884.018	4752
884.143	4915
884.269	5029
884.395	4729
884.52	4645
884.646	4687
884.772	4592
884.897	4584
885.023	4710
885.148	4839
885.274	4881
885.399	4824
885.524	4733
885.65	4710
885.775	4744
885.9	4740
886.025	4870
886.15	4850
886.275	4740
886.4	4694
886.525	4698
886.65	4649
886.775	4702
886.9	4881
887.025	5052
887.149	4816
887.274	4641
887.399	4618
887.523	4607
887.648	4577
887.773	4637
887.897	4774
888.021	4786
888.146	4714
888.27	4862
888.395	4881
888.519	4839
888.643	4850
888.767	4812
888.891	4721
889.015	4630
889.139	4694
889.263	4675
889.387	4740
889.511	4938
889.635	4828
889.759	4618
889.883	4599
890.006	4679
890.13	4816
890.254	4672
890.377	4691
890.501	4573
890.624	4554
890.748	4626
890.871	4504
890.995	4481
891.118	4348
891.241	4577
891.364	4538
891.488	4664
891.611	4554
891.734	4508
891.857	4561
891.98	4592
892.103	4672
892.226	4626
892.349	4588
892.471	4459
892.594	4626
892.717	4653
892.839	4546
892.962	4630
893.085	4679
893.207	4649
893.33	4470
893.452	4542
893.575	4694
893.697	4611
893.819	4839
893.941	4809
894.064	4771
894.186	4607
894.308	4577
894.43	4740
894.552	4820
894.674	4786
894.796	4550
894.918	4592
895.04	4615
895.161	4752
895.283	4679
895.405	4637
895.526	4664
895.648	4752
895.769	4694
895.891	4683
896.012	4729
896.134	4736
896.255	4649
896.376	4645
896.498	4618
896.619	4679
896.74	4645
896.861	4653
896.982	4957
897.103	5067
897.224	4866
897.345	4767
897.466	4679
897.587	4759
897.708	4900
897.828	4820
897.949	4622
898.07	4535
898.19	4698
898.311	4889
898.431	4702
898.552	4767
898.672	4835
898.792	4816
898.913	4721
899.033	4653
899.153	4569
899.273	4451
899.393	4535
899.513	4542
899.633	4538
899.753	4538
899.873	4569
899.993	4656
900.113	4550
900.232	4596
900.352	4569
900.472	4523
900.591	4432
900.711	4500
900.83	4466
900.95	4611
901.069	4687
901.189	4577
901.308	4371
901.427	4333
901.546	4405
901.665	4466
901.784	4538
901.904	4409
902.023	4310
902.141	4227
902.26	4181
902.379	4310
902.498	4280
902.617	4276
902.735	4409
902.854	4390
902.973	4363
903.091	4200
903.21	4207
903.328	4322
903.446	4322
903.565	4303
903.683	4356
903.801	4265
903.919	4462
904.038	4455
904.156	4352
904.274	4394
904.392	4386
904.51	4478
904.627	4497
904.745	4592
904.863	4637
904.981	4402
905.098	4363
905.216	4363
905.334	4440
905.451	4493
905.569	4386
905.686	4607
905.803	4561
905.921	4402
906.038	4592
906.155	4470
906.272	4402
906.389	4459
906.506	4310
906.623	4386
906.74	4413
906.857	4333
906.974	4440
907.091	4580
907.208	4691
907.324	4603
907.441	4485
907.557	4386
907.674	4440
907.79	4371
907.907	4447
908.023	4489
908.139	4489
908.256	4481
908.372	4519
908.488	4455
908.604	4383
908.72	4344
908.836	4371
908.952	4356
909.068	4436
909.184	4573
909.3	4508
909.415	4584
909.531	4554
909.647	4360
909.762	4375
909.878	4379
909.993	4459
910.108	4455
910.224	4386
910.339	4531
910.454	4440
910.57	4375
910.685	4329
910.8	4656
910.915	4592
911.03	4535
911.145	4352
911.259	4329
911.374	4413
911.489	4333
911.604	4299
911.718	4173
911.833	4227
911.947	4124
912.062	4051
912.176	4230
912.291	4230
912.405	4291
912.519	4500
912.633	4516
912.748	4413
912.862	4333
912.976	4219
913.09	4124
913.204	4211
913.318	4306
913.431	4363
913.545	4367
913.659	4432
913.772	4375
913.886	4253
914	4238
914.113	4375
914.226	4402
914.34	4402
914.453	4265
914.566	4481
914.68	4322
914.793	4386
914.906	4211
915.019	4067
915.132	4097
915.245	4177
915.358	4219
915.47	4261
915.583	4238
915.696	4295
915.809	4386
915.921	4440
916.034	4261
916.146	4268
916.259	4215
916.371	4352
916.483	4367
916.595	4234
916.708	4344
916.82	4287
916.932	4375
917.044	4356
917.156	4356
917.268	4242
917.38	4276
917.491	4261
917.603	4337
917.715	4390
917.826	4459
917.938	4375
918.049	4265
918.161	4409
918.272	4584
918.384	4577
918.495	4481
918.606	4306
918.717	4310
918.828	4337
918.939	4383
919.05	4265
919.161	4371
919.272	4120
919.383	4249
919.494	4474
919.604	4664
919.715	4375
919.826	4371
919.936	4383
920.047	4500
920.157	4527
920.267	4702
920.378	4569
920.488	4512
920.598	4767
920.708	4862
920.818	4763
920.928	4729
921.038	4942
921.148	4957
921.258	4649
921.368	4546
921.477	4470
921.587	4512
921.697	4398
921.806	4500
921.916	4436
922.025	4280
922.134	4306
922.244	4249
922.353	4306
922.462	4234
922.571	4128
922.68	4055
922.789	3979
922.898	4048
923.007	3983
923.116	4124
923.224	4109
923.333	4040
923.442	4025
923.55	3994
923.659	4051
923.767	4082
923.876	4021
923.984	4158
924.092	3972
924.201	4074
924.309	4090
924.417	4128
924.525	4044
924.633	4116
924.741	5075
924.849	3941
924.956	4162
925.064	4002
925.172	3922
925.279	3953
925.387	4040
925.494	4093
925.602	4196
925.709	4200
925.816	4006
925.924	4120
926.031	4223
926.138	4200
926.245	4177
926.352	4090
926.459	4268
926.566	4284
926.673	4154
926.779	4101
926.886	4074
926.993	3991
927.099	3991
927.206	3934
927.312	3949
927.419	4055
927.525	4006
927.631	4093
927.737	3998
927.843	3937
927.95	3819
928.056	3930
928.162	3998
928.267	4055
928.373	4580
928.479	4112
928.585	3876
928.69	4010
928.796	4135
928.901	3987
929.007	3823
929.112	3994
929.218	4032
929.323	3945
929.428	3937
929.533	4090
929.638	3934
929.743	3956
929.848	4051
929.953	4010
930.058	3934
930.163	3816
930.267	3880
930.372	3998
930.477	3823
930.581	4090
930.685	3953
930.79	3816
930.894	3899
930.998	3869
931.103	4013
931.207	3667
931.311	3671
931.415	3698
931.519	3542
931.623	3603
