Data from test_V78500241_1401.txt Node
Date: Fri Mar 25 16:58:44 CST 2022
User: usil
Spectrometer: V785-0024
Trigger mode: 0
Integration Time (sec): 4.000000E-1
Scans to average: 1
Nonlinearity correction enabled: false
Boxcar width: 0
Storing dark spectrum: false
XAxis mode: Wavelengths
Number of Pixels in Spectrum: 1024
>>>>>Begin Spectral Data<<<<<
801.071	8031
801.214	8001
801.356	7879
801.499	7890
801.641	7792
801.783	7769
801.926	7940
802.068	7986
802.211	8008
802.353	7967
802.496	7871
802.638	7795
802.78	7951
802.923	7967
803.065	7849
803.208	7852
803.35	7932
803.492	8039
803.635	8157
803.777	8062
803.919	8123
804.061	8469
804.204	8153
804.346	8092
804.488	8020
804.63	8202
804.773	8012
804.915	8065
805.057	8301
805.199	8157
805.341	8275
805.483	8275
805.626	8161
805.768	8100
805.91	8199
806.052	8164
806.194	8126
806.336	8328
806.478	8088
806.62	8103
806.762	8138
806.904	8259
807.046	8476
807.188	8328
807.33	8362
807.472	8301
807.614	8138
807.756	8168
807.898	7989
808.04	7818
808.182	7906
808.324	7818
808.465	7997
808.607	8130
808.749	8100
808.891	8153
809.033	8271
809.174	8168
809.316	8073
809.458	8043
809.6	8024
809.741	8016
809.883	8016
810.025	8084
810.166	8065
810.308	8062
810.45	8043
810.591	7860
810.733	7719
810.875	7613
811.016	7601
811.158	7491
811.299	7632
811.441	7757
811.582	7689
811.724	7597
811.865	7544
812.007	7616
812.148	7544
812.29	7658
812.431	7780
812.573	7818
812.714	7989
812.855	8092
812.997	8199
813.138	8317
813.279	8259
813.421	8111
813.562	7989
813.703	7875
813.845	7837
813.986	7521
814.127	7228
814.268	7217
814.41	7152
814.551	7187
814.692	7187
814.833	7069
814.974	7031
815.115	7156
815.256	6916
815.397	7004
815.539	6958
815.68	6863
815.821	6806
815.962	6909
816.103	6886
816.244	6719
816.385	6578
816.526	6616
816.666	6525
816.807	6338
816.948	6365
817.089	6467
817.23	6418
817.371	6376
817.512	6426
817.653	6407
817.793	6319
817.934	6429
818.075	6475
818.216	6429
818.356	6361
818.497	6258
818.638	6133
818.778	6194
818.919	6140
819.06	6186
819.2	6292
819.341	6350
819.481	6334
819.622	6452
819.762	6707
819.903	6764
820.043	6612
820.184	6601
820.324	6585
820.465	6738
820.605	6681
820.746	6631
820.886	6513
821.026	6646
821.167	6662
821.307	6798
821.447	6818
821.588	6631
821.728	6559
821.868	6502
822.008	6380
822.149	6369
822.289	6388
822.429	6155
822.569	6117
822.709	6072
822.849	5893
822.99	5939
823.13	5931
823.27	5870
823.41	5798
823.55	5817
823.69	5760
823.83	5802
823.97	5688
824.11	5547
824.25	5474
824.389	5543
824.529	5551
824.669	5539
824.809	5653
824.949	5615
825.089	5649
825.228	5516
825.368	5440
825.508	5353
825.648	5349
825.787	5349
825.927	5372
826.067	5299
826.206	5303
826.346	5368
826.485	5410
826.625	5372
826.765	5478
826.904	5448
827.044	5235
827.183	5204
827.323	5094
827.462	5265
827.601	5201
827.741	5216
827.88	5212
828.02	5124
828.159	5208
828.298	5296
828.437	5368
828.577	5284
828.716	5455
828.855	5357
828.994	5151
829.134	5147
829.273	5197
829.412	5151
829.551	5086
829.69	5162
829.829	5223
829.968	5383
830.107	5246
830.246	5246
830.385	5140
830.524	5166
830.663	5098
830.802	4987
830.941	4911
831.08	4873
831.219	4984
831.357	4942
831.496	5181
831.635	4953
831.774	4873
831.913	4816
832.051	4687
832.19	4717
832.329	4862
832.467	4679
832.606	4626
832.744	4752
832.883	4733
833.022	4721
833.16	4733
833.299	4843
833.437	4862
833.576	4812
833.714	4854
833.852	4873
833.991	4900
834.129	4938
834.267	4923
834.406	4843
834.544	4995
834.682	4972
834.821	4908
834.959	5151
835.097	4972
835.235	5109
835.373	5067
835.511	5117
835.65	5037
835.788	5003
835.926	4904
836.064	4892
836.202	4889
836.34	5121
836.478	5208
836.615	5083
836.753	5212
836.891	5299
837.029	5246
837.167	5223
837.305	5151
837.443	5151
837.58	5075
837.718	5235
837.856	5166
837.993	5113
838.131	5216
838.269	5212
838.406	5201
838.544	5147
838.681	5037
838.819	5022
838.956	4877
839.094	4904
839.231	4984
839.369	5121
839.506	5417
839.643	5239
839.781	5090
839.918	5025
840.055	5067
840.193	5124
840.33	5132
840.467	5155
840.604	5147
840.742	5474
840.879	5117
841.016	5113
841.153	5098
841.29	5410
841.427	5303
841.564	5307
841.701	5337
841.838	5227
841.975	5212
842.112	5292
842.249	5121
842.385	5102
842.522	5349
842.659	5174
842.796	5128
842.933	5201
843.069	5121
843.206	5147
843.343	5296
843.479	5193
843.616	5277
843.752	5033
843.889	5003
844.025	5155
844.162	4968
844.298	5227
844.435	5117
844.571	5033
844.708	5189
844.844	5330
844.98	5357
845.117	5269
845.253	5121
845.389	5064
845.525	5212
845.661	5185
845.798	4991
845.934	5151
846.07	5083
846.206	5159
846.342	5280
846.478	5181
846.614	5018
846.75	4984
846.886	4896
847.022	5136
847.158	4968
847.294	5090
847.429	5052
847.565	4968
847.701	5296
847.837	4831
847.972	4847
848.108	4911
848.244	4946
848.379	4793
848.515	4664
848.65	4725
848.786	4733
848.921	4812
849.057	4870
849.192	4885
849.328	4805
849.463	4801
849.598	4786
849.734	4714
849.869	4706
850.004	4645
850.14	4622
850.275	4603
850.41	4500
850.545	4603
850.68	4592
850.815	4596
850.95	4645
851.085	4782
851.22	4767
851.355	4679
851.49	4596
851.625	4637
851.76	4603
851.895	4538
852.03	4554
852.165	4645
852.299	4740
852.434	4771
852.569	4767
852.703	4790
852.838	4858
852.973	4919
853.107	4938
853.242	4744
853.376	4683
853.511	4531
853.645	4630
853.78	4774
853.914	4706
854.048	4626
854.183	4584
854.317	4710
854.451	4858
854.585	4668
854.72	4687
854.854	4710
854.988	4634
855.122	4615
855.256	4512
855.39	4641
855.524	4797
855.658	4721
855.792	4698
855.926	4736
856.06	4721
856.194	4820
856.327	4691
856.461	4565
856.595	4596
856.729	4615
856.862	4733
856.996	4679
857.13	4748
857.263	4771
857.397	4801
857.53	4626
857.664	4721
857.797	4717
857.931	4778
858.064	4668
858.197	4771
858.331	4683
858.464	4618
858.597	4535
858.731	4626
858.864	4637
858.997	4573
859.13	4653
859.263	4641
859.396	4694
859.529	4596
859.662	4584
859.795	4596
859.928	4634
860.061	4721
860.194	4748
860.327	4565
860.46	4580
860.592	4702
860.725	4714
860.858	4733
860.99	4592
861.123	4481
861.256	4489
861.388	4668
861.521	5364
861.653	4474
861.786	4424
861.918	4443
862.05	4489
862.183	4565
862.315	4618
862.447	4607
862.58	4569
862.712	4383
862.844	4325
862.976	4417
863.108	4443
863.24	4870
863.372	4337
863.504	4402
863.636	4417
863.768	4523
863.9	4451
864.032	4356
864.164	4375
864.296	4489
864.428	4500
864.559	4561
864.691	4542
864.823	4508
864.954	4470
865.086	4474
865.217	4470
865.349	4428
865.48	4436
865.612	4512
865.743	4592
865.875	4451
866.006	4409
866.137	4440
866.269	4512
866.4	4409
866.531	4424
866.662	4363
866.793	4428
866.924	4421
867.055	4489
867.186	4451
867.317	4428
867.448	4375
867.579	4398
867.71	4413
867.841	4363
867.972	4470
868.103	4443
868.233	4447
868.364	4432
868.495	4493
868.625	4622
868.756	4736
868.886	4519
869.017	4607
869.147	4736
869.278	4717
869.408	4637
869.539	4641
869.669	4702
869.799	4615
869.929	4752
870.06	4668
870.19	4923
870.32	4911
870.45	4923
870.58	4953
870.71	5033
870.84	5025
870.97	4965
871.1	4938
871.23	5159
871.36	5132
871.489	5025
871.619	5124
871.749	5117
871.879	5102
872.008	5151
872.138	5052
872.267	5010
872.397	4870
872.526	4831
872.656	4729
872.785	4782
872.915	4968
873.044	5022
873.173	4934
873.303	4946
873.432	4972
873.561	4961
873.69	4889
873.819	4873
873.948	4889
874.077	4805
874.206	4763
874.335	4812
874.464	4904
874.593	5086
874.722	4938
874.851	5083
874.979	5033
875.108	5003
875.237	4919
875.365	4816
875.494	4873
875.623	4923
875.751	4858
875.88	4862
876.008	4972
876.136	5006
876.265	5189
876.393	5334
876.521	5250
876.65	5227
876.778	5117
876.906	5105
877.034	5025
877.162	5022
877.29	4953
877.418	5029
877.546	5022
877.674	5010
877.802	5003
877.93	5025
878.058	4911
878.185	4889
878.313	4923
878.441	4961
878.568	4797
878.696	4847
878.824	4930
878.951	4987
879.079	5128
879.206	5269
879.333	5064
879.461	4991
879.588	5003
879.715	5056
879.842	5220
879.97	5018
880.097	4782
880.224	4752
880.351	4816
880.478	4824
880.605	4778
880.732	4786
880.859	5109
880.986	4900
881.112	4896
881.239	4752
881.366	4645
881.493	4584
881.619	4611
881.746	4611
881.872	4622
881.999	4626
882.125	4653
882.252	4790
882.378	4835
882.505	4942
882.631	4831
882.757	4622
882.883	4771
883.01	4733
883.136	4668
883.262	4565
883.388	4588
883.514	4831
883.64	4847
883.766	4797
883.892	4641
884.018	4736
884.143	4889
884.269	5029
884.395	4660
884.52	4573
884.646	4634
884.772	4592
884.897	4554
885.023	4691
885.148	4801
885.274	4870
885.399	4820
885.524	4733
885.65	4702
885.775	4744
885.9	4675
886.025	4877
886.15	4759
886.275	4740
886.4	4611
886.525	4725
886.65	4672
886.775	4714
886.9	4923
887.025	4953
887.149	4774
887.274	4607
887.399	4546
887.523	4615
887.648	4588
887.773	4618
887.897	4729
888.021	4786
888.146	4675
888.27	4793
888.395	4934
888.519	4801
888.643	4771
888.767	4816
888.891	4672
889.015	4561
889.139	4649
889.263	4615
889.387	4782
889.511	4862
889.635	4809
889.759	4622
889.883	4611
890.006	4744
890.13	4790
890.254	4607
890.377	4691
890.501	4561
890.624	4527
890.748	4596
890.871	4565
890.995	4413
891.118	4344
891.241	4523
891.364	4550
891.488	4630
891.611	4485
891.734	4558
891.857	4588
891.98	4577
892.103	4603
892.226	4584
892.349	4497
892.471	4436
892.594	4523
892.717	4596
892.839	4580
892.962	4561
893.085	4653
893.207	4588
893.33	4478
893.452	4497
893.575	4615
893.697	4561
893.819	4790
893.941	4812
894.064	4755
894.186	4516
894.308	4535
894.43	4733
894.552	4797
894.674	4729
894.796	4542
894.918	4596
895.04	4523
895.161	4683
895.283	4664
895.405	4588
895.526	4634
895.648	4710
895.769	4694
895.891	4721
896.012	4706
896.134	4714
896.255	4672
896.376	4592
896.498	4596
896.619	4653
896.74	4645
896.861	4611
896.982	4923
897.103	5064
897.224	4801
897.345	4767
897.466	4672
897.587	4698
897.708	4816
897.828	4778
897.949	4641
898.07	4558
898.19	4626
898.311	4812
898.431	4634
898.552	4744
898.672	4790
898.792	4782
898.913	4706
899.033	4584
899.153	4523
899.273	4424
899.393	4470
899.513	4493
899.633	4519
899.753	4584
899.873	4500
899.993	4607
900.113	4500
900.232	4546
900.352	4504
900.472	4470
900.591	4383
900.711	4470
900.83	4394
900.95	4596
901.069	4653
901.189	4538
901.308	4383
901.427	4295
901.546	4363
901.665	4409
901.784	4504
901.904	4344
902.023	4299
902.141	4196
902.26	4166
902.379	4322
902.498	4200
902.617	4223
902.735	4314
902.854	4386
902.973	4394
903.091	4185
903.21	4211
903.328	4303
903.446	4261
903.565	4299
903.683	4306
903.801	4276
903.919	4390
904.038	4455
904.156	4276
904.274	4363
904.392	4363
904.51	4344
904.627	4519
904.745	4516
904.863	4607
904.981	4367
905.098	4314
905.216	4379
905.334	4432
905.451	4421
905.569	4405
905.686	4542
905.803	4523
905.921	4375
906.038	4546
906.155	4474
906.272	4375
906.389	4443
906.506	4371
906.623	4348
906.74	4371
906.857	4375
906.974	4409
907.091	4599
907.208	4675
907.324	4588
907.441	4497
907.557	4337
907.674	4299
907.79	4337
907.907	4375
908.023	4485
908.139	4455
908.256	4443
908.372	4470
908.488	4451
908.604	4352
908.72	4306
908.836	4367
908.952	4310
909.068	4413
909.184	4569
909.3	4455
909.415	4577
909.531	4573
909.647	4402
909.762	4383
909.878	4333
909.993	4409
910.108	4371
910.224	4432
910.339	4489
910.454	4405
910.57	4344
910.685	4306
910.8	4577
910.915	4622
911.03	4497
911.145	4303
911.259	4318
911.374	4329
911.489	4303
911.604	4306
911.718	4188
911.833	4242
911.947	4051
912.062	4021
912.176	4204
912.291	4215
912.405	4303
912.519	4417
912.633	4485
912.748	4356
912.862	4303
912.976	4227
913.09	4116
913.204	4143
913.318	4280
913.431	4352
913.545	4390
913.659	4424
913.772	4447
913.886	4234
914	4219
914.113	4398
914.226	4417
914.34	4371
914.453	4215
914.566	4402
914.68	4268
914.793	4337
914.906	4147
915.019	4105
915.132	4109
915.245	4158
915.358	4196
915.47	4207
915.583	4253
915.696	4310
915.809	4432
915.921	4436
916.034	4287
916.146	4284
916.259	4196
916.371	4386
916.483	4386
916.595	4257
916.708	4341
916.82	4314
916.932	4280
917.044	4329
917.156	4284
917.268	4238
917.38	4219
917.491	4276
917.603	4299
917.715	4432
917.826	4443
917.938	4352
918.049	4265
918.161	4394
918.272	4527
918.384	4550
918.495	4474
918.606	4299
918.717	4211
918.828	4333
918.939	4360
919.05	4265
919.161	4295
919.272	4120
919.383	4249
919.494	4443
919.604	4630
919.715	4405
919.826	4348
919.936	4417
920.047	4493
920.157	4504
920.267	4714
920.378	4504
920.488	4462
920.598	4653
920.708	4877
920.818	4774
920.928	4744
921.038	4957
921.148	4873
921.258	4656
921.368	4519
921.477	4455
921.587	4455
921.697	4356
921.806	4516
921.916	4405
922.025	4272
922.134	4284
922.244	4246
922.353	4295
922.462	4173
922.571	4143
922.68	4040
922.789	3949
922.898	4029
923.007	4002
923.116	4071
923.224	4082
923.333	4082
923.442	4029
923.55	3979
923.659	4013
923.767	4044
923.876	3979
923.984	4147
924.092	3956
924.201	4036
924.309	4093
924.417	4131
924.525	4051
924.633	4086
924.741	5086
924.849	3907
924.956	4128
925.064	3998
925.172	3899
925.279	3941
925.387	4025
925.494	4017
925.602	4169
925.709	4147
925.816	4032
925.924	4112
926.031	4204
926.138	4173
926.245	4185
926.352	4063
926.459	4253
926.566	4261
926.673	4147
926.779	4086
926.886	4135
926.993	3953
927.099	3945
927.206	3930
927.312	3975
927.419	4032
927.525	4063
927.631	4093
927.737	3968
927.843	3953
927.95	3823
928.056	3937
928.162	3998
928.267	4040
928.373	4660
928.479	4112
928.585	3846
928.69	4006
928.796	4082
928.901	3941
929.007	3869
929.112	4044
929.218	3953
929.323	3968
929.428	3945
929.533	4154
929.638	3884
929.743	3968
929.848	4029
929.953	3979
930.058	3896
930.163	3816
930.267	3808
930.372	3979
930.477	3835
930.581	4059
930.685	3956
930.79	3793
930.894	3869
930.998	3808
931.103	4040
931.207	3698
931.311	3663
931.415	3682
931.519	3538
931.623	3504
