Data from test_V78500241_2085.txt Node
Date: Fri Mar 25 17:03:29 CST 2022
User: usil
Spectrometer: V785-0024
Trigger mode: 0
Integration Time (sec): 4.000000E-1
Scans to average: 1
Nonlinearity correction enabled: false
Boxcar width: 0
Storing dark spectrum: false
XAxis mode: Wavelengths
Number of Pixels in Spectrum: 1024
>>>>>Begin Spectral Data<<<<<
801.071	7997
801.214	7940
801.356	7852
801.499	7849
801.641	7818
801.783	7883
801.926	7997
802.068	7902
802.211	7978
802.353	8027
802.496	7928
802.638	7799
802.78	7814
802.923	7845
803.065	7856
803.208	7818
803.35	7917
803.492	8065
803.635	8077
803.777	7963
803.919	8115
804.061	8442
804.204	8115
804.346	8016
804.488	8005
804.63	8031
804.773	8020
804.915	8100
805.057	8267
805.199	8123
805.341	8119
805.483	8305
805.626	8168
805.768	8069
805.91	8164
806.052	8214
806.194	8084
806.336	8298
806.478	8031
806.62	8107
806.762	8107
806.904	8259
807.046	8476
807.188	8332
807.33	8282
807.472	8324
807.614	8248
807.756	8176
807.898	7909
808.04	7913
808.182	7917
808.324	7868
808.465	7921
808.607	8050
808.749	8077
808.891	8191
809.033	8275
809.174	8183
809.316	8111
809.458	8069
809.6	7974
809.741	8054
809.883	8001
810.025	8111
810.166	8039
810.308	7986
810.45	7989
810.591	7856
810.733	7708
810.875	7639
811.016	7552
811.158	7441
811.299	7613
811.441	7651
811.582	7655
811.724	7548
811.865	7476
812.007	7601
812.148	7586
812.29	7590
812.431	7757
812.573	7883
812.714	8016
812.855	8096
812.997	8096
813.138	8282
813.279	8126
813.421	8043
813.562	7978
813.703	7776
813.845	7662
813.986	7438
814.127	7247
814.268	7202
814.41	7206
814.551	7160
814.692	7236
814.833	7061
814.974	7137
815.115	7141
815.256	6947
815.397	6920
815.539	7008
815.68	6688
815.821	6749
815.962	6825
816.103	6734
816.244	6650
816.385	6593
816.526	6589
816.666	6506
816.807	6327
816.948	6445
817.089	6456
817.23	6494
817.371	6342
817.512	6334
817.653	6369
817.793	6414
817.934	6433
818.075	6407
818.216	6452
818.356	6399
818.497	6254
818.638	6178
818.778	6167
818.919	6148
819.06	6190
819.2	6311
819.341	6296
819.481	6414
819.622	6559
819.762	6719
819.903	6604
820.043	6597
820.184	6566
820.324	6536
820.465	6662
820.605	6639
820.746	6612
820.886	6464
821.026	6620
821.167	6715
821.307	6779
821.447	6722
821.588	6684
821.728	6566
821.868	6467
822.008	6277
822.149	6338
822.289	6369
822.429	6144
822.569	6102
822.709	6140
822.849	5901
822.99	5935
823.13	5904
823.27	5908
823.41	5786
823.55	5809
823.69	5726
823.83	5783
823.97	5600
824.11	5539
824.25	5471
824.389	5532
824.529	5562
824.669	5577
824.809	5611
824.949	5661
825.089	5608
825.228	5562
825.368	5398
825.508	5368
825.648	5337
825.787	5315
825.927	5353
826.067	5273
826.206	5311
826.346	5345
826.485	5391
826.625	5448
826.765	5592
826.904	5474
827.044	5261
827.183	5143
827.323	5109
827.462	5212
827.601	5185
827.741	5170
827.88	5204
828.02	5121
828.159	5223
828.298	5307
828.437	5372
828.577	5280
828.716	5467
828.855	5288
828.994	5185
829.134	5197
829.273	5220
829.412	5098
829.551	5121
829.69	5185
829.829	5258
829.968	5391
830.107	5288
830.246	5254
830.385	5174
830.524	5117
830.663	5056
830.802	4923
830.941	4904
831.08	4858
831.219	5041
831.357	4972
831.496	5136
831.635	4927
831.774	4828
831.913	4801
832.051	4790
832.19	4729
832.329	4858
832.467	4744
832.606	4637
832.744	4736
832.883	4694
833.022	4706
833.16	4767
833.299	4801
833.437	4828
833.576	4835
833.714	4862
833.852	4854
833.991	4866
834.129	4995
834.267	4957
834.406	4908
834.544	4961
834.682	4976
834.821	4946
834.959	5197
835.097	5041
835.235	5136
835.373	5060
835.511	5079
835.65	5045
835.788	5045
835.926	4850
836.064	4839
836.202	4923
836.34	5170
836.478	5208
836.615	5128
836.753	5189
836.891	5250
837.029	5220
837.167	5204
837.305	5181
837.443	5189
837.58	5033
837.718	5250
837.856	5181
837.993	5170
838.131	5231
838.269	5189
838.406	5155
838.544	5162
838.681	5010
838.819	5022
838.956	4877
839.094	4862
839.231	4961
839.369	5083
839.506	5459
839.643	5231
839.781	5048
839.918	4984
840.055	5098
840.193	5079
840.33	5159
840.467	5124
840.604	5223
840.742	5444
840.879	5029
841.016	5045
841.153	5121
841.29	5341
841.427	5326
841.564	5277
841.701	5349
841.838	5303
841.975	5220
842.112	5239
842.249	5197
842.385	5121
842.522	5357
842.659	5189
842.796	5140
842.933	5140
843.069	5140
843.206	5124
843.343	5307
843.479	5212
843.616	5292
843.752	4976
843.889	5041
844.025	5216
844.162	5048
844.298	5197
844.435	5079
844.571	5014
844.708	5174
844.844	5303
844.98	5326
845.117	5280
845.253	5109
845.389	5056
845.525	5166
845.661	5121
845.798	5033
845.934	5075
846.07	5018
846.206	5185
846.342	5337
846.478	5159
846.614	5006
846.75	5018
846.886	4923
847.022	5098
847.158	4999
847.294	5010
847.429	5060
847.565	5006
847.701	5318
847.837	4835
847.972	4820
848.108	4919
848.244	4908
848.379	4740
848.515	4736
848.65	4702
848.786	4782
848.921	4752
849.057	4828
849.192	4892
849.328	4759
849.463	4839
849.598	4809
849.734	4721
849.869	4656
850.004	4618
850.14	4656
850.275	4611
850.41	4550
850.545	4542
850.68	4630
850.815	4573
850.95	4611
851.085	4839
851.22	4755
851.355	4615
851.49	4599
851.625	4588
851.76	4664
851.895	4554
852.03	4546
852.165	4645
852.299	4733
852.434	4812
852.569	4755
852.703	4752
852.838	4820
852.973	4881
853.107	4949
853.242	4706
853.376	4649
853.511	4561
853.645	4592
853.78	4812
853.914	4710
854.048	4637
854.183	4653
854.317	4702
854.451	4824
854.585	4683
854.72	4622
854.854	4790
854.988	4580
855.122	4618
855.256	4481
855.39	4687
855.524	4729
855.658	4691
855.792	4664
855.926	4740
856.06	4717
856.194	4797
856.327	4675
856.461	4573
856.595	4645
856.729	4653
856.862	4774
856.996	4694
857.13	4740
857.263	4725
857.397	4797
857.53	4714
857.664	4725
857.797	4774
857.931	4759
858.064	4687
858.197	4752
858.331	4637
858.464	4615
858.597	4531
858.731	4664
858.864	4626
858.997	4580
859.13	4687
859.263	4649
859.396	4683
859.529	4554
859.662	4550
859.795	4542
859.928	4691
860.061	4744
860.194	4721
860.327	4596
860.46	4542
860.592	4698
860.725	4687
860.858	4691
860.99	4584
861.123	4535
861.256	4478
861.388	4599
861.521	5391
861.653	4470
861.786	4447
861.918	4470
862.05	4531
862.183	4550
862.315	4607
862.447	4698
862.58	4527
862.712	4379
862.844	4253
862.976	4497
863.108	4478
863.24	4782
863.372	4314
863.504	4375
863.636	4417
863.768	4489
863.9	4424
864.032	4386
864.164	4402
864.296	4474
864.428	4535
864.559	4546
864.691	4558
864.823	4497
864.954	4474
865.086	4481
865.217	4459
865.349	4432
865.48	4481
865.612	4485
865.743	4649
865.875	4474
866.006	4459
866.137	4443
866.269	4478
866.4	4447
866.531	4398
866.662	4386
866.793	4379
866.924	4466
867.055	4485
867.186	4459
867.317	4428
867.448	4394
867.579	4432
867.71	4390
867.841	4394
867.972	4440
868.103	4436
868.233	4409
868.364	4447
868.495	4508
868.625	4668
868.756	4694
868.886	4542
869.017	4550
869.147	4790
869.278	4767
869.408	4656
869.539	4637
869.669	4759
869.799	4675
869.929	4786
870.06	4736
870.19	4942
870.32	4904
870.45	4915
870.58	4987
870.71	5048
870.84	5098
870.97	4968
871.1	4858
871.23	5121
871.36	5109
871.489	5056
871.619	5045
871.749	5113
871.879	5166
872.008	5212
872.138	5041
872.267	4980
872.397	4850
872.526	4778
872.656	4702
872.785	4812
872.915	4919
873.044	4987
873.173	4900
873.303	4938
873.432	4927
873.561	4957
873.69	4850
873.819	4854
873.948	4892
874.077	4786
874.206	4759
874.335	4774
874.464	4946
874.593	5064
874.722	4904
874.851	5117
874.979	5041
875.108	5064
875.237	4919
875.365	4858
875.494	4873
875.623	4995
875.751	4782
875.88	4889
876.008	4934
876.136	5052
876.265	5181
876.393	5258
876.521	5246
876.65	5201
876.778	5181
876.906	5094
877.034	5029
877.162	4999
877.29	4919
877.418	5067
877.546	5102
877.674	5045
877.802	5010
877.93	5037
878.058	4930
878.185	4870
878.313	4934
878.441	4949
878.568	4790
878.696	4923
878.824	4968
878.951	4984
879.079	5159
879.206	5239
879.333	5140
879.461	4965
879.588	5006
879.715	5109
879.842	5250
879.97	5010
880.097	4786
880.224	4759
880.351	4755
880.478	4831
880.605	4782
880.732	4786
880.859	5067
880.986	4915
881.112	4843
881.239	4812
881.366	4664
881.493	4588
881.619	4607
881.746	4645
881.872	4637
881.999	4664
882.125	4653
882.252	4759
882.378	4801
882.505	4942
882.631	4774
882.757	4664
882.883	4736
883.01	4740
883.136	4717
883.262	4584
883.388	4622
883.514	4778
883.64	4908
883.766	4797
883.892	4672
884.018	4721
884.143	4896
884.269	4976
884.395	4656
884.52	4622
884.646	4656
884.772	4603
884.897	4588
885.023	4683
885.148	4786
885.274	4850
885.399	4786
885.524	4702
885.65	4679
885.775	4752
885.9	4721
886.025	4847
886.15	4771
886.275	4717
886.4	4607
886.525	4694
886.65	4634
886.775	4668
886.9	4866
887.025	5029
887.149	4820
887.274	4634
887.399	4588
887.523	4577
887.648	4554
887.773	4577
887.897	4767
888.021	4797
888.146	4641
888.27	4816
888.395	4862
888.519	4797
888.643	4820
888.767	4862
888.891	4706
889.015	4603
889.139	4641
889.263	4588
889.387	4740
889.511	4850
889.635	4801
889.759	4645
889.883	4607
890.006	4793
890.13	4820
890.254	4599
890.377	4706
890.501	4538
890.624	4519
890.748	4615
890.871	4500
890.995	4421
891.118	4443
891.241	4516
891.364	4599
891.488	4626
891.611	4489
891.734	4497
891.857	4554
891.98	4565
892.103	4641
892.226	4611
892.349	4516
892.471	4390
892.594	4538
892.717	4584
892.839	4508
892.962	4584
893.085	4641
893.207	4622
893.33	4447
893.452	4436
893.575	4656
893.697	4538
893.819	4778
893.941	4835
894.064	4790
894.186	4577
894.308	4580
894.43	4759
894.552	4805
894.674	4733
894.796	4592
894.918	4596
895.04	4554
895.161	4660
895.283	4641
895.405	4516
895.526	4664
895.648	4672
895.769	4748
895.891	4694
896.012	4774
896.134	4691
896.255	4649
896.376	4580
896.498	4634
896.619	4668
896.74	4603
896.861	4626
896.982	4946
897.103	5037
897.224	4824
897.345	4744
897.466	4687
897.587	4691
897.708	4824
897.828	4797
897.949	4683
898.07	4577
898.19	4668
898.311	4835
898.431	4664
898.552	4721
898.672	4820
898.792	4850
898.913	4706
899.033	4611
899.153	4508
899.273	4451
899.393	4516
899.513	4538
899.633	4500
899.753	4535
899.873	4485
899.993	4580
900.113	4474
900.232	4565
900.352	4546
900.472	4474
900.591	4413
900.711	4489
900.83	4447
900.95	4588
901.069	4588
901.189	4535
901.308	4375
901.427	4344
901.546	4394
901.665	4459
901.784	4516
901.904	4371
902.023	4344
902.141	4211
902.26	4192
902.379	4325
902.498	4249
902.617	4238
902.735	4356
902.854	4394
902.973	4379
903.091	4234
903.21	4158
903.328	4341
903.446	4299
903.565	4223
903.683	4348
903.801	4284
903.919	4363
904.038	4405
904.156	4291
904.274	4421
904.392	4386
904.51	4440
904.627	4474
904.745	4569
904.863	4615
904.981	4371
905.098	4329
905.216	4344
905.334	4455
905.451	4428
905.569	4466
905.686	4558
905.803	4577
905.921	4390
906.038	4565
906.155	4489
906.272	4390
906.389	4459
906.506	4352
906.623	4344
906.74	4383
906.857	4322
906.974	4352
907.091	4611
907.208	4637
907.324	4565
907.441	4481
907.557	4348
907.674	4322
907.79	4322
907.907	4394
908.023	4462
908.139	4462
908.256	4443
908.372	4405
908.488	4409
908.604	4322
908.72	4322
908.836	4375
908.952	4371
909.068	4394
909.184	4554
909.3	4516
909.415	4584
909.531	4531
909.647	4325
909.762	4322
909.878	4333
909.993	4474
910.108	4405
910.224	4440
910.339	4459
910.454	4398
910.57	4421
910.685	4322
910.8	4649
910.915	4603
911.03	4470
911.145	4363
911.259	4325
911.374	4360
911.489	4276
911.604	4268
911.718	4166
911.833	4166
911.947	4112
912.062	4048
912.176	4223
912.291	4223
912.405	4219
912.519	4481
912.633	4489
912.748	4371
912.862	4295
912.976	4200
913.09	4086
913.204	4162
913.318	4234
913.431	4322
913.545	4348
913.659	4478
913.772	4417
913.886	4215
914	4238
914.113	4367
914.226	4421
914.34	4386
914.453	4234
914.566	4466
914.68	4291
914.793	4295
914.906	4120
915.019	4120
915.132	4048
915.245	4185
915.358	4204
915.47	4211
915.583	4234
915.696	4303
915.809	4405
915.921	4428
916.034	4261
916.146	4249
916.259	4257
916.371	4348
916.483	4329
916.595	4280
916.708	4314
916.82	4344
916.932	4337
917.044	4325
917.156	4371
917.268	4211
917.38	4253
917.491	4227
917.603	4344
917.715	4413
917.826	4398
917.938	4306
918.049	4246
918.161	4405
918.272	4538
918.384	4535
918.495	4417
918.606	4299
918.717	4234
918.828	4318
918.939	4360
919.05	4291
919.161	4352
919.272	4120
919.383	4204
919.494	4432
919.604	4607
919.715	4394
919.826	4360
919.936	4409
920.047	4531
920.157	4508
920.267	4664
920.378	4561
920.488	4519
920.598	4721
920.708	4892
920.818	4702
920.928	4736
921.038	4942
921.148	4911
921.258	4622
921.368	4542
921.477	4504
921.587	4428
921.697	4363
921.806	4558
921.916	4459
922.025	4284
922.134	4268
922.244	4223
922.353	4337
922.462	4169
922.571	4162
922.68	4032
922.789	3991
922.898	4055
923.007	3960
923.116	4124
923.224	4101
923.333	4067
923.442	4021
923.55	3998
923.659	3998
923.767	4044
923.876	3956
923.984	4143
924.092	3941
924.201	4055
924.309	4135
924.417	4139
924.525	4082
924.633	4090
924.741	5041
924.849	3876
924.956	4128
925.064	3941
925.172	3964
925.279	3945
925.387	4051
925.494	4059
925.602	4196
925.709	4200
925.816	4048
925.924	4139
926.031	4261
926.138	4154
926.245	4204
926.352	4112
926.459	4257
926.566	4280
926.673	4131
926.779	4093
926.886	4124
926.993	4021
927.099	3983
927.206	3899
927.312	3949
927.419	4051
927.525	3994
927.631	4071
927.737	3953
927.843	3937
927.95	3842
928.056	3953
928.162	3968
928.267	4063
928.373	4630
928.479	4120
928.585	3869
928.69	4006
928.796	4093
928.901	3949
929.007	3827
929.112	3987
929.218	4002
929.323	3918
929.428	3926
929.533	4097
929.638	3865
929.743	3991
929.848	4036
929.953	3987
930.058	3937
930.163	3740
930.267	3816
930.372	3922
930.477	3781
930.581	4071
930.685	3911
930.79	3831
930.894	3819
930.998	3861
931.103	4036
931.207	3762
931.311	3671
931.415	3667
931.519	3523
931.623	3572
