Data from test_V78500241_2270.txt Node
Date: Fri Mar 25 17:04:47 CST 2022
User: usil
Spectrometer: V785-0024
Trigger mode: 0
Integration Time (sec): 4.000000E-1
Scans to average: 1
Nonlinearity correction enabled: false
Boxcar width: 0
Storing dark spectrum: false
XAxis mode: Wavelengths
Number of Pixels in Spectrum: 1024
>>>>>Begin Spectral Data<<<<<
801.071	7947
801.214	7974
801.356	7879
801.499	7890
801.641	7822
801.783	7864
801.926	7936
802.068	8012
802.211	7959
802.353	8050
802.496	7868
802.638	7871
802.78	7868
802.923	7902
803.065	7875
803.208	7841
803.35	7967
803.492	8123
803.635	8191
803.777	8035
803.919	8119
804.061	8507
804.204	8161
804.346	8103
804.488	7951
804.63	8092
804.773	8016
804.915	8077
805.057	8313
805.199	8134
805.341	8271
805.483	8305
805.626	8164
805.768	8164
805.91	8218
806.052	8142
806.194	8119
806.336	8244
806.478	8046
806.62	8058
806.762	8088
806.904	8267
807.046	8465
807.188	8381
807.33	8374
807.472	8332
807.614	8180
807.756	8111
807.898	7932
808.04	7887
808.182	7902
808.324	7845
808.465	7864
808.607	8058
808.749	8069
808.891	8218
809.033	8263
809.174	8168
809.316	8111
809.458	8153
809.6	8005
809.741	8031
809.883	7986
810.025	8126
810.166	8077
810.308	7997
810.45	7986
810.591	7784
810.733	7746
810.875	7643
811.016	7525
811.158	7460
811.299	7537
811.441	7746
811.582	7685
811.724	7597
811.865	7571
812.007	7639
812.148	7655
812.29	7537
812.431	7772
812.573	7955
812.714	7947
812.855	8161
812.997	8218
813.138	8347
813.279	8119
813.421	8081
813.562	7955
813.703	7826
813.845	7761
813.986	7453
814.127	7152
814.268	7206
814.41	7194
814.551	7183
814.692	7213
814.833	7053
814.974	7122
815.115	7137
815.256	7023
815.397	6951
815.539	6951
815.68	6764
815.821	6757
815.962	6863
816.103	6814
816.244	6662
816.385	6642
816.526	6597
816.666	6544
816.807	6254
816.948	6460
817.089	6464
817.23	6429
817.371	6342
817.512	6395
817.653	6399
817.793	6365
817.934	6384
818.075	6441
818.216	6452
818.356	6441
818.497	6258
818.638	6155
818.778	6190
818.919	6159
819.06	6163
819.2	6346
819.341	6277
819.481	6399
819.622	6498
819.762	6760
819.903	6715
820.043	6566
820.184	6608
820.324	6574
820.465	6684
820.605	6692
820.746	6612
820.886	6486
821.026	6673
821.167	6658
821.307	6821
821.447	6719
821.588	6715
821.728	6612
821.868	6471
822.008	6350
822.149	6365
822.289	6315
822.429	6098
822.569	6057
822.709	6072
822.849	5935
822.99	5904
823.13	5988
823.27	5965
823.41	5813
823.55	5840
823.69	5752
823.83	5790
823.97	5680
824.11	5535
824.25	5558
824.389	5528
824.529	5608
824.669	5543
824.809	5688
824.949	5672
825.089	5615
825.228	5585
825.368	5425
825.508	5360
825.648	5349
825.787	5421
825.927	5417
826.067	5303
826.206	5311
826.346	5410
826.485	5398
826.625	5376
826.765	5512
826.904	5482
827.044	5292
827.183	5204
827.323	5136
827.462	5231
827.601	5166
827.741	5193
827.88	5197
828.02	5098
828.159	5235
828.298	5296
828.437	5337
828.577	5258
828.716	5467
828.855	5357
828.994	5189
829.134	5147
829.273	5197
829.412	5166
829.551	5086
829.69	5143
829.829	5197
829.968	5345
830.107	5254
830.246	5280
830.385	5208
830.524	5121
830.663	5075
830.802	4980
830.941	4866
831.08	4858
831.219	4934
831.357	4976
831.496	5178
831.635	4927
831.774	4866
831.913	4847
832.051	4790
832.19	4710
832.329	4835
832.467	4683
832.606	4664
832.744	4774
832.883	4691
833.022	4725
833.16	4774
833.299	4824
833.437	4831
833.576	4831
833.714	4831
833.852	4904
833.991	4873
834.129	4972
834.267	4927
834.406	4911
834.544	4995
834.682	4976
834.821	4965
834.959	5181
835.097	4999
835.235	5166
835.373	5113
835.511	5083
835.65	4991
835.788	4980
835.926	4889
836.064	4854
836.202	4946
836.34	5178
836.478	5212
836.615	5121
836.753	5242
836.891	5273
837.029	5242
837.167	5212
837.305	5151
837.443	5170
837.58	5067
837.718	5273
837.856	5208
837.993	5204
838.131	5235
838.269	5235
838.406	5174
838.544	5193
838.681	5064
838.819	4972
838.956	4877
839.094	4927
839.231	4984
839.369	5064
839.506	5455
839.643	5269
839.781	5037
839.918	5014
840.055	5067
840.193	5067
840.33	5147
840.467	5113
840.604	5181
840.742	5478
840.879	5022
841.016	5113
841.153	5147
841.29	5364
841.427	5315
841.564	5337
841.701	5337
841.838	5261
841.975	5239
842.112	5284
842.249	5155
842.385	5071
842.522	5349
842.659	5170
842.796	5132
842.933	5212
843.069	5185
843.206	5143
843.343	5288
843.479	5246
843.616	5223
843.752	5041
843.889	4980
844.025	5204
844.162	5029
844.298	5239
844.435	5041
844.571	5045
844.708	5178
844.844	5280
844.98	5307
845.117	5284
845.253	5155
845.389	5075
845.525	5216
845.661	5147
845.798	5010
845.934	5140
846.07	5029
846.206	5189
846.342	5345
846.478	5155
846.614	5022
846.75	4999
846.886	4965
847.022	5121
847.158	5022
847.294	5064
847.429	5117
847.565	5033
847.701	5303
847.837	4885
847.972	4831
848.108	4896
848.244	4965
848.379	4809
848.515	4748
848.65	4656
848.786	4729
848.921	4786
849.057	4850
849.192	4889
849.328	4771
849.463	4866
849.598	4774
849.734	4793
849.869	4645
850.004	4603
850.14	4672
850.275	4615
850.41	4481
850.545	4573
850.68	4603
850.815	4630
850.95	4615
851.085	4831
851.22	4748
851.355	4664
851.49	4634
851.625	4577
851.76	4588
851.895	4554
852.03	4538
852.165	4611
852.299	4698
852.434	4790
852.569	4733
852.703	4774
852.838	4858
852.973	4930
853.107	4953
853.242	4767
853.376	4637
853.511	4577
853.645	4618
853.78	4759
853.914	4698
854.048	4634
854.183	4634
854.317	4714
854.451	4774
854.585	4607
854.72	4641
854.854	4740
854.988	4615
855.122	4637
855.256	4485
855.39	4634
855.524	4767
855.658	4744
855.792	4702
855.926	4729
856.06	4744
856.194	4843
856.327	4645
856.461	4618
856.595	4649
856.729	4592
856.862	4733
856.996	4752
857.13	4683
857.263	4752
857.397	4748
857.53	4641
857.664	4675
857.797	4786
857.931	4767
858.064	4664
858.197	4714
858.331	4626
858.464	4573
858.597	4531
858.731	4630
858.864	4645
858.997	4641
859.13	4683
859.263	4637
859.396	4710
859.529	4546
859.662	4550
859.795	4561
859.928	4618
860.061	4733
860.194	4725
860.327	4588
860.46	4584
860.592	4687
860.725	4748
860.858	4694
860.99	4550
861.123	4546
861.256	4569
861.388	4577
861.521	5318
861.653	4497
861.786	4409
861.918	4424
862.05	4481
862.183	4580
862.315	4618
862.447	4694
862.58	4561
862.712	4421
862.844	4344
862.976	4481
863.108	4500
863.24	4816
863.372	4322
863.504	4363
863.636	4440
863.768	4485
863.9	4394
864.032	4367
864.164	4428
864.296	4474
864.428	4497
864.559	4592
864.691	4546
864.823	4527
864.954	4493
865.086	4500
865.217	4440
865.349	4424
865.48	4443
865.612	4519
865.743	4577
865.875	4478
866.006	4466
866.137	4447
866.269	4485
866.4	4428
866.531	4417
866.662	4375
866.793	4424
866.924	4386
867.055	4481
867.186	4462
867.317	4402
867.448	4367
867.579	4421
867.71	4360
867.841	4394
867.972	4493
868.103	4459
868.233	4440
868.364	4421
868.495	4474
868.625	4672
868.756	4698
868.886	4599
869.017	4641
869.147	4771
869.278	4809
869.408	4664
869.539	4596
869.669	4706
869.799	4626
869.929	4755
870.06	4740
870.19	4946
870.32	4870
870.45	4957
870.58	5022
870.71	5033
870.84	5094
870.97	4927
871.1	4873
871.23	5170
871.36	5143
871.489	4987
871.619	5071
871.749	5079
871.879	5071
872.008	5174
872.138	5029
872.267	4987
872.397	4835
872.526	4755
872.656	4725
872.785	4812
872.915	5022
873.044	5029
873.173	4942
873.303	4927
873.432	4946
873.561	4976
873.69	4877
873.819	4870
873.948	4850
874.077	4809
874.206	4725
874.335	4786
874.464	4957
874.593	5041
874.722	4965
874.851	5079
874.979	5045
875.108	5041
875.237	4938
875.365	4873
875.494	4927
875.623	4987
875.751	4801
875.88	4839
876.008	4923
876.136	4991
876.265	5166
876.393	5353
876.521	5277
876.65	5258
876.778	5113
876.906	5060
877.034	5052
877.162	5060
877.29	5037
877.418	5022
877.546	5060
877.674	5045
877.802	5029
877.93	4968
878.058	4934
878.185	4889
878.313	4976
878.441	4980
878.568	4839
878.696	4847
878.824	4923
878.951	5041
879.079	5140
879.206	5261
879.333	5075
879.461	4961
879.588	4961
879.715	5083
879.842	5208
879.97	5010
880.097	4809
880.224	4744
880.351	4801
880.478	4835
880.605	4816
880.732	4790
880.859	5064
880.986	4873
881.112	4915
881.239	4774
881.366	4694
881.493	4626
881.619	4592
881.746	4630
881.872	4653
881.999	4637
882.125	4649
882.252	4816
882.378	4793
882.505	4949
882.631	4771
882.757	4649
882.883	4706
883.01	4721
883.136	4679
883.262	4580
883.388	4603
883.514	4767
883.64	4873
883.766	4771
883.892	4710
884.018	4717
884.143	4885
884.269	5045
884.395	4656
884.52	4668
884.646	4645
884.772	4546
884.897	4538
885.023	4664
885.148	4790
885.274	4858
885.399	4805
885.524	4714
885.65	4702
885.775	4752
885.9	4706
886.025	4820
886.15	4767
886.275	4683
886.4	4660
886.525	4683
886.65	4691
886.775	4664
886.9	4858
887.025	5033
887.149	4854
887.274	4668
887.399	4554
887.523	4577
887.648	4554
887.773	4558
887.897	4778
888.021	4805
888.146	4626
888.27	4767
888.395	4915
888.519	4782
888.643	4790
888.767	4824
888.891	4679
889.015	4592
889.139	4637
889.263	4580
889.387	4736
889.511	4892
889.635	4786
889.759	4637
889.883	4584
890.006	4740
890.13	4843
890.254	4577
890.377	4656
890.501	4523
890.624	4523
890.748	4634
890.871	4516
890.995	4390
891.118	4379
891.241	4478
891.364	4558
891.488	4603
891.611	4455
891.734	4542
891.857	4637
891.98	4500
892.103	4630
892.226	4569
892.349	4519
892.471	4424
892.594	4558
892.717	4592
892.839	4592
892.962	4596
893.085	4615
893.207	4637
893.33	4455
893.452	4504
893.575	4637
893.697	4550
893.819	4793
893.941	4805
894.064	4714
894.186	4588
894.308	4550
894.43	4725
894.552	4824
894.674	4702
894.796	4550
894.918	4580
895.04	4603
895.161	4694
895.283	4615
895.405	4569
895.526	4653
895.648	4725
895.769	4706
895.891	4679
896.012	4721
896.134	4675
896.255	4664
896.376	4618
896.498	4588
896.619	4645
896.74	4634
896.861	4645
896.982	4900
897.103	5037
897.224	4816
897.345	4797
897.466	4672
897.587	4706
897.708	4847
897.828	4805
897.949	4706
898.07	4538
898.19	4634
898.311	4816
898.431	4706
898.552	4687
898.672	4809
898.792	4793
898.913	4782
899.033	4626
899.153	4531
899.273	4443
899.393	4481
899.513	4519
899.633	4538
899.753	4538
899.873	4512
899.993	4603
900.113	4531
900.232	4565
900.352	4558
900.472	4466
900.591	4413
900.711	4504
900.83	4436
900.95	4588
901.069	4691
901.189	4470
901.308	4329
901.427	4276
901.546	4360
901.665	4481
901.784	4485
901.904	4375
902.023	4249
902.141	4185
902.26	4139
902.379	4360
902.498	4234
902.617	4238
902.735	4402
902.854	4390
902.973	4367
903.091	4211
903.21	4215
903.328	4306
903.446	4272
903.565	4234
903.683	4325
903.801	4265
903.919	4367
904.038	4432
904.156	4341
904.274	4421
904.392	4405
904.51	4402
904.627	4470
904.745	4611
904.863	4649
904.981	4428
905.098	4333
905.216	4375
905.334	4432
905.451	4398
905.569	4424
905.686	4512
905.803	4512
905.921	4348
906.038	4558
906.155	4459
906.272	4344
906.389	4432
906.506	4333
906.623	4398
906.74	4383
906.857	4291
906.974	4394
907.091	4512
907.208	4687
907.324	4592
907.441	4516
907.557	4352
907.674	4337
907.79	4337
907.907	4348
908.023	4538
908.139	4497
908.256	4409
908.372	4462
908.488	4455
908.604	4371
908.72	4318
908.836	4386
908.952	4409
909.068	4386
909.184	4561
909.3	4485
909.415	4599
909.531	4516
909.647	4352
909.762	4371
909.878	4360
909.993	4436
910.108	4417
910.224	4360
910.339	4436
910.454	4402
910.57	4310
910.685	4322
910.8	4615
910.915	4588
911.03	4535
911.145	4379
911.259	4310
911.374	4375
911.489	4265
911.604	4265
911.718	4219
911.833	4185
911.947	4093
912.062	4036
912.176	4192
912.291	4207
912.405	4268
912.519	4443
912.633	4546
912.748	4371
912.862	4284
912.976	4211
913.09	4109
913.204	4181
913.318	4280
913.431	4398
913.545	4352
913.659	4394
913.772	4348
913.886	4211
914	4238
914.113	4322
914.226	4428
914.34	4383
914.453	4242
914.566	4432
914.68	4314
914.793	4291
914.906	4154
915.019	4093
915.132	4063
915.245	4143
915.358	4268
915.47	4227
915.583	4287
915.696	4249
915.809	4409
915.921	4428
916.034	4253
916.146	4223
916.259	4242
916.371	4375
916.483	4356
916.595	4314
916.708	4329
916.82	4253
916.932	4314
917.044	4333
917.156	4318
917.268	4238
917.38	4299
917.491	4280
917.603	4341
917.715	4394
917.826	4455
917.938	4341
918.049	4223
918.161	4379
918.272	4523
918.384	4535
918.495	4466
918.606	4291
918.717	4246
918.828	4337
918.939	4402
919.05	4227
919.161	4314
919.272	4101
919.383	4227
919.494	4424
919.604	4649
919.715	4413
919.826	4348
919.936	4371
920.047	4538
920.157	4512
920.267	4725
920.378	4504
920.488	4489
920.598	4679
920.708	4892
920.818	4683
920.928	4767
921.038	4911
921.148	4904
921.258	4615
921.368	4538
921.477	4523
921.587	4500
921.697	4360
921.806	4554
921.916	4432
922.025	4284
922.134	4242
922.244	4192
922.353	4363
922.462	4173
922.571	4150
922.68	4006
922.789	3960
922.898	4017
923.007	4006
923.116	4097
923.224	4093
923.333	4051
923.442	3968
923.55	3953
923.659	3987
923.767	4074
923.876	3979
923.984	4082
924.092	3998
924.201	4090
924.309	4109
924.417	4116
924.525	4090
924.633	4082
924.741	5052
924.849	3926
924.956	4097
925.064	3964
925.172	3903
925.279	3968
925.387	4048
925.494	4044
925.602	4219
925.709	4166
925.816	4029
925.924	4150
926.031	4177
926.138	4192
926.245	4196
926.352	4090
926.459	4204
926.566	4299
926.673	4105
926.779	4082
926.886	4090
926.993	3975
927.099	3915
927.206	3930
927.312	3922
927.419	4044
927.525	4032
927.631	4074
927.737	3998
927.843	3953
927.95	3838
928.056	3926
928.162	3975
928.267	4078
928.373	4649
928.479	4086
928.585	3850
928.69	3968
928.796	4082
928.901	3991
929.007	3838
929.112	3983
929.218	3983
929.323	3937
929.428	3915
929.533	4059
929.638	3915
929.743	3960
929.848	3998
929.953	3991
930.058	3949
930.163	3785
930.267	3835
930.372	3972
930.477	3873
930.581	4063
930.685	3983
930.79	3846
930.894	3873
930.998	3892
931.103	4017
931.207	3724
931.311	3679
931.415	3686
931.519	3530
931.623	3523
