Data from test_V78500241_1577.txt Node
Date: Fri Mar 25 16:59:58 CST 2022
User: usil
Spectrometer: V785-0024
Trigger mode: 0
Integration Time (sec): 4.000000E-1
Scans to average: 1
Nonlinearity correction enabled: false
Boxcar width: 0
Storing dark spectrum: false
XAxis mode: Wavelengths
Number of Pixels in Spectrum: 1024
>>>>>Begin Spectral Data<<<<<
801.071	7940
801.214	7959
801.356	7871
801.499	7845
801.641	7811
801.783	7822
801.926	7967
802.068	7951
802.211	7997
802.353	8054
802.496	7811
802.638	7864
802.78	7913
802.923	7894
803.065	7917
803.208	7792
803.35	7951
803.492	8012
803.635	8145
803.777	7993
803.919	8115
804.061	8415
804.204	8100
804.346	7997
804.488	7890
804.63	8119
804.773	8035
804.915	8039
805.057	8237
805.199	8145
805.341	8191
805.483	8221
805.626	8199
805.768	8119
805.91	8176
806.052	8225
806.194	8065
806.336	8240
806.478	8096
806.62	8062
806.762	8126
806.904	8202
807.046	8419
807.188	8377
807.33	8320
807.472	8259
807.614	8111
807.756	8103
807.898	7913
808.04	7860
808.182	7925
808.324	7860
808.465	7887
808.607	8096
808.749	8084
808.891	8172
809.033	8271
809.174	8149
809.316	8031
809.458	8062
809.6	7982
809.741	7970
809.883	8043
810.025	8149
810.166	8039
810.308	8058
810.45	7959
810.591	7837
810.733	7696
810.875	7624
811.016	7529
811.158	7434
811.299	7582
811.441	7662
811.582	7662
811.724	7582
811.865	7586
812.007	7544
812.148	7601
812.29	7597
812.431	7723
812.573	7906
812.714	7967
812.855	8115
812.997	8149
813.138	8343
813.279	8225
813.421	8119
813.562	7955
813.703	7803
813.845	7681
813.986	7403
814.127	7285
814.268	7171
814.41	7183
814.551	7175
814.692	7232
814.833	7099
814.974	7099
815.115	7095
815.256	6966
815.397	6905
815.539	6973
815.68	6810
815.821	6779
815.962	6783
816.103	6825
816.244	6700
816.385	6582
816.526	6589
816.666	6502
816.807	6315
816.948	6350
817.089	6464
817.23	6399
817.371	6350
817.512	6376
817.653	6391
817.793	6361
817.934	6353
818.075	6464
818.216	6441
818.356	6410
818.497	6216
818.638	6095
818.778	6114
818.919	6083
819.06	6117
819.2	6254
819.341	6327
819.481	6323
819.622	6475
819.762	6711
819.903	6688
820.043	6639
820.184	6528
820.324	6570
820.465	6711
820.605	6692
820.746	6612
820.886	6486
821.026	6677
821.167	6696
821.307	6779
821.447	6791
821.588	6669
821.728	6593
821.868	6437
822.008	6285
822.149	6296
822.289	6331
822.429	6129
822.569	6064
822.709	6076
822.849	5908
822.99	5821
823.13	5901
823.27	5885
823.41	5764
823.55	5760
823.69	5752
823.83	5786
823.97	5676
824.11	5509
824.25	5471
824.389	5547
824.529	5623
824.669	5482
824.809	5619
824.949	5634
825.089	5577
825.228	5528
825.368	5349
825.508	5299
825.648	5326
825.787	5360
825.927	5341
826.067	5235
826.206	5315
826.346	5349
826.485	5345
826.625	5379
826.765	5524
826.904	5440
827.044	5239
827.183	5220
827.323	5113
827.462	5231
827.601	5170
827.741	5201
827.88	5140
828.02	5113
828.159	5204
828.298	5246
828.437	5364
828.577	5280
828.716	5463
828.855	5280
828.994	5174
829.134	5102
829.273	5216
829.412	5143
829.551	5083
829.69	5147
829.829	5231
829.968	5360
830.107	5250
830.246	5242
830.385	5166
830.524	5090
830.663	5060
830.802	4953
830.941	4900
831.08	4858
831.219	5056
831.357	4927
831.496	5151
831.635	4927
831.774	4889
831.913	4873
832.051	4702
832.19	4694
832.329	4805
832.467	4683
832.606	4622
832.744	4717
832.883	4759
833.022	4736
833.16	4824
833.299	4835
833.437	4824
833.576	4812
833.714	4870
833.852	4862
833.991	4881
834.129	4957
834.267	4904
834.406	4854
834.544	4915
834.682	4938
834.821	4961
834.959	5109
835.097	4980
835.235	5155
835.373	5071
835.511	5048
835.65	5014
835.788	4995
835.926	4873
836.064	4866
836.202	4942
836.34	5170
836.478	5220
836.615	5155
836.753	5189
836.891	5288
837.029	5246
837.167	5189
837.305	5193
837.443	5121
837.58	5132
837.718	5185
837.856	5178
837.993	5086
838.131	5208
838.269	5185
838.406	5223
838.544	5159
838.681	5052
838.819	5014
838.956	4915
839.094	4862
839.231	4984
839.369	5094
839.506	5379
839.643	5223
839.781	5071
839.918	5006
840.055	5075
840.193	5037
840.33	5052
840.467	5143
840.604	5151
840.742	5421
840.879	5045
841.016	5075
841.153	5117
841.29	5353
841.427	5315
841.564	5318
841.701	5299
841.838	5235
841.975	5185
842.112	5235
842.249	5147
842.385	5128
842.522	5303
842.659	5109
842.796	5128
842.933	5155
843.069	5174
843.206	5166
843.343	5269
843.479	5220
843.616	5265
843.752	4999
843.889	4972
844.025	5193
844.162	5018
844.298	5181
844.435	5052
844.571	5060
844.708	5193
844.844	5288
844.98	5349
845.117	5239
845.253	5105
845.389	5075
845.525	5124
845.661	5117
845.798	5045
845.934	5132
846.07	5060
846.206	5193
846.342	5261
846.478	5227
846.614	4995
846.75	4972
846.886	4927
847.022	5136
847.158	4987
847.294	5124
847.429	5098
847.565	5071
847.701	5322
847.837	4850
847.972	4771
848.108	4976
848.244	4946
848.379	4812
848.515	4714
848.65	4702
848.786	4733
848.921	4729
849.057	4877
849.192	4858
849.328	4820
849.463	4831
849.598	4767
849.734	4752
849.869	4683
850.004	4584
850.14	4622
850.275	4592
850.41	4519
850.545	4538
850.68	4599
850.815	4592
850.95	4618
851.085	4797
851.22	4744
851.355	4664
851.49	4592
851.625	4641
851.76	4660
851.895	4546
852.03	4500
852.165	4645
852.299	4733
852.434	4748
852.569	4759
852.703	4744
852.838	4835
852.973	4949
853.107	4889
853.242	4683
853.376	4683
853.511	4538
853.645	4611
853.78	4793
853.914	4660
854.048	4637
854.183	4641
854.317	4672
854.451	4831
854.585	4675
854.72	4615
854.854	4759
854.988	4565
855.122	4607
855.256	4531
855.39	4645
855.524	4786
855.658	4714
855.792	4702
855.926	4763
856.06	4744
856.194	4782
856.327	4694
856.461	4607
856.595	4607
856.729	4607
856.862	4710
856.996	4687
857.13	4683
857.263	4733
857.397	4835
857.53	4618
857.664	4763
857.797	4763
857.931	4774
858.064	4683
858.197	4729
858.331	4634
858.464	4569
858.597	4504
858.731	4626
858.864	4584
858.997	4565
859.13	4649
859.263	4664
859.396	4717
859.529	4580
859.662	4554
859.795	4558
859.928	4622
860.061	4809
860.194	4771
860.327	4611
860.46	4550
860.592	4691
860.725	4653
860.858	4691
860.99	4565
861.123	4535
861.256	4535
861.388	4592
861.521	5239
861.653	4459
861.786	4462
861.918	4424
862.05	4508
862.183	4569
862.315	4558
862.447	4645
862.58	4535
862.712	4398
862.844	4318
862.976	4455
863.108	4432
863.24	4733
863.372	4314
863.504	4432
863.636	4421
863.768	4459
863.9	4417
864.032	4379
864.164	4356
864.296	4470
864.428	4516
864.559	4527
864.691	4527
864.823	4470
864.954	4462
865.086	4497
865.217	4447
865.349	4405
865.48	4462
865.612	4459
865.743	4618
865.875	4451
866.006	4428
866.137	4459
866.269	4481
866.4	4379
866.531	4436
866.662	4367
866.793	4371
866.924	4379
867.055	4481
867.186	4481
867.317	4421
867.448	4352
867.579	4402
867.71	4363
867.841	4333
867.972	4455
868.103	4478
868.233	4447
868.364	4447
868.495	4474
868.625	4675
868.756	4725
868.886	4550
869.017	4573
869.147	4759
869.278	4790
869.408	4641
869.539	4634
869.669	4714
869.799	4637
869.929	4759
870.06	4755
870.19	4927
870.32	4911
870.45	4885
870.58	5003
870.71	5022
870.84	5048
870.97	4961
871.1	4908
871.23	5132
871.36	5117
871.489	4980
871.619	5071
871.749	5102
871.879	5121
872.008	5102
872.138	5083
872.267	4949
872.397	4847
872.526	4755
872.656	4691
872.785	4793
872.915	4968
873.044	5067
873.173	4900
873.303	4965
873.432	4911
873.561	4930
873.69	4911
873.819	4885
873.948	4923
874.077	4793
874.206	4748
874.335	4805
874.464	4942
874.593	5041
874.722	4934
874.851	5113
874.979	5033
875.108	4999
875.237	4896
875.365	4908
875.494	4828
875.623	4946
875.751	4786
875.88	4854
876.008	4946
876.136	5006
876.265	5151
876.393	5330
876.521	5227
876.65	5220
876.778	5136
876.906	5014
877.034	5033
877.162	5014
877.29	5003
877.418	5067
877.546	5071
877.674	5029
877.802	5022
877.93	4987
878.058	4965
878.185	4839
878.313	5018
878.441	4911
878.568	4801
878.696	4870
878.824	4942
878.951	4927
879.079	5113
879.206	5250
879.333	5075
879.461	4965
879.588	4949
879.715	5094
879.842	5227
879.97	4961
880.097	4759
880.224	4725
880.351	4782
880.478	4805
880.605	4755
880.732	4733
880.859	5083
880.986	4854
881.112	4877
881.239	4778
881.366	4641
881.493	4630
881.619	4546
881.746	4637
881.872	4618
881.999	4615
882.125	4687
882.252	4752
882.378	4816
882.505	4908
882.631	4767
882.757	4660
882.883	4706
883.01	4778
883.136	4660
883.262	4618
883.388	4588
883.514	4820
883.64	4847
883.766	4816
883.892	4664
884.018	4702
884.143	4881
884.269	5033
884.395	4668
884.52	4630
884.646	4653
884.772	4599
884.897	4580
885.023	4698
885.148	4786
885.274	4847
885.399	4843
885.524	4729
885.65	4694
885.775	4797
885.9	4755
886.025	4847
886.15	4778
886.275	4774
886.4	4714
886.525	4733
886.65	4683
886.775	4733
886.9	4904
887.025	5079
887.149	4809
887.274	4717
887.399	4599
887.523	4618
887.648	4607
887.773	4615
887.897	4782
888.021	4774
888.146	4736
888.27	4816
888.395	4892
888.519	4839
888.643	4885
888.767	4896
888.891	4683
889.015	4664
889.139	4679
889.263	4603
889.387	4816
889.511	4881
889.635	4866
889.759	4641
889.883	4698
890.006	4767
890.13	4934
890.254	4656
890.377	4725
890.501	4550
890.624	4569
890.748	4630
890.871	4542
890.995	4519
891.118	4459
891.241	4580
891.364	4599
891.488	4687
891.611	4504
891.734	4565
891.857	4630
891.98	4592
892.103	4694
892.226	4634
892.349	4592
892.471	4489
892.594	4592
892.717	4599
892.839	4573
892.962	4630
893.085	4698
893.207	4630
893.33	4550
893.452	4538
893.575	4649
893.697	4588
893.819	4816
893.941	4877
894.064	4824
894.186	4596
894.308	4634
894.43	4752
894.552	4828
894.674	4797
894.796	4584
894.918	4611
895.04	4615
895.161	4763
895.283	4706
895.405	4596
895.526	4660
895.648	4649
895.769	4774
895.891	4752
896.012	4721
896.134	4729
896.255	4649
896.376	4645
896.498	4626
896.619	4740
896.74	4615
896.861	4649
896.982	4938
897.103	5098
897.224	4870
897.345	4763
897.466	4767
897.587	4744
897.708	4885
897.828	4801
897.949	4702
898.07	4607
898.19	4691
898.311	4847
898.431	4710
898.552	4767
898.672	4828
898.792	4858
898.913	4771
899.033	4656
899.153	4508
899.273	4459
899.393	4519
899.513	4538
899.633	4558
899.753	4558
899.873	4565
899.993	4588
900.113	4588
900.232	4656
900.352	4558
900.472	4466
900.591	4443
900.711	4550
900.83	4443
900.95	4634
901.069	4797
901.189	4607
901.308	4383
901.427	4329
901.546	4398
901.665	4481
901.784	4512
901.904	4428
902.023	4341
902.141	4257
902.26	4211
902.379	4314
902.498	4223
902.617	4242
902.735	4371
902.854	4424
902.973	4348
903.091	4246
903.21	4257
903.328	4337
903.446	4299
903.565	4242
903.683	4371
903.801	4367
903.919	4436
904.038	4466
904.156	4367
904.274	4455
904.392	4413
904.51	4466
904.627	4478
904.745	4611
904.863	4675
904.981	4390
905.098	4314
905.216	4383
905.334	4478
905.451	4470
905.569	4470
905.686	4535
905.803	4580
905.921	4428
906.038	4573
906.155	4516
906.272	4432
906.389	4466
906.506	4367
906.623	4443
906.74	4466
906.857	4352
906.974	4405
907.091	4577
907.208	4679
907.324	4630
907.441	4538
907.557	4413
907.674	4375
907.79	4329
907.907	4428
908.023	4538
908.139	4489
908.256	4436
908.372	4474
908.488	4497
908.604	4386
908.72	4337
908.836	4421
908.952	4409
909.068	4443
909.184	4622
909.3	4478
909.415	4626
909.531	4546
909.647	4356
909.762	4413
909.878	4344
909.993	4428
910.108	4428
910.224	4417
910.339	4504
910.454	4383
910.57	4371
910.685	4325
910.8	4641
910.915	4622
911.03	4512
911.145	4398
911.259	4306
911.374	4379
911.489	4348
911.604	4310
911.718	4215
911.833	4265
911.947	4105
912.062	4040
912.176	4238
912.291	4276
912.405	4318
912.519	4485
912.633	4500
912.748	4432
912.862	4314
912.976	4219
913.09	4128
913.204	4223
913.318	4276
913.431	4398
913.545	4379
913.659	4497
913.772	4386
913.886	4242
914	4242
914.113	4386
914.226	4402
914.34	4440
914.453	4291
914.566	4466
914.68	4390
914.793	4402
914.906	4192
915.019	4120
915.132	4109
915.245	4223
915.358	4287
915.47	4219
915.583	4272
915.696	4333
915.809	4428
915.921	4447
916.034	4272
916.146	4306
916.259	4230
916.371	4383
916.483	4405
916.595	4310
916.708	4272
916.82	4325
916.932	4367
917.044	4360
917.156	4375
917.268	4238
917.38	4333
917.491	4314
917.603	4337
917.715	4428
917.826	4451
917.938	4329
918.049	4268
918.161	4405
918.272	4565
918.384	4565
918.495	4440
918.606	4348
918.717	4276
918.828	4360
918.939	4440
919.05	4257
919.161	4329
919.272	4177
919.383	4246
919.494	4470
919.604	4653
919.715	4451
919.826	4405
919.936	4383
920.047	4523
920.157	4512
920.267	4691
920.378	4558
920.488	4519
920.598	4744
920.708	4881
920.818	4774
920.928	4767
921.038	4953
921.148	4930
921.258	4641
921.368	4558
921.477	4516
921.587	4455
921.697	4432
921.806	4554
921.916	4424
922.025	4272
922.134	4268
922.244	4246
922.353	4333
922.462	4185
922.571	4097
922.68	4074
922.789	3991
922.898	4048
923.007	4002
923.116	4124
923.224	4086
923.333	4124
923.442	3998
923.55	3998
923.659	4040
923.767	4128
923.876	4032
923.984	4116
924.092	4051
924.201	4150
924.309	4109
924.417	4128
924.525	4078
924.633	4097
924.741	4911
924.849	3949
924.956	4188
925.064	3991
925.172	3930
925.279	3972
925.387	4036
925.494	4105
925.602	4207
925.709	4192
925.816	4078
925.924	4147
926.031	4230
926.138	4192
926.245	4204
926.352	4135
926.459	4268
926.566	4333
926.673	4177
926.779	4131
926.886	4124
926.993	3994
927.099	4017
927.206	3949
927.312	3956
927.419	4086
927.525	4048
927.631	4090
927.737	4002
927.843	4021
927.95	3869
928.056	3975
928.162	4032
928.267	4082
928.373	4592
928.479	4154
928.585	3880
928.69	4067
928.796	4067
928.901	3987
929.007	3899
929.112	4010
929.218	3987
929.323	4021
929.428	3968
929.533	4135
929.638	3949
929.743	3994
929.848	4090
929.953	4029
930.058	3960
930.163	3781
930.267	3846
930.372	4006
930.477	3835
930.581	4124
930.685	3975
930.79	3831
930.894	3911
930.998	3888
931.103	4078
931.207	3740
931.311	3690
931.415	3694
931.519	3561
931.623	3568
