Data from test_V78500241_1952.txt Node
Date: Fri Mar 25 17:02:34 CST 2022
User: usil
Spectrometer: V785-0024
Trigger mode: 0
Integration Time (sec): 4.000000E-1
Scans to average: 1
Nonlinearity correction enabled: false
Boxcar width: 0
Storing dark spectrum: false
XAxis mode: Wavelengths
Number of Pixels in Spectrum: 1024
>>>>>Begin Spectral Data<<<<<
801.071	8046
801.214	8058
801.356	7894
801.499	7902
801.641	7776
801.783	7879
801.926	7955
802.068	7898
802.211	7997
802.353	8012
802.496	7860
802.638	7849
802.78	7894
802.923	7982
803.065	7898
803.208	7898
803.35	7989
803.492	8050
803.635	8157
803.777	8016
803.919	8172
804.061	8507
804.204	8248
804.346	7993
804.488	8016
804.63	8142
804.773	8092
804.915	8134
805.057	8320
805.199	8244
805.341	8199
805.483	8206
805.626	8240
805.768	8134
805.91	8259
806.052	8202
806.194	8172
806.336	8343
806.478	8149
806.62	8153
806.762	8138
806.904	8244
807.046	8484
807.188	8370
807.33	8317
807.472	8324
807.614	8180
807.756	8130
807.898	8005
808.04	7921
808.182	7982
808.324	7913
808.465	7989
808.607	8046
808.749	8187
808.891	8290
809.033	8275
809.174	8275
809.316	8054
809.458	8103
809.6	8050
809.741	8157
809.883	8046
810.025	8077
810.166	8043
810.308	8054
810.45	7959
810.591	7868
810.733	7750
810.875	7643
811.016	7563
811.158	7483
811.299	7563
811.441	7700
811.582	7674
811.724	7662
811.865	7578
812.007	7533
812.148	7590
812.29	7647
812.431	7742
812.573	7841
812.714	7997
812.855	8180
812.997	8237
813.138	8370
813.279	8229
813.421	8107
813.562	7997
813.703	7913
813.845	7784
813.986	7419
814.127	7293
814.268	7247
814.41	7190
814.551	7209
814.692	7270
814.833	7114
814.974	7076
815.115	7171
815.256	6981
815.397	6909
815.539	6905
815.68	6806
815.821	6760
815.962	6852
816.103	6802
816.244	6749
816.385	6612
816.526	6616
816.666	6532
816.807	6296
816.948	6471
817.089	6448
817.23	6426
817.371	6429
817.512	6395
817.653	6422
817.793	6365
817.934	6357
818.075	6506
818.216	6448
818.356	6414
818.497	6285
818.638	6159
818.778	6159
818.919	6159
819.06	6175
819.2	6304
819.341	6395
819.481	6475
819.622	6551
819.762	6768
819.903	6726
820.043	6585
820.184	6627
820.324	6620
820.465	6764
820.605	6703
820.746	6665
820.886	6525
821.026	6662
821.167	6692
821.307	6734
821.447	6795
821.588	6715
821.728	6578
821.868	6506
822.008	6270
822.149	6323
822.289	6350
822.429	6182
822.569	6117
822.709	6091
822.849	5893
822.99	5897
823.13	5942
823.27	5961
823.41	5836
823.55	5821
823.69	5783
823.83	5760
823.97	5665
824.11	5535
824.25	5539
824.389	5558
824.529	5573
824.669	5535
824.809	5661
824.949	5676
825.089	5661
825.228	5551
825.368	5417
825.508	5360
825.648	5341
825.787	5436
825.927	5395
826.067	5303
826.206	5330
826.346	5398
826.485	5410
826.625	5395
826.765	5596
826.904	5474
827.044	5269
827.183	5201
827.323	5162
827.462	5250
827.601	5204
827.741	5201
827.88	5223
828.02	5151
828.159	5273
828.298	5288
828.437	5368
828.577	5269
828.716	5516
828.855	5368
828.994	5216
829.134	5185
829.273	5227
829.412	5151
829.551	5109
829.69	5197
829.829	5250
829.968	5387
830.107	5311
830.246	5235
830.385	5185
830.524	5178
830.663	5121
830.802	5025
830.941	4923
831.08	4900
831.219	5029
831.357	4972
831.496	5178
831.635	4942
831.774	4866
831.913	4900
832.051	4679
832.19	4771
832.329	4866
832.467	4649
832.606	4683
832.744	4717
832.883	4687
833.022	4740
833.16	4752
833.299	4828
833.437	4877
833.576	4839
833.714	4900
833.852	4877
833.991	4881
834.129	4995
834.267	4942
834.406	4881
834.544	4965
834.682	5010
834.821	4938
834.959	5159
835.097	4995
835.235	5094
835.373	5105
835.511	5083
835.65	5048
835.788	5025
835.926	4980
836.064	4889
836.202	4953
836.34	5201
836.478	5231
836.615	5121
836.753	5246
836.891	5261
837.029	5284
837.167	5208
837.305	5143
837.443	5189
837.58	5128
837.718	5277
837.856	5235
837.993	5189
838.131	5307
838.269	5235
838.406	5242
838.544	5155
838.681	5060
838.819	5052
838.956	4866
839.094	4858
839.231	4995
839.369	5124
839.506	5410
839.643	5265
839.781	5064
839.918	5075
840.055	5121
840.193	5086
840.33	5109
840.467	5098
840.604	5166
840.742	5433
840.879	5105
841.016	5117
841.153	5151
841.29	5398
841.427	5364
841.564	5330
841.701	5379
841.838	5280
841.975	5246
842.112	5246
842.249	5121
842.385	5064
842.522	5364
842.659	5124
842.796	5162
842.933	5185
843.069	5174
843.206	5162
843.343	5326
843.479	5284
843.616	5254
843.752	5067
843.889	5018
844.025	5231
844.162	5060
844.298	5220
844.435	5094
844.571	5083
844.708	5197
844.844	5311
844.98	5349
845.117	5307
845.253	5204
845.389	5052
845.525	5204
845.661	5143
845.798	5018
845.934	5128
846.07	5124
846.206	5181
846.342	5235
846.478	5159
846.614	5075
846.75	4987
846.886	4995
847.022	5098
847.158	4995
847.294	5117
847.429	5083
847.565	5075
847.701	5345
847.837	4862
847.972	4847
848.108	5010
848.244	4965
848.379	4767
848.515	4767
848.65	4763
848.786	4744
848.921	4809
849.057	4866
849.192	4908
849.328	4828
849.463	4854
849.598	4717
849.734	4862
849.869	4683
850.004	4634
850.14	4645
850.275	4653
850.41	4523
850.545	4596
850.68	4622
850.815	4668
850.95	4706
851.085	4862
851.22	4774
851.355	4683
851.49	4641
851.625	4611
851.76	4649
851.895	4618
852.03	4546
852.165	4653
852.299	4774
852.434	4831
852.569	4721
852.703	4740
852.838	4873
852.973	4911
853.107	4915
853.242	4733
853.376	4653
853.511	4577
853.645	4584
853.78	4835
853.914	4714
854.048	4710
854.183	4596
854.317	4763
854.451	4850
854.585	4694
854.72	4637
854.854	4782
854.988	4664
855.122	4672
855.256	4538
855.39	4626
855.524	4782
855.658	4729
855.792	4694
855.926	4790
856.06	4790
856.194	4805
856.327	4736
856.461	4618
856.595	4641
856.729	4637
856.862	4717
856.996	4698
857.13	4736
857.263	4752
857.397	4793
857.53	4668
857.664	4729
857.797	4793
857.931	4725
858.064	4725
858.197	4748
858.331	4630
858.464	4611
858.597	4542
858.731	4649
858.864	4645
858.997	4660
859.13	4664
859.263	4683
859.396	4694
859.529	4622
859.662	4592
859.795	4565
859.928	4641
860.061	4740
860.194	4771
860.327	4596
860.46	4607
860.592	4733
860.725	4748
860.858	4694
860.99	4565
861.123	4523
861.256	4512
861.388	4626
861.521	5376
861.653	4542
861.786	4440
861.918	4451
862.05	4599
862.183	4588
862.315	4622
862.447	4675
862.58	4508
862.712	4436
862.844	4322
862.976	4485
863.108	4508
863.24	4729
863.372	4291
863.504	4436
863.636	4386
863.768	4470
863.9	4443
864.032	4363
864.164	4390
864.296	4497
864.428	4584
864.559	4584
864.691	4531
864.823	4523
864.954	4531
865.086	4428
865.217	4451
865.349	4443
865.48	4459
865.612	4470
865.743	4653
865.875	4443
866.006	4451
866.137	4470
866.269	4413
866.4	4417
866.531	4417
866.662	4379
866.793	4451
866.924	4386
867.055	4512
867.186	4497
867.317	4440
867.448	4375
867.579	4360
867.71	4360
867.841	4394
867.972	4421
868.103	4466
868.233	4447
868.364	4474
868.495	4443
868.625	4641
868.756	4740
868.886	4584
869.017	4596
869.147	4740
869.278	4744
869.408	4603
869.539	4618
869.669	4672
869.799	4637
869.929	4782
870.06	4801
870.19	5006
870.32	4881
870.45	4934
870.58	5045
870.71	5117
870.84	5136
870.97	4942
871.1	4877
871.23	5159
871.36	5162
871.489	5033
871.619	5102
871.749	5094
871.879	5159
872.008	5166
872.138	5029
872.267	4987
872.397	4835
872.526	4782
872.656	4771
872.785	4782
872.915	4949
873.044	5018
873.173	4965
873.303	4923
873.432	4961
873.561	4957
873.69	4892
873.819	4911
873.948	4904
874.077	4816
874.206	4771
874.335	4774
874.464	4965
874.593	5079
874.722	4927
874.851	5117
874.979	5098
875.108	4999
875.237	4889
875.365	4877
875.494	4873
875.623	4991
875.751	4812
875.88	4843
876.008	4923
876.136	5014
876.265	5212
876.393	5334
876.521	5254
876.65	5231
876.778	5189
876.906	5056
877.034	4999
877.162	5060
877.29	4987
877.418	5079
877.546	5048
877.674	5056
877.802	5010
877.93	5067
878.058	4904
878.185	4919
878.313	4949
878.441	4976
878.568	4816
878.696	4892
878.824	4968
878.951	4987
879.079	5113
879.206	5303
879.333	5117
879.461	5022
879.588	5060
879.715	5124
879.842	5242
879.97	4987
880.097	4782
880.224	4801
880.351	4755
880.478	4843
880.605	4752
880.732	4809
880.859	5056
880.986	4892
881.112	4927
881.239	4797
881.366	4706
881.493	4622
881.619	4584
881.746	4660
881.872	4641
881.999	4660
882.125	4725
882.252	4801
882.378	4835
882.505	4957
882.631	4763
882.757	4675
882.883	4717
883.01	4717
883.136	4649
883.262	4550
883.388	4569
883.514	4824
883.64	4835
883.766	4755
883.892	4706
884.018	4687
884.143	4900
884.269	5018
884.395	4653
884.52	4607
884.646	4584
884.772	4592
884.897	4561
885.023	4649
885.148	4805
885.274	4847
885.399	4797
885.524	4698
885.65	4729
885.775	4729
885.9	4675
886.025	4793
886.15	4801
886.275	4729
886.4	4649
886.525	4717
886.65	4721
886.775	4641
886.9	4915
887.025	5064
887.149	4786
887.274	4634
887.399	4607
887.523	4618
887.648	4603
887.773	4569
887.897	4786
888.021	4767
888.146	4656
888.27	4809
888.395	4927
888.519	4793
888.643	4793
888.767	4843
888.891	4687
889.015	4622
889.139	4603
889.263	4596
889.387	4797
889.511	4843
889.635	4805
889.759	4599
889.883	4592
890.006	4729
890.13	4820
890.254	4561
890.377	4649
890.501	4516
890.624	4527
890.748	4607
890.871	4459
890.995	4459
891.118	4386
891.241	4451
891.364	4535
891.488	4645
891.611	4523
891.734	4569
891.857	4645
891.98	4561
892.103	4645
892.226	4554
892.349	4527
892.471	4443
892.594	4523
892.717	4611
892.839	4561
892.962	4573
893.085	4694
893.207	4554
893.33	4432
893.452	4546
893.575	4675
893.697	4577
893.819	4774
893.941	4839
894.064	4801
894.186	4580
894.308	4615
894.43	4721
894.552	4816
894.674	4755
894.796	4580
894.918	4596
895.04	4535
895.161	4687
895.283	4634
895.405	4554
895.526	4656
895.648	4721
895.769	4706
895.891	4710
896.012	4721
896.134	4706
896.255	4630
896.376	4672
896.498	4645
896.619	4675
896.74	4622
896.861	4679
896.982	4904
897.103	5029
897.224	4839
897.345	4710
897.466	4634
897.587	4740
897.708	4889
897.828	4733
897.949	4698
898.07	4542
898.19	4649
898.311	4854
898.431	4637
898.552	4721
898.672	4790
898.792	4805
898.913	4759
899.033	4653
899.153	4451
899.273	4497
899.393	4500
899.513	4538
899.633	4508
899.753	4531
899.873	4542
899.993	4527
900.113	4558
900.232	4618
900.352	4577
900.472	4462
900.591	4386
900.711	4485
900.83	4451
900.95	4607
901.069	4630
901.189	4516
901.308	4344
901.427	4318
901.546	4356
901.665	4455
901.784	4527
901.904	4341
902.023	4325
902.141	4192
902.26	4173
902.379	4325
902.498	4219
902.617	4181
902.735	4325
902.854	4409
902.973	4318
903.091	4192
903.21	4234
903.328	4329
903.446	4280
903.565	4253
903.683	4341
903.801	4318
903.919	4363
904.038	4417
904.156	4333
904.274	4405
904.392	4383
904.51	4440
904.627	4440
904.745	4538
904.863	4664
904.981	4405
905.098	4314
905.216	4409
905.334	4417
905.451	4394
905.569	4405
905.686	4531
905.803	4577
905.921	4394
906.038	4542
906.155	4466
906.272	4394
906.389	4424
906.506	4348
906.623	4424
906.74	4405
906.857	4276
906.974	4348
907.091	4592
907.208	4694
907.324	4577
907.441	4527
907.557	4356
907.674	4322
907.79	4291
907.907	4394
908.023	4481
908.139	4474
908.256	4436
908.372	4443
908.488	4474
908.604	4363
908.72	4299
908.836	4325
908.952	4405
909.068	4417
909.184	4550
909.3	4470
909.415	4558
909.531	4596
909.647	4356
909.762	4337
909.878	4383
909.993	4436
910.108	4424
910.224	4383
910.339	4447
910.454	4466
910.57	4386
910.685	4306
910.8	4603
910.915	4584
911.03	4512
911.145	4356
911.259	4356
911.374	4363
911.489	4284
911.604	4268
911.718	4158
911.833	4185
911.947	4078
912.062	4040
912.176	4192
912.291	4223
912.405	4215
912.519	4447
912.633	4538
912.748	4348
912.862	4299
912.976	4196
913.09	4124
913.204	4162
913.318	4192
913.431	4386
913.545	4356
913.659	4481
913.772	4333
913.886	4227
914	4227
914.113	4383
914.226	4402
914.34	4344
914.453	4200
914.566	4417
914.68	4310
914.793	4325
914.906	4131
915.019	4101
915.132	4105
915.245	4177
915.358	4204
915.47	4246
915.583	4268
915.696	4280
915.809	4409
915.921	4409
916.034	4261
916.146	4280
916.259	4204
916.371	4375
916.483	4379
916.595	4280
916.708	4367
916.82	4314
916.932	4280
917.044	4348
917.156	4268
917.268	4265
917.38	4268
917.491	4299
917.603	4348
917.715	4394
917.826	4447
917.938	4341
918.049	4192
918.161	4375
918.272	4550
918.384	4493
918.495	4428
918.606	4310
918.717	4249
918.828	4344
918.939	4371
919.05	4227
919.161	4306
919.272	4131
919.383	4227
919.494	4440
919.604	4580
919.715	4379
919.826	4337
919.936	4390
920.047	4531
920.157	4512
920.267	4706
920.378	4558
920.488	4447
920.598	4706
920.708	4873
920.818	4702
920.928	4774
921.038	4953
921.148	4870
921.258	4645
921.368	4531
921.477	4493
921.587	4462
921.697	4379
921.806	4485
921.916	4375
922.025	4318
922.134	4280
922.244	4249
922.353	4337
922.462	4131
922.571	4150
922.68	3987
922.789	3972
922.898	4048
923.007	3975
923.116	4105
923.224	4029
923.333	4112
923.442	3998
923.55	3983
923.659	4002
923.767	4093
923.876	3949
923.984	4131
924.092	3960
924.201	4071
924.309	4071
924.417	4109
924.525	4040
924.633	4074
924.741	5033
924.849	3934
924.956	4150
925.064	3960
925.172	3903
925.279	3964
925.387	4071
925.494	4021
925.602	4211
925.709	4204
925.816	4021
925.924	4101
926.031	4230
926.138	4150
926.245	4227
926.352	4067
926.459	4306
926.566	4287
926.673	4143
926.779	4071
926.886	4067
926.993	3991
927.099	3941
927.206	3953
927.312	3934
927.419	4029
927.525	4025
927.631	4059
927.737	3968
927.843	3934
927.95	3819
928.056	3937
928.162	3960
928.267	4036
928.373	4580
928.479	4086
928.585	3857
928.69	4029
928.796	4071
928.901	3987
929.007	3831
929.112	4002
929.218	3979
929.323	3930
929.428	3922
929.533	4093
929.638	3907
929.743	3983
929.848	4040
929.953	4006
930.058	3934
930.163	3778
930.267	3812
930.372	3945
930.477	3789
930.581	4116
930.685	3941
930.79	3819
930.894	3884
930.998	3819
931.103	4044
931.207	3713
931.311	3679
931.415	3686
931.519	3504
931.623	3557
