Data from test_V78500241_1660.txt Node
Date: Fri Mar 25 17:00:32 CST 2022
User: usil
Spectrometer: V785-0024
Trigger mode: 0
Integration Time (sec): 4.000000E-1
Scans to average: 1
Nonlinearity correction enabled: false
Boxcar width: 0
Storing dark spectrum: false
XAxis mode: Wavelengths
Number of Pixels in Spectrum: 1024
>>>>>Begin Spectral Data<<<<<
801.071	8031
801.214	7982
801.356	7868
801.499	7902
801.641	7811
801.783	7921
801.926	8016
802.068	7864
802.211	7887
802.353	7986
802.496	7803
802.638	7837
802.78	7944
802.923	7936
803.065	7833
803.208	7894
803.35	7970
803.492	8069
803.635	8084
803.777	8039
803.919	8103
804.061	8434
804.204	8164
804.346	8077
804.488	7928
804.63	8138
804.773	8016
804.915	8088
805.057	8328
805.199	8240
805.341	8248
805.483	8214
805.626	8210
805.768	8088
805.91	8271
806.052	8168
806.194	8088
806.336	8286
806.478	8077
806.62	8043
806.762	8168
806.904	8290
807.046	8473
807.188	8404
807.33	8317
807.472	8324
807.614	8157
807.756	8191
807.898	7959
808.04	7925
808.182	7875
808.324	7902
808.465	7871
808.607	8050
808.749	8073
808.891	8195
809.033	8309
809.174	8244
809.316	8027
809.458	8046
809.6	8054
809.741	8027
809.883	7986
810.025	8100
810.166	7940
810.308	8005
810.45	7955
810.591	7780
810.733	7731
810.875	7677
811.016	7487
811.158	7480
811.299	7559
811.441	7704
811.582	7708
811.724	7537
811.865	7540
812.007	7605
812.148	7544
812.29	7636
812.431	7795
812.573	7875
812.714	7970
812.855	8115
812.997	8225
813.138	8343
813.279	8069
813.421	8092
813.562	7963
813.703	7788
813.845	7689
813.986	7422
814.127	7244
814.268	7263
814.41	7194
814.551	7209
814.692	7217
814.833	7065
814.974	7133
815.115	7084
815.256	6951
815.397	6913
815.539	6916
815.68	6764
815.821	6768
815.962	6909
816.103	6764
816.244	6711
816.385	6578
816.526	6639
816.666	6403
816.807	6285
816.948	6452
817.089	6506
817.23	6399
817.371	6357
817.512	6399
817.653	6342
817.793	6323
817.934	6403
818.075	6395
818.216	6388
818.356	6372
818.497	6197
818.638	6106
818.778	6125
818.919	6129
819.06	6114
819.2	6331
819.341	6224
819.481	6289
819.622	6513
819.762	6734
819.903	6631
820.043	6536
820.184	6570
820.324	6585
820.465	6753
820.605	6707
820.746	6642
820.886	6490
821.026	6665
821.167	6658
821.307	6772
821.447	6764
821.588	6711
821.728	6654
821.868	6460
822.008	6300
822.149	6361
822.289	6357
822.429	6133
822.569	6098
822.709	6133
822.849	5885
822.99	5893
823.13	5954
823.27	5882
823.41	5786
823.55	5790
823.69	5775
823.83	5741
823.97	5714
824.11	5547
824.25	5501
824.389	5528
824.529	5562
824.669	5505
824.809	5642
824.949	5611
825.089	5615
825.228	5509
825.368	5353
825.508	5311
825.648	5288
825.787	5376
825.927	5330
826.067	5299
826.206	5303
826.346	5349
826.485	5429
826.625	5364
826.765	5554
826.904	5471
827.044	5250
827.183	5208
827.323	5086
827.462	5216
827.601	5155
827.741	5201
827.88	5223
828.02	5083
828.159	5170
828.298	5269
828.437	5345
828.577	5280
828.716	5448
828.855	5322
828.994	5181
829.134	5128
829.273	5170
829.412	5109
829.551	5113
829.69	5113
829.829	5220
829.968	5364
830.107	5212
830.246	5227
830.385	5181
830.524	5109
830.663	5010
830.802	4980
830.941	4889
831.08	4870
831.219	4991
831.357	4953
831.496	5147
831.635	4896
831.774	4835
831.913	4839
832.051	4748
832.19	4755
832.329	4786
832.467	4679
832.606	4592
832.744	4694
832.883	4694
833.022	4706
833.16	4748
833.299	4797
833.437	4828
833.576	4778
833.714	4812
833.852	4854
833.991	4839
834.129	4934
834.267	4900
834.406	4946
834.544	4934
834.682	4980
834.821	4930
834.959	5162
835.097	4984
835.235	5140
835.373	5109
835.511	5041
835.65	5033
835.788	4984
835.926	4957
836.064	4850
836.202	4858
836.34	5132
836.478	5189
836.615	5147
836.753	5227
836.891	5288
837.029	5216
837.167	5109
837.305	5128
837.443	5174
837.58	5094
837.718	5197
837.856	5178
837.993	5121
838.131	5201
838.269	5197
838.406	5216
838.544	5151
838.681	5014
838.819	4972
838.956	4873
839.094	4870
839.231	4934
839.369	5041
839.506	5368
839.643	5254
839.781	5022
839.918	4972
840.055	5121
840.193	5094
840.33	5098
840.467	5140
840.604	5212
840.742	5444
840.879	5056
841.016	4984
841.153	5136
841.29	5376
841.427	5315
841.564	5288
841.701	5334
841.838	5292
841.975	5208
842.112	5227
842.249	5094
842.385	5075
842.522	5330
842.659	5128
842.796	5140
842.933	5185
843.069	5128
843.206	5143
843.343	5307
843.479	5235
843.616	5254
843.752	5010
843.889	5022
844.025	5258
844.162	4980
844.298	5166
844.435	5067
844.571	5052
844.708	5197
844.844	5315
844.98	5315
845.117	5296
845.253	5090
845.389	5041
845.525	5124
845.661	5121
845.798	5045
845.934	5102
846.07	5006
846.206	5204
846.342	5265
846.478	5239
846.614	5025
846.75	4892
846.886	4911
847.022	5098
847.158	5052
847.294	5083
847.429	5067
847.565	5033
847.701	5292
847.837	4812
847.972	4736
848.108	4908
848.244	4927
848.379	4809
848.515	4736
848.65	4691
848.786	4721
848.921	4782
849.057	4873
849.192	4953
849.328	4759
849.463	4816
849.598	4721
849.734	4748
849.869	4668
850.004	4596
850.14	4630
850.275	4542
850.41	4497
850.545	4599
850.68	4550
850.815	4615
850.95	4672
851.085	4820
851.22	4725
851.355	4672
851.49	4611
851.625	4660
851.76	4649
851.895	4550
852.03	4527
852.165	4618
852.299	4683
852.434	4759
852.569	4744
852.703	4759
852.838	4805
852.973	4919
853.107	4862
853.242	4714
853.376	4660
853.511	4611
853.645	4626
853.78	4752
853.914	4660
854.048	4596
854.183	4656
854.317	4683
854.451	4786
854.585	4664
854.72	4592
854.854	4774
854.988	4611
855.122	4656
855.256	4504
855.39	4626
855.524	4797
855.658	4714
855.792	4717
855.926	4721
856.06	4752
856.194	4797
856.327	4714
856.461	4618
856.595	4603
856.729	4637
856.862	4790
856.996	4679
857.13	4698
857.263	4755
857.397	4797
857.53	4599
857.664	4698
857.797	4755
857.931	4782
858.064	4668
858.197	4672
858.331	4630
858.464	4584
858.597	4504
858.731	4656
858.864	4626
858.997	4664
859.13	4611
859.263	4664
859.396	4733
859.529	4596
859.662	4580
859.795	4542
859.928	4599
860.061	4755
860.194	4786
860.327	4630
860.46	4565
860.592	4683
860.725	4740
860.858	4744
860.99	4565
861.123	4538
861.256	4542
861.388	4694
861.521	5318
861.653	4466
861.786	4466
861.918	4508
862.05	4584
862.183	4599
862.315	4694
862.447	4691
862.58	4565
862.712	4436
862.844	4329
862.976	4527
863.108	4500
863.24	4805
863.372	4375
863.504	4493
863.636	4451
863.768	4474
863.9	4481
864.032	4421
864.164	4455
864.296	4493
864.428	4607
864.559	4592
864.691	4554
864.823	4538
864.954	4504
865.086	4500
865.217	4512
865.349	4485
865.48	4478
865.612	4523
865.743	4634
865.875	4432
866.006	4523
866.137	4497
866.269	4428
866.4	4538
866.531	4478
866.662	4432
866.793	4417
866.924	4500
867.055	4519
867.186	4481
867.317	4455
867.448	4409
867.579	4383
867.71	4424
867.841	4405
867.972	4489
868.103	4440
868.233	4516
868.364	4447
868.495	4489
868.625	4725
868.756	4812
868.886	4588
869.017	4626
869.147	4805
869.278	4755
869.408	4691
869.539	4687
869.669	4744
869.799	4714
869.929	4790
870.06	4767
870.19	4976
870.32	5003
870.45	5010
870.58	5033
870.71	5117
870.84	5109
870.97	5029
871.1	4938
871.23	5159
871.36	5197
871.489	5029
871.619	5109
871.749	5143
871.879	5132
872.008	5223
872.138	5090
872.267	5006
872.397	4839
872.526	4847
872.656	4740
872.785	4774
872.915	4991
873.044	4976
873.173	4995
873.303	4976
873.432	4972
873.561	5003
873.69	4896
873.819	4904
873.948	4927
874.077	4824
874.206	4828
874.335	4816
874.464	4968
874.593	5060
874.722	4976
874.851	5109
874.979	5064
875.108	5079
875.237	4953
875.365	4839
875.494	4949
875.623	4972
875.751	4843
875.88	4873
876.008	5067
876.136	5109
876.265	5265
876.393	5345
876.521	5292
876.65	5269
876.778	5216
876.906	5094
877.034	5029
877.162	5048
877.29	4991
877.418	5098
877.546	5094
877.674	5083
877.802	5025
877.93	5029
878.058	4896
878.185	4904
878.313	4938
878.441	4953
878.568	4831
878.696	4908
878.824	4991
878.951	4987
879.079	5151
879.206	5326
879.333	5124
879.461	5014
879.588	5037
879.715	5197
879.842	5208
879.97	5052
880.097	4797
880.224	4816
880.351	4812
880.478	4835
880.605	4828
880.732	4763
880.859	5105
880.986	4957
881.112	4930
881.239	4820
881.366	4714
881.493	4672
881.619	4611
881.746	4694
881.872	4660
881.999	4710
882.125	4744
882.252	4805
882.378	4870
882.505	4942
882.631	4793
882.757	4668
882.883	4733
883.01	4786
883.136	4733
883.262	4634
883.388	4634
883.514	4839
883.64	4889
883.766	4752
883.892	4698
884.018	4774
884.143	4930
884.269	4999
884.395	4687
884.52	4656
884.646	4649
884.772	4569
884.897	4561
885.023	4744
885.148	4824
885.274	4870
885.399	4862
885.524	4755
885.65	4706
885.775	4835
885.9	4706
886.025	4896
886.15	4831
886.275	4767
886.4	4721
886.525	4759
886.65	4698
886.775	4694
886.9	4908
887.025	5048
887.149	4816
887.274	4675
887.399	4634
887.523	4664
887.648	4588
887.773	4611
887.897	4797
888.021	4782
888.146	4698
888.27	4828
888.395	4911
888.519	4755
888.643	4820
888.767	4854
888.891	4694
889.015	4634
889.139	4694
889.263	4573
889.387	4748
889.511	4866
889.635	4801
889.759	4641
889.883	4694
890.006	4805
890.13	4843
890.254	4672
890.377	4721
890.501	4554
890.624	4599
890.748	4664
890.871	4538
890.995	4500
891.118	4375
891.241	4516
891.364	4603
891.488	4702
891.611	4497
891.734	4535
891.857	4615
891.98	4577
892.103	4683
892.226	4645
892.349	4588
892.471	4436
892.594	4573
892.717	4645
892.839	4538
892.962	4641
893.085	4672
893.207	4637
893.33	4512
893.452	4542
893.575	4672
893.697	4599
893.819	4812
893.941	4824
894.064	4809
894.186	4626
894.308	4603
894.43	4786
894.552	4839
894.674	4797
894.796	4603
894.918	4611
895.04	4615
895.161	4710
895.283	4698
895.405	4588
895.526	4660
895.648	4717
895.769	4694
895.891	4729
896.012	4755
896.134	4702
896.255	4710
896.376	4653
896.498	4653
896.619	4698
896.74	4664
896.861	4687
896.982	4930
897.103	5098
897.224	4839
897.345	4752
897.466	4675
897.587	4706
897.708	4850
897.828	4801
897.949	4687
898.07	4554
898.19	4679
898.311	4828
898.431	4702
898.552	4805
898.672	4820
898.792	4850
898.913	4755
899.033	4656
899.153	4497
899.273	4405
899.393	4519
899.513	4569
899.633	4538
899.753	4542
899.873	4535
899.993	4573
900.113	4519
900.232	4622
900.352	4580
900.472	4493
900.591	4417
900.711	4466
900.83	4474
900.95	4660
901.069	4729
901.189	4561
901.308	4405
901.427	4318
901.546	4398
901.665	4519
901.784	4500
901.904	4383
902.023	4371
902.141	4207
902.26	4177
902.379	4314
902.498	4257
902.617	4234
902.735	4428
902.854	4436
902.973	4386
903.091	4204
903.21	4249
903.328	4314
903.446	4268
903.565	4265
903.683	4341
903.801	4318
903.919	4432
904.038	4455
904.156	4337
904.274	4485
904.392	4436
904.51	4440
904.627	4447
904.745	4626
904.863	4660
904.981	4436
905.098	4329
905.216	4337
905.334	4455
905.451	4432
905.569	4428
905.686	4573
905.803	4554
905.921	4428
906.038	4558
906.155	4516
906.272	4421
906.389	4481
906.506	4375
906.623	4341
906.74	4436
906.857	4314
906.974	4337
907.091	4561
907.208	4694
907.324	4660
907.441	4447
907.557	4398
907.674	4379
907.79	4341
907.907	4402
908.023	4516
908.139	4489
908.256	4493
908.372	4440
908.488	4455
908.604	4341
908.72	4280
908.836	4337
908.952	4363
909.068	4417
909.184	4584
909.3	4508
909.415	4611
909.531	4550
909.647	4375
909.762	4375
909.878	4291
909.993	4417
910.108	4455
910.224	4443
910.339	4508
910.454	4421
910.57	4375
910.685	4310
910.8	4679
910.915	4611
911.03	4497
911.145	4295
911.259	4333
911.374	4402
911.489	4291
911.604	4322
911.718	4173
911.833	4223
911.947	4120
912.062	4078
912.176	4192
912.291	4261
912.405	4280
912.519	4466
912.633	4455
912.748	4424
912.862	4299
912.976	4234
913.09	4158
913.204	4181
913.318	4257
913.431	4421
913.545	4375
913.659	4421
913.772	4394
913.886	4249
914	4185
914.113	4405
914.226	4398
914.34	4459
914.453	4268
914.566	4455
914.68	4379
914.793	4348
914.906	4177
915.019	4116
915.132	4131
915.245	4196
915.358	4215
915.47	4242
915.583	4291
915.696	4303
915.809	4375
915.921	4417
916.034	4257
916.146	4272
916.259	4299
916.371	4409
916.483	4329
916.595	4242
916.708	4371
916.82	4314
916.932	4348
917.044	4322
917.156	4318
917.268	4257
917.38	4303
917.491	4322
917.603	4383
917.715	4440
917.826	4398
917.938	4356
918.049	4261
918.161	4428
918.272	4531
918.384	4588
918.495	4462
918.606	4333
918.717	4227
918.828	4356
918.939	4379
919.05	4268
919.161	4329
919.272	4101
919.383	4299
919.494	4451
919.604	4615
919.715	4432
919.826	4329
919.936	4466
920.047	4523
920.157	4481
920.267	4683
920.378	4538
920.488	4508
920.598	4717
920.708	4854
920.818	4736
920.928	4767
921.038	4942
921.148	4946
921.258	4645
921.368	4550
921.477	4497
921.587	4489
921.697	4360
921.806	4538
921.916	4481
922.025	4295
922.134	4200
922.244	4238
922.353	4356
922.462	4162
922.571	4166
922.68	3998
922.789	4040
922.898	4036
923.007	3983
923.116	4150
923.224	4059
923.333	4048
923.442	4006
923.55	4010
923.659	4059
923.767	4097
923.876	3956
923.984	4135
924.092	4040
924.201	4086
924.309	4051
924.417	4112
924.525	4101
924.633	4124
924.741	4881
924.849	3934
924.956	4166
925.064	3975
925.172	3918
925.279	3964
925.387	4063
925.494	4067
925.602	4223
925.709	4192
925.816	4101
925.924	4154
926.031	4227
926.138	4219
926.245	4188
926.352	4124
926.459	4257
926.566	4344
926.673	4185
926.779	4093
926.886	4135
926.993	4025
927.099	3991
927.206	3945
927.312	3960
927.419	4082
927.525	4063
927.631	4112
927.737	3998
927.843	3998
927.95	3922
928.056	3953
928.162	3991
928.267	4093
928.373	4565
928.479	4166
928.585	3949
928.69	4036
928.796	4124
928.901	4017
929.007	3876
929.112	4013
929.218	4044
929.323	3991
929.428	4006
929.533	4120
929.638	3956
929.743	4002
929.848	4131
929.953	4044
930.058	3953
930.163	3857
930.267	3857
930.372	4048
930.477	3838
930.581	4101
930.685	4044
930.79	3884
930.894	3960
930.998	3956
931.103	4051
931.207	3800
931.311	3709
931.415	3751
931.519	3557
931.623	3622
