Data from test_V78500241_2562.txt Node
Date: Fri Mar 25 17:06:49 CST 2022
User: usil
Spectrometer: V785-0024
Trigger mode: 0
Integration Time (sec): 4.000000E-1
Scans to average: 1
Nonlinearity correction enabled: false
Boxcar width: 0
Storing dark spectrum: false
XAxis mode: Wavelengths
Number of Pixels in Spectrum: 1024
>>>>>Begin Spectral Data<<<<<
801.071	8020
801.214	8001
801.356	7887
801.499	7852
801.641	7738
801.783	7765
801.926	7947
802.068	7898
802.211	7940
802.353	7993
802.496	7909
802.638	7868
802.78	7906
802.923	7890
803.065	7849
803.208	7864
803.35	7982
803.492	8054
803.635	8134
803.777	8062
803.919	8138
804.061	8438
804.204	8233
804.346	8107
804.488	8001
804.63	8077
804.773	7928
804.915	8020
805.057	8305
805.199	8145
805.341	8210
805.483	8328
805.626	8244
805.768	8107
805.91	8176
806.052	8199
806.194	8119
806.336	8290
806.478	8020
806.62	8035
806.762	8164
806.904	8199
807.046	8492
807.188	8404
807.33	8400
807.472	8317
807.614	8115
807.756	8161
807.898	7951
808.04	7826
808.182	7909
808.324	7875
808.465	7879
808.607	8103
808.749	8142
808.891	8149
809.033	8317
809.174	8195
809.316	8096
809.458	8050
809.6	8027
809.741	8012
809.883	7978
810.025	8126
810.166	8084
810.308	8016
810.45	7955
810.591	7811
810.733	7658
810.875	7632
811.016	7575
811.158	7476
811.299	7643
811.441	7723
811.582	7677
811.724	7567
811.865	7506
812.007	7544
812.148	7613
812.29	7689
812.431	7731
812.573	7871
812.714	7951
812.855	8153
812.997	8206
813.138	8366
813.279	8134
813.421	8100
813.562	7993
813.703	7807
813.845	7753
813.986	7457
814.127	7225
814.268	7213
814.41	7194
814.551	7187
814.692	7206
814.833	7095
814.974	7156
815.115	7080
815.256	6989
815.397	6905
815.539	6947
815.68	6791
815.821	6741
815.962	6878
816.103	6894
816.244	6779
816.385	6635
816.526	6585
816.666	6506
816.807	6319
816.948	6422
817.089	6445
817.23	6498
817.371	6369
817.512	6403
817.653	6372
817.793	6361
817.934	6422
818.075	6479
818.216	6437
818.356	6380
818.497	6247
818.638	6121
818.778	6152
818.919	6136
819.06	6201
819.2	6281
819.341	6319
819.481	6418
819.622	6578
819.762	6688
819.903	6642
820.043	6627
820.184	6532
820.324	6585
820.465	6726
820.605	6700
820.746	6696
820.886	6544
821.026	6684
821.167	6692
821.307	6798
821.447	6760
821.588	6715
821.728	6555
821.868	6486
822.008	6331
822.149	6433
822.289	6292
822.429	6171
822.569	6064
822.709	6125
822.849	5961
822.99	5889
823.13	5939
823.27	5874
823.41	5779
823.55	5783
823.69	5764
823.83	5771
823.97	5672
824.11	5516
824.25	5520
824.389	5554
824.529	5554
824.669	5516
824.809	5627
824.949	5619
825.089	5570
825.228	5505
825.368	5417
825.508	5315
825.648	5303
825.787	5376
825.927	5414
826.067	5273
826.206	5299
826.346	5387
826.485	5417
826.625	5429
826.765	5554
826.904	5509
827.044	5231
827.183	5174
827.323	5086
827.462	5235
827.601	5193
827.741	5151
827.88	5208
828.02	5132
828.159	5201
828.298	5254
828.437	5395
828.577	5303
828.716	5474
828.855	5284
828.994	5189
829.134	5136
829.273	5166
829.412	5109
829.551	5136
829.69	5162
829.829	5250
829.968	5349
830.107	5292
830.246	5277
830.385	5220
830.524	5128
830.663	5029
830.802	4995
830.941	4915
831.08	4908
831.219	4972
831.357	4991
831.496	5136
831.635	4942
831.774	4805
831.913	4843
832.051	4714
832.19	4759
832.329	4908
832.467	4660
832.606	4622
832.744	4740
832.883	4725
833.022	4755
833.16	4805
833.299	4839
833.437	4820
833.576	4820
833.714	4854
833.852	4866
833.991	4858
834.129	4949
834.267	4957
834.406	4889
834.544	4942
834.682	5006
834.821	4949
834.959	5159
835.097	4972
835.235	5185
835.373	5067
835.511	5067
835.65	4972
835.788	5003
835.926	4866
836.064	4877
836.202	4923
836.34	5189
836.478	5258
836.615	5132
836.753	5265
836.891	5288
837.029	5235
837.167	5170
837.305	5181
837.443	5159
837.58	5064
837.718	5292
837.856	5204
837.993	5128
838.131	5250
838.269	5204
838.406	5227
838.544	5181
838.681	5033
838.819	5006
838.956	4889
839.094	4896
839.231	4976
839.369	5071
839.506	5425
839.643	5216
839.781	5083
839.918	5048
840.055	5067
840.193	5128
840.33	5117
840.467	5132
840.604	5185
840.742	5425
840.879	5090
841.016	5079
841.153	5170
841.29	5353
841.427	5360
841.564	5296
841.701	5357
841.838	5254
841.975	5246
842.112	5239
842.249	5174
842.385	5086
842.522	5341
842.659	5170
842.796	5117
842.933	5151
843.069	5128
843.206	5143
843.343	5284
843.479	5246
843.616	5216
843.752	5041
843.889	4976
844.025	5242
844.162	5025
844.298	5170
844.435	5083
844.571	5083
844.708	5155
844.844	5315
844.98	5292
845.117	5258
845.253	5143
845.389	5075
845.525	5162
845.661	5128
845.798	5094
845.934	5143
846.07	5048
846.206	5181
846.342	5254
846.478	5159
846.614	5045
846.75	4930
846.886	4934
847.022	5181
847.158	4980
847.294	5098
847.429	5075
847.565	5102
847.701	5318
847.837	4877
847.972	4805
848.108	4885
848.244	4915
848.379	4774
848.515	4752
848.65	4710
848.786	4767
848.921	4736
849.057	4892
849.192	4915
849.328	4850
849.463	4919
849.598	4835
849.734	4721
849.869	4698
850.004	4588
850.14	4603
850.275	4592
850.41	4550
850.545	4584
850.68	4637
850.815	4615
850.95	4599
851.085	4885
851.22	4714
851.355	4653
851.49	4626
851.625	4683
851.76	4641
851.895	4523
852.03	4561
852.165	4729
852.299	4687
852.434	4736
852.569	4740
852.703	4763
852.838	4835
852.973	4927
853.107	4881
853.242	4729
853.376	4691
853.511	4558
853.645	4634
853.78	4820
853.914	4649
854.048	4622
854.183	4645
854.317	4683
854.451	4858
854.585	4615
854.72	4634
854.854	4786
854.988	4664
855.122	4634
855.256	4527
855.39	4656
855.524	4782
855.658	4744
855.792	4683
855.926	4721
856.06	4771
856.194	4740
856.327	4656
856.461	4618
856.595	4596
856.729	4599
856.862	4694
856.996	4672
857.13	4748
857.263	4733
857.397	4710
857.53	4660
857.664	4744
857.797	4778
857.931	4771
858.064	4759
858.197	4755
858.331	4660
858.464	4618
858.597	4527
858.731	4584
858.864	4656
858.997	4558
859.13	4645
859.263	4679
859.396	4736
859.529	4588
859.662	4565
859.795	4554
859.928	4622
860.061	4786
860.194	4812
860.327	4630
860.46	4550
860.592	4683
860.725	4717
860.858	4752
860.99	4603
861.123	4577
861.256	4508
861.388	4637
861.521	5315
861.653	4459
861.786	4417
861.918	4440
862.05	4485
862.183	4565
862.315	4580
862.447	4656
862.58	4531
862.712	4405
862.844	4360
862.976	4504
863.108	4443
863.24	4755
863.372	4348
863.504	4436
863.636	4421
863.768	4493
863.9	4436
864.032	4379
864.164	4375
864.296	4470
864.428	4577
864.559	4611
864.691	4558
864.823	4481
864.954	4508
865.086	4531
865.217	4489
865.349	4474
865.48	4428
865.612	4474
865.743	4580
865.875	4474
866.006	4409
866.137	4443
866.269	4436
866.4	4417
866.531	4379
866.662	4398
866.793	4367
866.924	4413
867.055	4481
867.186	4500
867.317	4386
867.448	4398
867.579	4379
867.71	4405
867.841	4356
867.972	4466
868.103	4462
868.233	4466
868.364	4443
868.495	4481
868.625	4641
868.756	4801
868.886	4588
869.017	4637
869.147	4759
869.278	4729
869.408	4660
869.539	4618
869.669	4687
869.799	4687
869.929	4774
870.06	4763
870.19	4976
870.32	4923
870.45	4900
870.58	5022
870.71	5067
870.84	5109
870.97	4968
871.1	4892
871.23	5151
871.36	5094
871.489	5048
871.619	5079
871.749	5094
871.879	5140
872.008	5216
872.138	5018
872.267	4961
872.397	4850
872.526	4812
872.656	4710
872.785	4801
872.915	4961
873.044	5037
873.173	4965
873.303	4965
873.432	4946
873.561	5003
873.69	4892
873.819	4797
873.948	4930
874.077	4870
874.206	4706
874.335	4824
874.464	4919
874.593	5048
874.722	4915
874.851	5128
874.979	5105
875.108	5010
875.237	4949
875.365	4873
875.494	4889
875.623	5003
875.751	4850
875.88	4854
876.008	4927
876.136	5006
876.265	5174
876.393	5395
876.521	5223
876.65	5204
876.778	5159
876.906	5025
877.034	4957
877.162	5075
877.29	5025
877.418	5045
877.546	5037
877.674	5048
877.802	5029
877.93	5029
878.058	4934
878.185	4923
878.313	4991
878.441	4946
878.568	4816
878.696	4862
878.824	4946
878.951	4972
879.079	5124
879.206	5288
879.333	5147
879.461	4991
879.588	5014
879.715	5094
879.842	5227
879.97	4995
880.097	4748
880.224	4714
880.351	4763
880.478	4797
880.605	4778
880.732	4828
880.859	5098
880.986	4866
881.112	4889
881.239	4793
881.366	4687
881.493	4626
881.619	4607
881.746	4630
881.872	4634
881.999	4607
882.125	4702
882.252	4786
882.378	4809
882.505	4923
882.631	4820
882.757	4611
882.883	4660
883.01	4740
883.136	4672
883.262	4573
883.388	4649
883.514	4801
883.64	4896
883.766	4820
883.892	4653
884.018	4744
884.143	4923
884.269	5014
884.395	4637
884.52	4668
884.646	4649
884.772	4611
884.897	4550
885.023	4683
885.148	4748
885.274	4812
885.399	4820
885.524	4679
885.65	4710
885.775	4759
885.9	4683
886.025	4820
886.15	4767
886.275	4702
886.4	4622
886.525	4714
886.65	4675
886.775	4668
886.9	4900
887.025	5079
887.149	4839
887.274	4660
887.399	4561
887.523	4580
887.648	4565
887.773	4531
887.897	4725
888.021	4778
888.146	4698
888.27	4801
888.395	4889
888.519	4824
888.643	4778
888.767	4812
888.891	4672
889.015	4592
889.139	4698
889.263	4603
889.387	4767
889.511	4847
889.635	4805
889.759	4592
889.883	4634
890.006	4733
890.13	4793
890.254	4626
890.377	4698
890.501	4542
890.624	4493
890.748	4653
890.871	4478
890.995	4390
891.118	4383
891.241	4542
891.364	4504
891.488	4630
891.611	4508
891.734	4542
891.857	4607
891.98	4523
892.103	4672
892.226	4630
892.349	4535
892.471	4394
892.594	4554
892.717	4653
892.839	4558
892.962	4569
893.085	4698
893.207	4573
893.33	4409
893.452	4523
893.575	4637
893.697	4565
893.819	4733
893.941	4812
894.064	4809
894.186	4580
894.308	4603
894.43	4698
894.552	4805
894.674	4733
894.796	4519
894.918	4626
895.04	4569
895.161	4679
895.283	4649
895.405	4554
895.526	4664
895.648	4675
895.769	4641
895.891	4744
896.012	4767
896.134	4729
896.255	4694
896.376	4615
896.498	4615
896.619	4622
896.74	4607
896.861	4660
896.982	4938
897.103	5071
897.224	4809
897.345	4801
897.466	4675
897.587	4767
897.708	4816
897.828	4782
897.949	4694
898.07	4565
898.19	4660
898.311	4831
898.431	4641
898.552	4755
898.672	4816
898.792	4774
898.913	4733
899.033	4637
899.153	4455
899.273	4386
899.393	4474
899.513	4504
899.633	4500
899.753	4527
899.873	4512
899.993	4569
900.113	4538
900.232	4554
900.352	4519
900.472	4421
900.591	4413
900.711	4523
900.83	4356
900.95	4584
901.069	4668
901.189	4550
901.308	4284
901.427	4303
901.546	4390
901.665	4466
901.784	4462
901.904	4409
902.023	4284
902.141	4135
902.26	4188
902.379	4344
902.498	4257
902.617	4268
902.735	4386
902.854	4363
902.973	4356
903.091	4219
903.21	4230
903.328	4299
903.446	4246
903.565	4238
903.683	4367
903.801	4268
903.919	4409
904.038	4405
904.156	4344
904.274	4413
904.392	4417
904.51	4409
904.627	4459
904.745	4637
904.863	4622
904.981	4402
905.098	4257
905.216	4363
905.334	4443
905.451	4398
905.569	4470
905.686	4554
905.803	4573
905.921	4417
906.038	4573
906.155	4500
906.272	4402
906.389	4493
906.506	4409
906.623	4390
906.74	4413
906.857	4303
906.974	4363
907.091	4596
907.208	4664
907.324	4573
907.441	4497
907.557	4352
907.674	4386
907.79	4314
907.907	4409
908.023	4500
908.139	4386
908.256	4455
908.372	4531
908.488	4383
908.604	4360
908.72	4348
908.836	4375
908.952	4383
909.068	4394
909.184	4531
909.3	4527
909.415	4569
909.531	4565
909.647	4352
909.762	4417
909.878	4322
909.993	4390
910.108	4432
910.224	4421
910.339	4459
910.454	4394
910.57	4390
910.685	4291
910.8	4649
910.915	4618
911.03	4508
911.145	4306
911.259	4310
911.374	4367
911.489	4322
911.604	4227
911.718	4150
911.833	4200
911.947	4063
912.062	4059
912.176	4173
912.291	4284
912.405	4227
912.519	4470
912.633	4527
912.748	4375
912.862	4322
912.976	4192
913.09	4116
913.204	4211
913.318	4227
913.431	4394
913.545	4329
913.659	4402
913.772	4333
913.886	4227
914	4215
914.113	4318
914.226	4424
914.34	4371
914.453	4196
914.566	4402
914.68	4310
914.793	4306
914.906	4139
915.019	4139
915.132	4078
915.245	4185
915.358	4227
915.47	4196
915.583	4257
915.696	4299
915.809	4394
915.921	4413
916.034	4284
916.146	4207
916.259	4234
916.371	4386
916.483	4325
916.595	4242
916.708	4337
916.82	4295
916.932	4325
917.044	4318
917.156	4303
917.268	4253
917.38	4261
917.491	4261
917.603	4318
917.715	4421
917.826	4390
917.938	4341
918.049	4242
918.161	4375
918.272	4558
918.384	4584
918.495	4440
918.606	4257
918.717	4242
918.828	4295
918.939	4363
919.05	4234
919.161	4360
919.272	4162
919.383	4207
919.494	4417
919.604	4603
919.715	4402
919.826	4367
919.936	4474
920.047	4519
920.157	4516
920.267	4717
920.378	4538
920.488	4504
920.598	4706
920.708	4896
920.818	4752
920.928	4729
921.038	4930
921.148	4900
921.258	4637
921.368	4523
921.477	4447
921.587	4413
921.697	4344
921.806	4538
921.916	4402
922.025	4284
922.134	4261
922.244	4173
922.353	4314
922.462	4147
922.571	4074
922.68	3979
922.789	3994
922.898	4036
923.007	3968
923.116	4120
923.224	4017
923.333	4082
923.442	4002
923.55	3972
923.659	3979
923.767	4097
923.876	3953
923.984	4128
924.092	3949
924.201	4063
924.309	4048
924.417	4101
924.525	4048
924.633	4086
924.741	5041
924.849	3926
924.956	4120
925.064	3972
925.172	3896
925.279	3949
925.387	4040
925.494	4029
925.602	4143
925.709	4158
925.816	4029
925.924	4105
926.031	4219
926.138	4158
926.245	4200
926.352	4093
926.459	4253
926.566	4268
926.673	4169
926.779	4067
926.886	4097
926.993	3972
927.099	4025
927.206	3941
927.312	3911
927.419	4051
927.525	4029
927.631	4025
927.737	3918
927.843	3934
927.95	3804
928.056	3937
928.162	4017
928.267	3998
928.373	4580
928.479	4055
928.585	3865
928.69	4025
928.796	4105
928.901	3972
929.007	3880
929.112	3983
929.218	4013
929.323	3987
929.428	3972
929.533	4154
929.638	3937
929.743	3972
929.848	4086
929.953	4051
930.058	3964
930.163	3793
930.267	3827
930.372	3964
930.477	3869
930.581	4139
930.685	3975
930.79	3823
930.894	3926
930.998	3907
931.103	4063
931.207	3766
931.311	3770
931.415	3701
931.519	3587
931.623	3599
