Data from test_V78500241_143.txt Node
Date: Fri Mar 25 16:49:59 CST 2022
User: usil
Spectrometer: V785-0024
Trigger mode: 0
Integration Time (sec): 4.000000E-1
Scans to average: 1
Nonlinearity correction enabled: false
Boxcar width: 0
Storing dark spectrum: false
XAxis mode: Wavelengths
Number of Pixels in Spectrum: 1024
>>>>>Begin Spectral Data<<<<<
801.071	8005
801.214	7967
801.356	7852
801.499	7776
801.641	7803
801.783	7906
801.926	8027
802.068	7955
802.211	8058
802.353	7982
802.496	7902
802.638	7944
802.78	7951
802.923	7978
803.065	7871
803.208	7856
803.35	7963
803.492	8016
803.635	8119
803.777	8012
803.919	8058
804.061	8377
804.204	8103
804.346	7978
804.488	7921
804.63	8043
804.773	7970
804.915	8084
805.057	8233
805.199	8062
805.341	8206
805.483	8252
805.626	8123
805.768	8111
805.91	8164
806.052	8210
806.194	8119
806.336	8305
806.478	8153
806.62	7989
806.762	8149
806.904	8221
807.046	8465
807.188	8294
807.33	8328
807.472	8298
807.614	8142
807.756	8168
807.898	8039
808.04	7875
808.182	7936
808.324	7849
808.465	7849
808.607	8081
808.749	8119
808.891	8263
809.033	8339
809.174	8183
809.316	8107
809.458	8065
809.6	7947
809.741	8043
809.883	8016
810.025	8138
810.166	8111
810.308	8073
810.45	7993
810.591	7864
810.733	7715
810.875	7761
811.016	7586
811.158	7525
811.299	7605
811.441	7814
811.582	7658
811.724	7655
811.865	7605
812.007	7662
812.148	7651
812.29	7738
812.431	7784
812.573	7940
812.714	8062
812.855	8221
812.997	8347
813.138	8469
813.279	8294
813.421	8123
813.562	8050
813.703	7879
813.845	7769
813.986	7491
814.127	7301
814.268	7289
814.41	7240
814.551	7194
814.692	7247
814.833	7156
814.974	7175
815.115	7213
815.256	6958
815.397	7019
815.539	7027
815.68	6806
815.821	6768
815.962	6958
816.103	6833
816.244	6798
816.385	6715
816.526	6681
816.666	6506
816.807	6323
816.948	6475
817.089	6532
817.23	6506
817.371	6437
817.512	6407
817.653	6407
817.793	6376
817.934	6471
818.075	6418
818.216	6460
818.356	6361
818.497	6266
818.638	6102
818.778	6159
818.919	6171
819.06	6175
819.2	6315
819.341	6331
819.481	6369
819.622	6544
819.762	6734
819.903	6681
820.043	6578
820.184	6585
820.324	6604
820.465	6692
820.605	6707
820.746	6684
820.886	6509
821.026	6669
821.167	6798
821.307	6783
821.447	6833
821.588	6684
821.728	6620
821.868	6540
822.008	6327
822.149	6403
822.289	6361
822.429	6209
822.569	6064
822.709	6114
822.849	5923
822.99	5901
823.13	5927
823.27	5969
823.41	5824
823.55	5805
823.69	5794
823.83	5790
823.97	5722
824.11	5570
824.25	5581
824.389	5630
824.529	5562
824.669	5501
824.809	5672
824.949	5649
825.089	5592
825.228	5539
825.368	5421
825.508	5357
825.648	5372
825.787	5330
825.927	5383
826.067	5337
826.206	5315
826.346	5349
826.485	5436
826.625	5406
826.765	5566
826.904	5509
827.044	5250
827.183	5189
827.323	5151
827.462	5277
827.601	5208
827.741	5242
827.88	5254
828.02	5098
828.159	5250
828.298	5311
828.437	5364
828.577	5349
828.716	5501
828.855	5379
828.994	5147
829.134	5208
829.273	5193
829.412	5136
829.551	5159
829.69	5178
829.829	5254
829.968	5360
830.107	5269
830.246	5353
830.385	5239
830.524	5121
830.663	5098
830.802	4987
830.941	4930
831.08	4850
831.219	4999
831.357	5014
831.496	5147
831.635	4885
831.774	4858
831.913	4885
832.051	4729
832.19	4767
832.329	4854
832.467	4698
832.606	4675
832.744	4733
832.883	4733
833.022	4698
833.16	4774
833.299	4816
833.437	4831
833.576	4835
833.714	4904
833.852	4900
833.991	4908
834.129	4987
834.267	4946
834.406	4904
834.544	5022
834.682	4938
834.821	4991
834.959	5147
835.097	5060
835.235	5128
835.373	5109
835.511	5128
835.65	5052
835.788	5048
835.926	4934
836.064	4900
836.202	4976
836.34	5105
836.478	5246
836.615	5124
836.753	5250
836.891	5280
837.029	5292
837.167	5178
837.305	5166
837.443	5105
837.58	5105
837.718	5322
837.856	5197
837.993	5151
838.131	5250
838.269	5231
838.406	5201
838.544	5227
838.681	5064
838.819	4984
838.956	4915
839.094	4892
839.231	4999
839.369	5075
839.506	5463
839.643	5307
839.781	5056
839.918	5045
840.055	5136
840.193	5132
840.33	5094
840.467	5162
840.604	5239
840.742	5433
840.879	5128
841.016	5064
841.153	5109
841.29	5334
841.427	5318
841.564	5284
841.701	5364
841.838	5280
841.975	5284
842.112	5254
842.249	5121
842.385	5109
842.522	5334
842.659	5162
842.796	5155
842.933	5178
843.069	5170
843.206	5159
843.343	5318
843.479	5212
843.616	5299
843.752	5083
843.889	4987
844.025	5212
844.162	4995
844.298	5250
844.435	5086
844.571	5064
844.708	5204
844.844	5303
844.98	5349
845.117	5273
845.253	5128
845.389	5090
845.525	5151
845.661	5083
845.798	5083
845.934	5083
846.07	5052
846.206	5201
846.342	5322
846.478	5258
846.614	5029
846.75	4980
846.886	4942
847.022	5117
847.158	5029
847.294	5052
847.429	5041
847.565	5052
847.701	5341
847.837	4889
847.972	4854
848.108	4946
848.244	4987
848.379	4797
848.515	4740
848.65	4664
848.786	4767
848.921	4824
849.057	4870
849.192	4923
849.328	4820
849.463	4850
849.598	4812
849.734	4759
849.869	4664
850.004	4622
850.14	4706
850.275	4641
850.41	4516
850.545	4569
850.68	4630
850.815	4641
850.95	4679
851.085	4812
851.22	4767
851.355	4683
851.49	4645
851.625	4660
851.76	4622
851.895	4596
852.03	4535
852.165	4668
852.299	4755
852.434	4809
852.569	4763
852.703	4725
852.838	4873
852.973	4961
853.107	4946
853.242	4736
853.376	4641
853.511	4577
853.645	4649
853.78	4805
853.914	4752
854.048	4721
854.183	4668
854.317	4717
854.451	4889
854.585	4759
854.72	4653
854.854	4797
854.988	4573
855.122	4637
855.256	4523
855.39	4687
855.524	4793
855.658	4744
855.792	4752
855.926	4710
856.06	4752
856.194	4797
856.327	4698
856.461	4641
856.595	4630
856.729	4603
856.862	4744
856.996	4755
857.13	4801
857.263	4778
857.397	4839
857.53	4675
857.664	4801
857.797	4812
857.931	4801
858.064	4683
858.197	4744
858.331	4683
858.464	4668
858.597	4500
858.731	4637
858.864	4653
858.997	4641
859.13	4691
859.263	4687
859.396	4698
859.529	4618
859.662	4558
859.795	4550
859.928	4611
860.061	4793
860.194	4797
860.327	4637
860.46	4599
860.592	4717
860.725	4767
860.858	4717
860.99	4592
861.123	4550
861.256	4538
861.388	4588
861.521	5391
861.653	4497
861.786	4478
861.918	4508
862.05	4519
862.183	4538
862.315	4607
862.447	4668
862.58	4558
862.712	4417
862.844	4337
862.976	4497
863.108	4443
863.24	4847
863.372	4325
863.504	4508
863.636	4371
863.768	4519
863.9	4394
864.032	4348
864.164	4398
864.296	4554
864.428	4523
864.559	4577
864.691	4599
864.823	4558
864.954	4519
865.086	4500
865.217	4474
865.349	4447
865.48	4462
865.612	4519
865.743	4630
865.875	4432
866.006	4459
866.137	4500
866.269	4459
866.4	4466
866.531	4398
866.662	4379
866.793	4383
866.924	4489
867.055	4580
867.186	4451
867.317	4436
867.448	4390
867.579	4402
867.71	4424
867.841	4379
867.972	4527
868.103	4455
868.233	4451
868.364	4504
868.495	4443
868.625	4679
868.756	4744
868.886	4542
869.017	4615
869.147	4755
869.278	4752
869.408	4660
869.539	4668
869.669	4714
869.799	4721
869.929	4771
870.06	4733
870.19	4957
870.32	4911
870.45	4984
870.58	5025
870.71	5136
870.84	5132
870.97	4991
871.1	4900
871.23	5189
871.36	5170
871.489	5018
871.619	5121
871.749	5197
871.879	5155
872.008	5155
872.138	5018
872.267	5003
872.397	4911
872.526	4805
872.656	4717
872.785	4820
872.915	4987
873.044	5086
873.173	4961
873.303	4980
873.432	4961
873.561	4991
873.69	4866
873.819	4843
873.948	4927
874.077	4847
874.206	4736
874.335	4744
874.464	4919
874.593	5132
874.722	4957
874.851	5098
874.979	5048
875.108	5052
875.237	4953
875.365	4927
875.494	4927
875.623	4984
875.751	4892
875.88	4892
876.008	5010
876.136	5037
876.265	5204
876.393	5330
876.521	5258
876.65	5284
876.778	5159
876.906	5094
877.034	4984
877.162	5086
877.29	5006
877.418	5067
877.546	5006
877.674	5067
877.802	5060
877.93	5025
878.058	4915
878.185	4915
878.313	5006
878.441	5003
878.568	4797
878.696	4915
878.824	4972
878.951	4984
879.079	5140
879.206	5337
879.333	5060
879.461	5006
879.588	5033
879.715	5151
879.842	5193
879.97	5029
880.097	4839
880.224	4801
880.351	4847
880.478	4873
880.605	4774
880.732	4774
880.859	5117
880.986	4942
881.112	4919
881.239	4778
881.366	4714
881.493	4630
881.619	4565
881.746	4672
881.872	4618
881.999	4649
882.125	4717
882.252	4790
882.378	4820
882.505	5010
882.631	4816
882.757	4679
882.883	4778
883.01	4736
883.136	4656
883.262	4649
883.388	4653
883.514	4835
883.64	4850
883.766	4793
883.892	4683
884.018	4691
884.143	4870
884.269	4991
884.395	4767
884.52	4630
884.646	4668
884.772	4653
884.897	4512
885.023	4698
885.148	4805
885.274	4847
885.399	4885
885.524	4679
885.65	4706
885.775	4782
885.9	4744
886.025	4889
886.15	4805
886.275	4771
886.4	4687
886.525	4755
886.65	4687
886.775	4702
886.9	4930
887.025	5060
887.149	4816
887.274	4679
887.399	4615
887.523	4561
887.648	4622
887.773	4603
887.897	4733
888.021	4801
888.146	4698
888.27	4797
888.395	4919
888.519	4812
888.643	4889
888.767	4828
888.891	4694
889.015	4603
889.139	4672
889.263	4611
889.387	4721
889.511	4892
889.635	4767
889.759	4664
889.883	4645
890.006	4767
890.13	4858
890.254	4630
890.377	4683
890.501	4569
890.624	4569
890.748	4656
890.871	4531
890.995	4500
891.118	4390
891.241	4577
891.364	4596
891.488	4618
891.611	4493
891.734	4584
891.857	4637
891.98	4546
892.103	4698
892.226	4573
892.349	4531
892.471	4447
892.594	4577
892.717	4558
892.839	4573
892.962	4641
893.085	4668
893.207	4626
893.33	4436
893.452	4538
893.575	4687
893.697	4584
893.819	4843
893.941	4862
894.064	4755
894.186	4611
894.308	4588
894.43	4740
894.552	4774
894.674	4755
894.796	4580
894.918	4622
895.04	4508
895.161	4717
895.283	4683
895.405	4596
895.526	4717
895.648	4706
895.769	4710
895.891	4714
896.012	4721
896.134	4698
896.255	4702
896.376	4694
896.498	4645
896.619	4702
896.74	4645
896.861	4660
896.982	4946
897.103	5071
897.224	4870
897.345	4752
897.466	4733
897.587	4698
897.708	4873
897.828	4774
897.949	4748
898.07	4592
898.19	4691
898.311	4786
898.431	4714
898.552	4755
898.672	4847
898.792	4736
898.913	4748
899.033	4649
899.153	4512
899.273	4421
899.393	4466
899.513	4573
899.633	4535
899.753	4550
899.873	4535
899.993	4558
900.113	4531
900.232	4630
900.352	4538
900.472	4497
900.591	4371
900.711	4519
900.83	4443
900.95	4641
901.069	4710
901.189	4546
901.308	4375
901.427	4352
901.546	4409
901.665	4504
901.784	4512
901.904	4386
902.023	4325
902.141	4177
902.26	4166
902.379	4318
902.498	4272
902.617	4238
902.735	4379
902.854	4394
902.973	4379
903.091	4215
903.21	4246
903.328	4333
903.446	4276
903.565	4253
903.683	4386
903.801	4287
903.919	4424
904.038	4443
904.156	4333
904.274	4447
904.392	4432
904.51	4493
904.627	4432
904.745	4580
904.863	4672
904.981	4344
905.098	4356
905.216	4383
905.334	4504
905.451	4417
905.569	4459
905.686	4592
905.803	4596
905.921	4386
906.038	4542
906.155	4474
906.272	4394
906.389	4474
906.506	4394
906.623	4405
906.74	4421
906.857	4341
906.974	4402
907.091	4596
907.208	4660
907.324	4634
907.441	4512
907.557	4371
907.674	4329
907.79	4356
907.907	4440
908.023	4493
908.139	4504
908.256	4447
908.372	4493
908.488	4443
908.604	4344
908.72	4367
908.836	4375
908.952	4390
909.068	4428
909.184	4588
909.3	4489
909.415	4542
909.531	4569
909.647	4383
909.762	4402
909.878	4341
909.993	4409
910.108	4447
910.224	4462
910.339	4500
910.454	4379
910.57	4375
910.685	4360
910.8	4714
910.915	4603
911.03	4550
911.145	4394
911.259	4371
911.374	4360
911.489	4333
911.604	4310
911.718	4162
911.833	4192
911.947	4116
912.062	4090
912.176	4196
912.291	4242
912.405	4242
912.519	4493
912.633	4512
912.748	4390
912.862	4272
912.976	4181
913.09	4139
913.204	4207
913.318	4253
913.431	4375
913.545	4352
913.659	4421
913.772	4329
913.886	4280
914	4265
914.113	4413
914.226	4409
914.34	4341
914.453	4204
914.566	4466
914.68	4341
914.793	4310
914.906	4116
915.019	4082
915.132	4071
915.245	4185
915.358	4246
915.47	4261
915.583	4268
915.696	4318
915.809	4443
915.921	4436
916.034	4261
916.146	4303
916.259	4227
916.371	4352
916.483	4394
916.595	4314
916.708	4322
916.82	4333
916.932	4344
917.044	4333
917.156	4398
917.268	4306
917.38	4318
917.491	4322
917.603	4333
917.715	4402
917.826	4474
917.938	4398
918.049	4257
918.161	4390
918.272	4596
918.384	4561
918.495	4500
918.606	4325
918.717	4268
918.828	4386
918.939	4398
919.05	4268
919.161	4322
919.272	4109
919.383	4291
919.494	4474
919.604	4683
919.715	4428
919.826	4371
919.936	4405
920.047	4504
920.157	4485
920.267	4729
920.378	4569
920.488	4550
920.598	4744
920.708	4900
920.818	4812
920.928	4759
921.038	4972
921.148	4949
921.258	4622
921.368	4550
921.477	4550
921.587	4466
921.697	4398
921.806	4554
921.916	4436
922.025	4314
922.134	4284
922.244	4215
922.353	4398
922.462	4204
922.571	4162
922.68	3987
922.789	3972
922.898	4051
923.007	4010
923.116	4101
923.224	4059
923.333	4116
923.442	4036
923.55	3994
923.659	4021
923.767	4109
923.876	4025
923.984	4120
924.092	3975
924.201	4120
924.309	4082
924.417	4162
924.525	4029
924.633	4120
924.741	4839
924.849	3903
924.956	4112
925.064	3991
925.172	3922
925.279	3987
925.387	4086
925.494	4051
925.602	4219
925.709	4177
925.816	4059
925.924	4169
926.031	4227
926.138	4188
926.245	4215
926.352	4131
926.459	4234
926.566	4310
926.673	4173
926.779	4109
926.886	4051
926.993	4006
927.099	3960
927.206	3998
927.312	3991
927.419	4051
927.525	4025
927.631	4124
927.737	3937
927.843	3956
927.95	3873
928.056	3960
928.162	4002
928.267	4082
928.373	4691
928.479	4150
928.585	3873
928.69	4013
928.796	4071
928.901	3953
929.007	3880
929.112	3998
929.218	3983
929.323	3949
929.428	3945
929.533	4097
929.638	3953
929.743	3953
929.848	4093
929.953	3968
930.058	3926
930.163	3827
930.267	3869
930.372	3968
930.477	3816
930.581	4067
930.685	3987
930.79	3838
930.894	3918
930.998	3896
931.103	4044
931.207	3705
931.311	3694
931.415	3648
931.519	3504
931.623	3561
