Data from test_V78500241_2705.txt Node
Date: Fri Mar 25 17:07:48 CST 2022
User: usil
Spectrometer: V785-0024
Trigger mode: 0
Integration Time (sec): 4.000000E-1
Scans to average: 1
Nonlinearity correction enabled: false
Boxcar width: 0
Storing dark spectrum: false
XAxis mode: Wavelengths
Number of Pixels in Spectrum: 1024
>>>>>Begin Spectral Data<<<<<
801.071	7970
801.214	8005
801.356	7913
801.499	7871
801.641	7864
801.783	7852
801.926	7970
802.068	7989
802.211	7993
802.353	7997
802.496	7963
802.638	7921
802.78	7951
802.923	7917
803.065	7811
803.208	7894
803.35	7936
803.492	8123
803.635	8164
803.777	8050
803.919	8176
804.061	8393
804.204	8187
804.346	8088
804.488	7940
804.63	8084
804.773	8092
804.915	8115
805.057	8343
805.199	8161
805.341	8237
805.483	8248
805.626	8233
805.768	8145
805.91	8282
806.052	8191
806.194	8180
806.336	8275
806.478	8115
806.62	8050
806.762	8100
806.904	8294
807.046	8503
807.188	8366
807.33	8347
807.472	8393
807.614	8210
807.756	8123
807.898	8039
808.04	7845
808.182	7894
808.324	7898
808.465	7951
808.607	8103
808.749	8142
808.891	8309
809.033	8336
809.174	8267
809.316	8100
809.458	8115
809.6	8024
809.741	8065
809.883	8035
810.025	8111
810.166	8054
810.308	8043
810.45	8012
810.591	7906
810.733	7674
810.875	7609
811.016	7567
811.158	7487
811.299	7597
811.441	7727
811.582	7734
811.724	7597
811.865	7571
812.007	7616
812.148	7601
812.29	7658
812.431	7776
812.573	7921
812.714	7986
812.855	8199
812.997	8214
813.138	8309
813.279	8130
813.421	8107
813.562	8020
813.703	7928
813.845	7757
813.986	7438
814.127	7278
814.268	7221
814.41	7206
814.551	7190
814.692	7190
814.833	7103
814.974	7084
815.115	7076
815.256	6947
815.397	6856
815.539	6939
815.68	6806
815.821	6863
815.962	6867
816.103	6821
816.244	6795
816.385	6589
816.526	6585
816.666	6544
816.807	6346
816.948	6467
817.089	6467
817.23	6395
817.371	6395
817.512	6346
817.653	6353
817.793	6376
817.934	6399
818.075	6494
818.216	6429
818.356	6422
818.497	6262
818.638	6117
818.778	6159
818.919	6148
819.06	6152
819.2	6311
819.341	6353
819.481	6384
819.622	6555
819.762	6726
819.903	6730
820.043	6715
820.184	6585
820.324	6616
820.465	6760
820.605	6688
820.746	6646
820.886	6490
821.026	6662
821.167	6730
821.307	6810
821.447	6779
821.588	6669
821.728	6601
821.868	6498
822.008	6315
822.149	6376
822.289	6327
822.429	6155
822.569	6140
822.709	6171
822.849	5999
822.99	5912
823.13	6007
823.27	6015
823.41	5832
823.55	5847
823.69	5771
823.83	5794
823.97	5729
824.11	5573
824.25	5471
824.389	5604
824.529	5589
824.669	5562
824.809	5680
824.949	5714
825.089	5657
825.228	5619
825.368	5410
825.508	5372
825.648	5326
825.787	5448
825.927	5425
826.067	5383
826.206	5326
826.346	5345
826.485	5395
826.625	5490
826.765	5577
826.904	5455
827.044	5220
827.183	5227
827.323	5143
827.462	5315
827.601	5193
827.741	5220
827.88	5212
828.02	5132
828.159	5258
828.298	5292
828.437	5383
828.577	5288
828.716	5478
828.855	5341
828.994	5201
829.134	5140
829.273	5185
829.412	5128
829.551	5166
829.69	5204
829.829	5288
829.968	5387
830.107	5292
830.246	5280
830.385	5189
830.524	5151
830.663	5075
830.802	5022
830.941	4927
831.08	4885
831.219	4938
831.357	4987
831.496	5159
831.635	4953
831.774	4847
831.913	4854
832.051	4755
832.19	4774
832.329	4812
832.467	4774
832.606	4649
832.744	4774
832.883	4744
833.022	4698
833.16	4774
833.299	4805
833.437	4850
833.576	4847
833.714	4896
833.852	4881
833.991	4911
834.129	4991
834.267	4980
834.406	4896
834.544	5003
834.682	4953
834.821	5022
834.959	5170
835.097	4957
835.235	5155
835.373	5079
835.511	5140
835.65	5045
835.788	5014
835.926	4923
836.064	4938
836.202	4919
836.34	5109
836.478	5227
836.615	5151
836.753	5193
836.891	5265
837.029	5288
837.167	5212
837.305	5181
837.443	5178
837.58	5121
837.718	5254
837.856	5204
837.993	5166
838.131	5208
838.269	5254
838.406	5273
838.544	5216
838.681	5052
838.819	5037
838.956	4934
839.094	4900
839.231	5022
839.369	5075
839.506	5455
839.643	5250
839.781	5064
839.918	4995
840.055	5121
840.193	5185
840.33	5147
840.467	5117
840.604	5170
840.742	5452
840.879	5052
841.016	5071
841.153	5155
841.29	5353
841.427	5326
841.564	5322
841.701	5345
841.838	5303
841.975	5216
842.112	5246
842.249	5143
842.385	5113
842.522	5315
842.659	5197
842.796	5201
842.933	5185
843.069	5151
843.206	5170
843.343	5315
843.479	5284
843.616	5254
843.752	5041
843.889	5048
844.025	5223
844.162	4995
844.298	5223
844.435	5086
844.571	5064
844.708	5231
844.844	5318
844.98	5376
845.117	5334
845.253	5174
845.389	5086
845.525	5159
845.661	5189
845.798	5025
845.934	5151
846.07	5098
846.206	5235
846.342	5246
846.478	5204
846.614	5033
846.75	5003
846.886	4915
847.022	5181
847.158	4984
847.294	5086
847.429	5151
847.565	5083
847.701	5341
847.837	4915
847.972	4820
848.108	4968
848.244	4968
848.379	4778
848.515	4744
848.65	4752
848.786	4744
848.921	4755
849.057	4873
849.192	4900
849.328	4847
849.463	4896
849.598	4786
849.734	4748
849.869	4679
850.004	4592
850.14	4691
850.275	4615
850.41	4538
850.545	4592
850.68	4672
850.815	4660
850.95	4660
851.085	4835
851.22	4767
851.355	4645
851.49	4618
851.625	4679
851.76	4649
851.895	4565
852.03	4622
852.165	4637
852.299	4702
852.434	4812
852.569	4714
852.703	4809
852.838	4847
852.973	4957
853.107	4919
853.242	4710
853.376	4622
853.511	4538
853.645	4664
853.78	4812
853.914	4698
854.048	4691
854.183	4668
854.317	4694
854.451	4774
854.585	4672
854.72	4664
854.854	4767
854.988	4649
855.122	4626
855.256	4512
855.39	4653
855.524	4755
855.658	4736
855.792	4660
855.926	4744
856.06	4748
856.194	4793
856.327	4679
856.461	4664
856.595	4630
856.729	4634
856.862	4771
856.996	4687
857.13	4714
857.263	4721
857.397	4809
857.53	4683
857.664	4698
857.797	4771
857.931	4786
858.064	4691
858.197	4721
858.331	4683
858.464	4607
858.597	4542
858.731	4626
858.864	4649
858.997	4649
859.13	4683
859.263	4687
859.396	4706
859.529	4580
859.662	4603
859.795	4554
859.928	4634
860.061	4733
860.194	4805
860.327	4596
860.46	4592
860.592	4660
860.725	4736
860.858	4752
860.99	4599
861.123	4500
861.256	4561
861.388	4641
861.521	5288
861.653	4519
861.786	4447
861.918	4432
862.05	4497
862.183	4550
862.315	4607
862.447	4637
862.58	4588
862.712	4386
862.844	4337
862.976	4508
863.108	4489
863.24	4755
863.372	4333
863.504	4466
863.636	4379
863.768	4512
863.9	4462
864.032	4383
864.164	4394
864.296	4508
864.428	4584
864.559	4577
864.691	4546
864.823	4523
864.954	4527
865.086	4558
865.217	4497
865.349	4394
865.48	4455
865.612	4504
865.743	4630
865.875	4504
866.006	4440
866.137	4451
866.269	4489
866.4	4466
866.531	4447
866.662	4390
866.793	4405
866.924	4459
867.055	4485
867.186	4489
867.317	4436
867.448	4405
867.579	4371
867.71	4432
867.841	4333
867.972	4478
868.103	4481
868.233	4489
868.364	4470
868.495	4474
868.625	4702
868.756	4721
868.886	4577
869.017	4637
869.147	4793
869.278	4850
869.408	4691
869.539	4641
869.669	4729
869.799	4660
869.929	4752
870.06	4786
870.19	4995
870.32	4873
870.45	4953
870.58	5025
870.71	5071
870.84	5037
870.97	5018
871.1	4923
871.23	5109
871.36	5136
871.489	5052
871.619	5083
871.749	5109
871.879	5162
872.008	5162
872.138	5086
872.267	5003
872.397	4915
872.526	4801
872.656	4698
872.785	4835
872.915	4976
873.044	5003
873.173	4934
873.303	4965
873.432	4930
873.561	4984
873.69	4919
873.819	4843
873.948	4946
874.077	4812
874.206	4748
874.335	4767
874.464	4961
874.593	5037
874.722	4946
874.851	5155
874.979	5029
875.108	5048
875.237	4904
875.365	4847
875.494	4919
875.623	4972
875.751	4797
875.88	4900
876.008	4987
876.136	5037
876.265	5181
876.393	5391
876.521	5254
876.65	5242
876.778	5181
876.906	5086
877.034	5022
877.162	5025
877.29	5014
877.418	5075
877.546	5003
877.674	5083
877.802	5060
877.93	5098
878.058	4919
878.185	4923
878.313	5022
878.441	4881
878.568	4790
878.696	4900
878.824	4938
878.951	5025
879.079	5151
879.206	5299
879.333	5075
879.461	4984
879.588	5010
879.715	5090
879.842	5208
879.97	4999
880.097	4767
880.224	4740
880.351	4820
880.478	4870
880.605	4824
880.732	4835
880.859	5071
880.986	4835
881.112	4889
881.239	4786
881.366	4679
881.493	4596
881.619	4618
881.746	4603
881.872	4691
881.999	4622
882.125	4683
882.252	4801
882.378	4831
882.505	4968
882.631	4835
882.757	4725
882.883	4721
883.01	4786
883.136	4630
883.262	4592
883.388	4637
883.514	4786
883.64	4847
883.766	4793
883.892	4656
884.018	4736
884.143	4892
884.269	4968
884.395	4645
884.52	4611
884.646	4637
884.772	4599
884.897	4561
885.023	4672
885.148	4816
885.274	4812
885.399	4790
885.524	4706
885.65	4679
885.775	4721
885.9	4714
886.025	4839
886.15	4812
886.275	4664
886.4	4641
886.525	4725
886.65	4717
886.775	4748
886.9	4919
887.025	5045
887.149	4824
887.274	4710
887.399	4588
887.523	4618
887.648	4588
887.773	4596
887.897	4805
888.021	4797
888.146	4672
888.27	4805
888.395	4896
888.519	4793
888.643	4839
888.767	4812
888.891	4626
889.015	4596
889.139	4694
889.263	4592
889.387	4782
889.511	4816
889.635	4774
889.759	4618
889.883	4660
890.006	4729
890.13	4805
890.254	4664
890.377	4687
890.501	4546
890.624	4550
890.748	4672
890.871	4485
890.995	4459
891.118	4443
891.241	4489
891.364	4497
891.488	4675
891.611	4474
891.734	4592
891.857	4603
891.98	4531
892.103	4660
892.226	4577
892.349	4500
892.471	4424
892.594	4527
892.717	4611
892.839	4519
892.962	4573
893.085	4706
893.207	4603
893.33	4383
893.452	4569
893.575	4687
893.697	4565
893.819	4839
893.941	4831
894.064	4733
894.186	4622
894.308	4577
894.43	4702
894.552	4778
894.674	4729
894.796	4588
894.918	4569
895.04	4565
895.161	4687
895.283	4668
895.405	4527
895.526	4634
895.648	4672
895.769	4687
895.891	4729
896.012	4710
896.134	4755
896.255	4660
896.376	4668
896.498	4660
896.619	4660
896.74	4622
896.861	4637
896.982	4965
897.103	5048
897.224	4881
897.345	4786
897.466	4649
897.587	4733
897.708	4854
897.828	4786
897.949	4653
898.07	4569
898.19	4656
898.311	4843
898.431	4710
898.552	4717
898.672	4793
898.792	4854
898.913	4755
899.033	4641
899.153	4516
899.273	4409
899.393	4542
899.513	4474
899.633	4516
899.753	4542
899.873	4542
899.993	4580
900.113	4523
900.232	4611
900.352	4538
900.472	4523
900.591	4428
900.711	4516
900.83	4447
900.95	4645
901.069	4679
901.189	4535
901.308	4371
901.427	4341
901.546	4398
901.665	4409
901.784	4489
901.904	4402
902.023	4318
902.141	4219
902.26	4154
902.379	4268
902.498	4276
902.617	4185
902.735	4363
902.854	4417
902.973	4348
903.091	4234
903.21	4230
903.328	4303
903.446	4253
903.565	4253
903.683	4344
903.801	4284
903.919	4409
904.038	4405
904.156	4284
904.274	4379
904.392	4375
904.51	4455
904.627	4485
904.745	4592
904.863	4656
904.981	4421
905.098	4325
905.216	4386
905.334	4417
905.451	4440
905.569	4424
905.686	4542
905.803	4531
905.921	4424
906.038	4569
906.155	4462
906.272	4405
906.389	4440
906.506	4383
906.623	4367
906.74	4413
906.857	4333
906.974	4352
907.091	4558
907.208	4702
907.324	4584
907.441	4504
907.557	4371
907.674	4352
907.79	4268
907.907	4398
908.023	4428
908.139	4485
908.256	4478
908.372	4462
908.488	4489
908.604	4344
908.72	4337
908.836	4337
908.952	4356
909.068	4383
909.184	4485
909.3	4508
909.415	4615
909.531	4535
909.647	4322
909.762	4333
909.878	4337
909.993	4405
910.108	4405
910.224	4413
910.339	4466
910.454	4405
910.57	4348
910.685	4356
910.8	4653
910.915	4618
911.03	4512
911.145	4341
911.259	4329
911.374	4375
911.489	4272
911.604	4272
911.718	4192
911.833	4200
911.947	4078
912.062	4071
912.176	4196
912.291	4230
912.405	4253
912.519	4459
912.633	4493
912.748	4360
912.862	4314
912.976	4223
913.09	4090
913.204	4230
913.318	4185
913.431	4344
913.545	4383
913.659	4462
913.772	4367
913.886	4272
914	4230
914.113	4360
914.226	4466
914.34	4390
914.453	4230
914.566	4436
914.68	4314
914.793	4314
914.906	4166
915.019	4131
915.132	4124
915.245	4158
915.358	4265
915.47	4253
915.583	4265
915.696	4299
915.809	4394
915.921	4443
916.034	4280
916.146	4249
916.259	4219
916.371	4363
916.483	4329
916.595	4230
916.708	4303
916.82	4310
916.932	4348
917.044	4284
917.156	4348
917.268	4238
917.38	4280
917.491	4291
917.603	4322
917.715	4383
917.826	4451
917.938	4352
918.049	4261
918.161	4402
918.272	4508
918.384	4538
918.495	4447
918.606	4367
918.717	4299
918.828	4352
918.939	4329
919.05	4249
919.161	4363
919.272	4150
919.383	4253
919.494	4451
919.604	4630
919.715	4390
919.826	4341
919.936	4417
920.047	4546
920.157	4485
920.267	4668
920.378	4550
920.488	4516
920.598	4733
920.708	4847
920.818	4774
920.928	4702
921.038	4965
921.148	4934
921.258	4603
921.368	4531
921.477	4481
921.587	4470
921.697	4352
921.806	4531
921.916	4436
922.025	4276
922.134	4291
922.244	4246
922.353	4253
922.462	4162
922.571	4166
922.68	4021
922.789	4002
922.898	4021
923.007	4002
923.116	4112
923.224	4071
923.333	4097
923.442	4010
923.55	3930
923.659	4013
923.767	4067
923.876	3987
923.984	4124
924.092	3972
924.201	4086
924.309	4082
924.417	4139
924.525	4067
924.633	4086
924.741	5010
924.849	3926
924.956	4211
925.064	3956
925.172	3930
925.279	3972
925.387	4055
925.494	4112
925.602	4188
925.709	4192
925.816	4036
925.924	4147
926.031	4196
926.138	4158
926.245	4158
926.352	4101
926.459	4249
926.566	4291
926.673	4154
926.779	4032
926.886	4082
926.993	4029
927.099	3972
927.206	3941
927.312	3941
927.419	4002
927.525	4025
927.631	4078
927.737	3983
927.843	3953
927.95	3896
928.056	3960
928.162	3991
928.267	4097
928.373	4584
928.479	4124
928.585	3857
928.69	4002
928.796	4067
928.901	3941
929.007	3850
929.112	4051
929.218	3979
929.323	3979
929.428	3945
929.533	4109
929.638	3930
929.743	3937
929.848	4074
929.953	4021
930.058	3979
930.163	3762
930.267	3789
930.372	3987
930.477	3838
930.581	4059
930.685	4002
930.79	3835
930.894	3869
930.998	3854
931.103	4025
931.207	3743
931.311	3629
931.415	3682
931.519	3515
931.623	3485
