Data from test_V78500241_1258.txt Node
Date: Fri Mar 25 16:57:44 CST 2022
User: usil
Spectrometer: V785-0024
Trigger mode: 0
Integration Time (sec): 4.000000E-1
Scans to average: 1
Nonlinearity correction enabled: false
Boxcar width: 0
Storing dark spectrum: false
XAxis mode: Wavelengths
Number of Pixels in Spectrum: 1024
>>>>>Begin Spectral Data<<<<<
801.071	8073
801.214	8008
801.356	7841
801.499	7864
801.641	7715
801.783	7826
801.926	7936
802.068	7947
802.211	7989
802.353	7940
802.496	7830
802.638	7894
802.78	7875
802.923	7959
803.065	7830
803.208	7902
803.35	8001
803.492	8103
803.635	8062
803.777	8054
803.919	8115
804.061	8511
804.204	8134
804.346	8062
804.488	7894
804.63	8054
804.773	7997
804.915	8138
805.057	8248
805.199	8191
805.341	8161
805.483	8320
805.626	8123
805.768	8111
805.91	8214
806.052	8164
806.194	8073
806.336	8237
806.478	8031
806.62	8020
806.762	8126
806.904	8259
807.046	8434
807.188	8324
807.33	8313
807.472	8305
807.614	8176
807.756	8123
807.898	8016
808.04	7940
808.182	7906
808.324	7909
808.465	7978
808.607	8050
808.749	8157
808.891	8111
809.033	8263
809.174	8134
809.316	8008
809.458	8008
809.6	8024
809.741	8046
809.883	8016
810.025	8027
810.166	8043
810.308	8065
810.45	8046
810.591	7845
810.733	7826
810.875	7662
811.016	7521
811.158	7502
811.299	7590
811.441	7727
811.582	7719
811.724	7567
811.865	7544
812.007	7556
812.148	7575
812.29	7670
812.431	7776
812.573	7818
812.714	7967
812.855	8115
812.997	8164
813.138	8267
813.279	8126
813.421	8119
813.562	8043
813.703	7890
813.845	7753
813.986	7441
814.127	7282
814.268	7263
814.41	7225
814.551	7194
814.692	7244
814.833	7012
814.974	7019
815.115	7046
815.256	6966
815.397	6897
815.539	6935
815.68	6863
815.821	6741
815.962	6825
816.103	6798
816.244	6703
816.385	6574
816.526	6601
816.666	6456
816.807	6380
816.948	6441
817.089	6410
817.23	6452
817.371	6361
817.512	6391
817.653	6418
817.793	6315
817.934	6456
818.075	6521
818.216	6403
818.356	6395
818.497	6254
818.638	6144
818.778	6106
818.919	6152
819.06	6129
819.2	6334
819.341	6281
819.481	6357
819.622	6517
819.762	6730
819.903	6681
820.043	6551
820.184	6578
820.324	6597
820.465	6677
820.605	6635
820.746	6646
820.886	6471
821.026	6658
821.167	6688
821.307	6779
821.447	6772
821.588	6662
821.728	6608
821.868	6528
822.008	6270
822.149	6403
822.289	6426
822.429	6144
822.569	6034
822.709	6148
822.849	5889
822.99	5870
823.13	5897
823.27	5916
823.41	5775
823.55	5783
823.69	5714
823.83	5745
823.97	5699
824.11	5448
824.25	5448
824.389	5512
824.529	5562
824.669	5570
824.809	5615
824.949	5653
825.089	5562
825.228	5573
825.368	5387
825.508	5349
825.648	5357
825.787	5345
825.927	5345
826.067	5299
826.206	5288
826.346	5402
826.485	5345
826.625	5433
826.765	5501
826.904	5467
827.044	5216
827.183	5174
827.323	5143
827.462	5208
827.601	5143
827.741	5166
827.88	5159
828.02	5105
828.159	5227
828.298	5273
828.437	5357
828.577	5265
828.716	5482
828.855	5315
828.994	5208
829.134	5094
829.273	5151
829.412	5143
829.551	5109
829.69	5204
829.829	5223
829.968	5387
830.107	5239
830.246	5250
830.385	5166
830.524	5151
830.663	5014
830.802	4915
830.941	4870
831.08	4908
831.219	4957
831.357	4953
831.496	5151
831.635	4885
831.774	4797
831.913	4828
832.051	4679
832.19	4729
832.329	4812
832.467	4687
832.606	4664
832.744	4675
832.883	4702
833.022	4721
833.16	4744
833.299	4862
833.437	4801
833.576	4786
833.714	4843
833.852	4900
833.991	4881
834.129	4934
834.267	4946
834.406	4915
834.544	5010
834.682	4908
834.821	5010
834.959	5143
835.097	4934
835.235	5117
835.373	5090
835.511	5075
835.65	5018
835.788	5003
835.926	4896
836.064	4866
836.202	4930
836.34	5113
836.478	5231
836.615	5132
836.753	5181
836.891	5277
837.029	5235
837.167	5166
837.305	5174
837.443	5128
837.58	5079
837.718	5204
837.856	5166
837.993	5121
838.131	5220
838.269	5220
838.406	5193
838.544	5178
838.681	4995
838.819	5052
838.956	4877
839.094	4938
839.231	4946
839.369	5060
839.506	5433
839.643	5235
839.781	5037
839.918	5014
840.055	5079
840.193	5075
840.33	5102
840.467	5086
840.604	5159
840.742	5433
840.879	5102
841.016	5064
841.153	5208
841.29	5368
841.427	5277
841.564	5303
841.701	5345
841.838	5242
841.975	5204
842.112	5258
842.249	5094
842.385	5140
842.522	5349
842.659	5140
842.796	5155
842.933	5159
843.069	5151
843.206	5189
843.343	5265
843.479	5204
843.616	5242
843.752	5003
843.889	4984
844.025	5162
844.162	5041
844.298	5166
844.435	5124
844.571	4972
844.708	5140
844.844	5250
844.98	5330
845.117	5322
845.253	5124
845.389	5048
845.525	5178
845.661	5136
845.798	5006
845.934	5052
846.07	5102
846.206	5212
846.342	5239
846.478	5159
846.614	4991
846.75	4946
846.886	4892
847.022	5147
847.158	4987
847.294	5102
847.429	5083
847.565	5018
847.701	5292
847.837	4858
847.972	4797
848.108	4957
848.244	4919
848.379	4839
848.515	4687
848.65	4687
848.786	4801
848.921	4740
849.057	4809
849.192	4896
849.328	4820
849.463	4828
849.598	4759
849.734	4755
849.869	4645
850.004	4622
850.14	4664
850.275	4626
850.41	4531
850.545	4554
850.68	4603
850.815	4615
850.95	4645
851.085	4782
851.22	4744
851.355	4691
851.49	4603
851.625	4626
851.76	4615
851.895	4554
852.03	4493
852.165	4634
852.299	4717
852.434	4801
852.569	4717
852.703	4744
852.838	4786
852.973	4873
853.107	4881
853.242	4714
853.376	4615
853.511	4584
853.645	4599
853.78	4759
853.914	4691
854.048	4664
854.183	4653
854.317	4656
854.451	4771
854.585	4653
854.72	4618
854.854	4744
854.988	4607
855.122	4637
855.256	4497
855.39	4653
855.524	4786
855.658	4744
855.792	4645
855.926	4702
856.06	4729
856.194	4759
856.327	4683
856.461	4580
856.595	4626
856.729	4588
856.862	4748
856.996	4679
857.13	4702
857.263	4698
857.397	4786
857.53	4679
857.664	4733
857.797	4748
857.931	4790
858.064	4641
858.197	4744
858.331	4641
858.464	4596
858.597	4451
858.731	4596
858.864	4634
858.997	4596
859.13	4687
859.263	4603
859.396	4733
859.529	4558
859.662	4546
859.795	4538
859.928	4645
860.061	4691
860.194	4748
860.327	4580
860.46	4599
860.592	4698
860.725	4672
860.858	4660
860.99	4584
861.123	4516
861.256	4512
861.388	4596
861.521	5307
861.653	4466
861.786	4455
861.918	4424
862.05	4508
862.183	4618
862.315	4592
862.447	4622
862.58	4554
862.712	4348
862.844	4265
862.976	4455
863.108	4455
863.24	4877
863.372	4344
863.504	4402
863.636	4394
863.768	4508
863.9	4440
864.032	4348
864.164	4394
864.296	4459
864.428	4538
864.559	4554
864.691	4519
864.823	4485
864.954	4497
865.086	4493
865.217	4451
865.349	4375
865.48	4390
865.612	4504
865.743	4599
865.875	4417
866.006	4405
866.137	4447
866.269	4394
866.4	4443
866.531	4428
866.662	4390
866.793	4409
866.924	4413
867.055	4489
867.186	4443
867.317	4417
867.448	4341
867.579	4421
867.71	4356
867.841	4352
867.972	4402
868.103	4466
868.233	4417
868.364	4481
868.495	4459
868.625	4653
868.756	4725
868.886	4561
869.017	4531
869.147	4797
869.278	4755
869.408	4615
869.539	4641
869.669	4672
869.799	4691
869.929	4740
870.06	4698
870.19	4995
870.32	4908
870.45	4968
870.58	4984
870.71	5090
870.84	5075
870.97	4927
871.1	4889
871.23	5117
871.36	5083
871.489	4949
871.619	5056
871.749	5098
871.879	5113
872.008	5159
872.138	5003
872.267	4949
872.397	4858
872.526	4809
872.656	4710
872.785	4778
872.915	4949
873.044	5041
873.173	4900
873.303	4946
873.432	4934
873.561	4976
873.69	4881
873.819	4877
873.948	4938
874.077	4782
874.206	4744
874.335	4774
874.464	4904
874.593	5048
874.722	4953
874.851	5075
874.979	5060
875.108	5022
875.237	4904
875.365	4862
875.494	4854
875.623	4987
875.751	4835
875.88	4866
876.008	4961
876.136	5018
876.265	5170
876.393	5311
876.521	5242
876.65	5151
876.778	5128
876.906	5067
877.034	5045
877.162	5029
877.29	5006
877.418	5037
877.546	4999
877.674	5045
877.802	4995
877.93	5029
878.058	4957
878.185	4873
878.313	4930
878.441	4904
878.568	4831
878.696	4801
878.824	4873
878.951	4965
879.079	5113
879.206	5273
879.333	5098
879.461	4987
879.588	4957
879.715	5181
879.842	5216
879.97	4980
880.097	4782
880.224	4729
880.351	4790
880.478	4778
880.605	4828
880.732	4748
880.859	5041
880.986	4873
881.112	4919
881.239	4763
881.366	4656
881.493	4664
881.619	4561
881.746	4672
881.872	4672
881.999	4607
882.125	4698
882.252	4725
882.378	4790
882.505	4968
882.631	4752
882.757	4653
882.883	4771
883.01	4710
883.136	4645
883.262	4649
883.388	4592
883.514	4820
883.64	4847
883.766	4809
883.892	4679
884.018	4672
884.143	4904
884.269	5006
884.395	4664
884.52	4607
884.646	4645
884.772	4618
884.897	4542
885.023	4630
885.148	4778
885.274	4809
885.399	4782
885.524	4672
885.65	4714
885.775	4733
885.9	4679
886.025	4831
886.15	4774
886.275	4687
886.4	4592
886.525	4736
886.65	4679
886.775	4679
886.9	4911
887.025	5022
887.149	4820
887.274	4622
887.399	4584
887.523	4588
887.648	4508
887.773	4500
887.897	4736
888.021	4752
888.146	4675
888.27	4778
888.395	4919
888.519	4740
888.643	4831
888.767	4797
888.891	4679
889.015	4588
889.139	4649
889.263	4588
889.387	4774
889.511	4824
889.635	4824
889.759	4637
889.883	4611
890.006	4694
890.13	4839
890.254	4618
890.377	4634
890.501	4500
890.624	4531
890.748	4618
890.871	4481
890.995	4405
891.118	4348
891.241	4516
891.364	4565
891.488	4634
891.611	4462
891.734	4531
891.857	4615
891.98	4538
892.103	4618
892.226	4577
892.349	4531
892.471	4459
892.594	4508
892.717	4596
892.839	4603
892.962	4580
893.085	4615
893.207	4603
893.33	4424
893.452	4512
893.575	4630
893.697	4569
893.819	4778
893.941	4805
894.064	4755
894.186	4573
894.308	4554
894.43	4748
894.552	4793
894.674	4740
894.796	4535
894.918	4569
895.04	4531
895.161	4725
895.283	4660
895.405	4542
895.526	4592
895.648	4683
895.769	4683
895.891	4668
896.012	4740
896.134	4729
896.255	4645
896.376	4603
896.498	4588
896.619	4653
896.74	4607
896.861	4641
896.982	4927
897.103	5086
897.224	4801
897.345	4740
897.466	4637
897.587	4691
897.708	4877
897.828	4710
897.949	4656
898.07	4542
898.19	4622
898.311	4816
898.431	4672
898.552	4702
898.672	4763
898.792	4793
898.913	4687
899.033	4607
899.153	4527
899.273	4402
899.393	4455
899.513	4504
899.633	4519
899.753	4516
899.873	4546
899.993	4596
900.113	4561
900.232	4603
900.352	4516
900.472	4462
900.591	4379
900.711	4493
900.83	4421
900.95	4596
901.069	4691
901.189	4531
901.308	4367
901.427	4337
901.546	4383
901.665	4512
901.784	4516
901.904	4421
902.023	4371
902.141	4223
902.26	4192
902.379	4318
902.498	4280
902.617	4249
902.735	4375
902.854	4451
902.973	4318
903.091	4215
903.21	4234
903.328	4356
903.446	4337
903.565	4291
903.683	4379
903.801	4333
903.919	4428
904.038	4443
904.156	4333
904.274	4436
904.392	4436
904.51	4470
904.627	4500
904.745	4542
904.863	4634
904.981	4443
905.098	4356
905.216	4417
905.334	4447
905.451	4466
905.569	4455
905.686	4558
905.803	4603
905.921	4504
906.038	4588
906.155	4512
906.272	4466
906.389	4500
906.506	4428
906.623	4428
906.74	4432
906.857	4348
906.974	4390
907.091	4599
907.208	4759
907.324	4599
907.441	4561
907.557	4367
907.674	4363
907.79	4367
907.907	4409
908.023	4519
908.139	4538
908.256	4493
908.372	4500
908.488	4504
908.604	4421
908.72	4371
908.836	4432
908.952	4417
909.068	4459
909.184	4645
909.3	4516
909.415	4637
909.531	4542
909.647	4348
909.762	4375
909.878	4367
909.993	4428
910.108	4447
910.224	4485
910.339	4489
910.454	4421
910.57	4405
910.685	4303
910.8	4691
910.915	4622
911.03	4531
911.145	4360
911.259	4379
911.374	4402
911.489	4310
911.604	4303
911.718	4219
911.833	4219
911.947	4150
912.062	4048
912.176	4284
912.291	4268
912.405	4344
912.519	4466
912.633	4527
912.748	4421
912.862	4325
912.976	4276
913.09	4150
913.204	4204
913.318	4238
913.431	4371
913.545	4402
913.659	4478
913.772	4371
913.886	4287
914	4261
914.113	4402
914.226	4447
914.34	4409
914.453	4227
914.566	4424
914.68	4261
914.793	4352
914.906	4188
915.019	4112
915.132	4120
915.245	4200
915.358	4276
915.47	4280
915.583	4284
915.696	4306
915.809	4421
915.921	4451
916.034	4287
916.146	4268
916.259	4238
916.371	4421
916.483	4379
916.595	4268
916.708	4295
916.82	4367
916.932	4325
917.044	4371
917.156	4360
917.268	4291
917.38	4291
917.491	4284
917.603	4344
917.715	4432
917.826	4478
917.938	4394
918.049	4261
918.161	4417
918.272	4630
918.384	4489
918.495	4474
918.606	4325
918.717	4291
918.828	4341
918.939	4386
919.05	4280
919.161	4344
919.272	4177
919.383	4257
919.494	4493
919.604	4675
919.715	4432
919.826	4402
919.936	4527
920.047	4512
920.157	4542
920.267	4729
920.378	4523
920.488	4546
920.598	4736
920.708	4870
920.818	4752
920.928	4778
921.038	4927
921.148	4953
921.258	4622
921.368	4630
921.477	4497
921.587	4516
921.697	4371
921.806	4569
921.916	4485
922.025	4322
922.134	4284
922.244	4287
922.353	4341
922.462	4192
922.571	4158
922.68	4044
922.789	4021
922.898	4101
923.007	3953
923.116	4131
923.224	4067
923.333	4135
923.442	4017
923.55	4013
923.659	4067
923.767	4120
923.876	4021
923.984	4131
924.092	4002
924.201	4147
924.309	4112
924.417	4116
924.525	4044
924.633	4166
924.741	5083
924.849	3975
924.956	4128
925.064	4002
925.172	3934
925.279	4032
925.387	4101
925.494	4101
925.602	4242
925.709	4181
925.816	4078
925.924	4158
926.031	4230
926.138	4215
926.245	4230
926.352	4105
926.459	4318
926.566	4383
926.673	4166
926.779	4131
926.886	4128
926.993	3994
927.099	4029
927.206	3953
927.312	3975
927.419	4067
927.525	4063
927.631	4105
927.737	3968
927.843	4013
927.95	3819
928.056	3979
928.162	4021
928.267	4105
928.373	4744
928.479	4139
928.585	3884
928.69	4048
928.796	4101
928.901	3983
929.007	3869
929.112	4025
929.218	3994
929.323	3991
929.428	3960
929.533	4143
929.638	3911
929.743	3960
929.848	4063
929.953	4013
930.058	3956
930.163	3804
930.267	3869
930.372	4032
930.477	3846
930.581	4120
930.685	3972
930.79	3880
930.894	3911
930.998	3884
931.103	4051
931.207	3751
931.311	3732
931.415	3686
931.519	3534
931.623	3625
