Data from test_V78500241_1845.txt Node
Date: Fri Mar 25 17:01:49 CST 2022
User: usil
Spectrometer: V785-0024
Trigger mode: 0
Integration Time (sec): 4.000000E-1
Scans to average: 1
Nonlinearity correction enabled: false
Boxcar width: 0
Storing dark spectrum: false
XAxis mode: Wavelengths
Number of Pixels in Spectrum: 1024
>>>>>Begin Spectral Data<<<<<
801.071	7993
801.214	7970
801.356	7894
801.499	7921
801.641	7864
801.783	7883
801.926	8001
802.068	7879
802.211	7974
802.353	8024
802.496	7852
802.638	7849
802.78	7921
802.923	7883
803.065	7887
803.208	7894
803.35	8020
803.492	8084
803.635	8130
803.777	8020
803.919	8153
804.061	8370
804.204	8145
804.346	8062
804.488	7997
804.63	8134
804.773	7944
804.915	8126
805.057	8305
805.199	8138
805.341	8218
805.483	8294
805.626	8191
805.768	8073
805.91	8248
806.052	8267
806.194	8107
806.336	8244
806.478	8103
806.62	7974
806.762	8107
806.904	8324
807.046	8514
807.188	8393
807.33	8317
807.472	8355
807.614	8176
807.756	8176
807.898	8008
808.04	7940
808.182	7917
808.324	7898
808.465	8001
808.607	8065
808.749	8123
808.891	8168
809.033	8377
809.174	8138
809.316	8046
809.458	8073
809.6	8027
809.741	8100
809.883	8069
810.025	8134
810.166	8081
810.308	8035
810.45	7967
810.591	7856
810.733	7719
810.875	7605
811.016	7487
811.158	7438
811.299	7567
811.441	7719
811.582	7639
811.724	7601
811.865	7548
812.007	7616
812.148	7548
812.29	7601
812.431	7814
812.573	7906
812.714	8069
812.855	8210
812.997	8244
813.138	8309
813.279	8149
813.421	8130
813.562	7963
813.703	7811
813.845	7715
813.986	7377
814.127	7240
814.268	7194
814.41	7149
814.551	7179
814.692	7251
814.833	7137
814.974	7129
815.115	7168
815.256	6951
815.397	6977
815.539	6958
815.68	6840
815.821	6772
815.962	6920
816.103	6772
816.244	6730
816.385	6574
816.526	6620
816.666	6498
816.807	6262
816.948	6407
817.089	6486
817.23	6486
817.371	6353
817.512	6388
817.653	6384
817.793	6357
817.934	6384
818.075	6429
818.216	6433
818.356	6403
818.497	6270
818.638	6079
818.778	6136
818.919	6171
819.06	6224
819.2	6353
819.341	6331
819.481	6429
819.622	6578
819.762	6749
819.903	6677
820.043	6604
820.184	6616
820.324	6616
820.465	6707
820.605	6692
820.746	6608
820.886	6563
821.026	6662
821.167	6707
821.307	6760
821.447	6722
821.588	6662
821.728	6623
821.868	6502
822.008	6395
822.149	6357
822.289	6327
822.429	6182
822.569	6076
822.709	6106
822.849	5859
822.99	5878
823.13	6003
823.27	5908
823.41	5741
823.55	5783
823.69	5809
823.83	5756
823.97	5680
824.11	5581
824.25	5505
824.389	5592
824.529	5551
824.669	5554
824.809	5676
824.949	5680
825.089	5615
825.228	5585
825.368	5414
825.508	5337
825.648	5376
825.787	5402
825.927	5372
826.067	5349
826.206	5265
826.346	5398
826.485	5398
826.625	5368
826.765	5547
826.904	5467
827.044	5265
827.183	5162
827.323	5140
827.462	5216
827.601	5204
827.741	5132
827.88	5254
828.02	5162
828.159	5220
828.298	5280
828.437	5387
828.577	5288
828.716	5501
828.855	5372
828.994	5166
829.134	5117
829.273	5204
829.412	5155
829.551	5132
829.69	5174
829.829	5277
829.968	5379
830.107	5258
830.246	5242
830.385	5105
830.524	5079
830.663	5041
830.802	5006
830.941	4915
831.08	4824
831.219	4980
831.357	4942
831.496	5174
831.635	4911
831.774	4816
831.913	4828
832.051	4744
832.19	4675
832.329	4866
832.467	4675
832.606	4618
832.744	4767
832.883	4733
833.022	4744
833.16	4778
833.299	4835
833.437	4824
833.576	4782
833.714	4801
833.852	4854
833.991	4862
834.129	4976
834.267	4915
834.406	4889
834.544	4991
834.682	4991
834.821	4957
834.959	5140
835.097	5003
835.235	5121
835.373	5117
835.511	5098
835.65	5052
835.788	4984
835.926	4870
836.064	4877
836.202	4934
836.34	5117
836.478	5246
836.615	5155
836.753	5193
836.891	5303
837.029	5258
837.167	5174
837.305	5136
837.443	5121
837.58	5086
837.718	5284
837.856	5121
837.993	5140
838.131	5201
838.269	5197
838.406	5151
838.544	5185
838.681	5025
838.819	5014
838.956	4854
839.094	4927
839.231	4984
839.369	5071
839.506	5395
839.643	5223
839.781	5117
839.918	5041
840.055	5090
840.193	5071
840.33	5098
840.467	5128
840.604	5147
840.742	5410
840.879	5083
841.016	5037
841.153	5174
841.29	5337
841.427	5318
841.564	5311
841.701	5360
841.838	5208
841.975	5227
842.112	5258
842.249	5136
842.385	5086
842.522	5311
842.659	5140
842.796	5136
842.933	5216
843.069	5166
843.206	5151
843.343	5292
843.479	5258
843.616	5201
843.752	5045
843.889	4991
844.025	5166
844.162	5029
844.298	5208
844.435	5124
844.571	5109
844.708	5166
844.844	5284
844.98	5277
845.117	5292
845.253	5128
845.389	5079
845.525	5155
845.661	5124
845.798	5048
845.934	5113
846.07	5014
846.206	5155
846.342	5254
846.478	5143
846.614	5052
846.75	5014
846.886	4923
847.022	5109
847.158	5056
847.294	5014
847.429	5060
847.565	5052
847.701	5345
847.837	4839
847.972	4771
848.108	4949
848.244	4938
848.379	4801
848.515	4755
848.65	4691
848.786	4786
848.921	4725
849.057	4870
849.192	4919
849.328	4797
849.463	4839
849.598	4828
849.734	4691
849.869	4691
850.004	4622
850.14	4653
850.275	4599
850.41	4565
850.545	4599
850.68	4569
850.815	4637
850.95	4641
851.085	4782
851.22	4771
851.355	4641
851.49	4637
851.625	4603
851.76	4611
851.895	4599
852.03	4535
852.165	4626
852.299	4683
852.434	4771
852.569	4763
852.703	4782
852.838	4847
852.973	4938
853.107	4896
853.242	4763
853.376	4664
853.511	4546
853.645	4599
853.78	4771
853.914	4687
854.048	4660
854.183	4687
854.317	4706
854.451	4835
854.585	4649
854.72	4675
854.854	4755
854.988	4615
855.122	4630
855.256	4497
855.39	4679
855.524	4816
855.658	4664
855.792	4653
855.926	4752
856.06	4786
856.194	4805
856.327	4641
856.461	4611
856.595	4622
856.729	4611
856.862	4740
856.996	4687
857.13	4725
857.263	4759
857.397	4809
857.53	4641
857.664	4759
857.797	4759
857.931	4778
858.064	4691
858.197	4744
858.331	4622
858.464	4653
858.597	4535
858.731	4622
858.864	4664
858.997	4577
859.13	4679
859.263	4660
859.396	4683
859.529	4558
859.662	4577
859.795	4489
859.928	4588
860.061	4725
860.194	4774
860.327	4615
860.46	4592
860.592	4729
860.725	4698
860.858	4702
860.99	4580
861.123	4519
861.256	4519
861.388	4626
861.521	5360
861.653	4500
861.786	4394
861.918	4440
862.05	4523
862.183	4573
862.315	4615
862.447	4706
862.58	4554
862.712	4375
862.844	4318
862.976	4481
863.108	4462
863.24	4873
863.372	4303
863.504	4424
863.636	4421
863.768	4519
863.9	4413
864.032	4356
864.164	4390
864.296	4474
864.428	4554
864.559	4542
864.691	4485
864.823	4523
864.954	4466
865.086	4440
865.217	4493
865.349	4402
865.48	4440
865.612	4443
865.743	4660
865.875	4440
866.006	4455
866.137	4478
866.269	4424
866.4	4443
866.531	4432
866.662	4424
866.793	4451
866.924	4409
867.055	4447
867.186	4481
867.317	4432
867.448	4383
867.579	4371
867.71	4402
867.841	4375
867.972	4489
868.103	4489
868.233	4432
868.364	4489
868.495	4516
868.625	4649
868.756	4710
868.886	4531
869.017	4672
869.147	4782
869.278	4755
869.408	4653
869.539	4645
869.669	4664
869.799	4645
869.929	4763
870.06	4683
870.19	4949
870.32	4904
870.45	4923
870.58	5010
870.71	5105
870.84	5052
870.97	4953
871.1	4927
871.23	5117
871.36	5159
871.489	5033
871.619	5090
871.749	5090
871.879	5132
872.008	5185
872.138	5064
872.267	4942
872.397	4828
872.526	4774
872.656	4702
872.785	4816
872.915	4980
873.044	5041
873.173	4957
873.303	4949
873.432	4904
873.561	4953
873.69	4820
873.819	4862
873.948	4896
874.077	4778
874.206	4767
874.335	4812
874.464	4896
874.593	5056
874.722	4946
874.851	5067
874.979	5014
875.108	5025
875.237	4896
875.365	4870
875.494	4828
875.623	4938
875.751	4835
875.88	4904
876.008	4999
876.136	5033
876.265	5201
876.393	5288
876.521	5273
876.65	5208
876.778	5174
876.906	5086
877.034	5048
877.162	5064
877.29	4999
877.418	5052
877.546	5014
877.674	5022
877.802	5029
877.93	5006
878.058	4889
878.185	4843
878.313	4991
878.441	4953
878.568	4793
878.696	4900
878.824	4976
878.951	4995
879.079	5132
879.206	5303
879.333	5136
879.461	5010
879.588	4987
879.715	5109
879.842	5235
879.97	5018
880.097	4752
880.224	4691
880.351	4809
880.478	4805
880.605	4816
880.732	4744
880.859	5079
880.986	4858
881.112	4839
881.239	4714
881.366	4691
881.493	4645
881.619	4527
881.746	4649
881.872	4634
881.999	4672
882.125	4691
882.252	4831
882.378	4824
882.505	4968
882.631	4790
882.757	4664
882.883	4675
883.01	4717
883.136	4683
883.262	4599
883.388	4611
883.514	4831
883.64	4816
883.766	4755
883.892	4630
884.018	4702
884.143	4904
884.269	5018
884.395	4714
884.52	4592
884.646	4672
884.772	4569
884.897	4599
885.023	4664
885.148	4767
885.274	4850
885.399	4824
885.524	4660
885.65	4694
885.775	4729
885.9	4733
886.025	4839
886.15	4744
886.275	4725
886.4	4645
886.525	4687
886.65	4740
886.775	4679
886.9	4949
887.025	5033
887.149	4839
887.274	4702
887.399	4558
887.523	4565
887.648	4588
887.773	4611
887.897	4702
888.021	4778
888.146	4668
888.27	4820
888.395	4892
888.519	4755
888.643	4809
888.767	4782
888.891	4687
889.015	4569
889.139	4649
889.263	4577
889.387	4763
889.511	4873
889.635	4782
889.759	4588
889.883	4634
890.006	4736
890.13	4809
890.254	4588
890.377	4656
890.501	4542
890.624	4500
890.748	4599
890.871	4493
890.995	4409
891.118	4409
891.241	4516
891.364	4519
891.488	4611
891.611	4443
891.734	4618
891.857	4592
891.98	4561
892.103	4653
892.226	4607
892.349	4558
892.471	4375
892.594	4519
892.717	4573
892.839	4546
892.962	4596
893.085	4687
893.207	4584
893.33	4474
893.452	4527
893.575	4645
893.697	4592
893.819	4812
893.941	4862
894.064	4774
894.186	4565
894.308	4512
894.43	4710
894.552	4847
894.674	4740
894.796	4554
894.918	4588
895.04	4527
895.161	4721
895.283	4664
895.405	4577
895.526	4622
895.648	4672
895.769	4675
895.891	4714
896.012	4744
896.134	4714
896.255	4660
896.376	4618
896.498	4622
896.619	4702
896.74	4588
896.861	4634
896.982	4881
897.103	5048
897.224	4812
897.345	4755
897.466	4634
897.587	4729
897.708	4904
897.828	4820
897.949	4664
898.07	4565
898.19	4637
898.311	4850
898.431	4660
898.552	4729
898.672	4809
898.792	4778
898.913	4721
899.033	4668
899.153	4546
899.273	4417
899.393	4436
899.513	4527
899.633	4535
899.753	4542
899.873	4508
899.993	4634
900.113	4546
900.232	4596
900.352	4489
900.472	4421
900.591	4447
900.711	4447
900.83	4440
900.95	4603
901.069	4664
901.189	4538
901.308	4383
901.427	4329
901.546	4348
901.665	4405
901.784	4497
901.904	4398
902.023	4306
902.141	4173
902.26	4166
902.379	4314
902.498	4257
902.617	4204
902.735	4356
902.854	4344
902.973	4352
903.091	4158
903.21	4227
903.328	4284
903.446	4234
903.565	4253
903.683	4363
903.801	4253
903.919	4367
904.038	4447
904.156	4280
904.274	4424
904.392	4348
904.51	4424
904.627	4459
904.745	4596
904.863	4588
904.981	4478
905.098	4306
905.216	4329
905.334	4417
905.451	4428
905.569	4459
905.686	4489
905.803	4531
905.921	4398
906.038	4512
906.155	4474
906.272	4383
906.389	4405
906.506	4341
906.623	4386
906.74	4409
906.857	4356
906.974	4390
907.091	4516
907.208	4687
907.324	4599
907.441	4470
907.557	4356
907.674	4322
907.79	4318
907.907	4367
908.023	4481
908.139	4489
908.256	4440
908.372	4470
908.488	4462
908.604	4360
908.72	4306
908.836	4379
908.952	4371
909.068	4432
909.184	4527
909.3	4455
909.415	4630
909.531	4611
909.647	4352
909.762	4352
909.878	4356
909.993	4443
910.108	4421
910.224	4436
910.339	4409
910.454	4375
910.57	4333
910.685	4284
910.8	4626
910.915	4550
911.03	4504
911.145	4306
911.259	4314
911.374	4356
911.489	4291
911.604	4249
911.718	4158
911.833	4196
911.947	4059
912.062	3994
912.176	4215
912.291	4227
912.405	4234
912.519	4455
912.633	4512
912.748	4383
912.862	4291
912.976	4196
913.09	4116
913.204	4169
913.318	4230
913.431	4383
913.545	4367
913.659	4451
913.772	4348
913.886	4207
914	4215
914.113	4348
914.226	4428
914.34	4402
914.453	4246
914.566	4432
914.68	4306
914.793	4329
914.906	4162
915.019	4131
915.132	4044
915.245	4181
915.358	4173
915.47	4219
915.583	4276
915.696	4272
915.809	4402
915.921	4383
916.034	4261
916.146	4257
916.259	4211
916.371	4344
916.483	4390
916.595	4234
916.708	4265
916.82	4303
916.932	4352
917.044	4325
917.156	4344
917.268	4211
917.38	4276
917.491	4234
917.603	4363
917.715	4379
917.826	4447
917.938	4386
918.049	4253
918.161	4363
918.272	4489
918.384	4527
918.495	4428
918.606	4303
918.717	4287
918.828	4287
918.939	4348
919.05	4234
919.161	4295
919.272	4082
919.383	4219
919.494	4432
919.604	4573
919.715	4443
919.826	4329
919.936	4390
920.047	4497
920.157	4466
920.267	4668
920.378	4523
920.488	4489
920.598	4683
920.708	4866
920.818	4767
920.928	4778
921.038	4946
921.148	4938
921.258	4641
921.368	4573
921.477	4512
921.587	4451
921.697	4398
921.806	4550
921.916	4375
922.025	4272
922.134	4276
922.244	4215
922.353	4379
922.462	4139
922.571	4154
922.68	4002
922.789	3975
922.898	4036
923.007	3975
923.116	4143
923.224	4059
923.333	4036
923.442	3937
923.55	3983
923.659	4017
923.767	4120
923.876	3979
923.984	4124
924.092	3983
924.201	4074
924.309	4059
924.417	4120
924.525	4063
924.633	4074
924.741	5025
924.849	3918
924.956	4109
925.064	3972
925.172	3907
925.279	3972
925.387	4040
925.494	4093
925.602	4207
925.709	4181
925.816	4055
925.924	4154
926.031	4230
926.138	4131
926.245	4150
926.352	4116
926.459	4234
926.566	4291
926.673	4147
926.779	4093
926.886	4101
926.993	3945
927.099	3956
927.206	3926
927.312	3922
927.419	4017
927.525	4032
927.631	4139
927.737	3979
927.843	3937
927.95	3835
928.056	3907
928.162	3956
928.267	4044
928.373	4573
928.479	4147
928.585	3854
928.69	4036
928.796	4036
928.901	4025
929.007	3808
929.112	3968
929.218	3998
929.323	3953
929.428	3949
929.533	4086
929.638	3903
929.743	3941
929.848	4040
929.953	4013
930.058	3956
930.163	3747
930.267	3835
930.372	3975
930.477	3808
930.581	4131
930.685	3945
930.79	3812
930.894	3869
930.998	3842
931.103	4006
931.207	3740
931.311	3690
931.415	3656
931.519	3576
931.623	3564
