Data from test_V78500241_203.txt Node
Date: Fri Mar 25 16:50:24 CST 2022
User: usil
Spectrometer: V785-0024
Trigger mode: 0
Integration Time (sec): 4.000000E-1
Scans to average: 1
Nonlinearity correction enabled: false
Boxcar width: 0
Storing dark spectrum: false
XAxis mode: Wavelengths
Number of Pixels in Spectrum: 1024
>>>>>Begin Spectral Data<<<<<
801.071	8001
801.214	8008
801.356	7913
801.499	7890
801.641	7868
801.783	7849
801.926	8043
802.068	7967
802.211	7982
802.353	7974
802.496	7894
802.638	7959
802.78	7902
802.923	7906
803.065	7814
803.208	7792
803.35	8020
803.492	8145
803.635	8176
803.777	7997
803.919	8077
804.061	8343
804.204	8107
804.346	8027
804.488	7940
804.63	8115
804.773	7978
804.915	8043
805.057	8172
805.199	8115
805.341	8168
805.483	8233
805.626	8153
805.768	8126
805.91	8218
806.052	8164
806.194	8069
806.336	8248
806.478	8081
806.62	8092
806.762	8050
806.904	8187
807.046	8377
807.188	8381
807.33	8187
807.472	8229
807.614	8157
807.756	8130
807.898	7978
808.04	7947
808.182	7936
808.324	7917
808.465	7955
808.607	8031
808.749	8161
808.891	8233
809.033	8290
809.174	8210
809.316	8092
809.458	8046
809.6	8012
809.741	7967
809.883	7982
810.025	8096
810.166	8024
810.308	8035
810.45	8050
810.591	7841
810.733	7738
810.875	7662
811.016	7445
811.158	7506
811.299	7601
811.441	7727
811.582	7601
811.724	7563
811.865	7571
812.007	7613
812.148	7594
812.29	7708
812.431	7784
812.573	7887
812.714	7989
812.855	8180
812.997	8263
813.138	8294
813.279	8176
813.421	8073
813.562	8039
813.703	7879
813.845	7712
813.986	7445
814.127	7244
814.268	7225
814.41	7198
814.551	7133
814.692	7202
814.833	7156
814.974	7137
815.115	7103
815.256	6973
815.397	6905
815.539	6928
815.68	6764
815.821	6863
815.962	6821
816.103	6821
816.244	6715
816.385	6673
816.526	6585
816.666	6479
816.807	6319
816.948	6452
817.089	6475
817.23	6452
817.371	6369
817.512	6376
817.653	6342
817.793	6410
817.934	6353
818.075	6517
818.216	6414
818.356	6388
818.497	6201
818.638	6034
818.778	6095
818.919	6125
819.06	6148
819.2	6346
819.341	6323
819.481	6327
819.622	6551
819.762	6703
819.903	6688
820.043	6612
820.184	6608
820.324	6563
820.465	6673
820.605	6650
820.746	6570
820.886	6494
821.026	6589
821.167	6722
821.307	6760
821.447	6681
821.588	6654
821.728	6635
821.868	6498
822.008	6292
822.149	6350
822.289	6361
822.429	6098
822.569	6098
822.709	6121
822.849	5897
822.99	5961
823.13	5885
823.27	5874
823.41	5840
823.55	5805
823.69	5764
823.83	5813
823.97	5646
824.11	5558
824.25	5482
824.389	5539
824.529	5581
824.669	5493
824.809	5623
824.949	5600
825.089	5562
825.228	5547
825.368	5387
825.508	5330
825.648	5330
825.787	5410
825.927	5357
826.067	5269
826.206	5280
826.346	5360
826.485	5349
826.625	5391
826.765	5505
826.904	5505
827.044	5258
827.183	5117
827.323	5132
827.462	5208
827.601	5174
827.741	5204
827.88	5208
828.02	5124
828.159	5239
828.298	5334
828.437	5349
828.577	5311
828.716	5459
828.855	5315
828.994	5094
829.134	5181
829.273	5280
829.412	5136
829.551	5140
829.69	5140
829.829	5204
829.968	5372
830.107	5261
830.246	5288
830.385	5178
830.524	5109
830.663	5037
830.802	4984
830.941	4854
831.08	4877
831.219	5010
831.357	4957
831.496	5102
831.635	4908
831.774	4839
831.913	4854
832.051	4748
832.19	4736
832.329	4790
832.467	4653
832.606	4649
832.744	4691
832.883	4649
833.022	4611
833.16	4774
833.299	4759
833.437	4793
833.576	4820
833.714	4843
833.852	4820
833.991	4850
834.129	4949
834.267	4915
834.406	4904
834.544	4927
834.682	4934
834.821	4980
834.959	5147
835.097	5003
835.235	5155
835.373	5075
835.511	5090
835.65	5075
835.788	5029
835.926	4942
836.064	4892
836.202	4961
836.34	5094
836.478	5235
836.615	5075
836.753	5166
836.891	5280
837.029	5201
837.167	5185
837.305	5147
837.443	5166
837.58	5075
837.718	5185
837.856	5147
837.993	5124
838.131	5181
838.269	5208
838.406	5189
838.544	5181
838.681	5064
838.819	4953
838.956	4904
839.094	4873
839.231	4949
839.369	5064
839.506	5429
839.643	5235
839.781	5075
839.918	4999
840.055	5079
840.193	5071
840.33	5094
840.467	5201
840.604	5197
840.742	5387
840.879	5037
841.016	5064
841.153	5147
841.29	5322
841.427	5326
841.564	5296
841.701	5337
841.838	5220
841.975	5181
842.112	5280
842.249	5121
842.385	5067
842.522	5303
842.659	5227
842.796	5128
842.933	5174
843.069	5105
843.206	5162
843.343	5318
843.479	5261
843.616	5269
843.752	5094
843.889	5010
844.025	5174
844.162	5045
844.298	5231
844.435	5060
844.571	5094
844.708	5258
844.844	5299
844.98	5379
845.117	5311
845.253	5143
845.389	5102
845.525	5201
845.661	5178
845.798	5090
845.934	5136
846.07	5060
846.206	5246
846.342	5334
846.478	5254
846.614	5064
846.75	5014
846.886	4946
847.022	5193
847.158	5117
847.294	5090
847.429	5151
847.565	5102
847.701	5402
847.837	4889
847.972	4858
848.108	4976
848.244	4991
848.379	4843
848.515	4740
848.65	4725
848.786	4774
848.921	4793
849.057	4919
849.192	4938
849.328	4885
849.463	4930
849.598	4858
849.734	4835
849.869	4683
850.004	4698
850.14	4679
850.275	4618
850.41	4618
850.545	4607
850.68	4675
850.815	4683
850.95	4668
851.085	4889
851.22	4816
851.355	4691
851.49	4653
851.625	4675
851.76	4687
851.895	4584
852.03	4592
852.165	4683
852.299	4774
852.434	4866
852.569	4782
852.703	4847
852.838	4911
852.973	5010
853.107	4972
853.242	4763
853.376	4710
853.511	4577
853.645	4694
853.78	4824
853.914	4675
854.048	4733
854.183	4717
854.317	4706
854.451	4843
854.585	4748
854.72	4645
854.854	4820
854.988	4687
855.122	4664
855.256	4565
855.39	4710
855.524	4816
855.658	4740
855.792	4725
855.926	4744
856.06	4850
856.194	4862
856.327	4786
856.461	4687
856.595	4672
856.729	4683
856.862	4755
856.996	4744
857.13	4736
857.263	4740
857.397	4847
857.53	4729
857.664	4774
857.797	4816
857.931	4797
858.064	4763
858.197	4759
858.331	4698
858.464	4672
858.597	4558
858.731	4714
858.864	4668
858.997	4618
859.13	4668
859.263	4641
859.396	4774
859.529	4611
859.662	4653
859.795	4577
859.928	4740
860.061	4824
860.194	4858
860.327	4672
860.46	4626
860.592	4733
860.725	4771
860.858	4752
860.99	4599
861.123	4554
861.256	4565
861.388	4656
861.521	5269
861.653	4500
861.786	4447
861.918	4516
862.05	4603
862.183	4599
862.315	4653
862.447	4691
862.58	4588
862.712	4470
862.844	4348
862.976	4512
863.108	4538
863.24	4949
863.372	4360
863.504	4432
863.636	4421
863.768	4550
863.9	4470
864.032	4386
864.164	4470
864.296	4500
864.428	4565
864.559	4603
864.691	4565
864.823	4558
864.954	4512
865.086	4508
865.217	4527
865.349	4417
865.48	4459
865.612	4519
865.743	4710
865.875	4470
866.006	4470
866.137	4462
866.269	4489
866.4	4489
866.531	4481
866.662	4459
866.793	4413
866.924	4443
867.055	4546
867.186	4489
867.317	4470
867.448	4402
867.579	4466
867.71	4462
867.841	4379
867.972	4516
868.103	4504
868.233	4535
868.364	4508
868.495	4519
868.625	4721
868.756	4763
868.886	4584
869.017	4687
869.147	4835
869.278	4805
869.408	4725
869.539	4694
869.669	4733
869.799	4694
869.929	4812
870.06	4805
870.19	4987
870.32	4968
870.45	4946
870.58	5075
870.71	5178
870.84	5193
870.97	5010
871.1	4923
871.23	5170
871.36	5132
871.489	5090
871.619	5041
871.749	5143
871.879	5201
872.008	5239
872.138	5083
872.267	5060
872.397	4923
872.526	4892
872.656	4778
872.785	4892
872.915	4995
873.044	5014
873.173	4987
873.303	5003
873.432	5022
873.561	5022
873.69	4881
873.819	4847
873.948	4942
874.077	4862
874.206	4763
874.335	4774
874.464	4949
874.593	5086
874.722	5003
874.851	5189
874.979	5086
875.108	5067
875.237	5003
875.365	4866
875.494	4957
875.623	4999
875.751	4835
875.88	4873
876.008	5029
876.136	5109
876.265	5185
876.393	5353
876.521	5288
876.65	5261
876.778	5189
876.906	5170
877.034	5037
877.162	5052
877.29	5052
877.418	5075
877.546	5060
877.674	5071
877.802	5029
877.93	5048
878.058	4976
878.185	4877
878.313	5018
878.441	5003
878.568	4820
878.696	4900
878.824	5037
878.951	5033
879.079	5166
879.206	5315
879.333	5132
879.461	4972
879.588	5006
879.715	5151
879.842	5269
879.97	5048
880.097	4843
880.224	4793
880.351	4797
880.478	4854
880.605	4877
880.732	4786
880.859	5151
880.986	4942
881.112	4976
881.239	4820
881.366	4714
881.493	4634
881.619	4630
881.746	4634
881.872	4675
881.999	4740
882.125	4748
882.252	4839
882.378	4835
882.505	4999
882.631	4889
882.757	4721
882.883	4725
883.01	4793
883.136	4687
883.262	4603
883.388	4622
883.514	4824
883.64	4877
883.766	4850
883.892	4679
884.018	4744
884.143	4896
884.269	5048
884.395	4752
884.52	4679
884.646	4656
884.772	4668
884.897	4577
885.023	4740
885.148	4828
885.274	4930
885.399	4881
885.524	4714
885.65	4740
885.775	4744
885.9	4706
886.025	4824
886.15	4820
886.275	4752
886.4	4721
886.525	4725
886.65	4706
886.775	4645
886.9	4911
887.025	5086
887.149	4870
887.274	4729
887.399	4592
887.523	4649
887.648	4599
887.773	4561
887.897	4763
888.021	4771
888.146	4717
888.27	4831
888.395	4972
888.519	4797
888.643	4896
888.767	4896
888.891	4691
889.015	4679
889.139	4687
889.263	4649
889.387	4790
889.511	4866
889.635	4809
889.759	4698
889.883	4637
890.006	4763
890.13	4858
890.254	4668
890.377	4694
890.501	4580
890.624	4519
890.748	4645
890.871	4527
890.995	4413
891.118	4462
891.241	4516
891.364	4584
891.488	4634
891.611	4523
891.734	4596
891.857	4634
891.98	4618
892.103	4706
892.226	4641
892.349	4542
892.471	4474
892.594	4603
892.717	4649
892.839	4573
892.962	4611
893.085	4683
893.207	4649
893.33	4481
893.452	4516
893.575	4710
893.697	4664
893.819	4847
893.941	4824
894.064	4805
894.186	4630
894.308	4626
894.43	4771
894.552	4862
894.674	4782
894.796	4622
894.918	4596
895.04	4622
895.161	4763
895.283	4694
895.405	4656
895.526	4694
895.648	4721
895.769	4725
895.891	4752
896.012	4797
896.134	4729
896.255	4702
896.376	4622
896.498	4675
896.619	4691
896.74	4641
896.861	4710
896.982	4957
897.103	5136
897.224	4866
897.345	4774
897.466	4679
897.587	4786
897.708	4896
897.828	4805
897.949	4744
898.07	4603
898.19	4645
898.311	4835
898.431	4710
898.552	4797
898.672	4885
898.792	4858
898.913	4748
899.033	4653
899.153	4584
899.273	4504
899.393	4516
899.513	4535
899.633	4542
899.753	4558
899.873	4558
899.993	4596
900.113	4561
900.232	4649
900.352	4554
900.472	4470
900.591	4405
900.711	4538
900.83	4451
900.95	4668
901.069	4755
901.189	4584
901.308	4356
901.427	4341
901.546	4417
901.665	4455
901.784	4546
901.904	4424
902.023	4329
902.141	4196
902.26	4188
902.379	4325
902.498	4268
902.617	4272
902.735	4394
902.854	4421
902.973	4333
903.091	4207
903.21	4265
903.328	4356
903.446	4287
903.565	4238
903.683	4413
903.801	4310
903.919	4462
904.038	4398
904.156	4306
904.274	4504
904.392	4440
904.51	4474
904.627	4497
904.745	4622
904.863	4672
904.981	4409
905.098	4344
905.216	4402
905.334	4443
905.451	4451
905.569	4447
905.686	4584
905.803	4596
905.921	4436
906.038	4577
906.155	4493
906.272	4447
906.389	4447
906.506	4367
906.623	4379
906.74	4390
906.857	4371
906.974	4379
907.091	4630
907.208	4706
907.324	4618
907.441	4519
907.557	4352
907.674	4344
907.79	4375
907.907	4421
908.023	4489
908.139	4493
908.256	4424
908.372	4447
908.488	4443
908.604	4386
908.72	4356
908.836	4383
908.952	4417
909.068	4428
909.184	4561
909.3	4489
909.415	4592
909.531	4588
909.647	4375
909.762	4436
909.878	4379
909.993	4428
910.108	4436
910.224	4432
910.339	4542
910.454	4379
910.57	4363
910.685	4337
910.8	4706
910.915	4607
911.03	4512
911.145	4363
911.259	4402
911.374	4356
911.489	4325
911.604	4310
911.718	4200
911.833	4185
911.947	4124
912.062	4101
912.176	4177
912.291	4272
912.405	4280
912.519	4512
912.633	4519
912.748	4413
912.862	4348
912.976	4211
913.09	4105
913.204	4185
913.318	4249
913.431	4402
913.545	4398
913.659	4474
913.772	4383
913.886	4322
914	4261
914.113	4352
914.226	4481
914.34	4421
914.453	4265
914.566	4481
914.68	4322
914.793	4318
914.906	4215
915.019	4166
915.132	4078
915.245	4234
915.358	4284
915.47	4295
915.583	4265
915.696	4363
915.809	4436
915.921	4436
916.034	4284
916.146	4284
916.259	4276
916.371	4447
916.483	4455
916.595	4325
916.708	4352
916.82	4398
916.932	4375
917.044	4383
917.156	4360
917.268	4242
917.38	4299
917.491	4299
917.603	4383
917.715	4493
917.826	4493
917.938	4394
918.049	4268
918.161	4436
918.272	4599
918.384	4596
918.495	4527
918.606	4363
918.717	4295
918.828	4394
918.939	4428
919.05	4303
919.161	4360
919.272	4150
919.383	4352
919.494	4527
919.604	4634
919.715	4531
919.826	4424
919.936	4504
920.047	4599
920.157	4512
920.267	4786
920.378	4611
920.488	4554
920.598	4733
920.708	4896
920.818	4763
920.928	4801
921.038	5022
921.148	4938
921.258	4698
921.368	4603
921.477	4542
921.587	4493
921.697	4432
921.806	4607
921.916	4508
922.025	4318
922.134	4333
922.244	4318
922.353	4440
922.462	4230
922.571	4192
922.68	4051
922.789	4048
922.898	4150
923.007	4109
923.116	4147
923.224	4101
923.333	4139
923.442	4036
923.55	3983
923.659	4082
923.767	4116
923.876	4044
923.984	4223
924.092	4055
924.201	4105
924.309	4147
924.417	4185
924.525	4112
924.633	4162
924.741	5083
924.849	3964
924.956	4192
925.064	4017
925.172	3922
925.279	4036
925.387	4090
925.494	4143
925.602	4227
925.709	4200
925.816	4109
925.924	4196
926.031	4287
926.138	4242
926.245	4219
926.352	4131
926.459	4295
926.566	4356
926.673	4204
926.779	4147
926.886	4124
926.993	4029
927.099	4032
927.206	3979
927.312	3979
927.419	4097
927.525	4051
927.631	4177
927.737	3998
927.843	3949
927.95	3892
928.056	4010
928.162	4036
928.267	4128
928.373	4782
928.479	4188
928.585	3937
928.69	4051
928.796	4166
928.901	3964
929.007	3926
929.112	4040
929.218	4025
929.323	3994
929.428	4021
929.533	4173
929.638	3968
929.743	4010
929.848	4135
929.953	4071
930.058	3968
930.163	3797
930.267	3846
930.372	4082
930.477	3873
930.581	4109
930.685	3987
930.79	3884
930.894	3945
930.998	3956
931.103	4063
931.207	3751
931.311	3793
931.415	3736
931.519	3549
931.623	3557
