Data from test_V78500241_1228.txt Node
Date: Fri Mar 25 16:57:32 CST 2022
User: usil
Spectrometer: V785-0024
Trigger mode: 0
Integration Time (sec): 4.000000E-1
Scans to average: 1
Nonlinearity correction enabled: false
Boxcar width: 0
Storing dark spectrum: false
XAxis mode: Wavelengths
Number of Pixels in Spectrum: 1024
>>>>>Begin Spectral Data<<<<<
801.071	8027
801.214	8008
801.356	7883
801.499	7803
801.641	7769
801.783	7811
801.926	7936
802.068	7868
802.211	7902
802.353	7913
802.496	7875
802.638	7868
802.78	7989
802.923	7932
803.065	7928
803.208	7852
803.35	8005
803.492	8126
803.635	8149
803.777	8039
803.919	8115
804.061	8457
804.204	8126
804.346	8035
804.488	7970
804.63	8092
804.773	8027
804.915	8145
805.057	8301
805.199	8195
805.341	8271
805.483	8214
805.626	8157
805.768	8145
805.91	8183
806.052	8210
806.194	8103
806.336	8267
806.478	8107
806.62	8024
806.762	8126
806.904	8233
807.046	8469
807.188	8305
807.33	8206
807.472	8305
807.614	8164
807.756	8138
807.898	8001
808.04	7917
808.182	7902
808.324	7860
808.465	7894
808.607	8157
808.749	8088
808.891	8168
809.033	8267
809.174	8176
809.316	8050
809.458	8035
809.6	7944
809.741	7951
809.883	8054
810.025	8050
810.166	8016
810.308	8062
810.45	7936
810.591	7837
810.733	7738
810.875	7586
811.016	7514
811.158	7464
811.299	7559
811.441	7757
811.582	7708
811.724	7616
811.865	7483
812.007	7590
812.148	7556
812.29	7704
812.431	7681
812.573	7852
812.714	7970
812.855	8111
812.997	8168
813.138	8328
813.279	8138
813.421	8088
813.562	7986
813.703	7856
813.845	7700
813.986	7476
814.127	7225
814.268	7221
814.41	7251
814.551	7110
814.692	7152
814.833	7110
814.974	7107
815.115	7118
815.256	6943
815.397	6920
815.539	6981
815.68	6852
815.821	6783
815.962	6867
816.103	6772
816.244	6760
816.385	6616
816.526	6593
816.666	6460
816.807	6327
816.948	6429
817.089	6467
817.23	6467
817.371	6391
817.512	6376
817.653	6395
817.793	6372
817.934	6380
818.075	6532
818.216	6410
818.356	6388
818.497	6266
818.638	6102
818.778	6182
818.919	6106
819.06	6197
819.2	6304
819.341	6365
819.481	6281
819.622	6532
819.762	6684
819.903	6646
820.043	6570
820.184	6566
820.324	6601
820.465	6681
820.605	6654
820.746	6623
820.886	6471
821.026	6616
821.167	6646
821.307	6844
821.447	6741
821.588	6654
821.728	6517
821.868	6460
822.008	6251
822.149	6361
822.289	6334
822.429	6178
822.569	6121
822.709	6064
822.849	5885
822.99	5904
823.13	5882
823.27	5824
823.41	5760
823.55	5786
823.69	5710
823.83	5767
823.97	5646
824.11	5486
824.25	5528
824.389	5528
824.529	5611
824.669	5535
824.809	5649
824.949	5649
825.089	5554
825.228	5493
825.368	5395
825.508	5318
825.648	5326
825.787	5337
825.927	5391
826.067	5303
826.206	5299
826.346	5337
826.485	5474
826.625	5368
826.765	5543
826.904	5486
827.044	5299
827.183	5204
827.323	5185
827.462	5280
827.601	5162
827.741	5155
827.88	5277
828.02	5143
828.159	5178
828.298	5311
828.437	5417
828.577	5288
828.716	5554
828.855	5288
828.994	5102
829.134	5212
829.273	5227
829.412	5159
829.551	5151
829.69	5185
829.829	5269
829.968	5364
830.107	5242
830.246	5299
830.385	5204
830.524	5136
830.663	5102
830.802	5041
830.941	4938
831.08	4923
831.219	5067
831.357	5014
831.496	5185
831.635	4900
831.774	4911
831.913	4870
832.051	4786
832.19	4771
832.329	4858
832.467	4725
832.606	4668
832.744	4771
832.883	4748
833.022	4744
833.16	4782
833.299	4831
833.437	4831
833.576	4870
833.714	4904
833.852	4900
833.991	4908
834.129	5022
834.267	4946
834.406	4934
834.544	5037
834.682	5037
834.821	4999
834.959	5189
835.097	5029
835.235	5201
835.373	5075
835.511	5128
835.65	5071
835.788	5086
835.926	4934
836.064	4923
836.202	4953
836.34	5269
836.478	5273
836.615	5124
836.753	5242
836.891	5341
837.029	5303
837.167	5189
837.305	5231
837.443	5193
837.58	5143
837.718	5269
837.856	5239
837.993	5117
838.131	5273
838.269	5212
838.406	5246
838.544	5208
838.681	5037
838.819	5067
838.956	4942
839.094	4972
839.231	4987
839.369	5041
839.506	5440
839.643	5269
839.781	5098
839.918	5033
840.055	5143
840.193	5098
840.33	5128
840.467	5181
840.604	5246
840.742	5471
840.879	5083
841.016	5132
841.153	5121
841.29	5398
841.427	5360
841.564	5349
841.701	5379
841.838	5280
841.975	5322
842.112	5307
842.249	5189
842.385	5113
842.522	5349
842.659	5189
842.796	5136
842.933	5197
843.069	5181
843.206	5140
843.343	5353
843.479	5254
843.616	5235
843.752	5052
843.889	4999
844.025	5258
844.162	5060
844.298	5254
844.435	5121
844.571	5105
844.708	5216
844.844	5334
844.98	5307
845.117	5315
845.253	5178
845.389	5075
845.525	5185
845.661	5147
845.798	5090
845.934	5143
846.07	5056
846.206	5208
846.342	5258
846.478	5185
846.614	5094
846.75	4923
846.886	4942
847.022	5181
847.158	5048
847.294	5018
847.429	5117
847.565	5083
847.701	5368
847.837	4885
847.972	4835
848.108	4961
848.244	4919
848.379	4790
848.515	4736
848.65	4717
848.786	4729
848.921	4816
849.057	4908
849.192	4862
849.328	4850
849.463	4790
849.598	4835
849.734	4752
849.869	4740
850.004	4675
850.14	4660
850.275	4637
850.41	4535
850.545	4584
850.68	4668
850.815	4626
850.95	4702
851.085	4843
851.22	4801
851.355	4679
851.49	4653
851.625	4603
851.76	4645
851.895	4554
852.03	4538
852.165	4637
852.299	4721
852.434	4816
852.569	4748
852.703	4812
852.838	4885
852.973	4908
853.107	4911
853.242	4744
853.376	4710
853.511	4584
853.645	4660
853.78	4831
853.914	4725
854.048	4672
854.183	4615
854.317	4729
854.451	4850
854.585	4687
854.72	4645
854.854	4717
854.988	4584
855.122	4683
855.256	4554
855.39	4694
855.524	4820
855.658	4679
855.792	4691
855.926	4736
856.06	4790
856.194	4824
856.327	4717
856.461	4630
856.595	4714
856.729	4679
856.862	4797
856.996	4664
857.13	4755
857.263	4748
857.397	4786
857.53	4664
857.664	4740
857.797	4786
857.931	4778
858.064	4733
858.197	4744
858.331	4675
858.464	4668
858.597	4535
858.731	4615
858.864	4683
858.997	4577
859.13	4691
859.263	4641
859.396	4729
859.529	4596
859.662	4611
859.795	4588
859.928	4607
860.061	4790
860.194	4778
860.327	4637
860.46	4569
860.592	4744
860.725	4748
860.858	4729
860.99	4577
861.123	4550
861.256	4561
861.388	4611
861.521	5398
861.653	4470
861.786	4470
861.918	4485
862.05	4558
862.183	4599
862.315	4630
862.447	4668
862.58	4538
862.712	4413
862.844	4314
862.976	4493
863.108	4451
863.24	4904
863.372	4325
863.504	4436
863.636	4390
863.768	4493
863.9	4451
864.032	4371
864.164	4386
864.296	4504
864.428	4554
864.559	4588
864.691	4516
864.823	4561
864.954	4500
865.086	4508
865.217	4493
865.349	4436
865.48	4470
865.612	4531
865.743	4626
865.875	4489
866.006	4459
866.137	4462
866.269	4409
866.4	4455
866.531	4440
866.662	4409
866.793	4440
866.924	4440
867.055	4504
867.186	4508
867.317	4474
867.448	4409
867.579	4363
867.71	4386
867.841	4363
867.972	4481
868.103	4481
868.233	4443
868.364	4470
868.495	4512
868.625	4656
868.756	4748
868.886	4561
869.017	4588
869.147	4809
869.278	4816
869.408	4679
869.539	4634
869.669	4714
869.799	4698
869.929	4752
870.06	4755
870.19	4953
870.32	4972
870.45	4908
870.58	5075
870.71	5121
870.84	5098
870.97	4987
871.1	4881
871.23	5159
871.36	5113
871.489	5033
871.619	5124
871.749	5056
871.879	5128
872.008	5193
872.138	5003
872.267	4999
872.397	4835
872.526	4820
872.656	4714
872.785	4828
872.915	4934
873.044	5037
873.173	4946
873.303	4972
873.432	4934
873.561	4987
873.69	4896
873.819	4843
873.948	4965
874.077	4824
874.206	4744
874.335	4797
874.464	4965
874.593	5086
874.722	5006
874.851	5128
874.979	5083
875.108	5098
875.237	4877
875.365	4847
875.494	4915
875.623	4984
875.751	4839
875.88	4877
876.008	4961
876.136	5029
876.265	5201
876.393	5337
876.521	5284
876.65	5208
876.778	5201
876.906	5113
877.034	5025
877.162	5037
877.29	5075
877.418	5045
877.546	5014
877.674	5033
877.802	5037
877.93	5014
878.058	4942
878.185	4881
878.313	4995
878.441	4976
878.568	4771
878.696	4877
878.824	4976
878.951	5033
879.079	5136
879.206	5258
879.333	5086
879.461	4987
879.588	4972
879.715	5170
879.842	5227
879.97	5014
880.097	4782
880.224	4736
880.351	4816
880.478	4782
880.605	4812
880.732	4793
880.859	5117
880.986	4889
881.112	4908
881.239	4805
881.366	4714
881.493	4596
881.619	4611
881.746	4672
881.872	4630
881.999	4691
882.125	4683
882.252	4786
882.378	4847
882.505	4991
882.631	4839
882.757	4694
882.883	4710
883.01	4721
883.136	4668
883.262	4645
883.388	4698
883.514	4801
883.64	4831
883.766	4824
883.892	4645
884.018	4714
884.143	4877
884.269	4957
884.395	4683
884.52	4653
884.646	4645
884.772	4607
884.897	4554
885.023	4660
885.148	4771
885.274	4858
885.399	4835
885.524	4790
885.65	4702
885.775	4797
885.9	4744
886.025	4824
886.15	4805
886.275	4752
886.4	4698
886.525	4714
886.65	4725
886.775	4656
886.9	4930
887.025	5060
887.149	4816
887.274	4691
887.399	4622
887.523	4641
887.648	4592
887.773	4596
887.897	4797
888.021	4831
888.146	4599
888.27	4866
888.395	4896
888.519	4782
888.643	4877
888.767	4782
888.891	4687
889.015	4634
889.139	4611
889.263	4538
889.387	4801
889.511	4850
889.635	4812
889.759	4622
889.883	4634
890.006	4714
890.13	4831
890.254	4615
890.377	4645
890.501	4516
890.624	4519
890.748	4649
890.871	4504
890.995	4432
891.118	4398
891.241	4474
891.364	4569
891.488	4622
891.611	4443
891.734	4554
891.857	4618
891.98	4573
892.103	4637
892.226	4577
892.349	4519
892.471	4417
892.594	4542
892.717	4592
892.839	4592
892.962	4607
893.085	4630
893.207	4584
893.33	4424
893.452	4519
893.575	4733
893.697	4546
893.819	4752
893.941	4831
894.064	4782
894.186	4584
894.308	4561
894.43	4744
894.552	4793
894.674	4752
894.796	4573
894.918	4618
895.04	4493
895.161	4721
895.283	4660
895.405	4527
895.526	4630
895.648	4664
895.769	4698
895.891	4725
896.012	4702
896.134	4714
896.255	4698
896.376	4641
896.498	4584
896.619	4660
896.74	4634
896.861	4675
896.982	4927
897.103	5037
897.224	4793
897.345	4805
897.466	4725
897.587	4691
897.708	4885
897.828	4831
897.949	4694
898.07	4592
898.19	4622
898.311	4805
898.431	4641
898.552	4691
898.672	4866
898.792	4767
898.913	4752
899.033	4615
899.153	4500
899.273	4398
899.393	4512
899.513	4569
899.633	4531
899.753	4542
899.873	4535
899.993	4599
900.113	4561
900.232	4561
900.352	4569
900.472	4481
900.591	4360
900.711	4497
900.83	4390
900.95	4634
901.069	4714
901.189	4523
901.308	4394
901.427	4333
901.546	4402
901.665	4451
901.784	4535
901.904	4409
902.023	4322
902.141	4227
902.26	4192
902.379	4322
902.498	4242
902.617	4223
902.735	4386
902.854	4379
902.973	4386
903.091	4230
903.21	4230
903.328	4314
903.446	4261
903.565	4249
903.683	4356
903.801	4322
903.919	4371
904.038	4470
904.156	4322
904.274	4409
904.392	4352
904.51	4440
904.627	4516
904.745	4577
904.863	4634
904.981	4383
905.098	4299
905.216	4341
905.334	4470
905.451	4478
905.569	4409
905.686	4558
905.803	4573
905.921	4398
906.038	4577
906.155	4523
906.272	4405
906.389	4493
906.506	4363
906.623	4447
906.74	4383
906.857	4276
906.974	4367
907.091	4577
907.208	4672
907.324	4558
907.441	4493
907.557	4356
907.674	4348
907.79	4344
907.907	4341
908.023	4493
908.139	4485
908.256	4413
908.372	4459
908.488	4443
908.604	4337
908.72	4318
908.836	4417
908.952	4341
909.068	4428
909.184	4561
909.3	4474
909.415	4603
909.531	4527
909.647	4386
909.762	4333
909.878	4375
909.993	4493
910.108	4432
910.224	4398
910.339	4451
910.454	4405
910.57	4398
910.685	4306
910.8	4656
910.915	4550
911.03	4470
911.145	4295
911.259	4325
911.374	4352
911.489	4280
911.604	4295
911.718	4154
911.833	4223
911.947	4067
912.062	4029
912.176	4196
912.291	4230
912.405	4227
912.519	4470
912.633	4478
912.748	4386
912.862	4303
912.976	4188
913.09	4074
913.204	4166
913.318	4211
913.431	4352
913.545	4337
913.659	4481
913.772	4379
913.886	4211
914	4173
914.113	4383
914.226	4379
914.34	4386
914.453	4257
914.566	4375
914.68	4352
914.793	4333
914.906	4128
915.019	4112
915.132	4109
915.245	4185
915.358	4211
915.47	4219
915.583	4238
915.696	4265
915.809	4390
915.921	4409
916.034	4310
916.146	4257
916.259	4219
916.371	4367
916.483	4356
916.595	4246
916.708	4299
916.82	4402
916.932	4303
917.044	4333
917.156	4314
917.268	4234
917.38	4257
917.491	4261
917.603	4318
917.715	4417
917.826	4421
917.938	4333
918.049	4215
918.161	4409
918.272	4497
918.384	4523
918.495	4466
918.606	4303
918.717	4249
918.828	4325
918.939	4318
919.05	4276
919.161	4341
919.272	4120
919.383	4242
919.494	4413
919.604	4634
919.715	4405
919.826	4329
919.936	4375
920.047	4500
920.157	4462
920.267	4679
920.378	4592
920.488	4527
920.598	4714
920.708	4911
920.818	4771
920.928	4778
921.038	4930
921.148	4927
921.258	4611
921.368	4554
921.477	4500
921.587	4402
921.697	4367
921.806	4538
921.916	4440
922.025	4268
922.134	4268
922.244	4242
922.353	4299
922.462	4219
922.571	4135
922.68	4051
922.789	3972
922.898	4044
923.007	3964
923.116	4112
923.224	4032
923.333	4067
923.442	3945
923.55	3983
923.659	3972
923.767	4105
923.876	4002
923.984	4120
924.092	3972
924.201	4082
924.309	4105
924.417	4086
924.525	4032
924.633	4124
924.741	5109
924.849	3922
924.956	4101
925.064	3956
925.172	3892
925.279	3937
925.387	4025
925.494	4051
925.602	4181
925.709	4158
925.816	4048
925.924	4135
926.031	4204
926.138	4169
926.245	4169
926.352	4036
926.459	4173
926.566	4318
926.673	4143
926.779	4093
926.886	4067
926.993	3975
927.099	3983
927.206	3934
927.312	3991
927.419	4086
927.525	4055
927.631	4040
927.737	3975
927.843	3937
927.95	3842
928.056	3930
928.162	3987
928.267	4040
928.373	4672
928.479	4105
928.585	3884
928.69	4029
928.796	4097
928.901	3922
929.007	3854
929.112	4032
929.218	3998
929.323	3922
929.428	3915
929.533	4071
929.638	3899
929.743	3968
929.848	4044
929.953	3987
930.058	3930
930.163	3789
930.267	3842
930.372	4006
930.477	3831
930.581	4101
930.685	3911
930.79	3831
930.894	3865
930.998	3850
931.103	4025
931.207	3698
931.311	3682
931.415	3679
931.519	3485
931.623	3572
