Data from test_V78500241_1567.txt Node
Date: Fri Mar 25 16:59:53 CST 2022
User: usil
Spectrometer: V785-0024
Trigger mode: 0
Integration Time (sec): 4.000000E-1
Scans to average: 1
Nonlinearity correction enabled: false
Boxcar width: 0
Storing dark spectrum: false
XAxis mode: Wavelengths
Number of Pixels in Spectrum: 1024
>>>>>Begin Spectral Data<<<<<
801.071	7932
801.214	8001
801.356	7795
801.499	7864
801.641	7757
801.783	7795
801.926	7947
802.068	7955
802.211	7993
802.353	8031
802.496	7837
802.638	7833
802.78	7917
802.923	7921
803.065	7818
803.208	7852
803.35	8035
803.492	8153
803.635	8096
803.777	8062
803.919	8088
804.061	8412
804.204	8164
804.346	7997
804.488	7986
804.63	8138
804.773	8024
804.915	8161
805.057	8351
805.199	8233
805.341	8267
805.483	8279
805.626	8180
805.768	8176
805.91	8210
806.052	8256
806.194	8103
806.336	8294
806.478	8111
806.62	8073
806.762	8145
806.904	8279
807.046	8434
807.188	8434
807.33	8358
807.472	8301
807.614	8229
807.756	8103
807.898	8027
808.04	7921
808.182	7970
808.324	7906
808.465	7940
808.607	8092
808.749	8016
808.891	8214
809.033	8252
809.174	8183
809.316	8092
809.458	8096
809.6	8035
809.741	8027
809.883	8062
810.025	8172
810.166	8088
810.308	8100
810.45	8012
810.591	7830
810.733	7750
810.875	7647
811.016	7586
811.158	7502
811.299	7597
811.441	7792
811.582	7738
811.724	7582
811.865	7540
812.007	7605
812.148	7658
812.29	7677
812.431	7746
812.573	7898
812.714	8008
812.855	8199
812.997	8225
813.138	8377
813.279	8214
813.421	8134
813.562	7959
813.703	7864
813.845	7757
813.986	7521
814.127	7240
814.268	7232
814.41	7232
814.551	7175
814.692	7240
814.833	7133
814.974	7149
815.115	7072
815.256	7000
815.397	6920
815.539	6996
815.68	6871
815.821	6772
815.962	6939
816.103	6802
816.244	6814
816.385	6623
816.526	6681
816.666	6479
816.807	6331
816.948	6429
817.089	6532
817.23	6464
817.371	6380
817.512	6395
817.653	6384
817.793	6433
817.934	6452
818.075	6483
818.216	6452
818.356	6426
818.497	6281
818.638	6098
818.778	6167
818.919	6167
819.06	6171
819.2	6346
819.341	6311
819.481	6460
819.622	6525
819.762	6722
819.903	6677
820.043	6616
820.184	6551
820.324	6585
820.465	6757
820.605	6779
820.746	6692
820.886	6525
821.026	6677
821.167	6726
821.307	6821
821.447	6867
821.588	6760
821.728	6597
821.868	6521
822.008	6334
822.149	6376
822.289	6426
822.429	6178
822.569	6098
822.709	6121
822.849	5973
822.99	5901
823.13	5958
823.27	5927
823.41	5847
823.55	5794
823.69	5798
823.83	5798
823.97	5653
824.11	5581
824.25	5543
824.389	5592
824.529	5619
824.669	5524
824.809	5623
824.949	5729
825.089	5619
825.228	5573
825.368	5387
825.508	5387
825.648	5345
825.787	5391
825.927	5345
826.067	5296
826.206	5315
826.346	5395
826.485	5398
826.625	5425
826.765	5566
826.904	5474
827.044	5261
827.183	5189
827.323	5174
827.462	5250
827.601	5185
827.741	5193
827.88	5239
828.02	5151
828.159	5235
828.298	5376
828.437	5421
828.577	5311
828.716	5493
828.855	5311
828.994	5197
829.134	5170
829.273	5220
829.412	5098
829.551	5143
829.69	5212
829.829	5254
829.968	5391
830.107	5296
830.246	5296
830.385	5227
830.524	5140
830.663	5067
830.802	4984
830.941	4892
831.08	4896
831.219	5052
831.357	5018
831.496	5159
831.635	4923
831.774	4908
831.913	4854
832.051	4763
832.19	4801
832.329	4816
832.467	4714
832.606	4672
832.744	4717
832.883	4752
833.022	4729
833.16	4812
833.299	4831
833.437	4843
833.576	4847
833.714	4828
833.852	4862
833.991	4919
834.129	4957
834.267	4953
834.406	4930
834.544	4976
834.682	4972
834.821	5037
834.959	5136
835.097	5025
835.235	5121
835.373	5105
835.511	5121
835.65	5079
835.788	5086
835.926	4896
836.064	4919
836.202	4987
836.34	5174
836.478	5258
836.615	5143
836.753	5208
836.891	5296
837.029	5242
837.167	5242
837.305	5140
837.443	5159
837.58	5105
837.718	5269
837.856	5220
837.993	5151
838.131	5269
838.269	5231
838.406	5178
838.544	5212
838.681	5006
838.819	5041
838.956	4930
839.094	4870
839.231	4995
839.369	5136
839.506	5433
839.643	5265
839.781	5064
839.918	5037
840.055	5166
840.193	5094
840.33	5086
840.467	5128
840.604	5193
840.742	5497
840.879	5105
841.016	5124
841.153	5193
841.29	5387
841.427	5330
841.564	5383
841.701	5387
841.838	5315
841.975	5242
842.112	5284
842.249	5140
842.385	5128
842.522	5353
842.659	5223
842.796	5174
842.933	5208
843.069	5136
843.206	5197
843.343	5280
843.479	5208
843.616	5239
843.752	5018
843.889	5037
844.025	5239
844.162	5025
844.298	5231
844.435	5083
844.571	5071
844.708	5227
844.844	5288
844.98	5307
845.117	5326
845.253	5143
845.389	5067
845.525	5159
845.661	5166
845.798	5041
845.934	5174
846.07	5037
846.206	5197
846.342	5258
846.478	5117
846.614	5010
846.75	4999
846.886	4911
847.022	5121
847.158	5003
847.294	5109
847.429	5098
847.565	5060
847.701	5292
847.837	4866
847.972	4797
848.108	4946
848.244	4942
848.379	4805
848.515	4740
848.65	4717
848.786	4782
848.921	4778
849.057	4904
849.192	4870
849.328	4797
849.463	4843
849.598	4828
849.734	4786
849.869	4721
850.004	4641
850.14	4698
850.275	4637
850.41	4565
850.545	4611
850.68	4618
850.815	4641
850.95	4596
851.085	4828
851.22	4759
851.355	4675
851.49	4596
851.625	4649
851.76	4679
851.895	4561
852.03	4493
852.165	4656
852.299	4721
852.434	4786
852.569	4767
852.703	4828
852.838	4858
852.973	4953
853.107	4934
853.242	4809
853.376	4687
853.511	4577
853.645	4630
853.78	4839
853.914	4694
854.048	4672
854.183	4653
854.317	4694
854.451	4862
854.585	4683
854.72	4649
854.854	4755
854.988	4634
855.122	4641
855.256	4512
855.39	4668
855.524	4763
855.658	4725
855.792	4759
855.926	4706
856.06	4809
856.194	4828
856.327	4740
856.461	4611
856.595	4618
856.729	4630
856.862	4801
856.996	4683
857.13	4729
857.263	4782
857.397	4805
857.53	4641
857.664	4759
857.797	4771
857.931	4782
858.064	4763
858.197	4774
858.331	4622
858.464	4580
858.597	4546
858.731	4622
858.864	4668
858.997	4637
859.13	4622
859.263	4660
859.396	4733
859.529	4615
859.662	4565
859.795	4561
859.928	4634
860.061	4774
860.194	4767
860.327	4580
860.46	4592
860.592	4668
860.725	4790
860.858	4702
860.99	4577
861.123	4588
861.256	4535
861.388	4660
861.521	5246
861.653	4485
861.786	4432
861.918	4466
862.05	4516
862.183	4592
862.315	4630
862.447	4664
862.58	4580
862.712	4375
862.844	4325
862.976	4462
863.108	4478
863.24	4740
863.372	4363
863.504	4447
863.636	4428
863.768	4497
863.9	4470
864.032	4333
864.164	4428
864.296	4485
864.428	4577
864.559	4569
864.691	4519
864.823	4527
864.954	4497
865.086	4516
865.217	4443
865.349	4417
865.48	4478
865.612	4500
865.743	4698
865.875	4470
866.006	4421
866.137	4470
866.269	4440
866.4	4436
866.531	4405
866.662	4398
866.793	4436
866.924	4436
867.055	4470
867.186	4455
867.317	4371
867.448	4363
867.579	4447
867.71	4402
867.841	4398
867.972	4485
868.103	4470
868.233	4436
868.364	4462
868.495	4497
868.625	4675
868.756	4763
868.886	4558
869.017	4660
869.147	4812
869.278	4782
869.408	4683
869.539	4615
869.669	4744
869.799	4664
869.929	4755
870.06	4733
870.19	4953
870.32	4927
870.45	4911
870.58	5090
870.71	5113
870.84	5067
870.97	4957
871.1	4915
871.23	5136
871.36	5143
871.489	5010
871.619	5052
871.749	5064
871.879	5094
872.008	5220
872.138	4999
872.267	4961
872.397	4831
872.526	4797
872.656	4721
872.785	4858
872.915	5006
873.044	5033
873.173	4946
873.303	4961
873.432	4957
873.561	4965
873.69	4900
873.819	4835
873.948	4915
874.077	4843
874.206	4767
874.335	4801
874.464	4942
874.593	5056
874.722	4957
874.851	5109
874.979	5045
875.108	4999
875.237	4965
875.365	4927
875.494	4915
875.623	4972
875.751	4858
875.88	4915
876.008	4984
876.136	5029
876.265	5201
876.393	5261
876.521	5277
876.65	5193
876.778	5204
876.906	5052
877.034	5037
877.162	5086
877.29	4923
877.418	5117
877.546	5056
877.674	5033
877.802	5056
877.93	5056
878.058	4885
878.185	4889
878.313	4957
878.441	4980
878.568	4812
878.696	4812
878.824	4949
878.951	4957
879.079	5128
879.206	5284
879.333	5090
879.461	4957
879.588	4984
879.715	5140
879.842	5223
879.97	5014
880.097	4771
880.224	4778
880.351	4809
880.478	4816
880.605	4793
880.732	4820
880.859	5090
880.986	4858
881.112	4885
881.239	4767
881.366	4645
881.493	4622
881.619	4580
881.746	4660
881.872	4637
881.999	4668
882.125	4691
882.252	4824
882.378	4854
882.505	4904
882.631	4790
882.757	4668
882.883	4698
883.01	4771
883.136	4694
883.262	4592
883.388	4653
883.514	4809
883.64	4839
883.766	4736
883.892	4660
884.018	4752
884.143	4870
884.269	4991
884.395	4683
884.52	4607
884.646	4656
884.772	4558
884.897	4565
885.023	4675
885.148	4809
885.274	4824
885.399	4774
885.524	4748
885.65	4679
885.775	4767
885.9	4702
886.025	4835
886.15	4782
886.275	4763
886.4	4664
886.525	4687
886.65	4706
886.775	4717
886.9	4889
887.025	5022
887.149	4782
887.274	4637
887.399	4588
887.523	4584
887.648	4580
887.773	4565
887.897	4733
888.021	4763
888.146	4607
888.27	4866
888.395	4896
888.519	4782
888.643	4816
888.767	4866
888.891	4641
889.015	4599
889.139	4641
889.263	4618
889.387	4691
889.511	4866
889.635	4801
889.759	4584
889.883	4569
890.006	4740
890.13	4809
890.254	4607
890.377	4660
890.501	4577
890.624	4523
890.748	4618
890.871	4500
890.995	4440
891.118	4379
891.241	4558
891.364	4512
891.488	4660
891.611	4470
891.734	4546
891.857	4615
891.98	4535
892.103	4596
892.226	4561
892.349	4558
892.471	4383
892.594	4550
892.717	4550
892.839	4561
892.962	4607
893.085	4664
893.207	4535
893.33	4474
893.452	4455
893.575	4656
893.697	4577
893.819	4752
893.941	4812
894.064	4759
894.186	4584
894.308	4569
894.43	4767
894.552	4812
894.674	4744
894.796	4535
894.918	4599
895.04	4580
895.161	4653
895.283	4584
895.405	4546
895.526	4622
895.648	4679
895.769	4660
895.891	4687
896.012	4736
896.134	4733
896.255	4683
896.376	4653
896.498	4588
896.619	4649
896.74	4622
896.861	4611
896.982	4892
897.103	5090
897.224	4812
897.345	4771
897.466	4687
897.587	4706
897.708	4889
897.828	4805
897.949	4679
898.07	4558
898.19	4607
898.311	4854
898.431	4687
898.552	4721
898.672	4778
898.792	4786
898.913	4790
899.033	4618
899.153	4531
899.273	4421
899.393	4500
899.513	4523
899.633	4550
899.753	4542
899.873	4516
899.993	4558
900.113	4542
900.232	4531
900.352	4558
900.472	4466
900.591	4386
900.711	4485
900.83	4417
900.95	4630
901.069	4679
901.189	4561
901.308	4390
901.427	4287
901.546	4363
901.665	4459
901.784	4504
901.904	4402
902.023	4284
902.141	4192
902.26	4158
902.379	4291
902.498	4261
902.617	4211
902.735	4394
902.854	4394
902.973	4363
903.091	4211
903.21	4268
903.328	4341
903.446	4253
903.565	4234
903.683	4375
903.801	4242
903.919	4367
904.038	4447
904.156	4329
904.274	4447
904.392	4352
904.51	4398
904.627	4459
904.745	4577
904.863	4656
904.981	4367
905.098	4253
905.216	4344
905.334	4424
905.451	4451
905.569	4424
905.686	4561
905.803	4523
905.921	4424
906.038	4561
906.155	4481
906.272	4386
906.389	4478
906.506	4356
906.623	4348
906.74	4363
906.857	4291
906.974	4394
907.091	4550
907.208	4698
907.324	4603
907.441	4519
907.557	4348
907.674	4325
907.79	4306
907.907	4337
908.023	4459
908.139	4462
908.256	4413
908.372	4451
908.488	4428
908.604	4318
908.72	4291
908.836	4325
908.952	4390
909.068	4390
909.184	4573
909.3	4497
909.415	4603
909.531	4554
909.647	4287
909.762	4432
909.878	4310
909.993	4459
910.108	4398
910.224	4405
910.339	4447
910.454	4413
910.57	4402
910.685	4348
910.8	4607
910.915	4596
911.03	4497
911.145	4276
911.259	4333
911.374	4360
911.489	4303
911.604	4261
911.718	4166
911.833	4207
911.947	4036
912.062	4021
912.176	4246
912.291	4200
912.405	4249
912.519	4424
912.633	4508
912.748	4367
912.862	4306
912.976	4196
913.09	4090
913.204	4158
913.318	4238
913.431	4367
913.545	4348
913.659	4417
913.772	4363
913.886	4268
914	4188
914.113	4333
914.226	4421
914.34	4375
914.453	4196
914.566	4402
914.68	4333
914.793	4291
914.906	4162
915.019	4109
915.132	4071
915.245	4177
915.358	4219
915.47	4188
915.583	4238
915.696	4280
915.809	4386
915.921	4383
916.034	4253
916.146	4268
916.259	4188
916.371	4360
916.483	4356
916.595	4246
916.708	4314
916.82	4306
916.932	4295
917.044	4356
917.156	4344
917.268	4234
917.38	4280
917.491	4253
917.603	4333
917.715	4428
917.826	4428
917.938	4344
918.049	4230
918.161	4360
918.272	4542
918.384	4474
918.495	4489
918.606	4287
918.717	4253
918.828	4329
918.939	4352
919.05	4295
919.161	4325
919.272	4139
919.383	4230
919.494	4417
919.604	4645
919.715	4447
919.826	4325
919.936	4379
920.047	4519
920.157	4466
920.267	4691
920.378	4508
920.488	4504
920.598	4679
920.708	4896
920.818	4763
920.928	4687
921.038	4961
921.148	4881
921.258	4630
921.368	4550
921.477	4500
921.587	4455
921.697	4371
921.806	4569
921.916	4394
922.025	4295
922.134	4249
922.244	4253
922.353	4333
922.462	4143
922.571	4128
922.68	3979
922.789	3979
922.898	3991
923.007	3991
923.116	4120
923.224	4044
923.333	4063
923.442	3998
923.55	3983
923.659	3991
923.767	4116
923.876	3968
923.984	4147
924.092	3968
924.201	4143
924.309	4139
924.417	4135
924.525	4071
924.633	4067
924.741	4862
924.849	3918
924.956	4124
925.064	4010
925.172	3899
925.279	3991
925.387	4063
925.494	4055
925.602	4173
925.709	4192
925.816	4029
925.924	4169
926.031	4211
926.138	4154
926.245	4261
926.352	4059
926.459	4265
926.566	4318
926.673	4185
926.779	4032
926.886	4116
926.993	3964
927.099	3937
927.206	3884
927.312	3953
927.419	4051
927.525	4029
927.631	4074
927.737	3953
927.843	3941
927.95	3842
928.056	3937
928.162	3972
928.267	4025
928.373	4580
928.479	4116
928.585	3880
928.69	4010
928.796	4078
928.901	3968
929.007	3812
929.112	4006
929.218	3937
929.323	3922
929.428	3968
929.533	4059
929.638	3907
929.743	3975
929.848	4036
929.953	4040
930.058	3979
930.163	3778
930.267	3823
930.372	3968
930.477	3819
930.581	4086
930.685	3941
930.79	3838
930.894	3846
930.998	3869
931.103	4040
931.207	3736
931.311	3717
931.415	3694
931.519	3492
931.623	3545
