Data from test_V78500241_1979.txt Node
Date: Fri Mar 25 17:02:45 CST 2022
User: usil
Spectrometer: V785-0024
Trigger mode: 0
Integration Time (sec): 4.000000E-1
Scans to average: 1
Nonlinearity correction enabled: false
Boxcar width: 0
Storing dark spectrum: false
XAxis mode: Wavelengths
Number of Pixels in Spectrum: 1024
>>>>>Begin Spectral Data<<<<<
801.071	7986
801.214	7986
801.356	7852
801.499	7871
801.641	7799
801.783	7799
801.926	7932
802.068	7871
802.211	8008
802.353	7928
802.496	7822
802.638	7765
802.78	7902
802.923	7822
803.065	7807
803.208	7849
803.35	7909
803.492	8016
803.635	8153
803.777	7982
803.919	8092
804.061	8465
804.204	8130
804.346	8062
804.488	7944
804.63	8012
804.773	7993
804.915	8096
805.057	8225
805.199	8142
805.341	8180
805.483	8221
805.626	8153
805.768	8069
805.91	8187
806.052	8229
806.194	8103
806.336	8267
806.478	8084
806.62	8027
806.762	8115
806.904	8244
807.046	8400
807.188	8317
807.33	8355
807.472	8221
807.614	8157
807.756	8149
807.898	8043
808.04	7852
808.182	7841
808.324	7841
808.465	7913
808.607	8027
808.749	8103
808.891	8168
809.033	8313
809.174	8221
809.316	8130
809.458	8050
809.6	8020
809.741	8031
809.883	7963
810.025	8134
810.166	7986
810.308	7947
810.45	7967
810.591	7871
810.733	7689
810.875	7734
811.016	7468
811.158	7476
811.299	7533
811.441	7616
811.582	7643
811.724	7525
811.865	7506
812.007	7537
812.148	7514
812.29	7582
812.431	7826
812.573	7887
812.714	7940
812.855	8092
812.997	8252
813.138	8282
813.279	8123
813.421	8027
813.562	7883
813.703	7731
813.845	7750
813.986	7362
814.127	7160
814.268	7183
814.41	7202
814.551	7145
814.692	7206
814.833	7088
814.974	7118
815.115	7084
815.256	6897
815.397	6901
815.539	6920
815.68	6760
815.821	6749
815.962	6825
816.103	6783
816.244	6692
816.385	6589
816.526	6570
816.666	6490
816.807	6353
816.948	6426
817.089	6494
817.23	6422
817.371	6353
817.512	6308
817.653	6365
817.793	6357
817.934	6380
818.075	6437
818.216	6376
818.356	6391
818.497	6247
818.638	6110
818.778	6190
818.919	6072
819.06	6186
819.2	6315
819.341	6277
819.481	6285
819.622	6563
819.762	6768
819.903	6688
820.043	6578
820.184	6589
820.324	6547
820.465	6684
820.605	6681
820.746	6650
820.886	6498
821.026	6578
821.167	6692
821.307	6722
821.447	6688
821.588	6662
821.728	6540
821.868	6494
822.008	6338
822.149	6315
822.289	6418
822.429	6155
822.569	6068
822.709	6072
822.849	5923
822.99	5809
823.13	5931
823.27	5897
823.41	5748
823.55	5760
823.69	5805
823.83	5741
823.97	5676
824.11	5592
824.25	5532
824.389	5600
824.529	5581
824.669	5566
824.809	5672
824.949	5630
825.089	5623
825.228	5604
825.368	5440
825.508	5357
825.648	5372
825.787	5334
825.927	5410
826.067	5318
826.206	5318
826.346	5391
826.485	5406
826.625	5421
826.765	5623
826.904	5535
827.044	5292
827.183	5231
827.323	5178
827.462	5292
827.601	5185
827.741	5174
827.88	5273
828.02	5140
828.159	5277
828.298	5318
828.437	5452
828.577	5299
828.716	5539
828.855	5330
828.994	5174
829.134	5181
829.273	5235
829.412	5189
829.551	5140
829.69	5204
829.829	5273
829.968	5410
830.107	5288
830.246	5303
830.385	5208
830.524	5143
830.663	5143
830.802	5010
830.941	4980
831.08	4889
831.219	4980
831.357	5010
831.496	5189
831.635	4934
831.774	4850
831.913	4847
832.051	4771
832.19	4805
832.329	4862
832.467	4717
832.606	4687
832.744	4748
832.883	4729
833.022	4748
833.16	4835
833.299	4862
833.437	4801
833.576	4858
833.714	4892
833.852	4949
833.991	4953
834.129	5056
834.267	4972
834.406	4946
834.544	5006
834.682	5018
834.821	4991
834.959	5185
835.097	4976
835.235	5181
835.373	5102
835.511	5136
835.65	5079
835.788	5075
835.926	4908
836.064	4911
836.202	4904
836.34	5204
836.478	5269
836.615	5159
836.753	5223
836.891	5303
837.029	5307
837.167	5258
837.305	5174
837.443	5201
837.58	5086
837.718	5277
837.856	5140
837.993	5201
838.131	5246
838.269	5216
838.406	5273
838.544	5216
838.681	5033
838.819	4999
838.956	4961
839.094	4957
839.231	4968
839.369	5105
839.506	5482
839.643	5284
839.781	5083
839.918	5041
840.055	5109
840.193	5086
840.33	5128
840.467	5143
840.604	5254
840.742	5478
840.879	5071
841.016	5124
841.153	5174
841.29	5395
841.427	5368
841.564	5303
841.701	5425
841.838	5334
841.975	5265
842.112	5303
842.249	5220
842.385	5105
842.522	5334
842.659	5208
842.796	5193
842.933	5181
843.069	5201
843.206	5174
843.343	5307
843.479	5284
843.616	5334
843.752	5033
843.889	5048
844.025	5258
844.162	5022
844.298	5235
844.435	5132
844.571	5083
844.708	5208
844.844	5337
844.98	5383
845.117	5299
845.253	5174
845.389	5075
845.525	5220
845.661	5155
845.798	5083
845.934	5136
846.07	5094
846.206	5220
846.342	5311
846.478	5223
846.614	5048
846.75	4991
846.886	4984
847.022	5140
847.158	5041
847.294	5083
847.429	5117
847.565	5086
847.701	5414
847.837	4889
847.972	4839
848.108	4976
848.244	4987
848.379	4835
848.515	4752
848.65	4740
848.786	4763
848.921	4812
849.057	4904
849.192	4904
849.328	4831
849.463	4870
849.598	4797
849.734	4843
849.869	4717
850.004	4626
850.14	4694
850.275	4626
850.41	4580
850.545	4618
850.68	4630
850.815	4645
850.95	4668
851.085	4824
851.22	4759
851.355	4687
851.49	4668
851.625	4668
851.76	4679
851.895	4592
852.03	4554
852.165	4687
852.299	4763
852.434	4828
852.569	4771
852.703	4805
852.838	4835
852.973	4934
853.107	4911
853.242	4809
853.376	4672
853.511	4584
853.645	4626
853.78	4835
853.914	4717
854.048	4717
854.183	4675
854.317	4691
854.451	4892
854.585	4687
854.72	4710
854.854	4786
854.988	4630
855.122	4637
855.256	4527
855.39	4710
855.524	4805
855.658	4748
855.792	4733
855.926	4820
856.06	4805
856.194	4820
856.327	4725
856.461	4649
856.595	4645
856.729	4653
856.862	4771
856.996	4744
857.13	4736
857.263	4786
857.397	4824
857.53	4664
857.664	4759
857.797	4771
857.931	4816
858.064	4759
858.197	4763
858.331	4687
858.464	4675
858.597	4546
858.731	4660
858.864	4679
858.997	4607
859.13	4672
859.263	4714
859.396	4694
859.529	4569
859.662	4580
859.795	4558
859.928	4656
860.061	4809
860.194	4771
860.327	4653
860.46	4577
860.592	4774
860.725	4694
860.858	4763
860.99	4588
861.123	4508
861.256	4554
861.388	4706
861.521	5197
861.653	4546
861.786	4508
861.918	4470
862.05	4527
862.183	4538
862.315	4668
862.447	4634
862.58	4561
862.712	4413
862.844	4337
862.976	4504
863.108	4443
863.24	4816
863.372	4348
863.504	4443
863.636	4405
863.768	4508
863.9	4409
864.032	4428
864.164	4455
864.296	4485
864.428	4599
864.559	4565
864.691	4558
864.823	4558
864.954	4546
865.086	4508
865.217	4462
865.349	4474
865.48	4470
865.612	4523
865.743	4649
865.875	4470
866.006	4459
866.137	4474
866.269	4481
866.4	4462
866.531	4436
866.662	4466
866.793	4405
866.924	4424
867.055	4504
867.186	4508
867.317	4447
867.448	4402
867.579	4417
867.71	4440
867.841	4394
867.972	4474
868.103	4535
868.233	4462
868.364	4474
868.495	4527
868.625	4679
868.756	4786
868.886	4607
869.017	4626
869.147	4816
869.278	4801
869.408	4706
869.539	4599
869.669	4759
869.799	4694
869.929	4752
870.06	4771
870.19	4957
870.32	4942
870.45	4953
870.58	5060
870.71	5140
870.84	5105
870.97	4991
871.1	4900
871.23	5159
871.36	5140
871.489	5060
871.619	5113
871.749	5132
871.879	5124
872.008	5231
872.138	5045
872.267	4957
872.397	4850
872.526	4854
872.656	4729
872.785	4790
872.915	4976
873.044	5048
873.173	4980
873.303	4972
873.432	4942
873.561	4976
873.69	4892
873.819	4889
873.948	4949
874.077	4896
874.206	4771
874.335	4763
874.464	4915
874.593	5083
874.722	4976
874.851	5121
874.979	5067
875.108	5010
875.237	4934
875.365	4934
875.494	4953
875.623	4991
875.751	4877
875.88	4873
876.008	4984
876.136	5060
876.265	5178
876.393	5395
876.521	5261
876.65	5288
876.778	5166
876.906	5132
877.034	5025
877.162	5045
877.29	4991
877.418	5022
877.546	5048
877.674	5029
877.802	5056
877.93	5041
878.058	4965
878.185	4911
878.313	4968
878.441	4961
878.568	4828
878.696	4911
878.824	4972
878.951	5033
879.079	5128
879.206	5326
879.333	5109
879.461	5014
879.588	5041
879.715	5136
879.842	5250
879.97	4984
880.097	4774
880.224	4744
880.351	4839
880.478	4843
880.605	4828
880.732	4801
880.859	5140
880.986	4911
881.112	4911
881.239	4771
881.366	4668
881.493	4660
881.619	4599
881.746	4615
881.872	4656
881.999	4679
882.125	4691
882.252	4831
882.378	4919
882.505	4976
882.631	4831
882.757	4740
882.883	4801
883.01	4763
883.136	4710
883.262	4599
883.388	4653
883.514	4828
883.64	4877
883.766	4759
883.892	4698
884.018	4706
884.143	4904
884.269	4976
884.395	4664
884.52	4664
884.646	4630
884.772	4607
884.897	4558
885.023	4702
885.148	4790
885.274	4858
885.399	4812
885.524	4698
885.65	4725
885.775	4763
885.9	4736
886.025	4854
886.15	4828
886.275	4714
886.4	4679
886.525	4736
886.65	4675
886.775	4687
886.9	4942
887.025	5098
887.149	4873
887.274	4694
887.399	4645
887.523	4672
887.648	4584
887.773	4653
887.897	4771
888.021	4793
888.146	4729
888.27	4812
888.395	4927
888.519	4759
888.643	4767
888.767	4847
888.891	4668
889.015	4565
889.139	4622
889.263	4584
889.387	4812
889.511	4839
889.635	4797
889.759	4668
889.883	4683
890.006	4767
890.13	4809
890.254	4641
890.377	4714
890.501	4508
890.624	4573
890.748	4656
890.871	4527
890.995	4474
891.118	4432
891.241	4500
891.364	4577
891.488	4649
891.611	4447
891.734	4523
891.857	4599
891.98	4580
892.103	4641
892.226	4637
892.349	4523
892.471	4451
892.594	4554
892.717	4649
892.839	4599
892.962	4626
893.085	4649
893.207	4622
893.33	4474
893.452	4516
893.575	4683
893.697	4569
893.819	4824
893.941	4820
894.064	4793
894.186	4649
894.308	4611
894.43	4736
894.552	4820
894.674	4774
894.796	4538
894.918	4607
895.04	4584
895.161	4687
895.283	4694
895.405	4580
895.526	4634
895.648	4691
895.769	4698
895.891	4710
896.012	4736
896.134	4752
896.255	4687
896.376	4634
896.498	4630
896.619	4649
896.74	4577
896.861	4664
896.982	4965
897.103	5132
897.224	4831
897.345	4763
897.466	4660
897.587	4752
897.708	4873
897.828	4824
897.949	4664
898.07	4527
898.19	4615
898.311	4835
898.431	4672
898.552	4714
898.672	4843
898.792	4778
898.913	4725
899.033	4641
899.153	4512
899.273	4440
899.393	4481
899.513	4485
899.633	4512
899.753	4592
899.873	4558
899.993	4588
900.113	4599
900.232	4577
900.352	4489
900.472	4493
900.591	4417
900.711	4462
900.83	4451
900.95	4626
901.069	4725
901.189	4542
901.308	4402
901.427	4375
901.546	4394
901.665	4478
901.784	4550
901.904	4405
902.023	4333
902.141	4196
902.26	4204
902.379	4325
902.498	4234
902.617	4227
902.735	4379
902.854	4402
902.973	4363
903.091	4230
903.21	4215
903.328	4295
903.446	4318
903.565	4280
903.683	4386
903.801	4272
903.919	4462
904.038	4485
904.156	4341
904.274	4451
904.392	4443
904.51	4459
904.627	4542
904.745	4611
904.863	4641
904.981	4424
905.098	4325
905.216	4394
905.334	4481
905.451	4481
905.569	4497
905.686	4607
905.803	4622
905.921	4451
906.038	4637
906.155	4512
906.272	4424
906.389	4493
906.506	4371
906.623	4424
906.74	4436
906.857	4390
906.974	4402
907.091	4645
907.208	4664
907.324	4649
907.441	4497
907.557	4432
907.674	4424
907.79	4303
907.907	4421
908.023	4516
908.139	4527
908.256	4519
908.372	4516
908.488	4462
908.604	4402
908.72	4371
908.836	4470
908.952	4447
909.068	4485
909.184	4615
909.3	4504
909.415	4656
909.531	4626
909.647	4402
909.762	4432
909.878	4394
909.993	4516
910.108	4462
910.224	4481
910.339	4523
910.454	4428
910.57	4424
910.685	4314
910.8	4691
910.915	4626
911.03	4546
911.145	4367
911.259	4394
911.374	4383
911.489	4322
911.604	4333
911.718	4196
911.833	4253
911.947	4158
912.062	4074
912.176	4234
912.291	4314
912.405	4303
912.519	4542
912.633	4538
912.748	4398
912.862	4360
912.976	4272
913.09	4147
913.204	4234
913.318	4280
913.431	4344
913.545	4447
913.659	4493
913.772	4367
913.886	4272
914	4268
914.113	4417
914.226	4527
914.34	4405
914.453	4291
914.566	4466
914.68	4386
914.793	4360
914.906	4177
915.019	4169
915.132	4116
915.245	4223
915.358	4284
915.47	4253
915.583	4303
915.696	4398
915.809	4455
915.921	4409
916.034	4306
916.146	4291
916.259	4287
916.371	4470
916.483	4390
916.595	4363
916.708	4341
916.82	4337
916.932	4379
917.044	4383
917.156	4371
917.268	4265
917.38	4318
917.491	4337
917.603	4322
917.715	4440
917.826	4474
917.938	4352
918.049	4325
918.161	4443
918.272	4519
918.384	4622
918.495	4485
918.606	4310
918.717	4287
918.828	4375
918.939	4398
919.05	4227
919.161	4344
919.272	4177
919.383	4287
919.494	4478
919.604	4683
919.715	4462
919.826	4394
919.936	4459
920.047	4596
920.157	4527
920.267	4763
920.378	4580
920.488	4481
920.598	4767
920.708	4908
920.818	4828
920.928	4816
921.038	4953
921.148	4957
921.258	4634
921.368	4580
921.477	4542
921.587	4443
921.697	4428
921.806	4592
921.916	4462
922.025	4295
922.134	4310
922.244	4246
922.353	4352
922.462	4215
922.571	4185
922.68	4017
922.789	4032
922.898	4055
923.007	3998
923.116	4101
923.224	4055
923.333	4128
923.442	4021
923.55	3975
923.659	4093
923.767	4154
923.876	4029
923.984	4143
924.092	4044
924.201	4128
924.309	4139
924.417	4150
924.525	4109
924.633	4074
924.741	5052
924.849	3926
924.956	4154
925.064	3960
925.172	3926
925.279	3964
925.387	4090
925.494	4063
925.602	4234
925.709	4211
925.816	4097
925.924	4150
926.031	4291
926.138	4192
926.245	4234
926.352	4154
926.459	4272
926.566	4348
926.673	4150
926.779	4086
926.886	4105
926.993	4040
927.099	4013
927.206	3964
927.312	3945
927.419	4120
927.525	4029
927.631	4101
927.737	3979
927.843	3991
927.95	3888
928.056	3987
928.162	4025
928.267	4131
928.373	4615
928.479	4177
928.585	3899
928.69	4029
928.796	4090
928.901	3991
929.007	3884
929.112	4063
929.218	3994
929.323	3941
929.428	4006
929.533	4150
929.638	3956
929.743	4040
929.848	4090
929.953	4040
930.058	3953
930.163	3808
930.267	3861
930.372	3972
930.477	3873
930.581	4101
930.685	3968
930.79	3808
930.894	3934
930.998	3819
931.103	4078
931.207	3778
931.311	3736
931.415	3667
931.519	3591
931.623	3591
