Data from test_V78500241_690.txt Node
Date: Fri Mar 25 16:53:47 CST 2022
User: usil
Spectrometer: V785-0024
Trigger mode: 0
Integration Time (sec): 4.000000E-1
Scans to average: 1
Nonlinearity correction enabled: false
Boxcar width: 0
Storing dark spectrum: false
XAxis mode: Wavelengths
Number of Pixels in Spectrum: 1024
>>>>>Begin Spectral Data<<<<<
801.071	8024
801.214	7989
801.356	7795
801.499	7826
801.641	7776
801.783	7776
801.926	7944
802.068	7989
802.211	7909
802.353	7944
802.496	7856
802.638	7814
802.78	7841
802.923	7845
803.065	7841
803.208	7814
803.35	7989
803.492	8084
803.635	8161
803.777	8043
803.919	8115
804.061	8393
804.204	8157
804.346	8054
804.488	7967
804.63	8088
804.773	8035
804.915	8069
805.057	8328
805.199	8115
805.341	8218
805.483	8275
805.626	8301
805.768	8126
805.91	8161
806.052	8244
806.194	8054
806.336	8282
806.478	8058
806.62	8027
806.762	8111
806.904	8275
807.046	8438
807.188	8355
807.33	8271
807.472	8332
807.614	8142
807.756	8157
807.898	7932
808.04	7799
808.182	7902
808.324	7868
808.465	7849
808.607	8035
808.749	8050
808.891	8088
809.033	8233
809.174	8077
809.316	8024
809.458	8073
809.6	7970
809.741	8027
809.883	7997
810.025	8081
810.166	8046
810.308	8054
810.45	8001
810.591	7799
810.733	7708
810.875	7590
811.016	7506
811.158	7480
811.299	7552
811.441	7719
811.582	7693
811.724	7502
811.865	7499
812.007	7529
812.148	7510
812.29	7563
812.431	7658
812.573	7894
812.714	7951
812.855	8069
812.997	8202
813.138	8271
813.279	8164
813.421	8164
813.562	7982
813.703	7868
813.845	7719
813.986	7445
814.127	7384
814.268	7240
814.41	7202
814.551	7137
814.692	7160
814.833	7076
814.974	7015
815.115	7080
815.256	6954
815.397	6966
815.539	6909
815.68	6840
815.821	6779
815.962	6859
816.103	6795
816.244	6658
816.385	6601
816.526	6547
816.666	6498
816.807	6281
816.948	6353
817.089	6437
817.23	6391
817.371	6327
817.512	6277
817.653	6418
817.793	6273
817.934	6361
818.075	6441
818.216	6429
818.356	6353
818.497	6232
818.638	6087
818.778	6068
818.919	6045
819.06	6110
819.2	6281
819.341	6270
819.481	6331
819.622	6486
819.762	6662
819.903	6677
820.043	6540
820.184	6498
820.324	6547
820.465	6688
820.605	6646
820.746	6589
820.886	6483
821.026	6608
821.167	6707
821.307	6787
821.447	6753
821.588	6684
821.728	6555
821.868	6429
822.008	6281
822.149	6353
822.289	6315
822.429	6114
822.569	6117
822.709	6110
822.849	5863
822.99	5824
823.13	5844
823.27	5912
823.41	5817
823.55	5775
823.69	5794
823.83	5802
823.97	5646
824.11	5539
824.25	5509
824.389	5524
824.529	5600
824.669	5493
824.809	5611
824.949	5684
825.089	5642
825.228	5516
825.368	5425
825.508	5376
825.648	5353
825.787	5334
825.927	5303
826.067	5250
826.206	5292
826.346	5444
826.485	5421
826.625	5433
826.765	5520
826.904	5471
827.044	5277
827.183	5227
827.323	5136
827.462	5246
827.601	5197
827.741	5193
827.88	5280
828.02	5147
828.159	5250
828.298	5326
828.437	5368
828.577	5307
828.716	5524
828.855	5345
828.994	5170
829.134	5193
829.273	5201
829.412	5170
829.551	5185
829.69	5174
829.829	5307
829.968	5395
830.107	5258
830.246	5349
830.385	5212
830.524	5147
830.663	5094
830.802	5029
830.941	4980
831.08	4946
831.219	4999
831.357	5010
831.496	5185
831.635	4984
831.774	4866
831.913	4927
832.051	4771
832.19	4752
832.329	4881
832.467	4744
832.606	4702
832.744	4733
832.883	4790
833.022	4771
833.16	4824
833.299	4866
833.437	4866
833.576	4835
833.714	4911
833.852	4938
833.991	4930
834.129	4949
834.267	4980
834.406	4919
834.544	4995
834.682	4984
834.821	5010
834.959	5140
835.097	5025
835.235	5231
835.373	5109
835.511	5090
835.65	5170
835.788	5052
835.926	4938
836.064	4915
836.202	4927
836.34	5197
836.478	5288
836.615	5178
836.753	5239
836.891	5299
837.029	5273
837.167	5201
837.305	5170
837.443	5170
837.58	5083
837.718	5273
837.856	5242
837.993	5223
838.131	5231
838.269	5201
838.406	5242
838.544	5162
838.681	5037
838.819	5014
838.956	4915
839.094	4930
839.231	5029
839.369	5128
839.506	5486
839.643	5307
839.781	5025
839.918	5071
840.055	5117
840.193	5098
840.33	5109
840.467	5208
840.604	5170
840.742	5486
840.879	5067
841.016	5140
841.153	5166
841.29	5379
841.427	5372
841.564	5296
841.701	5406
841.838	5322
841.975	5269
842.112	5318
842.249	5159
842.385	5086
842.522	5372
842.659	5223
842.796	5151
842.933	5239
843.069	5181
843.206	5174
843.343	5318
843.479	5231
843.616	5307
843.752	5090
843.889	5041
844.025	5277
844.162	5067
844.298	5254
844.435	5132
844.571	5022
844.708	5227
844.844	5364
844.98	5364
845.117	5299
845.253	5159
845.389	5105
845.525	5136
845.661	5201
845.798	5079
845.934	5170
846.07	5086
846.206	5197
846.342	5296
846.478	5204
846.614	5014
846.75	5033
846.886	4984
847.022	5128
847.158	5067
847.294	5113
847.429	5124
847.565	5014
847.701	5357
847.837	4900
847.972	4763
848.108	4999
848.244	4987
848.379	4797
848.515	4752
848.65	4778
848.786	4805
848.921	4824
849.057	4968
849.192	4915
849.328	4889
849.463	4873
849.598	4797
849.734	4702
849.869	4736
850.004	4664
850.14	4691
850.275	4615
850.41	4580
850.545	4607
850.68	4615
850.815	4679
850.95	4675
851.085	4881
851.22	4812
851.355	4645
851.49	4660
851.625	4656
851.76	4683
851.895	4577
852.03	4538
852.165	4656
852.299	4744
852.434	4755
852.569	4729
852.703	4805
852.838	4843
852.973	4968
853.107	4976
853.242	4771
853.376	4698
853.511	4569
853.645	4683
853.78	4812
853.914	4687
854.048	4679
854.183	4683
854.317	4691
854.451	4809
854.585	4656
854.72	4664
854.854	4812
854.988	4580
855.122	4634
855.256	4519
855.39	4660
855.524	4786
855.658	4755
855.792	4729
855.926	4759
856.06	4797
856.194	4820
856.327	4687
856.461	4607
856.595	4675
856.729	4672
856.862	4752
856.996	4790
857.13	4767
857.263	4710
857.397	4820
857.53	4626
857.664	4778
857.797	4786
857.931	4805
858.064	4740
858.197	4797
858.331	4710
858.464	4626
858.597	4611
858.731	4656
858.864	4622
858.997	4656
859.13	4637
859.263	4698
859.396	4698
859.529	4599
859.662	4592
859.795	4546
859.928	4656
860.061	4793
860.194	4752
860.327	4637
860.46	4558
860.592	4733
860.725	4763
860.858	4771
860.99	4599
861.123	4554
861.256	4523
861.388	4626
861.521	5360
861.653	4523
861.786	4516
861.918	4493
862.05	4527
862.183	4554
862.315	4596
862.447	4626
862.58	4538
862.712	4436
862.844	4360
862.976	4504
863.108	4455
863.24	4900
863.372	4352
863.504	4432
863.636	4470
863.768	4516
863.9	4443
864.032	4394
864.164	4413
864.296	4497
864.428	4512
864.559	4626
864.691	4554
864.823	4561
864.954	4561
865.086	4535
865.217	4512
865.349	4443
865.48	4413
865.612	4481
865.743	4683
865.875	4504
866.006	4489
866.137	4474
866.269	4440
866.4	4409
866.531	4462
866.662	4424
866.793	4447
866.924	4466
867.055	4546
867.186	4493
867.317	4440
867.448	4375
867.579	4413
867.71	4428
867.841	4398
867.972	4478
868.103	4523
868.233	4481
868.364	4493
868.495	4550
868.625	4679
868.756	4763
868.886	4596
869.017	4618
869.147	4793
869.278	4771
869.408	4637
869.539	4649
869.669	4717
869.799	4691
869.929	4828
870.06	4748
870.19	4968
870.32	4968
870.45	4965
870.58	5010
870.71	5162
870.84	5098
870.97	4987
871.1	4911
871.23	5166
871.36	5166
871.489	5037
871.619	5094
871.749	5052
871.879	5166
872.008	5162
872.138	5052
872.267	4972
872.397	4873
872.526	4839
872.656	4733
872.785	4839
872.915	4949
873.044	5045
873.173	4984
873.303	4999
873.432	4953
873.561	4976
873.69	4877
873.819	4919
873.948	4934
874.077	4812
874.206	4797
874.335	4854
874.464	4946
874.593	5113
874.722	4972
874.851	5143
874.979	5056
875.108	5010
875.237	4900
875.365	4900
875.494	4900
875.623	4991
875.751	4801
875.88	4896
876.008	5025
876.136	5037
876.265	5159
876.393	5383
876.521	5296
876.65	5227
876.778	5159
876.906	5083
877.034	5056
877.162	5029
877.29	4976
877.418	5071
877.546	5041
877.674	5102
877.802	5064
877.93	5014
878.058	4991
878.185	4911
878.313	4957
878.441	4949
878.568	4805
878.696	4908
878.824	4995
878.951	5071
879.079	5117
879.206	5265
879.333	5109
879.461	5022
879.588	4991
879.715	5098
879.842	5223
879.97	4976
880.097	4816
880.224	4771
880.351	4828
880.478	4850
880.605	4831
880.732	4839
880.859	5121
880.986	4927
881.112	4934
881.239	4790
881.366	4660
881.493	4630
881.619	4588
881.746	4653
881.872	4641
881.999	4645
882.125	4694
882.252	4835
882.378	4835
882.505	4930
882.631	4778
882.757	4668
882.883	4717
883.01	4721
883.136	4714
883.262	4653
883.388	4626
883.514	4831
883.64	4877
883.766	4771
883.892	4683
884.018	4778
884.143	4839
884.269	5048
884.395	4687
884.52	4687
884.646	4660
884.772	4615
884.897	4580
885.023	4668
885.148	4820
885.274	4862
885.399	4816
885.524	4706
885.65	4748
885.775	4790
885.9	4702
886.025	4866
886.15	4805
886.275	4710
886.4	4698
886.525	4733
886.65	4694
886.775	4759
886.9	4873
887.025	5056
887.149	4847
887.274	4664
887.399	4603
887.523	4618
887.648	4634
887.773	4580
887.897	4717
888.021	4847
888.146	4649
888.27	4831
888.395	4923
888.519	4881
888.643	4824
888.767	4870
888.891	4687
889.015	4603
889.139	4660
889.263	4668
889.387	4752
889.511	4873
889.635	4801
889.759	4664
889.883	4611
890.006	4725
890.13	4858
890.254	4588
890.377	4717
890.501	4577
890.624	4516
890.748	4656
890.871	4493
890.995	4424
891.118	4383
891.241	4504
891.364	4550
891.488	4641
891.611	4519
891.734	4500
891.857	4603
891.98	4603
892.103	4637
892.226	4634
892.349	4497
892.471	4489
892.594	4580
892.717	4599
892.839	4569
892.962	4611
893.085	4626
893.207	4588
893.33	4516
893.452	4573
893.575	4702
893.697	4596
893.819	4771
893.941	4835
894.064	4793
894.186	4558
894.308	4569
894.43	4759
894.552	4812
894.674	4816
894.796	4546
894.918	4607
895.04	4588
895.161	4729
895.283	4645
895.405	4580
895.526	4615
895.648	4748
895.769	4679
895.891	4672
896.012	4740
896.134	4721
896.255	4668
896.376	4653
896.498	4615
896.619	4683
896.74	4607
896.861	4675
896.982	4976
897.103	5098
897.224	4847
897.345	4759
897.466	4630
897.587	4744
897.708	4900
897.828	4748
897.949	4672
898.07	4500
898.19	4672
898.311	4809
898.431	4656
898.552	4725
898.672	4847
898.792	4847
898.913	4694
899.033	4626
899.153	4508
899.273	4402
899.393	4481
899.513	4519
899.633	4523
899.753	4542
899.873	4535
899.993	4569
900.113	4573
900.232	4531
900.352	4523
900.472	4421
900.591	4443
900.711	4535
900.83	4432
900.95	4626
901.069	4679
901.189	4519
901.308	4409
901.427	4337
901.546	4390
901.665	4504
901.784	4500
901.904	4390
902.023	4367
902.141	4227
902.26	4204
902.379	4337
902.498	4276
902.617	4276
902.735	4413
902.854	4421
902.973	4344
903.091	4261
903.21	4280
903.328	4341
903.446	4299
903.565	4329
903.683	4341
903.801	4306
903.919	4432
904.038	4481
904.156	4405
904.274	4485
904.392	4485
904.51	4447
904.627	4512
904.745	4592
904.863	4672
904.981	4459
905.098	4333
905.216	4424
905.334	4466
905.451	4455
905.569	4508
905.686	4573
905.803	4618
905.921	4466
906.038	4596
906.155	4504
906.272	4413
906.389	4485
906.506	4405
906.623	4383
906.74	4394
906.857	4421
906.974	4428
907.091	4679
907.208	4733
907.324	4626
907.441	4489
907.557	4424
907.674	4409
907.79	4325
907.907	4451
908.023	4519
908.139	4504
908.256	4424
908.372	4516
908.488	4531
908.604	4413
908.72	4310
908.836	4447
908.952	4436
909.068	4500
909.184	4645
909.3	4542
909.415	4641
909.531	4592
909.647	4424
909.762	4417
909.878	4421
909.993	4440
910.108	4421
910.224	4413
910.339	4550
910.454	4405
910.57	4363
910.685	4379
910.8	4675
910.915	4596
911.03	4523
911.145	4409
911.259	4375
911.374	4432
911.489	4325
911.604	4322
911.718	4185
911.833	4223
911.947	4139
912.062	4048
912.176	4223
912.291	4276
912.405	4314
912.519	4516
912.633	4558
912.748	4447
912.862	4367
912.976	4219
913.09	4116
913.204	4219
913.318	4310
913.431	4417
913.545	4405
913.659	4504
913.772	4360
913.886	4284
914	4257
914.113	4428
914.226	4447
914.34	4447
914.453	4287
914.566	4432
914.68	4341
914.793	4348
914.906	4158
915.019	4147
915.132	4093
915.245	4234
915.358	4284
915.47	4318
915.583	4272
915.696	4318
915.809	4402
915.921	4451
916.034	4314
916.146	4303
916.259	4276
916.371	4413
916.483	4356
916.595	4287
916.708	4333
916.82	4363
916.932	4337
917.044	4322
917.156	4394
917.268	4280
917.38	4318
917.491	4337
917.603	4409
917.715	4508
917.826	4466
917.938	4386
918.049	4291
918.161	4402
918.272	4580
918.384	4554
918.495	4500
918.606	4402
918.717	4257
918.828	4379
918.939	4360
919.05	4284
919.161	4386
919.272	4162
919.383	4265
919.494	4481
919.604	4687
919.715	4470
919.826	4413
919.936	4443
920.047	4584
920.157	4493
920.267	4729
920.378	4573
920.488	4535
920.598	4733
920.708	4911
920.818	4774
920.928	4790
921.038	5018
921.148	4965
921.258	4721
921.368	4615
921.477	4546
921.587	4485
921.697	4421
921.806	4561
921.916	4424
922.025	4333
922.134	4310
922.244	4291
922.353	4375
922.462	4230
922.571	4200
922.68	4025
922.789	4029
922.898	4048
923.007	4010
923.116	4131
923.224	4086
923.333	4139
923.442	4036
923.55	4006
923.659	4063
923.767	4120
923.876	4059
923.984	4128
924.092	4010
924.201	4120
924.309	4097
924.417	4181
924.525	4090
924.633	4147
924.741	5094
924.849	3972
924.956	4150
925.064	4013
925.172	3907
925.279	3953
925.387	4086
925.494	4086
925.602	4268
925.709	4211
925.816	4086
925.924	4120
926.031	4257
926.138	4215
926.245	4272
926.352	4124
926.459	4356
926.566	4318
926.673	4204
926.779	4090
926.886	4143
926.993	4013
927.099	4017
927.206	3960
927.312	3964
927.419	4097
927.525	4082
927.631	4112
927.737	3998
927.843	3994
927.95	3865
928.056	3964
928.162	4067
928.267	4082
928.373	4729
928.479	4166
928.585	3903
928.69	4048
928.796	4093
928.901	4029
929.007	3903
929.112	4036
929.218	4021
929.323	3968
929.428	3968
929.533	4131
929.638	3964
929.743	3983
929.848	4059
929.953	4067
930.058	3972
930.163	3838
930.267	3873
930.372	3975
930.477	3838
930.581	4154
930.685	3983
930.79	3800
930.894	3926
930.998	3884
931.103	4059
931.207	3755
931.311	3743
931.415	3679
931.519	3584
931.623	3591
