Data from test_V78500241_2338.txt Node
Date: Fri Mar 25 17:05:15 CST 2022
User: usil
Spectrometer: V785-0024
Trigger mode: 0
Integration Time (sec): 4.000000E-1
Scans to average: 1
Nonlinearity correction enabled: false
Boxcar width: 0
Storing dark spectrum: false
XAxis mode: Wavelengths
Number of Pixels in Spectrum: 1024
>>>>>Begin Spectral Data<<<<<
801.071	8065
801.214	7974
801.356	7795
801.499	7761
801.641	7734
801.783	7765
801.926	7925
802.068	7898
802.211	7951
802.353	7951
802.496	7887
802.638	7860
802.78	7890
802.923	7856
803.065	7902
803.208	7856
803.35	7963
803.492	8161
803.635	8153
803.777	8039
803.919	8115
804.061	8431
804.204	8134
804.346	8039
804.488	8008
804.63	8096
804.773	7997
804.915	8138
805.057	8328
805.199	8134
805.341	8176
805.483	8256
805.626	8229
805.768	8180
805.91	8218
806.052	8176
806.194	8069
806.336	8252
806.478	8088
806.62	8123
806.762	8123
806.904	8225
807.046	8389
807.188	8396
807.33	8351
807.472	8275
807.614	8157
807.756	8092
807.898	8005
808.04	7917
808.182	7833
808.324	7860
808.465	7879
808.607	8058
808.749	8126
808.891	8191
809.033	8286
809.174	8202
809.316	8180
809.458	8119
809.6	8096
809.741	7978
809.883	8062
810.025	8046
810.166	8065
810.308	7989
810.45	7917
810.591	7883
810.733	7700
810.875	7662
811.016	7483
811.158	7445
811.299	7548
811.441	7666
811.582	7628
811.724	7567
811.865	7518
812.007	7609
812.148	7639
812.29	7537
812.431	7757
812.573	7849
812.714	7879
812.855	8107
812.997	8187
813.138	8286
813.279	8221
813.421	8035
813.562	7970
813.703	7792
813.845	7734
813.986	7445
814.127	7282
814.268	7183
814.41	7206
814.551	7206
814.692	7282
814.833	7103
814.974	7095
815.115	7095
815.256	6943
815.397	6935
815.539	6871
815.68	6814
815.821	6779
815.962	6867
816.103	6802
816.244	6722
816.385	6642
816.526	6684
816.666	6494
816.807	6319
816.948	6464
817.089	6456
817.23	6395
817.371	6388
817.512	6403
817.653	6399
817.793	6376
817.934	6376
818.075	6441
818.216	6452
818.356	6471
818.497	6258
818.638	6133
818.778	6190
818.919	6163
819.06	6136
819.2	6384
819.341	6334
819.481	6399
819.622	6498
819.762	6741
819.903	6700
820.043	6612
820.184	6616
820.324	6601
820.465	6646
820.605	6711
820.746	6623
820.886	6536
821.026	6646
821.167	6757
821.307	6829
821.447	6787
821.588	6658
821.728	6555
821.868	6517
822.008	6346
822.149	6376
822.289	6311
822.429	6167
822.569	6114
822.709	6110
822.849	5908
822.99	5923
823.13	5897
823.27	5931
823.41	5817
823.55	5794
823.69	5779
823.83	5760
823.97	5672
824.11	5535
824.25	5505
824.389	5524
824.529	5619
824.669	5543
824.809	5604
824.949	5699
825.089	5596
825.228	5554
825.368	5421
825.508	5326
825.648	5345
825.787	5368
825.927	5387
826.067	5258
826.206	5292
826.346	5379
826.485	5398
826.625	5383
826.765	5497
826.904	5425
827.044	5231
827.183	5235
827.323	5159
827.462	5288
827.601	5197
827.741	5212
827.88	5216
828.02	5162
828.159	5197
828.298	5292
828.437	5337
828.577	5273
828.716	5471
828.855	5303
828.994	5181
829.134	5136
829.273	5208
829.412	5136
829.551	5105
829.69	5140
829.829	5250
829.968	5345
830.107	5227
830.246	5254
830.385	5151
830.524	5090
830.663	5071
830.802	5010
830.941	4862
831.08	4919
831.219	4991
831.357	4968
831.496	5181
831.635	4961
831.774	4843
831.913	4816
832.051	4755
832.19	4710
832.329	4812
832.467	4660
832.606	4596
832.744	4733
832.883	4725
833.022	4691
833.16	4812
833.299	4854
833.437	4812
833.576	4820
833.714	4866
833.852	4877
833.991	4896
834.129	4980
834.267	4896
834.406	4908
834.544	4976
834.682	4976
834.821	4984
834.959	5128
835.097	5006
835.235	5136
835.373	5083
835.511	5113
835.65	5022
835.788	5037
835.926	4904
836.064	4896
836.202	4919
836.34	5170
836.478	5193
836.615	5151
836.753	5193
836.891	5277
837.029	5250
837.167	5261
837.305	5155
837.443	5193
837.58	5090
837.718	5220
837.856	5235
837.993	5166
838.131	5246
838.269	5140
838.406	5204
838.544	5166
838.681	5025
838.819	5014
838.956	4919
839.094	4858
839.231	4934
839.369	5048
839.506	5421
839.643	5280
839.781	5018
839.918	4984
840.055	5052
840.193	5132
840.33	5105
840.467	5136
840.604	5166
840.742	5433
840.879	4999
841.016	5102
841.153	5159
841.29	5391
841.427	5307
841.564	5307
841.701	5410
841.838	5231
841.975	5212
842.112	5223
842.249	5143
842.385	5117
842.522	5315
842.659	5185
842.796	5159
842.933	5174
843.069	5151
843.206	5147
843.343	5311
843.479	5208
843.616	5265
843.752	5014
843.889	4953
844.025	5227
844.162	5010
844.298	5197
844.435	5113
844.571	5048
844.708	5261
844.844	5322
844.98	5284
845.117	5303
845.253	5155
845.389	5064
845.525	5201
845.661	5098
845.798	5029
845.934	5109
846.07	5041
846.206	5197
846.342	5246
846.478	5162
846.614	4995
846.75	4930
846.886	4938
847.022	5132
847.158	4984
847.294	5121
847.429	5105
847.565	5033
847.701	5303
847.837	4862
847.972	4786
848.108	4942
848.244	4904
848.379	4774
848.515	4717
848.65	4714
848.786	4736
848.921	4755
849.057	4911
849.192	4885
849.328	4858
849.463	4839
849.598	4771
849.734	4752
849.869	4660
850.004	4618
850.14	4641
850.275	4615
850.41	4588
850.545	4554
850.68	4615
850.815	4641
850.95	4618
851.085	4850
851.22	4759
851.355	4641
851.49	4634
851.625	4641
851.76	4668
851.895	4558
852.03	4481
852.165	4618
852.299	4672
852.434	4793
852.569	4736
852.703	4744
852.838	4847
852.973	4953
853.107	4915
853.242	4733
853.376	4668
853.511	4531
853.645	4596
853.78	4793
853.914	4698
854.048	4675
854.183	4580
854.317	4702
854.451	4786
854.585	4675
854.72	4618
854.854	4805
854.988	4615
855.122	4645
855.256	4546
855.39	4660
855.524	4740
855.658	4767
855.792	4675
855.926	4759
856.06	4805
856.194	4786
856.327	4672
856.461	4611
856.595	4603
856.729	4672
856.862	4748
856.996	4675
857.13	4752
857.263	4736
857.397	4767
857.53	4618
857.664	4634
857.797	4748
857.931	4839
858.064	4660
858.197	4694
858.331	4660
858.464	4584
858.597	4519
858.731	4653
858.864	4634
858.997	4630
859.13	4630
859.263	4645
859.396	4687
859.529	4558
859.662	4596
859.795	4504
859.928	4664
860.061	4721
860.194	4763
860.327	4607
860.46	4577
860.592	4672
860.725	4683
860.858	4725
860.99	4542
861.123	4497
861.256	4542
861.388	4580
861.521	5353
861.653	4474
861.786	4421
861.918	4413
862.05	4512
862.183	4607
862.315	4577
862.447	4599
862.58	4519
862.712	4398
862.844	4352
862.976	4493
863.108	4459
863.24	4889
863.372	4325
863.504	4325
863.636	4432
863.768	4462
863.9	4462
864.032	4379
864.164	4409
864.296	4466
864.428	4565
864.559	4550
864.691	4504
864.823	4527
864.954	4512
865.086	4558
865.217	4432
865.349	4390
865.48	4474
865.612	4459
865.743	4596
865.875	4485
866.006	4413
866.137	4500
866.269	4481
866.4	4462
866.531	4432
866.662	4424
866.793	4405
866.924	4451
867.055	4500
867.186	4497
867.317	4443
867.448	4360
867.579	4402
867.71	4421
867.841	4383
867.972	4451
868.103	4451
868.233	4459
868.364	4421
868.495	4497
868.625	4637
868.756	4755
868.886	4577
869.017	4603
869.147	4793
869.278	4790
869.408	4626
869.539	4672
869.669	4649
869.799	4603
869.929	4748
870.06	4771
870.19	4938
870.32	4919
870.45	4972
870.58	5018
870.71	5033
870.84	5098
870.97	4995
871.1	4877
871.23	5159
871.36	5079
871.489	5037
871.619	5094
871.749	5056
871.879	5140
872.008	5193
872.138	5048
872.267	4995
872.397	4839
872.526	4858
872.656	4679
872.785	4850
872.915	4953
873.044	4999
873.173	4923
873.303	4953
873.432	4972
873.561	4919
873.69	4877
873.819	4850
873.948	4908
874.077	4870
874.206	4774
874.335	4778
874.464	4900
874.593	5083
874.722	4965
874.851	5075
874.979	5025
875.108	5025
875.237	4889
875.365	4877
875.494	4850
875.623	4961
875.751	4828
875.88	4889
876.008	4972
876.136	5014
876.265	5162
876.393	5299
876.521	5242
876.65	5212
876.778	5132
876.906	5083
877.034	5037
877.162	5033
877.29	4953
877.418	5018
877.546	5075
877.674	5048
877.802	5041
877.93	5018
878.058	4919
878.185	4858
878.313	4965
878.441	4911
878.568	4793
878.696	4839
878.824	4968
878.951	5003
879.079	5185
879.206	5261
879.333	5102
879.461	4991
879.588	4987
879.715	5117
879.842	5250
879.97	5018
880.097	4801
880.224	4740
880.351	4835
880.478	4843
880.605	4824
880.732	4828
880.859	5075
880.986	4919
881.112	4892
881.239	4790
881.366	4611
881.493	4561
881.619	4573
881.746	4641
881.872	4683
881.999	4634
882.125	4656
882.252	4782
882.378	4881
882.505	4953
882.631	4847
882.757	4596
882.883	4729
883.01	4740
883.136	4618
883.262	4634
883.388	4637
883.514	4809
883.64	4854
883.766	4793
883.892	4702
884.018	4698
884.143	4801
884.269	4999
884.395	4634
884.52	4622
884.646	4645
884.772	4603
884.897	4569
885.023	4607
885.148	4816
885.274	4847
885.399	4805
885.524	4725
885.65	4660
885.775	4771
885.9	4744
886.025	4816
886.15	4809
886.275	4687
886.4	4672
886.525	4755
886.65	4702
886.775	4694
886.9	4934
887.025	4972
887.149	4816
887.274	4687
887.399	4573
887.523	4596
887.648	4573
887.773	4573
887.897	4702
888.021	4805
888.146	4679
888.27	4805
888.395	4881
888.519	4797
888.643	4786
888.767	4816
888.891	4702
889.015	4558
889.139	4637
889.263	4622
889.387	4736
889.511	4850
889.635	4774
889.759	4626
889.883	4611
890.006	4687
890.13	4835
890.254	4664
890.377	4664
890.501	4497
890.624	4512
890.748	4656
890.871	4481
890.995	4417
891.118	4371
891.241	4516
891.364	4512
891.488	4649
891.611	4527
891.734	4523
891.857	4569
891.98	4565
892.103	4607
892.226	4561
892.349	4508
892.471	4443
892.594	4558
892.717	4607
892.839	4577
892.962	4630
893.085	4649
893.207	4607
893.33	4440
893.452	4516
893.575	4641
893.697	4573
893.819	4809
893.941	4843
894.064	4755
894.186	4580
894.308	4542
894.43	4721
894.552	4835
894.674	4714
894.796	4603
894.918	4592
895.04	4569
895.161	4664
895.283	4675
895.405	4538
895.526	4660
895.648	4634
895.769	4687
895.891	4717
896.012	4782
896.134	4733
896.255	4645
896.376	4630
896.498	4626
896.619	4702
896.74	4592
896.861	4626
896.982	4961
897.103	5052
897.224	4801
897.345	4767
897.466	4660
897.587	4714
897.708	4866
897.828	4793
897.949	4653
898.07	4561
898.19	4592
898.311	4839
898.431	4679
898.552	4725
898.672	4793
898.792	4778
898.913	4721
899.033	4607
899.153	4542
899.273	4398
899.393	4474
899.513	4554
899.633	4508
899.753	4535
899.873	4497
899.993	4584
900.113	4512
900.232	4588
900.352	4523
900.472	4493
900.591	4375
900.711	4527
900.83	4485
900.95	4550
901.069	4698
901.189	4527
901.308	4413
901.427	4329
901.546	4341
901.665	4440
901.784	4542
901.904	4421
902.023	4310
902.141	4169
902.26	4128
902.379	4329
902.498	4306
902.617	4192
902.735	4375
902.854	4363
902.973	4360
903.091	4177
903.21	4204
903.328	4322
903.446	4280
903.565	4223
903.683	4344
903.801	4284
903.919	4394
904.038	4375
904.156	4325
904.274	4390
904.392	4443
904.51	4394
904.627	4474
904.745	4573
904.863	4599
904.981	4405
905.098	4291
905.216	4371
905.334	4462
905.451	4424
905.569	4424
905.686	4596
905.803	4588
905.921	4409
906.038	4527
906.155	4470
906.272	4417
906.389	4527
906.506	4383
906.623	4383
906.74	4402
906.857	4352
906.974	4462
907.091	4538
907.208	4706
907.324	4580
907.441	4478
907.557	4344
907.674	4356
907.79	4360
907.907	4383
908.023	4508
908.139	4493
908.256	4440
908.372	4428
908.488	4409
908.604	4344
908.72	4363
908.836	4352
908.952	4356
909.068	4363
909.184	4618
909.3	4508
909.415	4611
909.531	4580
909.647	4390
909.762	4360
909.878	4352
909.993	4402
910.108	4398
910.224	4405
910.339	4512
910.454	4428
910.57	4352
910.685	4276
910.8	4687
910.915	4618
911.03	4489
911.145	4352
911.259	4329
911.374	4360
911.489	4303
911.604	4284
911.718	4185
911.833	4196
911.947	4120
912.062	4013
912.176	4207
912.291	4204
912.405	4265
912.519	4470
912.633	4504
912.748	4363
912.862	4295
912.976	4219
913.09	4105
913.204	4215
913.318	4261
913.431	4375
913.545	4375
913.659	4440
913.772	4333
913.886	4246
914	4207
914.113	4421
914.226	4428
914.34	4367
914.453	4207
914.566	4443
914.68	4287
914.793	4310
914.906	4135
915.019	4097
915.132	4074
915.245	4185
915.358	4242
915.47	4238
915.583	4291
915.696	4276
915.809	4428
915.921	4409
916.034	4265
916.146	4234
916.259	4177
916.371	4363
916.483	4341
916.595	4227
916.708	4337
916.82	4268
916.932	4310
917.044	4337
917.156	4344
917.268	4238
917.38	4306
917.491	4227
917.603	4314
917.715	4474
917.826	4462
917.938	4356
918.049	4215
918.161	4383
918.272	4542
918.384	4516
918.495	4470
918.606	4257
918.717	4234
918.828	4329
918.939	4405
919.05	4207
919.161	4325
919.272	4082
919.383	4188
919.494	4459
919.604	4599
919.715	4459
919.826	4303
919.936	4383
920.047	4516
920.157	4466
920.267	4691
920.378	4569
920.488	4489
920.598	4675
920.708	4915
920.818	4721
920.928	4782
921.038	4984
921.148	4927
921.258	4626
921.368	4554
921.477	4519
921.587	4481
921.697	4383
921.806	4535
921.916	4432
922.025	4272
922.134	4253
922.244	4230
922.353	4333
922.462	4192
922.571	4093
922.68	3945
922.789	3949
922.898	4010
923.007	3926
923.116	4086
923.224	4078
923.333	4063
923.442	3979
923.55	3979
923.659	4067
923.767	4078
923.876	4036
923.984	4078
924.092	3968
924.201	4071
924.309	4086
924.417	4124
924.525	4101
924.633	4120
924.741	5037
924.849	3888
924.956	4109
925.064	3956
925.172	3915
925.279	3975
925.387	4059
925.494	4063
925.602	4227
925.709	4177
925.816	4059
925.924	4082
926.031	4257
926.138	4196
926.245	4223
926.352	4067
926.459	4246
926.566	4314
926.673	4211
926.779	4082
926.886	4093
926.993	3987
927.099	3983
927.206	3918
927.312	3907
927.419	4025
927.525	4029
927.631	4109
927.737	3964
927.843	3930
927.95	3850
928.056	3941
928.162	4021
928.267	4051
928.373	4588
928.479	4082
928.585	3846
928.69	4071
928.796	4036
928.901	3975
929.007	3804
929.112	3991
929.218	3972
929.323	3918
929.428	3934
929.533	4143
929.638	3915
929.743	3956
929.848	4036
929.953	3979
930.058	3945
930.163	3793
930.267	3835
930.372	3953
930.477	3827
930.581	4048
930.685	3945
930.79	3812
930.894	3819
930.998	3816
931.103	4025
931.207	3724
931.311	3701
931.415	3663
931.519	3519
931.623	3572
