Data from test_V78500241_1678.txt Node
Date: Fri Mar 25 17:00:40 CST 2022
User: usil
Spectrometer: V785-0024
Trigger mode: 0
Integration Time (sec): 4.000000E-1
Scans to average: 1
Nonlinearity correction enabled: false
Boxcar width: 0
Storing dark spectrum: false
XAxis mode: Wavelengths
Number of Pixels in Spectrum: 1024
>>>>>Begin Spectral Data<<<<<
801.071	7989
801.214	8043
801.356	7871
801.499	7795
801.641	7712
801.783	7776
801.926	7978
802.068	7894
802.211	7936
802.353	8020
802.496	7780
802.638	7852
802.78	7940
802.923	7928
803.065	7883
803.208	7887
803.35	7959
803.492	8096
803.635	8084
803.777	8001
803.919	8081
804.061	8404
804.204	8088
804.346	8020
804.488	7959
804.63	8054
804.773	7974
804.915	8020
805.057	8237
805.199	8168
805.341	8244
805.483	8256
805.626	8248
805.768	8088
805.91	8191
806.052	8172
806.194	8111
806.336	8267
806.478	8031
806.62	7989
806.762	8062
806.904	8358
807.046	8446
807.188	8294
807.33	8259
807.472	8275
807.614	8134
807.756	8138
807.898	8008
808.04	7841
808.182	7944
808.324	7883
808.465	7955
808.607	8031
808.749	8039
808.891	8157
809.033	8263
809.174	8180
809.316	8073
809.458	8054
809.6	7986
809.741	8054
809.883	7993
810.025	8100
810.166	8005
810.308	8005
810.45	7997
810.591	7833
810.733	7674
810.875	7658
811.016	7483
811.158	7487
811.299	7613
811.441	7662
811.582	7616
811.724	7506
811.865	7521
812.007	7537
812.148	7616
812.29	7601
812.431	7666
812.573	7788
812.714	8012
812.855	8039
812.997	8138
813.138	8290
813.279	8157
813.421	8100
813.562	7951
813.703	7788
813.845	7723
813.986	7407
814.127	7206
814.268	7152
814.41	7236
814.551	7175
814.692	7225
814.833	7118
814.974	7141
815.115	7099
815.256	7023
815.397	6943
815.539	6928
815.68	6798
815.821	6825
815.962	6856
816.103	6783
816.244	6749
816.385	6623
816.526	6566
816.666	6513
816.807	6239
816.948	6433
817.089	6429
817.23	6486
817.371	6304
817.512	6369
817.653	6410
817.793	6315
817.934	6384
818.075	6460
818.216	6369
818.356	6388
818.497	6239
818.638	6148
818.778	6155
818.919	6140
819.06	6190
819.2	6300
819.341	6270
819.481	6384
819.622	6521
819.762	6730
819.903	6707
820.043	6608
820.184	6563
820.324	6544
820.465	6688
820.605	6639
820.746	6604
820.886	6498
821.026	6597
821.167	6684
821.307	6798
821.447	6772
821.588	6677
821.728	6540
821.868	6506
822.008	6338
822.149	6311
822.289	6357
822.429	6148
822.569	6064
822.709	6121
822.849	5912
822.99	5908
823.13	5889
823.27	5920
823.41	5805
823.55	5809
823.69	5764
823.83	5756
823.97	5649
824.11	5554
824.25	5524
824.389	5501
824.529	5585
824.669	5539
824.809	5608
824.949	5684
825.089	5596
825.228	5478
825.368	5357
825.508	5345
825.648	5265
825.787	5360
825.927	5345
826.067	5326
826.206	5303
826.346	5402
826.485	5410
826.625	5421
826.765	5573
826.904	5425
827.044	5254
827.183	5166
827.323	5079
827.462	5231
827.601	5143
827.741	5159
827.88	5185
828.02	5113
828.159	5159
828.298	5337
828.437	5357
828.577	5296
828.716	5482
828.855	5269
828.994	5162
829.134	5136
829.273	5155
829.412	5128
829.551	5166
829.69	5147
829.829	5216
829.968	5341
830.107	5212
830.246	5277
830.385	5174
830.524	5136
830.663	5037
830.802	4927
830.941	4889
831.08	4896
831.219	4961
831.357	4923
831.496	5181
831.635	4934
831.774	4820
831.913	4805
832.051	4687
832.19	4717
832.329	4820
832.467	4656
832.606	4622
832.744	4679
832.883	4675
833.022	4679
833.16	4763
833.299	4801
833.437	4824
833.576	4835
833.714	4809
833.852	4828
833.991	4881
834.129	4980
834.267	4961
834.406	4877
834.544	4972
834.682	4972
834.821	4923
834.959	5132
835.097	5006
835.235	5128
835.373	5052
835.511	5136
835.65	5022
835.788	5022
835.926	4908
836.064	4862
836.202	4961
836.34	5162
836.478	5197
836.615	5117
836.753	5197
836.891	5303
837.029	5220
837.167	5121
837.305	5159
837.443	5128
837.58	5033
837.718	5223
837.856	5155
837.993	5151
838.131	5239
838.269	5193
838.406	5136
838.544	5174
838.681	4965
838.819	4965
838.956	4896
839.094	4892
839.231	5010
839.369	5098
839.506	5429
839.643	5311
839.781	5045
839.918	4980
840.055	5056
840.193	5105
840.33	5090
840.467	5098
840.604	5201
840.742	5425
840.879	5056
841.016	5098
841.153	5147
841.29	5349
841.427	5299
841.564	5280
841.701	5318
841.838	5235
841.975	5201
842.112	5254
842.249	5132
842.385	5075
842.522	5326
842.659	5181
842.796	5128
842.933	5185
843.069	5143
843.206	5132
843.343	5258
843.479	5250
843.616	5265
843.752	5060
843.889	4965
844.025	5201
844.162	5060
844.298	5220
844.435	5041
844.571	5048
844.708	5197
844.844	5318
844.98	5318
845.117	5258
845.253	5140
845.389	5064
845.525	5147
845.661	5094
845.798	5052
845.934	5136
846.07	5025
846.206	5124
846.342	5280
846.478	5147
846.614	5056
846.75	4991
846.886	4946
847.022	5121
847.158	5003
847.294	5029
847.429	5056
847.565	5033
847.701	5269
847.837	4839
847.972	4797
848.108	4915
848.244	4908
848.379	4752
848.515	4744
848.65	4740
848.786	4759
848.921	4744
849.057	4843
849.192	4930
849.328	4786
849.463	4858
849.598	4786
849.734	4740
849.869	4687
850.004	4653
850.14	4637
850.275	4577
850.41	4546
850.545	4569
850.68	4603
850.815	4603
850.95	4546
851.085	4828
851.22	4714
851.355	4668
851.49	4618
851.625	4626
851.76	4607
851.895	4554
852.03	4527
852.165	4569
852.299	4733
852.434	4774
852.569	4721
852.703	4763
852.838	4873
852.973	4949
853.107	4896
853.242	4698
853.376	4641
853.511	4538
853.645	4656
853.78	4801
853.914	4611
854.048	4641
854.183	4702
854.317	4736
854.451	4854
854.585	4675
854.72	4653
854.854	4710
854.988	4569
855.122	4622
855.256	4485
855.39	4660
855.524	4733
855.658	4702
855.792	4683
855.926	4714
856.06	4744
856.194	4786
856.327	4656
856.461	4630
856.595	4588
856.729	4653
856.862	4733
856.996	4653
857.13	4721
857.263	4748
857.397	4812
857.53	4618
857.664	4725
857.797	4763
857.931	4816
858.064	4675
858.197	4782
858.331	4656
858.464	4565
858.597	4523
858.731	4622
858.864	4630
858.997	4565
859.13	4634
859.263	4653
859.396	4698
859.529	4596
859.662	4538
859.795	4489
859.928	4656
860.061	4710
860.194	4771
860.327	4596
860.46	4577
860.592	4717
860.725	4691
860.858	4759
860.99	4519
861.123	4519
861.256	4508
861.388	4580
861.521	5334
861.653	4474
861.786	4383
861.918	4481
862.05	4466
862.183	4535
862.315	4607
862.447	4618
862.58	4516
862.712	4417
862.844	4337
862.976	4455
863.108	4451
863.24	4752
863.372	4341
863.504	4390
863.636	4383
863.768	4436
863.9	4432
864.032	4348
864.164	4390
864.296	4489
864.428	4538
864.559	4565
864.691	4508
864.823	4459
864.954	4478
865.086	4485
865.217	4443
865.349	4428
865.48	4447
865.612	4432
865.743	4588
865.875	4451
866.006	4390
866.137	4481
866.269	4428
866.4	4432
866.531	4417
866.662	4356
866.793	4379
866.924	4409
867.055	4489
867.186	4436
867.317	4390
867.448	4367
867.579	4310
867.71	4417
867.841	4379
867.972	4451
868.103	4474
868.233	4436
868.364	4455
868.495	4519
868.625	4626
868.756	4714
868.886	4592
869.017	4599
869.147	4759
869.278	4740
869.408	4618
869.539	4637
869.669	4679
869.799	4668
869.929	4763
870.06	4702
870.19	4961
870.32	4900
870.45	4949
870.58	4934
870.71	5121
870.84	5067
870.97	4961
871.1	4870
871.23	5124
871.36	5136
871.489	5022
871.619	5006
871.749	5022
871.879	5075
872.008	5140
872.138	5022
872.267	5018
872.397	4767
872.526	4812
872.656	4691
872.785	4774
872.915	4957
873.044	5071
873.173	4972
873.303	4923
873.432	4934
873.561	4919
873.69	4877
873.819	4831
873.948	4961
874.077	4812
874.206	4828
874.335	4820
874.464	4930
874.593	5014
874.722	4953
874.851	5121
874.979	5037
875.108	5041
875.237	4946
875.365	4889
875.494	4885
875.623	4919
875.751	4809
875.88	4866
876.008	4995
876.136	4991
876.265	5197
876.393	5341
876.521	5216
876.65	5208
876.778	5143
876.906	5079
877.034	5037
877.162	5025
877.29	5018
877.418	5022
877.546	5033
877.674	5029
877.802	4987
877.93	4957
878.058	4908
878.185	4889
878.313	4942
878.441	4934
878.568	4755
878.696	4854
878.824	4972
878.951	4987
879.079	5140
879.206	5227
879.333	5083
879.461	4915
879.588	5006
879.715	5086
879.842	5216
879.97	4991
880.097	4793
880.224	4729
880.351	4778
880.478	4843
880.605	4828
880.732	4717
880.859	5086
880.986	4889
881.112	4927
881.239	4752
881.366	4679
881.493	4626
881.619	4599
881.746	4622
881.872	4622
881.999	4630
882.125	4694
882.252	4771
882.378	4778
882.505	4968
882.631	4793
882.757	4634
882.883	4679
883.01	4710
883.136	4668
883.262	4580
883.388	4596
883.514	4809
883.64	4812
883.766	4824
883.892	4717
884.018	4675
884.143	4949
884.269	5037
884.395	4653
884.52	4637
884.646	4672
884.772	4599
884.897	4569
885.023	4675
885.148	4755
885.274	4870
885.399	4797
885.524	4755
885.65	4672
885.775	4755
885.9	4698
886.025	4873
886.15	4793
886.275	4694
886.4	4687
886.525	4740
886.65	4721
886.775	4660
886.9	4915
887.025	5025
887.149	4828
887.274	4637
887.399	4626
887.523	4519
887.648	4577
887.773	4573
887.897	4733
888.021	4805
888.146	4634
888.27	4843
888.395	4885
888.519	4755
888.643	4755
888.767	4809
888.891	4675
889.015	4596
889.139	4645
889.263	4611
889.387	4725
889.511	4828
889.635	4733
889.759	4634
889.883	4634
890.006	4763
890.13	4831
890.254	4622
890.377	4679
890.501	4538
890.624	4512
890.748	4649
890.871	4531
890.995	4428
891.118	4413
891.241	4535
891.364	4466
891.488	4653
891.611	4504
891.734	4527
891.857	4611
891.98	4558
892.103	4698
892.226	4554
892.349	4527
892.471	4390
892.594	4489
892.717	4580
892.839	4550
892.962	4596
893.085	4683
893.207	4626
893.33	4443
893.452	4478
893.575	4626
893.697	4596
893.819	4782
893.941	4835
894.064	4748
894.186	4592
894.308	4554
894.43	4752
894.552	4843
894.674	4744
894.796	4561
894.918	4626
895.04	4558
895.161	4710
895.283	4641
895.405	4558
895.526	4634
895.648	4649
895.769	4664
895.891	4664
896.012	4740
896.134	4660
896.255	4656
896.376	4630
896.498	4691
896.619	4675
896.74	4645
896.861	4649
896.982	4938
897.103	5094
897.224	4839
897.345	4714
897.466	4702
897.587	4717
897.708	4866
897.828	4759
897.949	4698
898.07	4554
898.19	4596
898.311	4873
898.431	4683
898.552	4698
898.672	4820
898.792	4740
898.913	4740
899.033	4645
899.153	4504
899.273	4413
899.393	4462
899.513	4508
899.633	4485
899.753	4519
899.873	4508
899.993	4554
900.113	4542
900.232	4546
900.352	4512
900.472	4462
900.591	4379
900.711	4470
900.83	4424
900.95	4603
901.069	4691
901.189	4558
901.308	4405
901.427	4306
901.546	4341
901.665	4519
901.784	4527
901.904	4379
902.023	4325
902.141	4188
902.26	4162
902.379	4249
902.498	4227
902.617	4207
902.735	4383
902.854	4413
902.973	4337
903.091	4185
903.21	4227
903.328	4287
903.446	4230
903.565	4272
903.683	4348
903.801	4287
903.919	4390
904.038	4455
904.156	4333
904.274	4409
904.392	4402
904.51	4409
904.627	4432
904.745	4550
904.863	4603
904.981	4356
905.098	4363
905.216	4367
905.334	4455
905.451	4417
905.569	4375
905.686	4497
905.803	4561
905.921	4405
906.038	4542
906.155	4497
906.272	4424
906.389	4432
906.506	4352
906.623	4325
906.74	4398
906.857	4310
906.974	4409
907.091	4527
907.208	4653
907.324	4641
907.441	4470
907.557	4287
907.674	4329
907.79	4341
907.907	4383
908.023	4493
908.139	4474
908.256	4459
908.372	4481
908.488	4466
908.604	4344
908.72	4310
908.836	4356
908.952	4375
909.068	4417
909.184	4527
909.3	4451
909.415	4577
909.531	4535
909.647	4348
909.762	4390
909.878	4333
909.993	4424
910.108	4417
910.224	4383
910.339	4474
910.454	4409
910.57	4386
910.685	4318
910.8	4622
910.915	4577
911.03	4462
911.145	4337
911.259	4314
911.374	4341
911.489	4272
911.604	4280
911.718	4162
911.833	4211
911.947	4032
912.062	4055
912.176	4158
912.291	4242
912.405	4249
912.519	4402
912.633	4481
912.748	4341
912.862	4303
912.976	4192
913.09	4093
913.204	4173
913.318	4242
913.431	4337
913.545	4337
913.659	4413
913.772	4360
913.886	4227
914	4207
914.113	4352
914.226	4421
914.34	4386
914.453	4242
914.566	4413
914.68	4322
914.793	4329
914.906	4154
915.019	4112
915.132	4078
915.245	4181
915.358	4246
915.47	4219
915.583	4234
915.696	4303
915.809	4436
915.921	4383
916.034	4272
916.146	4242
916.259	4215
916.371	4367
916.483	4383
916.595	4211
916.708	4268
916.82	4268
916.932	4341
917.044	4356
917.156	4303
917.268	4211
917.38	4318
917.491	4257
917.603	4383
917.715	4402
917.826	4440
917.938	4322
918.049	4200
918.161	4352
918.272	4531
918.384	4584
918.495	4462
918.606	4337
918.717	4276
918.828	4314
918.939	4348
919.05	4215
919.161	4318
919.272	4120
919.383	4227
919.494	4462
919.604	4618
919.715	4424
919.826	4363
919.936	4386
920.047	4527
920.157	4481
920.267	4660
920.378	4569
920.488	4451
920.598	4687
920.708	4881
920.818	4771
920.928	4763
921.038	4915
921.148	4854
921.258	4592
921.368	4561
921.477	4440
921.587	4493
921.697	4363
921.806	4554
921.916	4409
922.025	4249
922.134	4280
922.244	4291
922.353	4329
922.462	4196
922.571	4131
922.68	4002
922.789	4006
922.898	4017
923.007	3968
923.116	4120
923.224	4063
923.333	4048
923.442	3964
923.55	4025
923.659	4044
923.767	4086
923.876	4010
923.984	4112
924.092	3930
924.201	4090
924.309	4086
924.417	4097
924.525	4067
924.633	4093
924.741	4866
924.849	3956
924.956	4071
925.064	3937
925.172	3876
925.279	3983
925.387	4055
925.494	4044
925.602	4188
925.709	4188
925.816	4013
925.924	4112
926.031	4246
926.138	4150
926.245	4166
926.352	4074
926.459	4230
926.566	4310
926.673	4143
926.779	4059
926.886	4105
926.993	3975
927.099	3960
927.206	3918
927.312	3926
927.419	4025
927.525	4010
927.631	4074
927.737	3930
927.843	3899
927.95	3827
928.056	3960
928.162	3983
928.267	4071
928.373	4649
928.479	4116
928.585	3892
928.69	4006
928.796	4055
928.901	3949
929.007	3861
929.112	4013
929.218	4006
929.323	3956
929.428	3926
929.533	4131
929.638	3915
929.743	3960
929.848	4048
929.953	4010
930.058	3945
930.163	3793
930.267	3823
930.372	3937
930.477	3819
930.581	4074
930.685	3987
930.79	3800
930.894	3873
930.998	3835
931.103	3991
931.207	3701
931.311	3663
931.415	3652
931.519	3500
931.623	3534
