Data from test_V78500241_1139.txt Node
Date: Fri Mar 25 16:56:55 CST 2022
User: usil
Spectrometer: V785-0024
Trigger mode: 0
Integration Time (sec): 4.000000E-1
Scans to average: 1
Nonlinearity correction enabled: false
Boxcar width: 0
Storing dark spectrum: false
XAxis mode: Wavelengths
Number of Pixels in Spectrum: 1024
>>>>>Begin Spectral Data<<<<<
801.071	8073
801.214	8062
801.356	7902
801.499	7913
801.641	7849
801.783	7811
801.926	7967
802.068	7974
802.211	7993
802.353	8031
802.496	7776
802.638	7822
802.78	7936
802.923	7913
803.065	7887
803.208	7890
803.35	8027
803.492	8142
803.635	8202
803.777	8024
803.919	8142
804.061	8461
804.204	8237
804.346	8111
804.488	8043
804.63	8084
804.773	8001
804.915	8084
805.057	8286
805.199	8164
805.341	8107
805.483	8336
805.626	8233
805.768	8145
805.91	8259
806.052	8294
806.194	8103
806.336	8271
806.478	8100
806.62	8096
806.762	8126
806.904	8282
807.046	8526
807.188	8313
807.33	8339
807.472	8339
807.614	8256
807.756	8130
807.898	8024
808.04	7871
808.182	7932
808.324	7951
808.465	7970
808.607	8077
808.749	8088
808.891	8248
809.033	8252
809.174	8199
809.316	8050
809.458	8012
809.6	7989
809.741	8031
809.883	7997
810.025	8084
810.166	8054
810.308	7947
810.45	8024
810.591	7936
810.733	7708
810.875	7655
811.016	7525
811.158	7529
811.299	7639
811.441	7693
811.582	7704
811.724	7582
811.865	7582
812.007	7552
812.148	7563
812.29	7620
812.431	7708
812.573	7864
812.714	7982
812.855	8111
812.997	8130
813.138	8355
813.279	8168
813.421	8145
813.562	8027
813.703	7921
813.845	7750
813.986	7449
814.127	7270
814.268	7152
814.41	7232
814.551	7122
814.692	7168
814.833	7103
814.974	7095
815.115	7099
815.256	6966
815.397	6916
815.539	6985
815.68	6890
815.821	6882
815.962	6916
816.103	6844
816.244	6783
816.385	6639
816.526	6623
816.666	6517
816.807	6361
816.948	6422
817.089	6506
817.23	6475
817.371	6429
817.512	6395
817.653	6388
817.793	6369
817.934	6471
818.075	6475
818.216	6414
818.356	6407
818.497	6235
818.638	6110
818.778	6171
818.919	6152
819.06	6194
819.2	6323
819.341	6369
819.481	6418
819.622	6528
819.762	6711
819.903	6745
820.043	6578
820.184	6623
820.324	6517
820.465	6631
820.605	6635
820.746	6616
820.886	6517
821.026	6662
821.167	6711
821.307	6821
821.447	6772
821.588	6681
821.728	6669
821.868	6502
822.008	6311
822.149	6342
822.289	6331
822.429	6152
822.569	6114
822.709	6175
822.849	5908
822.99	5939
823.13	5893
823.27	5961
823.41	5832
823.55	5817
823.69	5710
823.83	5718
823.97	5653
824.11	5512
824.25	5493
824.389	5539
824.529	5573
824.669	5520
824.809	5661
824.949	5630
825.089	5596
825.228	5573
825.368	5410
825.508	5311
825.648	5334
825.787	5376
825.927	5376
826.067	5269
826.206	5280
826.346	5379
826.485	5383
826.625	5417
826.765	5554
826.904	5474
827.044	5269
827.183	5178
827.323	5109
827.462	5265
827.601	5197
827.741	5197
827.88	5239
828.02	5117
828.159	5239
828.298	5258
828.437	5334
828.577	5269
828.716	5474
828.855	5315
828.994	5189
829.134	5136
829.273	5185
829.412	5147
829.551	5098
829.69	5159
829.829	5296
829.968	5326
830.107	5239
830.246	5242
830.385	5151
830.524	5181
830.663	5117
830.802	4984
830.941	4881
831.08	4820
831.219	5003
831.357	4984
831.496	5170
831.635	4919
831.774	4839
831.913	4870
832.051	4717
832.19	4752
832.329	4850
832.467	4683
832.606	4675
832.744	4774
832.883	4774
833.022	4721
833.16	4835
833.299	4831
833.437	4828
833.576	4801
833.714	4866
833.852	4892
833.991	4866
834.129	4980
834.267	4957
834.406	4873
834.544	4953
834.682	4984
834.821	4995
834.959	5159
835.097	4999
835.235	5159
835.373	5086
835.511	5071
835.65	5037
835.788	5037
835.926	4896
836.064	4870
836.202	4919
836.34	5185
836.478	5201
836.615	5136
836.753	5250
836.891	5288
837.029	5318
837.167	5212
837.305	5159
837.443	5159
837.58	5067
837.718	5246
837.856	5235
837.993	5109
838.131	5239
838.269	5208
838.406	5185
838.544	5162
838.681	5067
838.819	5014
838.956	4866
839.094	4843
839.231	4961
839.369	5117
839.506	5417
839.643	5273
839.781	5071
839.918	4995
840.055	5136
840.193	5060
840.33	5048
840.467	5185
840.604	5181
840.742	5440
840.879	5067
841.016	5124
841.153	5113
841.29	5360
841.427	5337
841.564	5311
841.701	5357
841.838	5326
841.975	5235
842.112	5254
842.249	5098
842.385	5086
842.522	5337
842.659	5231
842.796	5212
842.933	5124
843.069	5128
843.206	5185
843.343	5254
843.479	5242
843.616	5258
843.752	5067
843.889	5014
844.025	5220
844.162	5025
844.298	5170
844.435	5056
844.571	5083
844.708	5204
844.844	5318
844.98	5315
845.117	5280
845.253	5098
845.389	5132
845.525	5143
845.661	5147
845.798	5052
845.934	5117
846.07	5067
846.206	5212
846.342	5258
846.478	5113
846.614	5003
846.75	4991
846.886	4942
847.022	5178
847.158	5010
847.294	5045
847.429	5117
847.565	5045
847.701	5318
847.837	4816
847.972	4847
848.108	4934
848.244	4972
848.379	4763
848.515	4706
848.65	4672
848.786	4733
848.921	4771
849.057	4870
849.192	4942
849.328	4793
849.463	4881
849.598	4805
849.734	4767
849.869	4664
850.004	4626
850.14	4710
850.275	4626
850.41	4519
850.545	4550
850.68	4649
850.815	4672
850.95	4653
851.085	4870
851.22	4771
851.355	4653
851.49	4603
851.625	4584
851.76	4637
851.895	4573
852.03	4527
852.165	4649
852.299	4729
852.434	4755
852.569	4748
852.703	4763
852.838	4809
852.973	4915
853.107	4885
853.242	4752
853.376	4668
853.511	4561
853.645	4618
853.78	4824
853.914	4637
854.048	4687
854.183	4645
854.317	4687
854.451	4843
854.585	4702
854.72	4710
854.854	4748
854.988	4615
855.122	4641
855.256	4516
855.39	4679
855.524	4771
855.658	4752
855.792	4675
855.926	4752
856.06	4744
856.194	4824
856.327	4721
856.461	4603
856.595	4649
856.729	4698
856.862	4744
856.996	4664
857.13	4721
857.263	4725
857.397	4820
857.53	4694
857.664	4710
857.797	4752
857.931	4801
858.064	4706
858.197	4717
858.331	4656
858.464	4607
858.597	4565
858.731	4634
858.864	4634
858.997	4592
859.13	4706
859.263	4691
859.396	4702
859.529	4607
859.662	4542
859.795	4527
859.928	4622
860.061	4748
860.194	4748
860.327	4580
860.46	4596
860.592	4687
860.725	4706
860.858	4691
860.99	4588
861.123	4542
861.256	4489
861.388	4618
861.521	5334
861.653	4485
861.786	4455
861.918	4466
862.05	4500
862.183	4565
862.315	4630
862.447	4645
862.58	4550
862.712	4367
862.844	4344
862.976	4470
863.108	4466
863.24	4866
863.372	4295
863.504	4443
863.636	4344
863.768	4459
863.9	4386
864.032	4367
864.164	4394
864.296	4474
864.428	4584
864.559	4561
864.691	4497
864.823	4523
864.954	4485
865.086	4470
865.217	4413
865.349	4421
865.48	4447
865.612	4462
865.743	4603
865.875	4451
866.006	4424
866.137	4455
866.269	4436
866.4	4436
866.531	4379
866.662	4390
866.793	4402
866.924	4451
867.055	4500
867.186	4424
867.317	4409
867.448	4386
867.579	4394
867.71	4455
867.841	4333
867.972	4428
868.103	4447
868.233	4443
868.364	4459
868.495	4500
868.625	4618
868.756	4755
868.886	4531
869.017	4580
869.147	4736
869.278	4683
869.408	4618
869.539	4645
869.669	4717
869.799	4637
869.929	4759
870.06	4782
870.19	4938
870.32	4938
870.45	4915
870.58	4999
870.71	5086
870.84	5048
870.97	4976
871.1	4923
871.23	5109
871.36	5132
871.489	4984
871.619	5075
871.749	5018
871.879	5067
872.008	5197
872.138	5006
872.267	4930
872.397	4820
872.526	4786
872.656	4733
872.785	4831
872.915	4911
873.044	4965
873.173	4930
873.303	4957
873.432	4949
873.561	4923
873.69	4904
873.819	4923
873.948	4923
874.077	4812
874.206	4805
874.335	4801
874.464	4949
874.593	5041
874.722	4904
874.851	5060
874.979	5029
875.108	4995
875.237	4885
875.365	4877
875.494	4870
875.623	4980
875.751	4828
875.88	4862
876.008	4976
876.136	4961
876.265	5109
876.393	5341
876.521	5277
876.65	5216
876.778	5143
876.906	5037
877.034	4961
877.162	5045
877.29	4968
877.418	5132
877.546	5079
877.674	5025
877.802	4999
877.93	4995
878.058	4968
878.185	4847
878.313	4961
878.441	4934
878.568	4805
878.696	4889
878.824	4923
878.951	4984
879.079	5064
879.206	5280
879.333	5121
879.461	4965
879.588	4980
879.715	5147
879.842	5231
879.97	4987
880.097	4771
880.224	4759
880.351	4797
880.478	4801
880.605	4763
880.732	4748
880.859	5098
880.986	4866
881.112	4923
881.239	4786
881.366	4656
881.493	4565
881.619	4573
881.746	4683
881.872	4641
881.999	4622
882.125	4660
882.252	4782
882.378	4778
882.505	4991
882.631	4801
882.757	4687
882.883	4725
883.01	4698
883.136	4664
883.262	4603
883.388	4626
883.514	4824
883.64	4877
883.766	4786
883.892	4656
884.018	4698
884.143	4835
884.269	4972
884.395	4611
884.52	4622
884.646	4641
884.772	4615
884.897	4596
885.023	4630
885.148	4786
885.274	4862
885.399	4797
885.524	4702
885.65	4672
885.775	4748
885.9	4664
886.025	4843
886.15	4755
886.275	4740
886.4	4725
886.525	4725
886.65	4675
886.775	4660
886.9	4889
887.025	4942
887.149	4778
887.274	4634
887.399	4603
887.523	4538
887.648	4558
887.773	4565
887.897	4782
888.021	4801
888.146	4691
888.27	4771
888.395	4858
888.519	4820
888.643	4805
888.767	4782
888.891	4672
889.015	4558
889.139	4664
889.263	4546
889.387	4717
889.511	4831
889.635	4782
889.759	4599
889.883	4637
890.006	4675
890.13	4816
890.254	4645
890.377	4675
890.501	4512
890.624	4508
890.748	4603
890.871	4512
890.995	4428
891.118	4383
891.241	4535
891.364	4546
891.488	4596
891.611	4470
891.734	4538
891.857	4637
891.98	4516
892.103	4637
892.226	4554
892.349	4497
892.471	4394
892.594	4527
892.717	4554
892.839	4481
892.962	4615
893.085	4675
893.207	4596
893.33	4428
893.452	4519
893.575	4649
893.697	4550
893.819	4782
893.941	4790
894.064	4759
894.186	4577
894.308	4538
894.43	4702
894.552	4782
894.674	4721
894.796	4542
894.918	4508
895.04	4603
895.161	4721
895.283	4645
895.405	4565
895.526	4626
895.648	4710
895.769	4672
895.891	4702
896.012	4710
896.134	4729
896.255	4706
896.376	4599
896.498	4626
896.619	4672
896.74	4580
896.861	4607
896.982	4934
897.103	5048
897.224	4896
897.345	4725
897.466	4637
897.587	4694
897.708	4828
897.828	4759
897.949	4672
898.07	4580
898.19	4637
898.311	4828
898.431	4656
898.552	4656
898.672	4809
898.792	4778
898.913	4702
899.033	4622
899.153	4516
899.273	4417
899.393	4508
899.513	4542
899.633	4508
899.753	4489
899.873	4462
899.993	4569
900.113	4500
900.232	4573
900.352	4527
900.472	4489
900.591	4394
900.711	4485
900.83	4451
900.95	4558
901.069	4645
901.189	4538
901.308	4303
901.427	4318
901.546	4356
901.665	4440
901.784	4462
901.904	4371
902.023	4310
902.141	4143
902.26	4158
902.379	4276
902.498	4261
902.617	4223
902.735	4379
902.854	4371
902.973	4318
903.091	4166
903.21	4230
903.328	4314
903.446	4246
903.565	4272
903.683	4299
903.801	4272
903.919	4383
904.038	4417
904.156	4310
904.274	4424
904.392	4405
904.51	4409
904.627	4493
904.745	4527
904.863	4615
904.981	4394
905.098	4295
905.216	4348
905.334	4432
905.451	4436
905.569	4413
905.686	4527
905.803	4523
905.921	4352
906.038	4565
906.155	4451
906.272	4424
906.389	4436
906.506	4375
906.623	4322
906.74	4413
906.857	4310
906.974	4333
907.091	4500
907.208	4710
907.324	4550
907.441	4558
907.557	4360
907.674	4333
907.79	4318
907.907	4329
908.023	4436
908.139	4443
908.256	4405
908.372	4447
908.488	4440
908.604	4375
908.72	4329
908.836	4325
908.952	4405
909.068	4402
909.184	4558
909.3	4459
909.415	4580
909.531	4538
909.647	4322
909.762	4379
909.878	4375
909.993	4443
910.108	4386
910.224	4413
910.339	4508
910.454	4421
910.57	4341
910.685	4287
910.8	4630
910.915	4611
911.03	4466
911.145	4333
911.259	4333
911.374	4322
911.489	4310
911.604	4272
911.718	4188
911.833	4139
911.947	4059
912.062	4032
912.176	4181
912.291	4211
912.405	4204
912.519	4451
912.633	4481
912.748	4341
912.862	4329
912.976	4154
913.09	4063
913.204	4158
913.318	4242
913.431	4348
913.545	4284
913.659	4424
913.772	4371
913.886	4219
914	4147
914.113	4379
914.226	4390
914.34	4337
914.453	4276
914.566	4417
914.68	4314
914.793	4325
914.906	4128
915.019	4150
915.132	4063
915.245	4147
915.358	4219
915.47	4219
915.583	4234
915.696	4306
915.809	4405
915.921	4424
916.034	4246
916.146	4253
916.259	4219
916.371	4352
916.483	4371
916.595	4299
916.708	4352
916.82	4310
916.932	4284
917.044	4360
917.156	4303
917.268	4253
917.38	4230
917.491	4265
917.603	4341
917.715	4363
917.826	4421
917.938	4344
918.049	4230
918.161	4402
918.272	4436
918.384	4535
918.495	4440
918.606	4341
918.717	4204
918.828	4329
918.939	4394
919.05	4246
919.161	4303
919.272	4097
919.383	4227
919.494	4424
919.604	4573
919.715	4398
919.826	4386
919.936	4379
920.047	4512
920.157	4497
920.267	4679
920.378	4519
920.488	4478
920.598	4706
920.708	4881
920.818	4759
920.928	4774
921.038	4911
921.148	4862
921.258	4588
921.368	4569
921.477	4466
921.587	4451
921.697	4310
921.806	4538
921.916	4405
922.025	4234
922.134	4249
922.244	4204
922.353	4272
922.462	4196
922.571	4173
922.68	4025
922.789	4021
922.898	4006
923.007	4010
923.116	4112
923.224	4017
923.333	4055
923.442	3964
923.55	3968
923.659	4002
923.767	4093
923.876	3964
923.984	4124
924.092	3998
924.201	4112
924.309	4051
924.417	4116
924.525	4044
924.633	4078
924.741	5045
924.849	3876
924.956	4090
925.064	3983
925.172	3926
925.279	3926
925.387	4063
925.494	4044
925.602	4207
925.709	4188
925.816	4044
925.924	4105
926.031	4227
926.138	4112
926.245	4185
926.352	4036
926.459	4265
926.566	4284
926.673	4158
926.779	4059
926.886	4048
926.993	3930
927.099	3979
927.206	3956
927.312	3949
927.419	4082
927.525	4002
927.631	4067
927.737	3991
927.843	3896
927.95	3842
928.056	3937
928.162	3972
928.267	4067
928.373	4679
928.479	4067
928.585	3857
928.69	3987
928.796	4036
928.901	3922
929.007	3842
929.112	4006
929.218	3960
929.323	3922
929.428	3899
929.533	4074
929.638	3892
929.743	3934
929.848	4055
929.953	4006
930.058	3945
930.163	3785
930.267	3785
930.372	3972
930.477	3831
930.581	4059
930.685	3930
930.79	3785
930.894	3915
930.998	3842
931.103	4013
931.207	3698
931.311	3694
931.415	3637
931.519	3507
931.623	3538
