Data from test_V78500241_1641.txt Node
Date: Fri Mar 25 17:00:24 CST 2022
User: usil
Spectrometer: V785-0024
Trigger mode: 0
Integration Time (sec): 4.000000E-1
Scans to average: 1
Nonlinearity correction enabled: false
Boxcar width: 0
Storing dark spectrum: false
XAxis mode: Wavelengths
Number of Pixels in Spectrum: 1024
>>>>>Begin Spectral Data<<<<<
801.071	8005
801.214	8027
801.356	7818
801.499	7871
801.641	7830
801.783	7845
801.926	7913
802.068	7986
802.211	7982
802.353	7993
802.496	7902
802.638	7845
802.78	7902
802.923	7921
803.065	7883
803.208	7860
803.35	7928
803.492	8043
803.635	8100
803.777	7970
803.919	8164
804.061	8514
804.204	8142
804.346	8069
804.488	7909
804.63	8096
804.773	8035
804.915	8065
805.057	8275
805.199	8191
805.341	8214
805.483	8225
805.626	8214
805.768	8088
805.91	8176
806.052	8153
806.194	8149
806.336	8267
806.478	8073
806.62	7978
806.762	8130
806.904	8305
807.046	8465
807.188	8374
807.33	8301
807.472	8317
807.614	8183
807.756	8130
807.898	8065
808.04	7841
808.182	7894
808.324	7871
808.465	7875
808.607	8069
808.749	8145
808.891	8157
809.033	8328
809.174	8164
809.316	8054
809.458	7955
809.6	7986
809.741	7989
809.883	7970
810.025	8046
810.166	8043
810.308	7944
810.45	7936
810.591	7841
810.733	7715
810.875	7685
811.016	7438
811.158	7441
811.299	7616
811.441	7666
811.582	7681
811.724	7575
811.865	7571
812.007	7578
812.148	7525
812.29	7632
812.431	7780
812.573	7955
812.714	7970
812.855	8172
812.997	8195
813.138	8332
813.279	8206
813.421	8100
813.562	7982
813.703	7807
813.845	7719
813.986	7362
814.127	7232
814.268	7206
814.41	7133
814.551	7152
814.692	7190
814.833	7160
814.974	7118
815.115	7168
815.256	6939
815.397	6844
815.539	6913
815.68	6837
815.821	6741
815.962	6844
816.103	6833
816.244	6753
816.385	6574
816.526	6612
816.666	6483
816.807	6331
816.948	6422
817.089	6483
817.23	6365
817.371	6372
817.512	6342
817.653	6399
817.793	6388
817.934	6407
818.075	6441
818.216	6426
818.356	6437
818.497	6296
818.638	6087
818.778	6144
818.919	6117
819.06	6129
819.2	6304
819.341	6289
819.481	6334
819.622	6502
819.762	6711
819.903	6703
820.043	6551
820.184	6547
820.324	6593
820.465	6726
820.605	6654
820.746	6597
820.886	6498
821.026	6681
821.167	6711
821.307	6818
821.447	6791
821.588	6684
821.728	6563
821.868	6593
822.008	6296
822.149	6300
822.289	6319
822.429	6136
822.569	6079
822.709	6114
822.849	5946
822.99	5885
823.13	5912
823.27	5908
823.41	5821
823.55	5859
823.69	5748
823.83	5802
823.97	5680
824.11	5467
824.25	5493
824.389	5551
824.529	5562
824.669	5528
824.809	5653
824.949	5623
825.089	5581
825.228	5566
825.368	5417
825.508	5326
825.648	5349
825.787	5383
825.927	5318
826.067	5311
826.206	5337
826.346	5337
826.485	5376
826.625	5414
826.765	5497
826.904	5486
827.044	5246
827.183	5216
827.323	5113
827.462	5223
827.601	5140
827.741	5185
827.88	5235
828.02	5136
828.159	5193
828.298	5292
828.437	5395
828.577	5280
828.716	5387
828.855	5258
828.994	5124
829.134	5132
829.273	5166
829.412	5162
829.551	5121
829.69	5170
829.829	5223
829.968	5368
830.107	5235
830.246	5284
830.385	5193
830.524	5124
830.663	5090
830.802	4953
830.941	4919
831.08	4850
831.219	5018
831.357	4980
831.496	5189
831.635	4961
831.774	4828
831.913	4862
832.051	4778
832.19	4801
832.329	4835
832.467	4710
832.606	4622
832.744	4706
832.883	4698
833.022	4710
833.16	4763
833.299	4843
833.437	4809
833.576	4831
833.714	4885
833.852	4850
833.991	4858
834.129	4965
834.267	4972
834.406	4938
834.544	4930
834.682	4946
834.821	4911
834.959	5124
835.097	4972
835.235	5136
835.373	5041
835.511	5109
835.65	5029
835.788	5064
835.926	4889
836.064	4839
836.202	4847
836.34	5132
836.478	5250
836.615	5117
836.753	5193
836.891	5250
837.029	5181
837.167	5242
837.305	5155
837.443	5155
837.58	5121
837.718	5254
837.856	5124
837.993	5128
838.131	5227
838.269	5181
838.406	5216
838.544	5193
838.681	4987
838.819	4957
838.956	4908
839.094	4911
839.231	4938
839.369	5083
839.506	5395
839.643	5227
839.781	5060
839.918	5003
840.055	5067
840.193	5033
840.33	5147
840.467	5132
840.604	5132
840.742	5440
840.879	5083
841.016	5083
841.153	5151
841.29	5364
841.427	5330
841.564	5315
841.701	5288
841.838	5254
841.975	5265
842.112	5269
842.249	5098
842.385	5124
842.522	5315
842.659	5143
842.796	5136
842.933	5143
843.069	5136
843.206	5147
843.343	5303
843.479	5166
843.616	5246
843.752	5045
843.889	4972
844.025	5208
844.162	4976
844.298	5185
844.435	5075
844.571	4984
844.708	5185
844.844	5277
844.98	5341
845.117	5292
845.253	5109
845.389	5025
845.525	5170
845.661	5102
845.798	5045
845.934	5105
846.07	5037
846.206	5239
846.342	5216
846.478	5162
846.614	4995
846.75	4968
846.886	4919
847.022	5075
847.158	5048
847.294	5025
847.429	5086
847.565	5022
847.701	5307
847.837	4828
847.972	4824
848.108	4896
848.244	4927
848.379	4782
848.515	4717
848.65	4710
848.786	4767
848.921	4786
849.057	4820
849.192	4892
849.328	4778
849.463	4797
849.598	4771
849.734	4790
849.869	4672
850.004	4592
850.14	4615
850.275	4611
850.41	4493
850.545	4580
850.68	4584
850.815	4626
850.95	4592
851.085	4835
851.22	4748
851.355	4710
851.49	4580
851.625	4603
851.76	4630
851.895	4538
852.03	4512
852.165	4672
852.299	4679
852.434	4736
852.569	4748
852.703	4767
852.838	4858
852.973	4915
853.107	4927
853.242	4714
853.376	4675
853.511	4554
853.645	4626
853.78	4805
853.914	4656
854.048	4694
854.183	4664
854.317	4687
854.451	4820
854.585	4653
854.72	4660
854.854	4752
854.988	4599
855.122	4550
855.256	4500
855.39	4645
855.524	4778
855.658	4694
855.792	4672
855.926	4679
856.06	4736
856.194	4774
856.327	4679
856.461	4580
856.595	4561
856.729	4584
856.862	4717
856.996	4656
857.13	4748
857.263	4774
857.397	4755
857.53	4641
857.664	4710
857.797	4771
857.931	4839
858.064	4706
858.197	4763
858.331	4618
858.464	4603
858.597	4474
858.731	4577
858.864	4588
858.997	4603
859.13	4691
859.263	4626
859.396	4710
859.529	4588
859.662	4550
859.795	4516
859.928	4656
860.061	4748
860.194	4771
860.327	4603
860.46	4554
860.592	4687
860.725	4668
860.858	4683
860.99	4599
861.123	4558
861.256	4531
861.388	4592
861.521	5220
861.653	4500
861.786	4447
861.918	4459
862.05	4481
862.183	4546
862.315	4592
862.447	4607
862.58	4504
862.712	4394
862.844	4303
862.976	4481
863.108	4413
863.24	4782
863.372	4329
863.504	4405
863.636	4367
863.768	4485
863.9	4405
864.032	4348
864.164	4390
864.296	4451
864.428	4535
864.559	4573
864.691	4523
864.823	4546
864.954	4527
865.086	4462
865.217	4409
865.349	4398
865.48	4459
865.612	4462
865.743	4558
865.875	4466
866.006	4432
866.137	4478
866.269	4417
866.4	4409
866.531	4440
866.662	4421
866.793	4417
866.924	4413
867.055	4527
867.186	4432
867.317	4432
867.448	4440
867.579	4375
867.71	4360
867.841	4333
867.972	4466
868.103	4462
868.233	4413
868.364	4421
868.495	4508
868.625	4668
868.756	4748
868.886	4550
869.017	4653
869.147	4752
869.278	4717
869.408	4618
869.539	4592
869.669	4672
869.799	4615
869.929	4702
870.06	4778
870.19	4923
870.32	4911
870.45	4915
870.58	5006
870.71	5090
870.84	5060
870.97	4908
871.1	4900
871.23	5124
871.36	5090
871.489	5014
871.619	5052
871.749	5079
871.879	5064
872.008	5178
872.138	5045
872.267	4965
872.397	4831
872.526	4778
872.656	4736
872.785	4774
872.915	4957
873.044	5075
873.173	4953
873.303	4915
873.432	4934
873.561	4991
873.69	4885
873.819	4896
873.948	4934
874.077	4797
874.206	4782
874.335	4816
874.464	4911
874.593	5041
874.722	4987
874.851	5067
874.979	5037
875.108	5048
875.237	4923
875.365	4889
875.494	4866
875.623	4957
875.751	4816
875.88	4904
876.008	4995
876.136	5018
876.265	5178
876.393	5318
876.521	5239
876.65	5208
876.778	5117
876.906	5045
877.034	4995
877.162	5033
877.29	4972
877.418	5022
877.546	5006
877.674	5045
877.802	5048
877.93	4999
878.058	4938
878.185	4805
878.313	4991
878.441	4934
878.568	4786
878.696	4938
878.824	5014
878.951	4976
879.079	5132
879.206	5299
879.333	5102
879.461	5014
879.588	5014
879.715	5109
879.842	5265
879.97	4980
880.097	4752
880.224	4725
880.351	4759
880.478	4774
880.605	4782
880.732	4790
880.859	5056
880.986	4866
881.112	4847
881.239	4774
881.366	4630
881.493	4550
881.619	4577
881.746	4626
881.872	4634
881.999	4641
882.125	4675
882.252	4786
882.378	4862
882.505	4949
882.631	4786
882.757	4679
882.883	4744
883.01	4702
883.136	4630
883.262	4580
883.388	4592
883.514	4793
883.64	4831
883.766	4771
883.892	4634
884.018	4702
884.143	4862
884.269	4946
884.395	4702
884.52	4634
884.646	4637
884.772	4565
884.897	4573
885.023	4634
885.148	4763
885.274	4824
885.399	4809
885.524	4714
885.65	4641
885.775	4778
885.9	4672
886.025	4828
886.15	4752
886.275	4675
886.4	4649
886.525	4717
886.65	4653
886.775	4702
886.9	4862
887.025	5045
887.149	4816
887.274	4641
887.399	4622
887.523	4580
887.648	4565
887.773	4603
887.897	4767
888.021	4786
888.146	4683
888.27	4786
888.395	4835
888.519	4835
888.643	4759
888.767	4831
888.891	4668
889.015	4546
889.139	4637
889.263	4573
889.387	4782
889.511	4873
889.635	4797
889.759	4683
889.883	4634
890.006	4702
890.13	4786
890.254	4603
890.377	4702
890.501	4538
890.624	4500
890.748	4603
890.871	4462
890.995	4413
891.118	4371
891.241	4504
891.364	4538
891.488	4611
891.611	4504
891.734	4538
891.857	4573
891.98	4512
892.103	4649
892.226	4569
892.349	4470
892.471	4386
892.594	4569
892.717	4546
892.839	4603
892.962	4588
893.085	4664
893.207	4596
893.33	4440
893.452	4523
893.575	4637
893.697	4538
893.819	4729
893.941	4831
894.064	4793
894.186	4618
894.308	4580
894.43	4721
894.552	4793
894.674	4752
894.796	4580
894.918	4573
895.04	4538
895.161	4706
895.283	4622
895.405	4519
895.526	4656
895.648	4679
895.769	4672
895.891	4687
896.012	4733
896.134	4729
896.255	4645
896.376	4622
896.498	4599
896.619	4664
896.74	4641
896.861	4664
896.982	4976
897.103	5041
897.224	4805
897.345	4721
897.466	4637
897.587	4755
897.708	4835
897.828	4752
897.949	4679
898.07	4531
898.19	4561
898.311	4809
898.431	4645
898.552	4767
898.672	4793
898.792	4801
898.913	4729
899.033	4626
899.153	4500
899.273	4432
899.393	4459
899.513	4519
899.633	4493
899.753	4512
899.873	4493
899.993	4592
900.113	4519
900.232	4607
900.352	4493
900.472	4440
900.591	4375
900.711	4470
900.83	4398
900.95	4603
901.069	4668
901.189	4523
901.308	4375
901.427	4265
901.546	4375
901.665	4466
901.784	4523
901.904	4375
902.023	4284
902.141	4215
902.26	4154
902.379	4257
902.498	4261
902.617	4169
902.735	4360
902.854	4413
902.973	4337
903.091	4196
903.21	4223
903.328	4249
903.446	4318
903.565	4276
903.683	4383
903.801	4280
903.919	4417
904.038	4451
904.156	4314
904.274	4451
904.392	4440
904.51	4424
904.627	4470
904.745	4588
904.863	4656
904.981	4443
905.098	4341
905.216	4352
905.334	4421
905.451	4455
905.569	4432
905.686	4538
905.803	4603
905.921	4432
906.038	4596
906.155	4554
906.272	4417
906.389	4512
906.506	4409
906.623	4398
906.74	4466
906.857	4356
906.974	4386
907.091	4622
907.208	4729
907.324	4596
907.441	4538
907.557	4325
907.674	4398
907.79	4421
907.907	4436
908.023	4531
908.139	4554
908.256	4440
908.372	4474
908.488	4466
908.604	4409
908.72	4379
908.836	4398
908.952	4421
909.068	4424
909.184	4596
909.3	4584
909.415	4634
909.531	4630
909.647	4443
909.762	4421
909.878	4383
909.993	4474
910.108	4447
910.224	4455
910.339	4519
910.454	4413
910.57	4413
910.685	4333
910.8	4668
910.915	4637
911.03	4527
911.145	4398
911.259	4390
911.374	4405
911.489	4352
911.604	4325
911.718	4188
911.833	4234
911.947	4124
912.062	4082
912.176	4207
912.291	4314
912.405	4337
912.519	4504
912.633	4527
912.748	4413
912.862	4367
912.976	4223
913.09	4090
913.204	4219
913.318	4280
913.431	4363
913.545	4443
913.659	4489
913.772	4421
913.886	4276
914	4284
914.113	4443
914.226	4424
914.34	4424
914.453	4257
914.566	4413
914.68	4371
914.793	4314
914.906	4177
915.019	4101
915.132	4105
915.245	4219
915.358	4257
915.47	4261
915.583	4291
915.696	4299
915.809	4402
915.921	4447
916.034	4257
916.146	4268
916.259	4223
916.371	4436
916.483	4367
916.595	4272
916.708	4303
916.82	4363
916.932	4363
917.044	4375
917.156	4363
917.268	4265
917.38	4325
917.491	4318
917.603	4405
917.715	4421
917.826	4474
917.938	4325
918.049	4291
918.161	4421
918.272	4577
918.384	4519
918.495	4481
918.606	4344
918.717	4295
918.828	4386
918.939	4402
919.05	4261
919.161	4371
919.272	4185
919.383	4257
919.494	4451
919.604	4683
919.715	4451
919.826	4325
919.936	4432
920.047	4535
920.157	4459
920.267	4694
920.378	4538
920.488	4531
920.598	4710
920.708	4919
920.818	4831
920.928	4801
921.038	4915
921.148	4942
921.258	4656
921.368	4554
921.477	4512
921.587	4512
921.697	4405
921.806	4580
921.916	4481
922.025	4287
922.134	4291
922.244	4272
922.353	4352
922.462	4238
922.571	4158
922.68	4044
922.789	4006
922.898	4059
923.007	4021
923.116	4116
923.224	4109
923.333	4097
923.442	4025
923.55	3972
923.659	4059
923.767	4143
923.876	4006
923.984	4147
924.092	4025
924.201	4147
924.309	4120
924.417	4093
924.525	4059
924.633	4101
924.741	4885
924.849	3941
924.956	4139
925.064	3972
925.172	3945
925.279	3960
925.387	4067
925.494	4078
925.602	4242
925.709	4200
925.816	4093
925.924	4200
926.031	4257
926.138	4238
926.245	4215
926.352	4112
926.459	4276
926.566	4371
926.673	4158
926.779	4131
926.886	4082
926.993	4040
927.099	3991
927.206	3949
927.312	3991
927.419	4063
927.525	4071
927.631	4143
927.737	3968
927.843	3934
927.95	3835
928.056	3983
928.162	4010
928.267	4074
928.373	4588
928.479	4150
928.585	3884
928.69	4044
928.796	4181
928.901	4017
929.007	3907
929.112	4021
929.218	4010
929.323	3945
929.428	3968
929.533	4090
929.638	3892
929.743	3975
929.848	4101
929.953	4048
930.058	3968
930.163	3835
930.267	3865
930.372	3991
930.477	3827
930.581	4116
930.685	3964
930.79	3827
930.894	3941
930.998	3861
931.103	4101
931.207	3789
931.311	3736
931.415	3652
931.519	3572
931.623	3572
