Data from test_V78500241_1451.txt Node
Date: Fri Mar 25 16:59:05 CST 2022
User: usil
Spectrometer: V785-0024
Trigger mode: 0
Integration Time (sec): 4.000000E-1
Scans to average: 1
Nonlinearity correction enabled: false
Boxcar width: 0
Storing dark spectrum: false
XAxis mode: Wavelengths
Number of Pixels in Spectrum: 1024
>>>>>Begin Spectral Data<<<<<
801.071	8050
801.214	7951
801.356	7803
801.499	7879
801.641	7784
801.783	7784
801.926	7951
802.068	7940
802.211	8001
802.353	7978
802.496	7868
802.638	7803
802.78	7928
802.923	7883
803.065	7811
803.208	7795
803.35	7921
803.492	8027
803.635	8115
803.777	7913
803.919	8142
804.061	8419
804.204	8153
804.346	8039
804.488	7921
804.63	8142
804.773	7993
804.915	8145
805.057	8317
805.199	8187
805.341	8233
805.483	8229
805.626	8218
805.768	8092
805.91	8172
806.052	8218
806.194	8134
806.336	8271
806.478	8046
806.62	7997
806.762	8153
806.904	8282
807.046	8537
807.188	8385
807.33	8282
807.472	8351
807.614	8176
807.756	8119
807.898	7978
808.04	7921
808.182	7871
808.324	7917
808.465	7879
808.607	8096
808.749	8050
808.891	8168
809.033	8221
809.174	8164
809.316	8077
809.458	8005
809.6	7944
809.741	8001
809.883	8043
810.025	8062
810.166	7997
810.308	7963
810.45	7986
810.591	7883
810.733	7674
810.875	7639
811.016	7518
811.158	7464
811.299	7582
811.441	7696
811.582	7715
811.724	7533
811.865	7552
812.007	7514
812.148	7601
812.29	7586
812.431	7792
812.573	7921
812.714	7982
812.855	8111
812.997	8138
813.138	8408
813.279	8161
813.421	8138
813.562	8046
813.703	7864
813.845	7727
813.986	7472
814.127	7206
814.268	7251
814.41	7190
814.551	7164
814.692	7206
814.833	7042
814.974	7084
815.115	7088
815.256	6924
815.397	6909
815.539	6882
815.68	6821
815.821	6722
815.962	6852
816.103	6852
816.244	6757
816.385	6574
816.526	6566
816.666	6429
816.807	6342
816.948	6410
817.089	6448
817.23	6460
817.371	6315
817.512	6399
817.653	6395
817.793	6353
817.934	6384
818.075	6414
818.216	6426
818.356	6467
818.497	6251
818.638	6117
818.778	6171
818.919	6152
819.06	6171
819.2	6353
819.341	6315
819.481	6289
819.622	6528
819.762	6703
819.903	6677
820.043	6593
820.184	6604
820.324	6589
820.465	6662
820.605	6738
820.746	6673
820.886	6525
821.026	6703
821.167	6726
821.307	6795
821.447	6772
821.588	6639
821.728	6525
821.868	6502
822.008	6285
822.149	6292
822.289	6338
822.429	6117
822.569	6072
822.709	6133
822.849	5916
822.99	5931
823.13	5901
823.27	5878
823.41	5733
823.55	5783
823.69	5745
823.83	5745
823.97	5657
824.11	5509
824.25	5501
824.389	5482
824.529	5535
824.669	5467
824.809	5638
824.949	5611
825.089	5581
825.228	5547
825.368	5387
825.508	5337
825.648	5330
825.787	5368
825.927	5345
826.067	5299
826.206	5246
826.346	5395
826.485	5433
826.625	5360
826.765	5547
826.904	5509
827.044	5197
827.183	5159
827.323	5121
827.462	5216
827.601	5132
827.741	5189
827.88	5197
828.02	5083
828.159	5258
828.298	5299
828.437	5368
828.577	5341
828.716	5455
828.855	5299
828.994	5170
829.134	5143
829.273	5140
829.412	5189
829.551	5105
829.69	5136
829.829	5246
829.968	5337
830.107	5246
830.246	5261
830.385	5269
830.524	5178
830.663	5045
830.802	4942
830.941	4908
831.08	4850
831.219	4976
831.357	5029
831.496	5136
831.635	4919
831.774	4877
831.913	4835
832.051	4706
832.19	4740
832.329	4809
832.467	4698
832.606	4637
832.744	4706
832.883	4744
833.022	4721
833.16	4748
833.299	4805
833.437	4820
833.576	4797
833.714	4835
833.852	4873
833.991	4850
834.129	4961
834.267	4923
834.406	4919
834.544	4968
834.682	4923
834.821	4946
834.959	5128
835.097	4930
835.235	5170
835.373	5098
835.511	5041
835.65	5033
835.788	5006
835.926	4847
836.064	4831
836.202	4885
836.34	5193
836.478	5193
836.615	5162
836.753	5204
836.891	5223
837.029	5178
837.167	5197
837.305	5174
837.443	5140
837.58	5109
837.718	5235
837.856	5185
837.993	5151
838.131	5246
838.269	5208
838.406	5185
838.544	5147
838.681	5075
838.819	4965
838.956	4896
839.094	4866
839.231	4930
839.369	5033
839.506	5433
839.643	5254
839.781	5064
839.918	4987
840.055	5033
840.193	5098
840.33	5067
840.467	5094
840.604	5178
840.742	5440
840.879	5022
841.016	5083
841.153	5102
841.29	5425
841.427	5284
841.564	5326
841.701	5296
841.838	5261
841.975	5235
842.112	5318
842.249	5178
842.385	5117
842.522	5360
842.659	5197
842.796	5147
842.933	5204
843.069	5098
843.206	5121
843.343	5261
843.479	5227
843.616	5265
843.752	5033
843.889	4957
844.025	5189
844.162	5022
844.298	5208
844.435	5067
844.571	5006
844.708	5147
844.844	5318
844.98	5357
845.117	5269
845.253	5162
845.389	5052
845.525	5109
845.661	5132
845.798	5037
845.934	5117
846.07	5010
846.206	5185
846.342	5197
846.478	5166
846.614	4995
846.75	4946
846.886	4923
847.022	5121
847.158	4995
847.294	5022
847.429	5094
847.565	5064
847.701	5341
847.837	4854
847.972	4793
848.108	4946
848.244	4957
848.379	4805
848.515	4771
848.65	4717
848.786	4774
848.921	4809
849.057	4847
849.192	4904
849.328	4774
849.463	4828
849.598	4790
849.734	4736
849.869	4687
850.004	4645
850.14	4630
850.275	4603
850.41	4550
850.545	4554
850.68	4580
850.815	4649
850.95	4611
851.085	4850
851.22	4774
851.355	4645
851.49	4630
851.625	4618
851.76	4596
851.895	4558
852.03	4538
852.165	4630
852.299	4729
852.434	4828
852.569	4736
852.703	4752
852.838	4839
852.973	4930
853.107	4923
853.242	4744
853.376	4725
853.511	4542
853.645	4615
853.78	4812
853.914	4698
854.048	4656
854.183	4679
854.317	4687
854.451	4858
854.585	4653
854.72	4653
854.854	4729
854.988	4607
855.122	4615
855.256	4512
855.39	4649
855.524	4740
855.658	4725
855.792	4668
855.926	4725
856.06	4809
856.194	4759
856.327	4683
856.461	4607
856.595	4618
856.729	4599
856.862	4771
856.996	4687
857.13	4725
857.263	4736
857.397	4797
857.53	4618
857.664	4763
857.797	4706
857.931	4793
858.064	4683
858.197	4782
858.331	4618
858.464	4607
858.597	4573
858.731	4615
858.864	4634
858.997	4603
859.13	4641
859.263	4660
859.396	4664
859.529	4569
859.662	4569
859.795	4500
859.928	4603
860.061	4736
860.194	4733
860.327	4561
860.46	4550
860.592	4668
860.725	4641
860.858	4744
860.99	4531
861.123	4497
861.256	4497
861.388	4599
861.521	5421
861.653	4474
861.786	4432
861.918	4436
862.05	4500
862.183	4546
862.315	4622
862.447	4637
862.58	4527
862.712	4356
862.844	4322
862.976	4459
863.108	4459
863.24	4755
863.372	4344
863.504	4413
863.636	4390
863.768	4428
863.9	4455
864.032	4348
864.164	4371
864.296	4459
864.428	4531
864.559	4478
864.691	4516
864.823	4485
864.954	4478
865.086	4527
865.217	4470
865.349	4447
865.48	4409
865.612	4497
865.743	4626
865.875	4497
866.006	4409
866.137	4436
866.269	4421
866.4	4405
866.531	4375
866.662	4379
866.793	4379
866.924	4375
867.055	4485
867.186	4428
867.317	4405
867.448	4360
867.579	4371
867.71	4443
867.841	4367
867.972	4428
868.103	4421
868.233	4436
868.364	4375
868.495	4485
868.625	4668
868.756	4721
868.886	4535
869.017	4618
869.147	4714
869.278	4759
869.408	4630
869.539	4603
869.669	4729
869.799	4649
869.929	4721
870.06	4717
870.19	4904
870.32	4873
870.45	4942
870.58	4995
870.71	5067
870.84	5071
870.97	4934
871.1	4904
871.23	5155
871.36	5086
871.489	4991
871.619	5022
871.749	5121
871.879	5159
872.008	5140
872.138	5041
872.267	4946
872.397	4824
872.526	4752
872.656	4748
872.785	4771
872.915	4919
873.044	4999
873.173	4915
873.303	5006
873.432	4980
873.561	4946
873.69	4850
873.819	4850
873.948	4889
874.077	4843
874.206	4714
874.335	4797
874.464	4885
874.593	4987
874.722	4930
874.851	5045
874.979	5045
875.108	5048
875.237	4904
875.365	4828
875.494	4866
875.623	4927
875.751	4812
875.88	4870
876.008	4965
876.136	5014
876.265	5178
876.393	5357
876.521	5254
876.65	5193
876.778	5143
876.906	5041
877.034	4965
877.162	5037
877.29	4968
877.418	5048
877.546	5048
877.674	5041
877.802	5041
877.93	4995
878.058	4866
878.185	4862
878.313	4957
878.441	4904
878.568	4812
878.696	4881
878.824	4968
878.951	5010
879.079	5105
879.206	5261
879.333	5098
879.461	4968
879.588	4976
879.715	5098
879.842	5201
879.97	4999
880.097	4820
880.224	4782
880.351	4812
880.478	4835
880.605	4782
880.732	4782
880.859	5048
880.986	4873
881.112	4972
881.239	4759
881.366	4672
881.493	4592
881.619	4584
881.746	4694
881.872	4634
881.999	4664
882.125	4729
882.252	4824
882.378	4843
882.505	4984
882.631	4809
882.757	4706
882.883	4771
883.01	4717
883.136	4653
883.262	4626
883.388	4687
883.514	4809
883.64	4923
883.766	4870
883.892	4672
884.018	4755
884.143	4930
884.269	5018
884.395	4721
884.52	4664
884.646	4664
884.772	4615
884.897	4603
885.023	4706
885.148	4839
885.274	4881
885.399	4839
885.524	4740
885.65	4694
885.775	4797
885.9	4733
886.025	4847
886.15	4790
886.275	4763
886.4	4694
886.525	4744
886.65	4683
886.775	4748
886.9	4934
887.025	5109
887.149	4816
887.274	4679
887.399	4603
887.523	4626
887.648	4603
887.773	4641
887.897	4797
888.021	4812
888.146	4740
888.27	4831
888.395	4953
888.519	4790
888.643	4873
888.767	4839
888.891	4755
889.015	4607
889.139	4679
889.263	4607
889.387	4744
889.511	4873
889.635	4866
889.759	4717
889.883	4664
890.006	4778
890.13	4854
890.254	4653
890.377	4744
890.501	4561
890.624	4538
890.748	4649
890.871	4519
890.995	4538
891.118	4424
891.241	4577
891.364	4550
891.488	4599
891.611	4523
891.734	4577
891.857	4649
891.98	4584
892.103	4660
892.226	4596
892.349	4527
892.471	4451
892.594	4554
892.717	4599
892.839	4592
892.962	4603
893.085	4717
893.207	4641
893.33	4485
893.452	4558
893.575	4706
893.697	4588
893.819	4778
893.941	4877
894.064	4797
894.186	4573
894.308	4626
894.43	4744
894.552	4797
894.674	4759
894.796	4599
894.918	4592
895.04	4588
895.161	4744
895.283	4710
895.405	4672
895.526	4687
895.648	4736
895.769	4649
895.891	4702
896.012	4736
896.134	4721
896.255	4714
896.376	4668
896.498	4626
896.619	4721
896.74	4611
896.861	4664
896.982	4934
897.103	5121
897.224	4900
897.345	4733
897.466	4668
897.587	4771
897.708	4812
897.828	4812
897.949	4729
898.07	4622
898.19	4668
898.311	4820
898.431	4683
898.552	4778
898.672	4908
898.792	4843
898.913	4752
899.033	4626
899.153	4550
899.273	4443
899.393	4455
899.513	4512
899.633	4512
899.753	4584
899.873	4558
899.993	4615
900.113	4565
900.232	4641
900.352	4565
900.472	4504
900.591	4432
900.711	4489
900.83	4489
900.95	4615
901.069	4759
901.189	4558
901.308	4394
901.427	4344
901.546	4428
901.665	4485
901.784	4531
901.904	4421
902.023	4352
902.141	4227
902.26	4192
902.379	4352
902.498	4265
902.617	4265
902.735	4405
902.854	4402
902.973	4394
903.091	4169
903.21	4242
903.328	4341
903.446	4306
903.565	4325
903.683	4348
903.801	4325
903.919	4447
904.038	4440
904.156	4363
904.274	4489
904.392	4440
904.51	4462
904.627	4466
904.745	4588
904.863	4668
904.981	4421
905.098	4341
905.216	4386
905.334	4466
905.451	4470
905.569	4462
905.686	4592
905.803	4611
905.921	4474
906.038	4523
906.155	4493
906.272	4436
906.389	4470
906.506	4409
906.623	4432
906.74	4443
906.857	4333
906.974	4398
907.091	4626
907.208	4725
907.324	4599
907.441	4558
907.557	4356
907.674	4363
907.79	4333
907.907	4417
908.023	4523
908.139	4474
908.256	4462
908.372	4481
908.488	4462
908.604	4402
908.72	4329
908.836	4348
908.952	4379
909.068	4428
909.184	4592
909.3	4519
909.415	4618
909.531	4580
909.647	4333
909.762	4466
909.878	4371
909.993	4474
910.108	4440
910.224	4436
910.339	4516
910.454	4470
910.57	4409
910.685	4333
910.8	4698
910.915	4596
911.03	4519
911.145	4337
911.259	4367
911.374	4356
911.489	4344
911.604	4272
911.718	4196
911.833	4242
911.947	4048
912.062	4040
912.176	4204
912.291	4246
912.405	4299
912.519	4527
912.633	4535
912.748	4405
912.862	4314
912.976	4257
913.09	4097
913.204	4185
913.318	4306
913.431	4386
913.545	4367
913.659	4455
913.772	4402
913.886	4295
914	4276
914.113	4394
914.226	4417
914.34	4424
914.453	4306
914.566	4421
914.68	4310
914.793	4344
914.906	4200
915.019	4139
915.132	4101
915.245	4207
915.358	4223
915.47	4265
915.583	4265
915.696	4337
915.809	4443
915.921	4455
916.034	4299
916.146	4299
916.259	4234
916.371	4413
916.483	4337
916.595	4280
916.708	4360
916.82	4367
916.932	4344
917.044	4363
917.156	4379
917.268	4227
917.38	4299
917.491	4291
917.603	4383
917.715	4443
917.826	4398
917.938	4352
918.049	4314
918.161	4417
918.272	4519
918.384	4565
918.495	4497
918.606	4405
918.717	4333
918.828	4314
918.939	4417
919.05	4242
919.161	4383
919.272	4166
919.383	4276
919.494	4424
919.604	4664
919.715	4474
919.826	4375
919.936	4440
920.047	4554
920.157	4508
920.267	4736
920.378	4577
920.488	4481
920.598	4710
920.708	4904
920.818	4771
920.928	4782
921.038	4980
921.148	4919
921.258	4607
921.368	4596
921.477	4538
921.587	4474
921.697	4424
921.806	4588
921.916	4436
922.025	4291
922.134	4276
922.244	4219
922.353	4348
922.462	4181
922.571	4147
922.68	4029
922.789	3975
922.898	4063
923.007	4032
923.116	4097
923.224	4082
923.333	4078
923.442	4048
923.55	4013
923.659	4040
923.767	4124
923.876	4040
923.984	4147
924.092	4006
924.201	4112
924.309	4120
924.417	4101
924.525	4112
924.633	4147
924.741	5121
924.849	3915
924.956	4120
925.064	3949
925.172	3953
925.279	3949
925.387	4090
925.494	4074
925.602	4261
925.709	4219
925.816	4082
925.924	4173
926.031	4219
926.138	4211
926.245	4173
926.352	4093
926.459	4272
926.566	4306
926.673	4219
926.779	4090
926.886	4051
926.993	4002
927.099	4002
927.206	3956
927.312	3937
927.419	4105
927.525	4025
927.631	4150
927.737	3991
927.843	3953
927.95	3842
928.056	3953
928.162	4048
928.267	4048
928.373	4618
928.479	4143
928.585	3865
928.69	4067
928.796	4109
928.901	3968
929.007	3861
929.112	3998
929.218	3998
929.323	4017
929.428	3964
929.533	4109
929.638	3975
929.743	4013
929.848	4036
929.953	4044
930.058	3907
930.163	3770
930.267	3835
930.372	3983
930.477	3838
930.581	4109
930.685	3968
930.79	3835
930.894	3880
930.998	3884
931.103	4048
931.207	3766
931.311	3698
931.415	3679
931.519	3504
931.623	3595
