Data from test_V78500241_2425.txt Node
Date: Fri Mar 25 17:05:51 CST 2022
User: usil
Spectrometer: V785-0024
Trigger mode: 0
Integration Time (sec): 4.000000E-1
Scans to average: 1
Nonlinearity correction enabled: false
Boxcar width: 0
Storing dark spectrum: false
XAxis mode: Wavelengths
Number of Pixels in Spectrum: 1024
>>>>>Begin Spectral Data<<<<<
801.071	8024
801.214	7997
801.356	7875
801.499	7849
801.641	7795
801.783	7818
801.926	7921
802.068	7986
802.211	7947
802.353	7978
802.496	7818
802.638	7909
802.78	7898
802.923	7913
803.065	7917
803.208	7860
803.35	7955
803.492	8134
803.635	8065
803.777	8100
803.919	8103
804.061	8415
804.204	8176
804.346	8062
804.488	8016
804.63	8180
804.773	8035
804.915	8130
805.057	8282
805.199	8195
805.341	8259
805.483	8279
805.626	8305
805.768	8168
805.91	8145
806.052	8199
806.194	8058
806.336	8355
806.478	8126
806.62	8107
806.762	8100
806.904	8244
807.046	8457
807.188	8431
807.33	8317
807.472	8240
807.614	8157
807.756	8142
807.898	8005
808.04	7887
808.182	7898
808.324	7921
808.465	7921
808.607	8054
808.749	8111
808.891	8214
809.033	8290
809.174	8180
809.316	8096
809.458	8092
809.6	8024
809.741	8077
809.883	8046
810.025	8103
810.166	8054
810.308	8001
810.45	7967
810.591	7856
810.733	7700
810.875	7658
811.016	7499
811.158	7480
811.299	7548
811.441	7780
811.582	7727
811.724	7563
811.865	7563
812.007	7643
812.148	7655
812.29	7609
812.431	7719
812.573	7875
812.714	7970
812.855	8123
812.997	8206
813.138	8294
813.279	8126
813.421	8081
813.562	7986
813.703	7845
813.845	7719
813.986	7419
814.127	7263
814.268	7160
814.41	7259
814.551	7206
814.692	7168
814.833	7160
814.974	7122
815.115	7114
815.256	6985
815.397	6958
815.539	6951
815.68	6837
815.821	6749
815.962	6867
816.103	6875
816.244	6677
816.385	6635
816.526	6631
816.666	6509
816.807	6311
816.948	6479
817.089	6509
817.23	6490
817.371	6357
817.512	6422
817.653	6426
817.793	6380
817.934	6410
818.075	6502
818.216	6441
818.356	6327
818.497	6209
818.638	6129
818.778	6209
818.919	6121
819.06	6235
819.2	6247
819.341	6369
819.481	6388
819.622	6532
819.762	6719
819.903	6707
820.043	6627
820.184	6589
820.324	6601
820.465	6650
820.605	6665
820.746	6696
820.886	6551
821.026	6688
821.167	6711
821.307	6821
821.447	6745
821.588	6669
821.728	6608
821.868	6555
822.008	6311
822.149	6399
822.289	6338
822.429	6220
822.569	6087
822.709	6114
822.849	5954
822.99	5931
823.13	5939
823.27	5897
823.41	5741
823.55	5821
823.69	5710
823.83	5756
823.97	5688
824.11	5558
824.25	5490
824.389	5501
824.529	5627
824.669	5505
824.809	5653
824.949	5657
825.089	5611
825.228	5562
825.368	5391
825.508	5337
825.648	5330
825.787	5440
825.927	5402
826.067	5261
826.206	5357
826.346	5406
826.485	5379
826.625	5395
826.765	5539
826.904	5493
827.044	5288
827.183	5220
827.323	5162
827.462	5254
827.601	5181
827.741	5181
827.88	5227
828.02	5083
828.159	5277
828.298	5315
828.437	5372
828.577	5288
828.716	5425
828.855	5372
828.994	5143
829.134	5181
829.273	5212
829.412	5136
829.551	5140
829.69	5189
829.829	5261
829.968	5368
830.107	5220
830.246	5288
830.385	5174
830.524	5132
830.663	5052
830.802	4980
830.941	4847
831.08	4904
831.219	4968
831.357	4987
831.496	5178
831.635	4919
831.774	4862
831.913	4847
832.051	4714
832.19	4733
832.329	4862
832.467	4736
832.606	4672
832.744	4721
832.883	4706
833.022	4744
833.16	4797
833.299	4858
833.437	4843
833.576	4786
833.714	4839
833.852	4870
833.991	4850
834.129	4991
834.267	4965
834.406	4877
834.544	5022
834.682	4976
834.821	4927
834.959	5124
835.097	5014
835.235	5121
835.373	5113
835.511	5143
835.65	5102
835.788	4991
835.926	4881
836.064	4877
836.202	4911
836.34	5151
836.478	5254
836.615	5121
836.753	5185
836.891	5280
837.029	5273
837.167	5147
837.305	5162
837.443	5140
837.58	5037
837.718	5273
837.856	5178
837.993	5143
838.131	5216
838.269	5246
838.406	5181
838.544	5181
838.681	5113
838.819	4995
838.956	4892
839.094	4896
839.231	4972
839.369	5113
839.506	5372
839.643	5277
839.781	5048
839.918	5025
840.055	5128
840.193	5086
840.33	5117
840.467	5128
840.604	5178
840.742	5436
840.879	5090
841.016	5067
841.153	5174
841.29	5368
841.427	5318
841.564	5273
841.701	5330
841.838	5277
841.975	5265
842.112	5265
842.249	5155
842.385	5143
842.522	5284
842.659	5162
842.796	5162
842.933	5185
843.069	5102
843.206	5159
843.343	5345
843.479	5269
843.616	5216
843.752	5010
843.889	5006
844.025	5159
844.162	5022
844.298	5132
844.435	5056
844.571	5037
844.708	5235
844.844	5303
844.98	5318
845.117	5303
845.253	5159
845.389	5056
845.525	5174
845.661	5102
845.798	5048
845.934	5185
846.07	5075
846.206	5155
846.342	5296
846.478	5178
846.614	5037
846.75	4900
846.886	4923
847.022	5159
847.158	4965
847.294	5071
847.429	5113
847.565	5086
847.701	5280
847.837	4831
847.972	4786
848.108	4915
848.244	4991
848.379	4744
848.515	4755
848.65	4706
848.786	4725
848.921	4778
849.057	4862
849.192	4877
849.328	4862
849.463	4835
849.598	4812
849.734	4763
849.869	4694
850.004	4672
850.14	4603
850.275	4607
850.41	4512
850.545	4542
850.68	4569
850.815	4607
850.95	4630
851.085	4854
851.22	4729
851.355	4672
851.49	4561
851.625	4641
851.76	4607
851.895	4565
852.03	4546
852.165	4641
852.299	4691
852.434	4812
852.569	4748
852.703	4706
852.838	4809
852.973	4923
853.107	4915
853.242	4740
853.376	4714
853.511	4565
853.645	4611
853.78	4793
853.914	4668
854.048	4580
854.183	4694
854.317	4698
854.451	4816
854.585	4668
854.72	4656
854.854	4748
854.988	4641
855.122	4656
855.256	4519
855.39	4637
855.524	4744
855.658	4733
855.792	4668
855.926	4740
856.06	4748
856.194	4786
856.327	4694
856.461	4558
856.595	4618
856.729	4592
856.862	4740
856.996	4687
857.13	4744
857.263	4774
857.397	4797
857.53	4672
857.664	4755
857.797	4748
857.931	4752
858.064	4675
858.197	4736
858.331	4637
858.464	4588
858.597	4542
858.731	4611
858.864	4618
858.997	4573
859.13	4683
859.263	4710
859.396	4675
859.529	4558
859.662	4584
859.795	4485
859.928	4660
860.061	4744
860.194	4733
860.327	4573
860.46	4558
860.592	4649
860.725	4733
860.858	4774
860.99	4554
861.123	4512
861.256	4535
861.388	4611
861.521	5277
861.653	4512
861.786	4470
861.918	4504
862.05	4500
862.183	4542
862.315	4653
862.447	4626
862.58	4592
862.712	4390
862.844	4306
862.976	4489
863.108	4436
863.24	4790
863.372	4303
863.504	4436
863.636	4417
863.768	4481
863.9	4428
864.032	4363
864.164	4443
864.296	4459
864.428	4535
864.559	4535
864.691	4519
864.823	4546
864.954	4485
865.086	4489
865.217	4500
865.349	4432
865.48	4459
865.612	4550
865.743	4637
865.875	4386
866.006	4443
866.137	4474
866.269	4409
866.4	4436
866.531	4417
866.662	4421
866.793	4451
866.924	4421
867.055	4474
867.186	4447
867.317	4398
867.448	4398
867.579	4405
867.71	4409
867.841	4341
867.972	4478
868.103	4436
868.233	4421
868.364	4455
868.495	4493
868.625	4668
868.756	4763
868.886	4577
869.017	4645
869.147	4733
869.278	4774
869.408	4675
869.539	4653
869.669	4702
869.799	4653
869.929	4752
870.06	4725
870.19	4961
870.32	4995
870.45	4961
870.58	4980
870.71	5064
870.84	5071
870.97	5018
871.1	4900
871.23	5117
871.36	5124
871.489	5003
871.619	5071
871.749	5102
871.879	5159
872.008	5189
872.138	5025
872.267	4942
872.397	4854
872.526	4809
872.656	4771
872.785	4790
872.915	5006
873.044	5033
873.173	4942
873.303	4984
873.432	4995
873.561	4927
873.69	4820
873.819	4809
873.948	4873
874.077	4809
874.206	4698
874.335	4828
874.464	4923
874.593	5056
874.722	4961
874.851	5136
874.979	5048
875.108	5029
875.237	4919
875.365	4915
875.494	4866
875.623	4961
875.751	4816
875.88	4889
876.008	4965
876.136	5003
876.265	5201
876.393	5349
876.521	5265
876.65	5208
876.778	5128
876.906	5067
877.034	4991
877.162	5014
877.29	4987
877.418	5071
877.546	5010
877.674	5003
877.802	5006
877.93	5003
878.058	4919
878.185	4870
878.313	4885
878.441	4934
878.568	4748
878.696	4885
878.824	4976
878.951	5018
879.079	5079
879.206	5231
879.333	5067
879.461	5029
879.588	5014
879.715	5143
879.842	5261
879.97	5022
880.097	4805
880.224	4771
880.351	4736
880.478	4797
880.605	4771
880.732	4805
880.859	5102
880.986	4946
881.112	4923
881.239	4755
881.366	4649
881.493	4584
881.619	4634
881.746	4573
881.872	4660
881.999	4630
882.125	4706
882.252	4763
882.378	4866
882.505	4900
882.631	4805
882.757	4683
882.883	4733
883.01	4755
883.136	4679
883.262	4577
883.388	4603
883.514	4774
883.64	4843
883.766	4786
883.892	4649
884.018	4721
884.143	4873
884.269	5037
884.395	4668
884.52	4668
884.646	4649
884.772	4550
884.897	4599
885.023	4694
885.148	4782
885.274	4786
885.399	4812
885.524	4729
885.65	4706
885.775	4790
885.9	4725
886.025	4809
886.15	4824
886.275	4740
886.4	4580
886.525	4733
886.65	4698
886.775	4645
886.9	4904
887.025	5083
887.149	4820
887.274	4683
887.399	4588
887.523	4641
887.648	4550
887.773	4592
887.897	4793
888.021	4774
888.146	4679
888.27	4782
888.395	4896
888.519	4847
888.643	4816
888.767	4824
888.891	4714
889.015	4637
889.139	4641
889.263	4607
889.387	4759
889.511	4900
889.635	4801
889.759	4664
889.883	4702
890.006	4740
890.13	4843
890.254	4630
890.377	4740
890.501	4596
890.624	4546
890.748	4675
890.871	4565
890.995	4485
891.118	4440
891.241	4565
891.364	4588
891.488	4721
891.611	4531
891.734	4607
891.857	4691
891.98	4580
892.103	4729
892.226	4603
892.349	4615
892.471	4466
892.594	4565
892.717	4656
892.839	4599
892.962	4641
893.085	4710
893.207	4641
893.33	4523
893.452	4584
893.575	4714
893.697	4569
893.819	4782
893.941	4885
894.064	4816
894.186	4645
894.308	4599
894.43	4793
894.552	4850
894.674	4805
894.796	4599
894.918	4660
895.04	4611
895.161	4748
895.283	4714
895.405	4599
895.526	4679
895.648	4717
895.769	4698
895.891	4729
896.012	4744
896.134	4744
896.255	4687
896.376	4637
896.498	4687
896.619	4679
896.74	4702
896.861	4702
896.982	4953
897.103	5155
897.224	4877
897.345	4748
897.466	4694
897.587	4782
897.708	4877
897.828	4797
897.949	4717
898.07	4611
898.19	4672
898.311	4881
898.431	4694
898.552	4725
898.672	4835
898.792	4828
898.913	4744
899.033	4649
899.153	4615
899.273	4550
899.393	4542
899.513	4569
899.633	4569
899.753	4611
899.873	4542
899.993	4596
900.113	4588
900.232	4626
900.352	4630
900.472	4550
900.591	4466
900.711	4546
900.83	4436
900.95	4637
901.069	4729
901.189	4550
901.308	4360
901.427	4322
901.546	4421
901.665	4489
901.784	4550
901.904	4447
902.023	4363
902.141	4211
902.26	4219
902.379	4348
902.498	4246
902.617	4265
902.735	4436
902.854	4459
902.973	4383
903.091	4261
903.21	4215
903.328	4348
903.446	4284
903.565	4272
903.683	4390
903.801	4322
903.919	4432
904.038	4447
904.156	4379
904.274	4428
904.392	4447
904.51	4462
904.627	4535
904.745	4535
904.863	4725
904.981	4432
905.098	4299
905.216	4409
905.334	4443
905.451	4466
905.569	4462
905.686	4550
905.803	4588
905.921	4405
906.038	4584
906.155	4504
906.272	4421
906.389	4523
906.506	4428
906.623	4405
906.74	4409
906.857	4344
906.974	4405
907.091	4641
907.208	4679
907.324	4630
907.441	4538
907.557	4398
907.674	4360
907.79	4360
907.907	4451
908.023	4497
908.139	4542
908.256	4451
908.372	4497
908.488	4443
908.604	4375
908.72	4375
908.836	4424
908.952	4413
909.068	4451
909.184	4603
909.3	4516
909.415	4584
909.531	4611
909.647	4440
909.762	4409
909.878	4371
909.993	4455
910.108	4432
910.224	4386
910.339	4481
910.454	4466
910.57	4398
910.685	4314
910.8	4691
910.915	4634
911.03	4519
911.145	4337
911.259	4363
911.374	4428
911.489	4375
911.604	4287
911.718	4242
911.833	4204
911.947	4120
912.062	4078
912.176	4276
912.291	4246
912.405	4265
912.519	4481
912.633	4489
912.748	4383
912.862	4322
912.976	4230
913.09	4120
913.204	4204
913.318	4333
913.431	4424
913.545	4379
913.659	4443
913.772	4409
913.886	4287
914	4253
914.113	4390
914.226	4470
914.34	4447
914.453	4291
914.566	4459
914.68	4287
914.793	4322
914.906	4234
915.019	4131
915.132	4055
915.245	4215
915.358	4253
915.47	4227
915.583	4230
915.696	4394
915.809	4462
915.921	4481
916.034	4249
916.146	4303
916.259	4246
916.371	4398
916.483	4428
916.595	4261
916.708	4363
916.82	4367
916.932	4329
917.044	4356
917.156	4363
917.268	4261
917.38	4272
917.491	4299
917.603	4363
917.715	4489
917.826	4455
917.938	4363
918.049	4242
918.161	4432
918.272	4558
918.384	4592
918.495	4470
918.606	4341
918.717	4272
918.828	4363
918.939	4402
919.05	4242
919.161	4383
919.272	4169
919.383	4257
919.494	4485
919.604	4679
919.715	4417
919.826	4356
919.936	4402
920.047	4565
920.157	4481
920.267	4733
920.378	4550
920.488	4500
920.598	4725
920.708	4873
920.818	4763
920.928	4786
921.038	4976
921.148	4965
921.258	4687
921.368	4607
921.477	4577
921.587	4489
921.697	4371
921.806	4599
921.916	4459
922.025	4299
922.134	4348
922.244	4253
922.353	4367
922.462	4215
922.571	4124
922.68	4044
922.789	3983
922.898	4051
923.007	4025
923.116	4120
923.224	4147
923.333	4078
923.442	4002
923.55	4051
923.659	4082
923.767	4139
923.876	4029
923.984	4181
924.092	4036
924.201	4086
924.309	4097
924.417	4147
924.525	4059
924.633	4162
924.741	5098
924.849	3972
924.956	4166
925.064	3991
925.172	3918
925.279	3972
925.387	4082
925.494	4124
925.602	4219
925.709	4200
925.816	4078
925.924	4139
926.031	4238
926.138	4204
926.245	4242
926.352	4093
926.459	4246
926.566	4322
926.673	4207
926.779	4116
926.886	4109
926.993	4010
927.099	3991
927.206	3964
927.312	3964
927.419	4071
927.525	4086
927.631	4112
927.737	3991
927.843	3937
927.95	3861
928.056	3975
928.162	4010
928.267	4101
928.373	4698
928.479	4147
928.585	3884
928.69	4071
928.796	4078
928.901	4013
929.007	3888
929.112	3998
929.218	3979
929.323	3994
929.428	3918
929.533	4150
929.638	3907
929.743	3972
929.848	4055
929.953	4063
930.058	3968
930.163	3793
930.267	3876
930.372	4036
930.477	3880
930.581	4082
930.685	4010
930.79	3880
930.894	3915
930.998	3907
931.103	4086
931.207	3728
931.311	3694
931.415	3732
931.519	3534
931.623	3542
