Data from test_V78500241_745.txt Node
Date: Fri Mar 25 16:54:11 CST 2022
User: usil
Spectrometer: V785-0024
Trigger mode: 0
Integration Time (sec): 4.000000E-1
Scans to average: 1
Nonlinearity correction enabled: false
Boxcar width: 0
Storing dark spectrum: false
XAxis mode: Wavelengths
Number of Pixels in Spectrum: 1024
>>>>>Begin Spectral Data<<<<<
801.071	8027
801.214	8024
801.356	7902
801.499	7875
801.641	7792
801.783	7807
801.926	7951
802.068	7951
802.211	7936
802.353	7921
802.496	7849
802.638	7856
802.78	7913
802.923	7928
803.065	7898
803.208	7894
803.35	7974
803.492	8103
803.635	8126
803.777	8069
803.919	8054
804.061	8366
804.204	8126
804.346	8005
804.488	7955
804.63	8149
804.773	7970
804.915	8126
805.057	8294
805.199	8153
805.341	8187
805.483	8259
805.626	8164
805.768	8043
805.91	8172
806.052	8244
806.194	8043
806.336	8221
806.478	8084
806.62	8031
806.762	8103
806.904	8256
807.046	8419
807.188	8263
807.33	8237
807.472	8290
807.614	8111
807.756	8024
807.898	7898
808.04	7841
808.182	7837
808.324	7837
808.465	7947
808.607	8043
808.749	8008
808.891	8149
809.033	8294
809.174	8191
809.316	8027
809.458	8043
809.6	7986
809.741	7974
809.883	8058
810.025	8065
810.166	8054
810.308	8088
810.45	8020
810.591	7936
810.733	7700
810.875	7674
811.016	7567
811.158	7434
811.299	7529
811.441	7616
811.582	7662
811.724	7556
811.865	7510
812.007	7552
812.148	7556
812.29	7590
812.431	7674
812.573	7807
812.714	8012
812.855	8054
812.997	8115
813.138	8286
813.279	8115
813.421	8142
813.562	7944
813.703	7887
813.845	7757
813.986	7403
814.127	7259
814.268	7240
814.41	7228
814.551	7095
814.692	7099
814.833	6996
814.974	7034
815.115	7069
815.256	6924
815.397	6943
815.539	6977
815.68	6916
815.821	6806
815.962	6840
816.103	6806
816.244	6642
816.385	6616
816.526	6616
816.666	6460
816.807	6262
816.948	6426
817.089	6479
817.23	6441
817.371	6327
817.512	6403
817.653	6414
817.793	6395
817.934	6407
818.075	6426
818.216	6410
818.356	6414
818.497	6213
818.638	6095
818.778	6091
818.919	6110
819.06	6133
819.2	6273
819.341	6273
819.481	6350
819.622	6559
819.762	6726
819.903	6608
820.043	6585
820.184	6525
820.324	6521
820.465	6646
820.605	6612
820.746	6597
820.886	6490
821.026	6658
821.167	6646
821.307	6772
821.447	6719
821.588	6635
821.728	6532
821.868	6490
822.008	6304
822.149	6334
822.289	6346
822.429	6144
822.569	6041
822.709	6030
822.849	5942
822.99	5882
823.13	5916
823.27	5863
823.41	5752
823.55	5805
823.69	5771
823.83	5802
823.97	5653
824.11	5520
824.25	5467
824.389	5516
824.529	5562
824.669	5528
824.809	5611
824.949	5649
825.089	5611
825.228	5554
825.368	5368
825.508	5318
825.648	5315
825.787	5341
825.927	5299
826.067	5269
826.206	5269
826.346	5383
826.485	5429
826.625	5425
826.765	5520
826.904	5467
827.044	5227
827.183	5166
827.323	5079
827.462	5284
827.601	5178
827.741	5178
827.88	5208
828.02	5067
828.159	5227
828.298	5315
828.437	5334
828.577	5273
828.716	5455
828.855	5318
828.994	5166
829.134	5151
829.273	5201
829.412	5083
829.551	5124
829.69	5102
829.829	5261
829.968	5330
830.107	5212
830.246	5334
830.385	5143
830.524	5143
830.663	5056
830.802	4938
830.941	4911
831.08	4854
831.219	4957
831.357	4980
831.496	5094
831.635	4866
831.774	4828
831.913	4847
832.051	4717
832.19	4714
832.329	4812
832.467	4649
832.606	4634
832.744	4721
832.883	4714
833.022	4729
833.16	4763
833.299	4866
833.437	4820
833.576	4786
833.714	4824
833.852	4831
833.991	4843
834.129	4930
834.267	4987
834.406	4858
834.544	4957
834.682	4961
834.821	4987
834.959	5136
835.097	4987
835.235	5117
835.373	5052
835.511	5147
835.65	5041
835.788	4999
835.926	4892
836.064	4915
836.202	4953
836.34	5178
836.478	5235
836.615	5128
836.753	5258
836.891	5242
837.029	5216
837.167	5166
837.305	5174
837.443	5079
837.58	5060
837.718	5223
837.856	5147
837.993	5124
838.131	5162
838.269	5166
838.406	5197
838.544	5174
838.681	5064
838.819	4972
838.956	4923
839.094	4881
839.231	4930
839.369	5090
839.506	5421
839.643	5223
839.781	5060
839.918	4995
840.055	5083
840.193	5124
840.33	5128
840.467	5113
840.604	5162
840.742	5398
840.879	5071
841.016	5029
841.153	5147
841.29	5334
841.427	5330
841.564	5353
841.701	5368
841.838	5307
841.975	5208
842.112	5223
842.249	5159
842.385	5086
842.522	5307
842.659	5170
842.796	5132
842.933	5159
843.069	5159
843.206	5132
843.343	5307
843.479	5208
843.616	5280
843.752	5033
843.889	5014
844.025	5189
844.162	4999
844.298	5201
844.435	5037
844.571	4999
844.708	5185
844.844	5303
844.98	5341
845.117	5299
845.253	5105
845.389	5010
845.525	5159
845.661	5090
845.798	5037
845.934	5075
846.07	5067
846.206	5204
846.342	5235
846.478	5143
846.614	5018
846.75	4953
846.886	4889
847.022	5117
847.158	5067
847.294	5060
847.429	5075
847.565	5064
847.701	5250
847.837	4835
847.972	4824
848.108	4938
848.244	4957
848.379	4748
848.515	4774
848.65	4744
848.786	4702
848.921	4782
849.057	4858
849.192	4908
849.328	4824
849.463	4850
849.598	4767
849.734	4645
849.869	4706
850.004	4607
850.14	4702
850.275	4592
850.41	4489
850.545	4592
850.68	4603
850.815	4656
850.95	4626
851.085	4854
851.22	4801
851.355	4698
851.49	4660
851.625	4672
851.76	4653
851.895	4618
852.03	4561
852.165	4691
852.299	4752
852.434	4790
852.569	4744
852.703	4828
852.838	4850
852.973	4942
853.107	4942
853.242	4736
853.376	4710
853.511	4607
853.645	4672
853.78	4809
853.914	4755
854.048	4702
854.183	4675
854.317	4706
854.451	4866
854.585	4786
854.72	4698
854.854	4809
854.988	4577
855.122	4660
855.256	4523
855.39	4714
855.524	4835
855.658	4782
855.792	4721
855.926	4729
856.06	4854
856.194	4820
856.327	4664
856.461	4656
856.595	4653
856.729	4626
856.862	4782
856.996	4729
857.13	4748
857.263	4782
857.397	4824
857.53	4683
857.664	4744
857.797	4801
857.931	4790
858.064	4721
858.197	4793
858.331	4679
858.464	4599
858.597	4603
858.731	4683
858.864	4664
858.997	4611
859.13	4664
859.263	4710
859.396	4702
859.529	4634
859.662	4618
859.795	4565
859.928	4653
860.061	4778
860.194	4759
860.327	4626
860.46	4618
860.592	4736
860.725	4767
860.858	4835
860.99	4607
861.123	4512
861.256	4542
861.388	4630
861.521	5395
861.653	4504
861.786	4470
861.918	4508
862.05	4550
862.183	4538
862.315	4637
862.447	4637
862.58	4584
862.712	4440
862.844	4379
862.976	4481
863.108	4478
863.24	4934
863.372	4375
863.504	4413
863.636	4455
863.768	4508
863.9	4443
864.032	4398
864.164	4424
864.296	4516
864.428	4592
864.559	4569
864.691	4538
864.823	4554
864.954	4504
865.086	4546
865.217	4470
865.349	4451
865.48	4466
865.612	4462
865.743	4637
865.875	4504
866.006	4459
866.137	4424
866.269	4519
866.4	4466
866.531	4489
866.662	4443
866.793	4485
866.924	4436
867.055	4535
867.186	4432
867.317	4466
867.448	4409
867.579	4451
867.71	4417
867.841	4379
867.972	4485
868.103	4481
868.233	4466
868.364	4508
868.495	4478
868.625	4675
868.756	4774
868.886	4584
869.017	4641
869.147	4797
869.278	4771
869.408	4641
869.539	4653
869.669	4733
869.799	4702
869.929	4797
870.06	4698
870.19	4968
870.32	4919
870.45	4942
870.58	5071
870.71	5178
870.84	5121
870.97	4949
871.1	4968
871.23	5094
871.36	5132
871.489	5083
871.619	5113
871.749	5075
871.879	5162
872.008	5242
872.138	5083
872.267	4991
872.397	4839
872.526	4877
872.656	4740
872.785	4809
872.915	4957
873.044	5014
873.173	4968
873.303	4999
873.432	4934
873.561	4980
873.69	4877
873.819	4911
873.948	4968
874.077	4862
874.206	4763
874.335	4820
874.464	4949
874.593	5048
874.722	4919
874.851	5109
874.979	5124
875.108	5041
875.237	4934
875.365	4892
875.494	4896
875.623	5003
875.751	4824
875.88	4957
876.008	4968
876.136	5033
876.265	5242
876.393	5376
876.521	5250
876.65	5227
876.778	5178
876.906	5151
877.034	5033
877.162	5113
877.29	4984
877.418	5052
877.546	5045
877.674	5037
877.802	5079
877.93	5025
878.058	4946
878.185	4896
878.313	5022
878.441	4980
878.568	4839
878.696	4889
878.824	4995
878.951	5037
879.079	5143
879.206	5330
879.333	5162
879.461	5006
879.588	5067
879.715	5151
879.842	5246
879.97	5029
880.097	4778
880.224	4805
880.351	4847
880.478	4870
880.605	4805
880.732	4831
880.859	5075
880.986	4885
881.112	4908
881.239	4805
881.366	4694
881.493	4637
881.619	4615
881.746	4626
881.872	4645
881.999	4717
882.125	4721
882.252	4809
882.378	4847
882.505	4968
882.631	4828
882.757	4691
882.883	4790
883.01	4748
883.136	4702
883.262	4645
883.388	4630
883.514	4828
883.64	4892
883.766	4824
883.892	4725
884.018	4797
884.143	4908
884.269	5014
884.395	4725
884.52	4664
884.646	4675
884.772	4611
884.897	4603
885.023	4664
885.148	4797
885.274	4911
885.399	4828
885.524	4767
885.65	4706
885.775	4771
885.9	4691
886.025	4850
886.15	4774
886.275	4729
886.4	4653
886.525	4744
886.65	4679
886.775	4759
886.9	4885
887.025	5094
887.149	4847
887.274	4698
887.399	4615
887.523	4588
887.648	4645
887.773	4622
887.897	4763
888.021	4805
888.146	4717
888.27	4824
888.395	4919
888.519	4828
888.643	4854
888.767	4877
888.891	4744
889.015	4649
889.139	4668
889.263	4584
889.387	4774
889.511	4862
889.635	4839
889.759	4645
889.883	4687
890.006	4763
890.13	4843
890.254	4649
890.377	4702
890.501	4573
890.624	4535
890.748	4683
890.871	4535
890.995	4440
891.118	4390
891.241	4584
891.364	4573
891.488	4675
891.611	4504
891.734	4561
891.857	4626
891.98	4641
892.103	4641
892.226	4607
892.349	4596
892.471	4455
892.594	4542
892.717	4618
892.839	4622
892.962	4603
893.085	4725
893.207	4626
893.33	4455
893.452	4546
893.575	4679
893.697	4565
893.819	4820
893.941	4812
894.064	4767
894.186	4611
894.308	4615
894.43	4736
894.552	4854
894.674	4782
894.796	4558
894.918	4588
895.04	4580
895.161	4672
895.283	4729
895.405	4607
895.526	4645
895.648	4668
895.769	4740
895.891	4729
896.012	4771
896.134	4767
896.255	4691
896.376	4660
896.498	4618
896.619	4733
896.74	4664
896.861	4634
896.982	4953
897.103	5064
897.224	4828
897.345	4801
897.466	4714
897.587	4725
897.708	4866
897.828	4824
897.949	4641
898.07	4573
898.19	4653
898.311	4828
898.431	4649
898.552	4759
898.672	4847
898.792	4835
898.913	4767
899.033	4653
899.153	4535
899.273	4478
899.393	4504
899.513	4497
899.633	4558
899.753	4508
899.873	4542
899.993	4599
900.113	4558
900.232	4550
900.352	4516
900.472	4493
900.591	4428
900.711	4500
900.83	4447
900.95	4615
901.069	4721
901.189	4558
901.308	4333
901.427	4299
901.546	4398
901.665	4478
901.784	4512
901.904	4383
902.023	4356
902.141	4211
902.26	4196
902.379	4303
902.498	4291
902.617	4242
902.735	4417
902.854	4386
902.973	4371
903.091	4185
903.21	4261
903.328	4310
903.446	4287
903.565	4238
903.683	4398
903.801	4299
903.919	4424
904.038	4447
904.156	4333
904.274	4481
904.392	4390
904.51	4402
904.627	4489
904.745	4584
904.863	4649
904.981	4443
905.098	4322
905.216	4417
905.334	4462
905.451	4466
905.569	4462
905.686	4577
905.803	4611
905.921	4383
906.038	4561
906.155	4481
906.272	4398
906.389	4462
906.506	4329
906.623	4383
906.74	4417
906.857	4318
906.974	4402
907.091	4603
907.208	4767
907.324	4592
907.441	4497
907.557	4360
907.674	4348
907.79	4295
907.907	4379
908.023	4500
908.139	4493
908.256	4447
908.372	4500
908.488	4493
908.604	4322
908.72	4299
908.836	4413
908.952	4428
909.068	4402
909.184	4558
909.3	4519
909.415	4580
909.531	4592
909.647	4310
909.762	4413
909.878	4383
909.993	4459
910.108	4417
910.224	4390
910.339	4481
910.454	4455
910.57	4348
910.685	4325
910.8	4668
910.915	4634
911.03	4546
911.145	4291
911.259	4341
911.374	4390
911.489	4310
911.604	4291
911.718	4223
911.833	4169
911.947	4090
912.062	4051
912.176	4219
912.291	4242
912.405	4295
912.519	4451
912.633	4516
912.748	4405
912.862	4310
912.976	4204
913.09	4086
913.204	4139
913.318	4276
913.431	4352
913.545	4325
913.659	4455
913.772	4367
913.886	4242
914	4207
914.113	4405
914.226	4443
914.34	4413
914.453	4265
914.566	4398
914.68	4356
914.793	4352
914.906	4158
915.019	4124
915.132	4090
915.245	4196
915.358	4249
915.47	4242
915.583	4318
915.696	4314
915.809	4402
915.921	4447
916.034	4265
916.146	4284
916.259	4230
916.371	4394
916.483	4386
916.595	4272
916.708	4360
916.82	4341
916.932	4310
917.044	4318
917.156	4371
917.268	4280
917.38	4325
917.491	4272
917.603	4322
917.715	4386
917.826	4455
917.938	4379
918.049	4265
918.161	4424
918.272	4554
918.384	4611
918.495	4489
918.606	4322
918.717	4280
918.828	4363
918.939	4383
919.05	4265
919.161	4329
919.272	4211
919.383	4242
919.494	4508
919.604	4653
919.715	4417
919.826	4405
919.936	4443
920.047	4554
920.157	4523
920.267	4717
920.378	4584
920.488	4550
920.598	4778
920.708	4858
920.818	4828
920.928	4847
921.038	4946
921.148	4980
921.258	4679
921.368	4554
921.477	4558
921.587	4500
921.697	4493
921.806	4565
921.916	4443
922.025	4325
922.134	4303
922.244	4265
922.353	4356
922.462	4158
922.571	4128
922.68	4051
922.789	4040
922.898	4063
923.007	4044
923.116	4154
923.224	4082
923.333	4090
923.442	4051
923.55	4048
923.659	4067
923.767	4143
923.876	4032
923.984	4177
924.092	4059
924.201	4135
924.309	4177
924.417	4192
924.525	4105
924.633	4177
924.741	4942
924.849	3956
924.956	4185
925.064	4006
925.172	3949
925.279	4059
925.387	4131
925.494	4116
925.602	4265
925.709	4280
925.816	4101
925.924	4181
926.031	4280
926.138	4200
926.245	4257
926.352	4192
926.459	4360
926.566	4356
926.673	4227
926.779	4112
926.886	4082
926.993	4048
927.099	3953
927.206	3983
927.312	3979
927.419	4059
927.525	4048
927.631	4112
927.737	4044
927.843	3987
927.95	3861
928.056	3998
928.162	4071
928.267	4082
928.373	4744
928.479	4135
928.585	3888
928.69	4013
928.796	4067
928.901	4036
929.007	3842
929.112	4059
929.218	4040
929.323	3960
929.428	3972
929.533	4158
929.638	3918
929.743	4032
929.848	4074
929.953	4040
930.058	3972
930.163	3831
930.267	3896
930.372	4010
930.477	3823
930.581	4116
930.685	3994
930.79	3827
930.894	3918
930.998	3888
931.103	4086
931.207	3755
931.311	3724
931.415	3713
931.519	3591
931.623	3580
