Data from test_V78500241_1159.txt Node
Date: Fri Mar 25 16:57:03 CST 2022
User: usil
Spectrometer: V785-0024
Trigger mode: 0
Integration Time (sec): 4.000000E-1
Scans to average: 1
Nonlinearity correction enabled: false
Boxcar width: 0
Storing dark spectrum: false
XAxis mode: Wavelengths
Number of Pixels in Spectrum: 1024
>>>>>Begin Spectral Data<<<<<
801.071	8043
801.214	8035
801.356	7932
801.499	7890
801.641	7772
801.783	7826
801.926	7898
802.068	7879
802.211	7944
802.353	7959
802.496	7864
802.638	7879
802.78	7944
802.923	8031
803.065	7879
803.208	7780
803.35	8001
803.492	8092
803.635	8138
803.777	8054
803.919	8142
804.061	8427
804.204	8180
804.346	8054
804.488	7982
804.63	8046
804.773	8069
804.915	8065
805.057	8275
805.199	8206
805.341	8210
805.483	8229
805.626	8240
805.768	8123
805.91	8256
806.052	8168
806.194	8119
806.336	8248
806.478	8069
806.62	8020
806.762	8088
806.904	8320
807.046	8450
807.188	8305
807.33	8282
807.472	8351
807.614	8168
807.756	8100
807.898	8065
808.04	7940
808.182	7936
808.324	7860
808.465	7955
808.607	8123
808.749	8138
808.891	8233
809.033	8343
809.174	8176
809.316	8050
809.458	8092
809.6	7970
809.741	8020
809.883	8001
810.025	8069
810.166	8130
810.308	8050
810.45	8012
810.591	7944
810.733	7693
810.875	7685
811.016	7567
811.158	7533
811.299	7567
811.441	7704
811.582	7734
811.724	7586
811.865	7590
812.007	7662
812.148	7666
812.29	7677
812.431	7757
812.573	7830
812.714	7986
812.855	8145
812.997	8168
813.138	8282
813.279	8218
813.421	8100
813.562	8069
813.703	7845
813.845	7731
813.986	7483
814.127	7244
814.268	7187
814.41	7247
814.551	7141
814.692	7152
814.833	7088
814.974	7065
815.115	7072
815.256	7000
815.397	6932
815.539	6973
815.68	6848
815.821	6776
815.962	6897
816.103	6909
816.244	6783
816.385	6688
816.526	6627
816.666	6475
816.807	6338
816.948	6422
817.089	6502
817.23	6494
817.371	6426
817.512	6384
817.653	6410
817.793	6357
817.934	6399
818.075	6456
818.216	6418
818.356	6399
818.497	6228
818.638	6163
818.778	6171
818.919	6117
819.06	6178
819.2	6289
819.341	6289
819.481	6426
819.622	6559
819.762	6726
819.903	6696
820.043	6578
820.184	6555
820.324	6555
820.465	6734
820.605	6639
820.746	6639
820.886	6471
821.026	6589
821.167	6662
821.307	6833
821.447	6825
821.588	6677
821.728	6570
821.868	6540
822.008	6353
822.149	6353
822.289	6342
822.429	6163
822.569	6072
822.709	6117
822.849	5916
822.99	5954
823.13	5920
823.27	5904
823.41	5802
823.55	5764
823.69	5794
823.83	5779
823.97	5646
824.11	5558
824.25	5490
824.389	5543
824.529	5570
824.669	5543
824.809	5600
824.949	5619
825.089	5608
825.228	5600
825.368	5429
825.508	5364
825.648	5345
825.787	5406
825.927	5387
826.067	5273
826.206	5269
826.346	5387
826.485	5387
826.625	5391
826.765	5592
826.904	5459
827.044	5231
827.183	5216
827.323	5075
827.462	5261
827.601	5208
827.741	5162
827.88	5223
828.02	5178
828.159	5216
828.298	5288
828.437	5383
828.577	5288
828.716	5535
828.855	5322
828.994	5181
829.134	5155
829.273	5132
829.412	5174
829.551	5113
829.69	5147
829.829	5239
829.968	5379
830.107	5284
830.246	5299
830.385	5185
830.524	5124
830.663	5045
830.802	4961
830.941	4915
831.08	4900
831.219	4980
831.357	4976
831.496	5090
831.635	4949
831.774	4831
831.913	4820
832.051	4714
832.19	4763
832.329	4889
832.467	4706
832.606	4641
832.744	4721
832.883	4698
833.022	4740
833.16	4816
833.299	4847
833.437	4831
833.576	4793
833.714	4831
833.852	4930
833.991	4858
834.129	5003
834.267	4957
834.406	4892
834.544	5022
834.682	4946
834.821	4972
834.959	5140
835.097	5037
835.235	5155
835.373	5075
835.511	5166
835.65	5079
835.788	5037
835.926	4930
836.064	4877
836.202	4908
836.34	5128
836.478	5242
836.615	5143
836.753	5170
836.891	5261
837.029	5227
837.167	5223
837.305	5147
837.443	5170
837.58	5052
837.718	5197
837.856	5132
837.993	5124
838.131	5223
838.269	5189
838.406	5220
838.544	5155
838.681	5045
838.819	5056
838.956	4900
839.094	4889
839.231	4968
839.369	5090
839.506	5417
839.643	5220
839.781	5075
839.918	5041
840.055	5075
840.193	5056
840.33	5083
840.467	5132
840.604	5193
840.742	5429
840.879	5067
841.016	5056
841.153	5124
841.29	5360
841.427	5311
841.564	5353
841.701	5318
841.838	5269
841.975	5261
842.112	5250
842.249	5143
842.385	5143
842.522	5349
842.659	5189
842.796	5159
842.933	5193
843.069	5094
843.206	5102
843.343	5265
843.479	5227
843.616	5242
843.752	5010
843.889	4953
844.025	5223
844.162	5037
844.298	5261
844.435	5086
844.571	5041
844.708	5174
844.844	5307
844.98	5322
845.117	5269
845.253	5090
845.389	5105
845.525	5193
845.661	5147
845.798	5067
845.934	5098
846.07	5048
846.206	5227
846.342	5299
846.478	5178
846.614	4968
846.75	4961
846.886	4900
847.022	5151
847.158	4972
847.294	5041
847.429	5094
847.565	5094
847.701	5322
847.837	4828
847.972	4763
848.108	4980
848.244	4961
848.379	4778
848.515	4694
848.65	4694
848.786	4755
848.921	4752
849.057	4908
849.192	4870
849.328	4831
849.463	4828
849.598	4790
849.734	4782
849.869	4672
850.004	4660
850.14	4637
850.275	4645
850.41	4538
850.545	4580
850.68	4599
850.815	4618
850.95	4596
851.085	4835
851.22	4763
851.355	4637
851.49	4592
851.625	4653
851.76	4668
851.895	4493
852.03	4527
852.165	4626
852.299	4755
852.434	4816
852.569	4778
852.703	4771
852.838	4820
852.973	4889
853.107	4915
853.242	4755
853.376	4710
853.511	4573
853.645	4645
853.78	4824
853.914	4653
854.048	4641
854.183	4626
854.317	4721
854.451	4812
854.585	4664
854.72	4599
854.854	4755
854.988	4565
855.122	4649
855.256	4538
855.39	4672
855.524	4786
855.658	4744
855.792	4679
855.926	4740
856.06	4736
856.194	4748
856.327	4630
856.461	4599
856.595	4660
856.729	4573
856.862	4748
856.996	4706
857.13	4687
857.263	4816
857.397	4767
857.53	4672
857.664	4683
857.797	4778
857.931	4793
858.064	4675
858.197	4714
858.331	4599
858.464	4573
858.597	4508
858.731	4668
858.864	4626
858.997	4603
859.13	4596
859.263	4679
859.396	4759
859.529	4561
859.662	4508
859.795	4538
859.928	4653
860.061	4744
860.194	4767
860.327	4622
860.46	4554
860.592	4733
860.725	4683
860.858	4675
860.99	4542
861.123	4523
861.256	4504
861.388	4599
861.521	5265
861.653	4512
861.786	4451
861.918	4474
862.05	4504
862.183	4588
862.315	4603
862.447	4630
862.58	4535
862.712	4424
862.844	4325
862.976	4462
863.108	4409
863.24	4896
863.372	4337
863.504	4405
863.636	4390
863.768	4478
863.9	4428
864.032	4360
864.164	4447
864.296	4459
864.428	4550
864.559	4561
864.691	4489
864.823	4512
864.954	4504
865.086	4512
865.217	4432
865.349	4402
865.48	4470
865.612	4504
865.743	4546
865.875	4481
866.006	4443
866.137	4443
866.269	4428
866.4	4451
866.531	4417
866.662	4398
866.793	4405
866.924	4428
867.055	4474
867.186	4398
867.317	4402
867.448	4337
867.579	4390
867.71	4371
867.841	4344
867.972	4417
868.103	4421
868.233	4432
868.364	4440
868.495	4489
868.625	4660
868.756	4767
868.886	4523
869.017	4580
869.147	4748
869.278	4759
869.408	4630
869.539	4618
869.669	4698
869.799	4615
869.929	4778
870.06	4748
870.19	4976
870.32	4896
870.45	4889
870.58	5037
870.71	5140
870.84	5060
870.97	4953
871.1	4854
871.23	5056
871.36	5136
871.489	4999
871.619	5064
871.749	5098
871.879	5162
872.008	5185
872.138	5045
872.267	4938
872.397	4824
872.526	4828
872.656	4733
872.785	4767
872.915	4961
873.044	4968
873.173	4881
873.303	4934
873.432	4953
873.561	4934
873.69	4881
873.819	4881
873.948	4934
874.077	4809
874.206	4759
874.335	4805
874.464	4915
874.593	5010
874.722	4965
874.851	5079
874.979	5045
875.108	5033
875.237	4892
875.365	4881
875.494	4873
875.623	4991
875.751	4812
875.88	4927
876.008	4938
876.136	5018
876.265	5189
876.393	5311
876.521	5258
876.65	5166
876.778	5124
876.906	5083
877.034	5003
877.162	5018
877.29	4942
877.418	5079
877.546	5045
877.674	4968
877.802	5041
877.93	5033
878.058	4949
878.185	4889
878.313	4930
878.441	4972
878.568	4790
878.696	4870
878.824	4949
878.951	4961
879.079	5140
879.206	5307
879.333	5083
879.461	4999
879.588	4946
879.715	5064
879.842	5227
879.97	4972
880.097	4752
880.224	4748
880.351	4767
880.478	4824
880.605	4782
880.732	4786
880.859	5140
880.986	4850
881.112	4904
881.239	4755
881.366	4649
881.493	4569
881.619	4599
881.746	4618
881.872	4649
881.999	4653
882.125	4729
882.252	4767
882.378	4835
882.505	4953
882.631	4828
882.757	4653
882.883	4694
883.01	4706
883.136	4714
883.262	4611
883.388	4588
883.514	4847
883.64	4915
883.766	4816
883.892	4694
884.018	4736
884.143	4873
884.269	5033
884.395	4649
884.52	4645
884.646	4679
884.772	4596
884.897	4573
885.023	4645
885.148	4721
885.274	4877
885.399	4831
885.524	4702
885.65	4691
885.775	4698
885.9	4710
886.025	4831
886.15	4778
886.275	4698
886.4	4634
886.525	4748
886.65	4653
886.775	4729
886.9	4873
887.025	5014
887.149	4820
887.274	4679
887.399	4580
887.523	4596
887.648	4538
887.773	4577
887.897	4740
888.021	4778
888.146	4664
888.27	4767
888.395	4877
888.519	4809
888.643	4820
888.767	4797
888.891	4744
889.015	4637
889.139	4641
889.263	4580
889.387	4714
889.511	4820
889.635	4774
889.759	4622
889.883	4607
890.006	4740
890.13	4763
890.254	4599
890.377	4698
890.501	4527
890.624	4455
890.748	4626
890.871	4504
890.995	4424
891.118	4322
891.241	4497
891.364	4512
891.488	4599
891.611	4443
891.734	4478
891.857	4584
891.98	4516
892.103	4611
892.226	4554
892.349	4523
892.471	4447
892.594	4535
892.717	4596
892.839	4603
892.962	4580
893.085	4641
893.207	4550
893.33	4466
893.452	4500
893.575	4725
893.697	4599
893.819	4778
893.941	4816
894.064	4733
894.186	4546
894.308	4527
894.43	4748
894.552	4793
894.674	4740
894.796	4569
894.918	4569
895.04	4535
895.161	4656
895.283	4618
895.405	4565
895.526	4630
895.648	4687
895.769	4675
895.891	4706
896.012	4763
896.134	4702
896.255	4664
896.376	4611
896.498	4622
896.619	4653
896.74	4607
896.861	4668
896.982	4923
897.103	5045
897.224	4797
897.345	4763
897.466	4672
897.587	4740
897.708	4831
897.828	4812
897.949	4679
898.07	4615
898.19	4683
898.311	4831
898.431	4668
898.552	4694
898.672	4801
898.792	4763
898.913	4729
899.033	4626
899.153	4512
899.273	4424
899.393	4485
899.513	4519
899.633	4527
899.753	4538
899.873	4527
899.993	4584
900.113	4558
900.232	4573
900.352	4527
900.472	4527
900.591	4409
900.711	4485
900.83	4447
900.95	4641
901.069	4668
901.189	4512
901.308	4344
901.427	4322
901.546	4341
901.665	4504
901.784	4489
901.904	4424
902.023	4325
902.141	4200
902.26	4200
902.379	4329
902.498	4253
902.617	4211
902.735	4348
902.854	4360
902.973	4348
903.091	4185
903.21	4150
903.328	4276
903.446	4272
903.565	4223
903.683	4333
903.801	4246
903.919	4360
904.038	4424
904.156	4356
904.274	4390
904.392	4344
904.51	4432
904.627	4466
904.745	4535
904.863	4592
904.981	4390
905.098	4329
905.216	4375
905.334	4413
905.451	4436
905.569	4371
905.686	4542
905.803	4542
905.921	4421
906.038	4569
906.155	4440
906.272	4352
906.389	4455
906.506	4341
906.623	4409
906.74	4367
906.857	4299
906.974	4356
907.091	4535
907.208	4645
907.324	4573
907.441	4500
907.557	4394
907.674	4299
907.79	4303
907.907	4398
908.023	4421
908.139	4455
908.256	4424
908.372	4421
908.488	4432
908.604	4356
908.72	4318
908.836	4344
908.952	4379
909.068	4451
909.184	4607
909.3	4413
909.415	4558
909.531	4535
909.647	4303
909.762	4383
909.878	4322
909.993	4409
910.108	4417
910.224	4421
910.339	4497
910.454	4367
910.57	4314
910.685	4272
910.8	4588
910.915	4573
911.03	4531
911.145	4348
911.259	4329
911.374	4322
911.489	4272
911.604	4287
911.718	4139
911.833	4188
911.947	4116
912.062	3994
912.176	4154
912.291	4223
912.405	4242
912.519	4466
912.633	4462
912.748	4344
912.862	4325
912.976	4204
913.09	4086
913.204	4207
913.318	4223
913.431	4356
913.545	4352
913.659	4421
913.772	4379
913.886	4227
914	4238
914.113	4325
914.226	4371
914.34	4325
914.453	4215
914.566	4375
914.68	4257
914.793	4306
914.906	4131
915.019	4139
915.132	4055
915.245	4177
915.358	4192
915.47	4223
915.583	4276
915.696	4299
915.809	4428
915.921	4421
916.034	4299
916.146	4249
916.259	4287
916.371	4325
916.483	4333
916.595	4268
916.708	4329
916.82	4299
916.932	4303
917.044	4348
917.156	4303
917.268	4211
917.38	4265
917.491	4238
917.603	4348
917.715	4432
917.826	4424
917.938	4325
918.049	4211
918.161	4398
918.272	4523
918.384	4519
918.495	4485
918.606	4265
918.717	4261
918.828	4329
918.939	4363
919.05	4253
919.161	4272
919.272	4128
919.383	4196
919.494	4455
919.604	4607
919.715	4443
919.826	4322
919.936	4375
920.047	4519
920.157	4478
920.267	4664
920.378	4508
920.488	4466
920.598	4706
920.708	4873
920.818	4706
920.928	4744
921.038	4927
921.148	4919
921.258	4618
921.368	4558
921.477	4519
921.587	4451
921.697	4329
921.806	4531
921.916	4398
922.025	4280
922.134	4249
922.244	4253
922.353	4322
922.462	4185
922.571	4158
922.68	4002
922.789	3994
922.898	4021
923.007	4010
923.116	4139
923.224	4055
923.333	4067
923.442	3998
923.55	4002
923.659	4025
923.767	4150
923.876	3994
923.984	4158
924.092	4002
924.201	4078
924.309	4059
924.417	4105
924.525	4021
924.633	4131
924.741	5037
924.849	3911
924.956	4162
925.064	3945
925.172	3907
925.279	3972
925.387	4082
925.494	4025
925.602	4211
925.709	4158
925.816	4051
925.924	4150
926.031	4200
926.138	4219
926.245	4200
926.352	4029
926.459	4249
926.566	4310
926.673	4166
926.779	4116
926.886	4067
926.993	3987
927.099	3934
927.206	3930
927.312	3953
927.419	4048
927.525	3998
927.631	4059
927.737	3972
927.843	3960
927.95	3827
928.056	3987
928.162	3972
928.267	4048
928.373	4725
928.479	4116
928.585	3838
928.69	4032
928.796	4036
928.901	3941
929.007	3873
929.112	3979
929.218	3975
929.323	3979
929.428	3953
929.533	4086
929.638	3884
929.743	3960
929.848	4067
929.953	3964
930.058	3922
930.163	3785
930.267	3823
930.372	3960
930.477	3857
930.581	4097
930.685	3934
930.79	3793
930.894	3896
930.998	3842
931.103	4036
931.207	3759
931.311	3709
931.415	3663
931.519	3473
931.623	3519
