Data from test_V78500241_899.txt Node
Date: Fri Mar 25 16:55:15 CST 2022
User: usil
Spectrometer: V785-0024
Trigger mode: 0
Integration Time (sec): 4.000000E-1
Scans to average: 1
Nonlinearity correction enabled: false
Boxcar width: 0
Storing dark spectrum: false
XAxis mode: Wavelengths
Number of Pixels in Spectrum: 1024
>>>>>Begin Spectral Data<<<<<
801.071	8046
801.214	8054
801.356	7837
801.499	7917
801.641	7776
801.783	7795
801.926	7993
802.068	7955
802.211	7967
802.353	7967
802.496	7871
802.638	7913
802.78	7906
802.923	7955
803.065	7936
803.208	7989
803.35	8039
803.492	8103
803.635	8176
803.777	8077
803.919	8187
804.061	8476
804.204	8107
804.346	8084
804.488	7989
804.63	8103
804.773	8065
804.915	8073
805.057	8279
805.199	8176
805.341	8282
805.483	8267
805.626	8176
805.768	8161
805.91	8214
806.052	8168
806.194	8058
806.336	8298
806.478	8043
806.62	8081
806.762	8142
806.904	8259
807.046	8442
807.188	8374
807.33	8336
807.472	8343
807.614	8191
807.756	8123
807.898	7993
808.04	7890
808.182	7879
808.324	7913
808.465	7932
808.607	8054
808.749	8100
808.891	8176
809.033	8282
809.174	8218
809.316	8084
809.458	8058
809.6	8065
809.741	8035
809.883	8024
810.025	8138
810.166	8062
810.308	8039
810.45	8077
810.591	7955
810.733	7700
810.875	7624
811.016	7544
811.158	7552
811.299	7575
811.441	7658
811.582	7738
811.724	7620
811.865	7525
812.007	7609
812.148	7544
812.29	7632
812.431	7723
812.573	7856
812.714	8008
812.855	8107
812.997	8271
813.138	8355
813.279	8199
813.421	8123
813.562	8008
813.703	7890
813.845	7830
813.986	7525
814.127	7308
814.268	7228
814.41	7156
814.551	7194
814.692	7156
814.833	7129
814.974	7053
815.115	7076
815.256	7072
815.397	6928
815.539	6935
815.68	6810
815.821	6802
815.962	6890
816.103	6821
816.244	6719
816.385	6662
816.526	6635
816.666	6464
816.807	6296
816.948	6391
817.089	6502
817.23	6452
817.371	6350
817.512	6388
817.653	6414
817.793	6433
817.934	6407
818.075	6407
818.216	6407
818.356	6429
818.497	6239
818.638	6106
818.778	6194
818.919	6121
819.06	6175
819.2	6346
819.341	6369
819.481	6384
819.622	6563
819.762	6760
819.903	6662
820.043	6506
820.184	6582
820.324	6563
820.465	6673
820.605	6681
820.746	6585
820.886	6525
821.026	6707
821.167	6673
821.307	6772
821.447	6738
821.588	6654
821.728	6566
821.868	6490
822.008	6300
822.149	6372
822.289	6319
822.429	6144
822.569	6114
822.709	6076
822.849	5969
822.99	5882
823.13	5908
823.27	5908
823.41	5802
823.55	5764
823.69	5756
823.83	5817
823.97	5714
824.11	5547
824.25	5512
824.389	5532
824.529	5596
824.669	5490
824.809	5646
824.949	5668
825.089	5604
825.228	5573
825.368	5440
825.508	5315
825.648	5353
825.787	5345
825.927	5360
826.067	5273
826.206	5299
826.346	5383
826.485	5387
826.625	5406
826.765	5577
826.904	5520
827.044	5280
827.183	5212
827.323	5128
827.462	5231
827.601	5170
827.741	5197
827.88	5227
828.02	5094
828.159	5258
828.298	5261
828.437	5372
828.577	5277
828.716	5459
828.855	5303
828.994	5239
829.134	5208
829.273	5216
829.412	5094
829.551	5132
829.69	5147
829.829	5246
829.968	5383
830.107	5273
830.246	5231
830.385	5155
830.524	5124
830.663	5090
830.802	4976
830.941	4873
831.08	4900
831.219	4968
831.357	4946
831.496	5170
831.635	4915
831.774	4858
831.913	4778
832.051	4698
832.19	4744
832.329	4858
832.467	4740
832.606	4668
832.744	4706
832.883	4714
833.022	4725
833.16	4797
833.299	4801
833.437	4847
833.576	4820
833.714	4828
833.852	4892
833.991	4915
834.129	5029
834.267	4965
834.406	4885
834.544	4965
834.682	4999
834.821	4957
834.959	5170
835.097	4927
835.235	5159
835.373	5083
835.511	5086
835.65	5067
835.788	5041
835.926	4892
836.064	4915
836.202	4911
836.34	5185
836.478	5246
836.615	5143
836.753	5201
836.891	5280
837.029	5326
837.167	5204
837.305	5181
837.443	5124
837.58	5052
837.718	5254
837.856	5155
837.993	5102
838.131	5242
838.269	5212
838.406	5201
838.544	5147
838.681	5003
838.819	5018
838.956	4873
839.094	4946
839.231	4968
839.369	5052
839.506	5425
839.643	5246
839.781	5064
839.918	5056
840.055	5083
840.193	5071
840.33	5170
840.467	5143
840.604	5212
840.742	5436
840.879	5064
841.016	5098
841.153	5166
841.29	5341
841.427	5299
841.564	5277
841.701	5337
841.838	5269
841.975	5231
842.112	5277
842.249	5155
842.385	5113
842.522	5269
842.659	5162
842.796	5159
842.933	5174
843.069	5128
843.206	5185
843.343	5330
843.479	5166
843.616	5261
843.752	5029
843.889	5045
844.025	5170
844.162	5048
844.298	5174
844.435	5132
844.571	5075
844.708	5178
844.844	5269
844.98	5387
845.117	5318
845.253	5147
845.389	5132
845.525	5132
845.661	5151
845.798	5048
845.934	5136
846.07	5121
846.206	5208
846.342	5288
846.478	5197
846.614	5037
846.75	5003
846.886	4957
847.022	5147
847.158	5022
847.294	5052
847.429	5094
847.565	4976
847.701	5341
847.837	4812
847.972	4854
848.108	4953
848.244	4881
848.379	4812
848.515	4759
848.65	4702
848.786	4748
848.921	4782
849.057	4866
849.192	4911
849.328	4820
849.463	4892
849.598	4763
849.734	4733
849.869	4702
850.004	4592
850.14	4649
850.275	4580
850.41	4527
850.545	4577
850.68	4596
850.815	4599
850.95	4615
851.085	4889
851.22	4744
851.355	4717
851.49	4607
851.625	4607
851.76	4607
851.895	4546
852.03	4535
852.165	4596
852.299	4721
852.434	4748
852.569	4778
852.703	4733
852.838	4850
852.973	4919
853.107	4877
853.242	4733
853.376	4630
853.511	4569
853.645	4592
853.78	4740
853.914	4698
854.048	4611
854.183	4660
854.317	4702
854.451	4805
854.585	4717
854.72	4653
854.854	4733
854.988	4664
855.122	4641
855.256	4542
855.39	4672
855.524	4778
855.658	4679
855.792	4653
855.926	4687
856.06	4778
856.194	4835
856.327	4698
856.461	4607
856.595	4611
856.729	4622
856.862	4733
856.996	4664
857.13	4714
857.263	4744
857.397	4767
857.53	4672
857.664	4706
857.797	4793
857.931	4755
858.064	4721
858.197	4691
858.331	4668
858.464	4584
858.597	4519
858.731	4645
858.864	4603
858.997	4569
859.13	4668
859.263	4660
859.396	4710
859.529	4561
859.662	4542
859.795	4580
859.928	4603
860.061	4717
860.194	4778
860.327	4550
860.46	4558
860.592	4683
860.725	4710
860.858	4656
860.99	4550
861.123	4504
861.256	4504
861.388	4630
861.521	5189
861.653	4508
861.786	4432
861.918	4436
862.05	4558
862.183	4546
862.315	4569
862.447	4679
862.58	4577
862.712	4394
862.844	4329
862.976	4489
863.108	4447
863.24	4717
863.372	4314
863.504	4386
863.636	4413
863.768	4478
863.9	4417
864.032	4371
864.164	4428
864.296	4447
864.428	4561
864.559	4535
864.691	4508
864.823	4462
864.954	4489
865.086	4493
865.217	4462
865.349	4478
865.48	4440
865.612	4516
865.743	4641
865.875	4485
866.006	4428
866.137	4459
866.269	4390
866.4	4409
866.531	4428
866.662	4424
866.793	4379
866.924	4447
867.055	4489
867.186	4447
867.317	4432
867.448	4367
867.579	4417
867.71	4375
867.841	4383
867.972	4455
868.103	4443
868.233	4455
868.364	4440
868.495	4531
868.625	4645
868.756	4725
868.886	4558
869.017	4599
869.147	4759
869.278	4744
869.408	4649
869.539	4596
869.669	4721
869.799	4630
869.929	4782
870.06	4717
870.19	4961
870.32	4896
870.45	4942
870.58	4972
870.71	5071
870.84	5010
870.97	4923
871.1	4896
871.23	5155
871.36	5128
871.489	5006
871.619	5014
871.749	5090
871.879	5121
872.008	5151
872.138	5067
872.267	4961
872.397	4850
872.526	4786
872.656	4702
872.785	4816
872.915	4972
873.044	5018
873.173	4911
873.303	4927
873.432	4946
873.561	4976
873.69	4870
873.819	4850
873.948	4908
874.077	4805
874.206	4755
874.335	4831
874.464	4915
874.593	5098
874.722	4965
874.851	5029
874.979	5060
875.108	5075
875.237	4896
875.365	4812
875.494	4831
875.623	4930
875.751	4805
875.88	4877
876.008	4965
876.136	5025
876.265	5178
876.393	5303
876.521	5235
876.65	5178
876.778	5136
876.906	5079
877.034	4991
877.162	5018
877.29	4976
877.418	5064
877.546	5037
877.674	5029
877.802	5041
877.93	5037
878.058	4984
878.185	4854
878.313	4915
878.441	4949
878.568	4809
878.696	4831
878.824	5003
878.951	4961
879.079	5113
879.206	5318
879.333	5075
879.461	4949
879.588	4946
879.715	5162
879.842	5239
879.97	4991
880.097	4755
880.224	4752
880.351	4820
880.478	4824
880.605	4790
880.732	4755
880.859	5064
880.986	4889
881.112	4889
881.239	4790
881.366	4645
881.493	4645
881.619	4580
881.746	4603
881.872	4641
881.999	4622
882.125	4714
882.252	4812
882.378	4839
882.505	4965
882.631	4793
882.757	4660
882.883	4729
883.01	4691
883.136	4656
883.262	4607
883.388	4592
883.514	4820
883.64	4812
883.766	4793
883.892	4672
884.018	4733
884.143	4885
884.269	4942
884.395	4649
884.52	4615
884.646	4618
884.772	4546
884.897	4554
885.023	4653
885.148	4759
885.274	4828
885.399	4828
885.524	4729
885.65	4660
885.775	4706
885.9	4729
886.025	4854
886.15	4790
886.275	4710
886.4	4599
886.525	4725
886.65	4634
886.775	4649
886.9	4904
887.025	5025
887.149	4820
887.274	4637
887.399	4565
887.523	4611
887.648	4573
887.773	4558
887.897	4755
888.021	4809
888.146	4668
888.27	4778
888.395	4885
888.519	4793
888.643	4828
888.767	4820
888.891	4675
889.015	4611
889.139	4641
889.263	4554
889.387	4736
889.511	4820
889.635	4771
889.759	4615
889.883	4641
890.006	4679
890.13	4786
890.254	4607
890.377	4664
890.501	4565
890.624	4527
890.748	4603
890.871	4489
890.995	4413
891.118	4356
891.241	4580
891.364	4554
891.488	4649
891.611	4508
891.734	4527
891.857	4577
891.98	4542
892.103	4645
892.226	4573
892.349	4474
892.471	4379
892.594	4519
892.717	4558
892.839	4596
892.962	4596
893.085	4679
893.207	4573
893.33	4451
893.452	4519
893.575	4668
893.697	4550
893.819	4744
893.941	4771
894.064	4755
894.186	4535
894.308	4569
894.43	4702
894.552	4801
894.674	4717
894.796	4558
894.918	4599
895.04	4535
895.161	4729
895.283	4660
895.405	4535
895.526	4637
895.648	4706
895.769	4687
895.891	4725
896.012	4691
896.134	4710
896.255	4679
896.376	4607
896.498	4645
896.619	4664
896.74	4577
896.861	4603
896.982	4889
897.103	5064
897.224	4847
897.345	4729
897.466	4645
897.587	4729
897.708	4850
897.828	4774
897.949	4618
898.07	4527
898.19	4630
898.311	4824
898.431	4664
898.552	4679
898.672	4767
898.792	4831
898.913	4736
899.033	4618
899.153	4531
899.273	4440
899.393	4504
899.513	4508
899.633	4508
899.753	4519
899.873	4451
899.993	4592
900.113	4531
900.232	4588
900.352	4519
900.472	4538
900.591	4386
900.711	4447
900.83	4413
900.95	4634
901.069	4637
901.189	4535
901.308	4402
901.427	4291
901.546	4337
901.665	4497
901.784	4432
901.904	4341
902.023	4272
902.141	4177
902.26	4158
902.379	4280
902.498	4242
902.617	4238
902.735	4344
902.854	4341
902.973	4322
903.091	4185
903.21	4196
903.328	4291
903.446	4234
903.565	4268
903.683	4348
903.801	4246
903.919	4413
904.038	4394
904.156	4314
904.274	4394
904.392	4371
904.51	4405
904.627	4459
904.745	4546
904.863	4580
904.981	4390
905.098	4303
905.216	4344
905.334	4421
905.451	4375
905.569	4432
905.686	4546
905.803	4565
905.921	4413
906.038	4531
906.155	4462
906.272	4333
906.389	4455
906.506	4363
906.623	4386
906.74	4386
906.857	4322
906.974	4318
907.091	4538
907.208	4687
907.324	4558
907.441	4485
907.557	4344
907.674	4341
907.79	4291
907.907	4394
908.023	4489
908.139	4455
908.256	4436
908.372	4489
908.488	4459
908.604	4295
908.72	4333
908.836	4352
908.952	4390
909.068	4432
909.184	4554
909.3	4447
909.415	4573
909.531	4565
909.647	4322
909.762	4360
909.878	4375
909.993	4443
910.108	4421
910.224	4413
910.339	4428
910.454	4375
910.57	4367
910.685	4322
910.8	4622
910.915	4546
911.03	4493
911.145	4291
911.259	4314
911.374	4390
911.489	4284
911.604	4276
911.718	4207
911.833	4154
911.947	4101
912.062	3991
912.176	4227
912.291	4215
912.405	4253
912.519	4459
912.633	4478
912.748	4379
912.862	4325
912.976	4177
913.09	4082
913.204	4200
913.318	4249
913.431	4329
913.545	4379
913.659	4443
913.772	4379
913.886	4253
914	4215
914.113	4360
914.226	4409
914.34	4352
914.453	4253
914.566	4451
914.68	4344
914.793	4352
914.906	4177
915.019	4116
915.132	4078
915.245	4158
915.358	4223
915.47	4238
915.583	4287
915.696	4314
915.809	4405
915.921	4436
916.034	4246
916.146	4230
916.259	4185
916.371	4348
916.483	4360
916.595	4257
916.708	4337
916.82	4280
916.932	4318
917.044	4306
917.156	4314
917.268	4265
917.38	4276
917.491	4234
917.603	4371
917.715	4455
917.826	4447
917.938	4291
918.049	4215
918.161	4405
918.272	4489
918.384	4493
918.495	4500
918.606	4284
918.717	4211
918.828	4306
918.939	4367
919.05	4268
919.161	4295
919.272	4128
919.383	4246
919.494	4417
919.604	4573
919.715	4421
919.826	4344
919.936	4360
920.047	4546
920.157	4443
920.267	4683
920.378	4554
920.488	4527
920.598	4683
920.708	4904
920.818	4710
920.928	4733
921.038	4957
921.148	4904
921.258	4656
921.368	4569
921.477	4516
921.587	4440
921.697	4405
921.806	4493
921.916	4398
922.025	4238
922.134	4249
922.244	4234
922.353	4295
922.462	4200
922.571	4150
922.68	4025
922.789	4021
922.898	4013
923.007	3975
923.116	4097
923.224	4013
923.333	4112
923.442	3945
923.55	3960
923.659	3987
923.767	4074
923.876	3983
923.984	4131
924.092	3991
924.201	4051
924.309	4109
924.417	4181
924.525	4059
924.633	4093
924.741	4908
924.849	3888
924.956	4169
925.064	3896
925.172	3884
925.279	3960
925.387	4017
925.494	4029
925.602	4207
925.709	4181
925.816	4048
925.924	4097
926.031	4207
926.138	4162
926.245	4185
926.352	4112
926.459	4207
926.566	4306
926.673	4162
926.779	4105
926.886	4082
926.993	4006
927.099	3956
927.206	3998
927.312	3934
927.419	4044
927.525	4032
927.631	4143
927.737	3922
927.843	3941
927.95	3831
928.056	3972
928.162	3968
928.267	4078
928.373	4569
928.479	4105
928.585	3846
928.69	4006
928.796	4090
928.901	3964
929.007	3808
929.112	4002
929.218	3979
929.323	3964
929.428	3892
929.533	4150
929.638	3918
929.743	3975
929.848	4063
929.953	3934
930.058	3945
930.163	3800
930.267	3770
930.372	3994
930.477	3831
930.581	4067
930.685	3945
930.79	3770
930.894	3869
930.998	3869
931.103	4029
931.207	3728
931.311	3686
931.415	3641
931.519	3572
931.623	3572
