Data from test_V78500241_1626.txt Node
Date: Fri Mar 25 17:00:18 CST 2022
User: usil
Spectrometer: V785-0024
Trigger mode: 0
Integration Time (sec): 4.000000E-1
Scans to average: 1
Nonlinearity correction enabled: false
Boxcar width: 0
Storing dark spectrum: false
XAxis mode: Wavelengths
Number of Pixels in Spectrum: 1024
>>>>>Begin Spectral Data<<<<<
801.071	7951
801.214	8077
801.356	7875
801.499	7879
801.641	7833
801.783	7822
801.926	7963
802.068	7982
802.211	7989
802.353	7951
802.496	7788
802.638	7917
802.78	7875
802.923	7947
803.065	7879
803.208	7898
803.35	7982
803.492	8100
803.635	8187
803.777	8039
803.919	8130
804.061	8415
804.204	8210
804.346	8043
804.488	7951
804.63	8100
804.773	8027
804.915	8161
805.057	8221
805.199	8218
805.341	8210
805.483	8252
805.626	8202
805.768	8145
805.91	8218
806.052	8157
806.194	8130
806.336	8279
806.478	8138
806.62	8039
806.762	8187
806.904	8301
807.046	8473
807.188	8366
807.33	8309
807.472	8347
807.614	8168
807.756	8199
807.898	7986
808.04	7856
808.182	7887
808.324	7894
808.465	7852
808.607	8031
808.749	8069
808.891	8210
809.033	8290
809.174	8195
809.316	8081
809.458	8065
809.6	7978
809.741	8024
809.883	7989
810.025	8100
810.166	8031
810.308	8020
810.45	7986
810.591	7837
810.733	7742
810.875	7681
811.016	7510
811.158	7499
811.299	7575
811.441	7772
811.582	7643
811.724	7590
811.865	7510
812.007	7575
812.148	7563
812.29	7590
812.431	7723
812.573	7871
812.714	7986
812.855	8176
812.997	8183
813.138	8286
813.279	8229
813.421	8062
813.562	7986
813.703	7841
813.845	7765
813.986	7441
814.127	7228
814.268	7247
814.41	7213
814.551	7152
814.692	7175
814.833	7091
814.974	7061
815.115	7133
815.256	6939
815.397	6897
815.539	6894
815.68	6810
815.821	6715
815.962	6806
816.103	6791
816.244	6753
816.385	6627
816.526	6574
816.666	6490
816.807	6289
816.948	6403
817.089	6433
817.23	6429
817.371	6327
817.512	6388
817.653	6365
817.793	6311
817.934	6414
818.075	6410
818.216	6467
818.356	6410
818.497	6232
818.638	6098
818.778	6182
818.919	6136
819.06	6175
819.2	6353
819.341	6292
819.481	6361
819.622	6452
819.762	6707
819.903	6665
820.043	6601
820.184	6597
820.324	6604
820.465	6760
820.605	6665
820.746	6597
820.886	6513
821.026	6585
821.167	6677
821.307	6802
821.447	6738
821.588	6700
821.728	6521
821.868	6486
822.008	6308
822.149	6296
822.289	6308
822.429	6098
822.569	6041
822.709	6114
822.849	5931
822.99	5889
823.13	5889
823.27	5908
823.41	5794
823.55	5775
823.69	5752
823.83	5775
823.97	5657
824.11	5524
824.25	5505
824.389	5516
824.529	5585
824.669	5497
824.809	5596
824.949	5642
825.089	5676
825.228	5577
825.368	5337
825.508	5330
825.648	5299
825.787	5391
825.927	5288
826.067	5303
826.206	5273
826.346	5357
826.485	5379
826.625	5406
826.765	5532
826.904	5509
827.044	5223
827.183	5162
827.323	5155
827.462	5292
827.601	5159
827.741	5178
827.88	5197
828.02	5151
828.159	5181
828.298	5265
828.437	5364
828.577	5303
828.716	5486
828.855	5353
828.994	5155
829.134	5151
829.273	5155
829.412	5162
829.551	5132
829.69	5178
829.829	5273
829.968	5414
830.107	5318
830.246	5269
830.385	5181
830.524	5159
830.663	5086
830.802	4968
830.941	4889
831.08	4881
831.219	4972
831.357	5003
831.496	5166
831.635	4908
831.774	4892
831.913	4854
832.051	4744
832.19	4793
832.329	4866
832.467	4733
832.606	4679
832.744	4809
832.883	4733
833.022	4774
833.16	4797
833.299	4877
833.437	4862
833.576	4896
833.714	4896
833.852	4896
833.991	4919
834.129	5006
834.267	4961
834.406	4942
834.544	4984
834.682	5018
834.821	4961
834.959	5197
835.097	5090
835.235	5185
835.373	5140
835.511	5136
835.65	5064
835.788	5075
835.926	4919
836.064	4919
836.202	4942
836.34	5208
836.478	5292
836.615	5121
836.753	5208
836.891	5299
837.029	5254
837.167	5216
837.305	5216
837.443	5155
837.58	5132
837.718	5265
837.856	5204
837.993	5174
838.131	5227
838.269	5227
838.406	5258
838.544	5216
838.681	5018
838.819	5022
838.956	4904
839.094	4934
839.231	4995
839.369	5064
839.506	5440
839.643	5303
839.781	5022
839.918	5064
840.055	5162
840.193	5109
840.33	5124
840.467	5174
840.604	5208
840.742	5459
840.879	5086
841.016	5086
841.153	5147
841.29	5391
841.427	5436
841.564	5337
841.701	5345
841.838	5265
841.975	5246
842.112	5299
842.249	5132
842.385	5181
842.522	5353
842.659	5174
842.796	5204
842.933	5239
843.069	5136
843.206	5185
843.343	5303
843.479	5307
843.616	5261
843.752	5075
843.889	5045
844.025	5212
844.162	5041
844.298	5231
844.435	5098
844.571	5045
844.708	5235
844.844	5277
844.98	5364
845.117	5330
845.253	5170
845.389	5124
845.525	5212
845.661	5132
845.798	5014
845.934	5170
846.07	5098
846.206	5235
846.342	5242
846.478	5227
846.614	5052
846.75	5018
846.886	4987
847.022	5174
847.158	5041
847.294	5045
847.429	5151
847.565	5075
847.701	5357
847.837	4938
847.972	4824
848.108	5018
848.244	4968
848.379	4835
848.515	4748
848.65	4748
848.786	4786
848.921	4839
849.057	4919
849.192	4980
849.328	4854
849.463	4873
849.598	4809
849.734	4805
849.869	4706
850.004	4672
850.14	4717
850.275	4645
850.41	4577
850.545	4630
850.68	4664
850.815	4645
850.95	4653
851.085	4877
851.22	4752
851.355	4687
851.49	4645
851.625	4634
851.76	4660
851.895	4641
852.03	4546
852.165	4694
852.299	4755
852.434	4771
852.569	4824
852.703	4816
852.838	4908
852.973	4953
853.107	4915
853.242	4755
853.376	4706
853.511	4577
853.645	4710
853.78	4812
853.914	4748
854.048	4752
854.183	4641
854.317	4755
854.451	4812
854.585	4691
854.72	4645
854.854	4828
854.988	4603
855.122	4634
855.256	4573
855.39	4717
855.524	4812
855.658	4725
855.792	4733
855.926	4744
856.06	4748
856.194	4809
856.327	4733
856.461	4630
856.595	4611
856.729	4653
856.862	4759
856.996	4759
857.13	4729
857.263	4812
857.397	4843
857.53	4710
857.664	4710
857.797	4767
857.931	4774
858.064	4752
858.197	4801
858.331	4645
858.464	4618
858.597	4584
858.731	4664
858.864	4645
858.997	4622
859.13	4668
859.263	4694
859.396	4710
859.529	4634
859.662	4634
859.795	4615
859.928	4675
860.061	4820
860.194	4752
860.327	4634
860.46	4596
860.592	4752
860.725	4744
860.858	4748
860.99	4596
861.123	4504
861.256	4561
861.388	4618
861.521	5193
861.653	4546
861.786	4432
861.918	4485
862.05	4569
862.183	4584
862.315	4637
862.447	4694
862.58	4573
862.712	4421
862.844	4371
862.976	4516
863.108	4516
863.24	4786
863.372	4306
863.504	4481
863.636	4455
863.768	4459
863.9	4428
864.032	4383
864.164	4413
864.296	4493
864.428	4611
864.559	4573
864.691	4542
864.823	4569
864.954	4519
865.086	4588
865.217	4485
865.349	4443
865.48	4485
865.612	4538
865.743	4649
865.875	4489
866.006	4405
866.137	4447
866.269	4497
866.4	4421
866.531	4428
866.662	4367
866.793	4421
866.924	4447
867.055	4485
867.186	4470
867.317	4432
867.448	4394
867.579	4386
867.71	4451
867.841	4390
867.972	4474
868.103	4478
868.233	4462
868.364	4466
868.495	4561
868.625	4717
868.756	4797
868.886	4546
869.017	4637
869.147	4816
869.278	4801
869.408	4683
869.539	4660
869.669	4729
869.799	4668
869.929	4752
870.06	4725
870.19	4987
870.32	4892
870.45	4953
870.58	5056
870.71	5117
870.84	5143
870.97	4984
871.1	4927
871.23	5170
871.36	5048
871.489	5006
871.619	5048
871.749	5075
871.879	5166
872.008	5159
872.138	5045
872.267	5010
872.397	4904
872.526	4828
872.656	4752
872.785	4824
872.915	4965
873.044	5064
873.173	4957
873.303	4980
873.432	5014
873.561	5003
873.69	4946
873.819	4896
873.948	4908
874.077	4850
874.206	4740
874.335	4835
874.464	4953
874.593	5098
874.722	4980
874.851	5113
874.979	5064
875.108	5086
875.237	4949
875.365	4850
875.494	4866
875.623	5029
875.751	4850
875.88	4915
876.008	5041
876.136	5060
876.265	5189
876.393	5337
876.521	5208
876.65	5235
876.778	5162
876.906	5086
877.034	5025
877.162	5037
877.29	5025
877.418	5022
877.546	5056
877.674	5060
877.802	5029
877.93	5025
878.058	4938
878.185	4877
878.313	4995
878.441	4942
878.568	4816
878.696	4908
878.824	4999
878.951	5045
879.079	5079
879.206	5277
879.333	5109
879.461	5018
879.588	5014
879.715	5132
879.842	5273
879.97	5006
880.097	4759
880.224	4748
880.351	4835
880.478	4847
880.605	4809
880.732	4866
880.859	5064
880.986	4949
881.112	4938
881.239	4759
881.366	4641
881.493	4653
881.619	4607
881.746	4599
881.872	4679
881.999	4675
882.125	4710
882.252	4801
882.378	4908
882.505	4987
882.631	4790
882.757	4691
882.883	4721
883.01	4729
883.136	4698
883.262	4603
883.388	4668
883.514	4850
883.64	4843
883.766	4797
883.892	4672
884.018	4725
884.143	4942
884.269	5022
884.395	4687
884.52	4672
884.646	4664
884.772	4637
884.897	4580
885.023	4634
885.148	4797
885.274	4870
885.399	4843
885.524	4687
885.65	4687
885.775	4759
885.9	4725
886.025	4858
886.15	4809
886.275	4717
886.4	4656
886.525	4725
886.65	4698
886.775	4706
886.9	4908
887.025	5067
887.149	4805
887.274	4664
887.399	4626
887.523	4603
887.648	4565
887.773	4588
887.897	4809
888.021	4809
888.146	4675
888.27	4816
888.395	4904
888.519	4774
888.643	4816
888.767	4809
888.891	4698
889.015	4626
889.139	4653
889.263	4622
889.387	4755
889.511	4847
889.635	4805
889.759	4641
889.883	4634
890.006	4744
890.13	4843
890.254	4603
890.377	4714
890.501	4493
890.624	4535
890.748	4592
890.871	4599
890.995	4462
891.118	4405
891.241	4531
891.364	4599
891.488	4615
891.611	4554
891.734	4573
891.857	4649
891.98	4565
892.103	4706
892.226	4584
892.349	4527
892.471	4462
892.594	4569
892.717	4577
892.839	4535
892.962	4584
893.085	4672
893.207	4592
893.33	4436
893.452	4550
893.575	4691
893.697	4573
893.819	4797
893.941	4824
894.064	4717
894.186	4618
894.308	4580
894.43	4725
894.552	4835
894.674	4771
894.796	4565
894.918	4611
895.04	4535
895.161	4748
895.283	4679
895.405	4607
895.526	4618
895.648	4710
895.769	4679
895.891	4767
896.012	4771
896.134	4752
896.255	4664
896.376	4637
896.498	4607
896.619	4721
896.74	4630
896.861	4675
896.982	4934
897.103	5086
897.224	4892
897.345	4748
897.466	4668
897.587	4740
897.708	4873
897.828	4828
897.949	4668
898.07	4607
898.19	4618
898.311	4824
898.431	4687
898.552	4809
898.672	4824
898.792	4824
898.913	4778
899.033	4626
899.153	4542
899.273	4424
899.393	4558
899.513	4512
899.633	4519
899.753	4550
899.873	4512
899.993	4630
900.113	4577
900.232	4611
900.352	4577
900.472	4512
900.591	4455
900.711	4489
900.83	4447
900.95	4618
901.069	4717
901.189	4565
901.308	4379
901.427	4299
901.546	4436
901.665	4459
901.784	4554
901.904	4356
902.023	4390
902.141	4215
902.26	4188
902.379	4325
902.498	4246
902.617	4234
902.735	4398
902.854	4451
902.973	4348
903.091	4207
903.21	4257
903.328	4325
903.446	4306
903.565	4287
903.683	4348
903.801	4314
903.919	4394
904.038	4432
904.156	4356
904.274	4459
904.392	4383
904.51	4421
904.627	4512
904.745	4588
904.863	4637
904.981	4394
905.098	4344
905.216	4356
905.334	4470
905.451	4421
905.569	4405
905.686	4550
905.803	4569
905.921	4440
906.038	4561
906.155	4466
906.272	4413
906.389	4440
906.506	4325
906.623	4363
906.74	4413
906.857	4333
906.974	4409
907.091	4558
907.208	4679
907.324	4546
907.441	4466
907.557	4375
907.674	4333
907.79	4314
907.907	4352
908.023	4462
908.139	4478
908.256	4424
908.372	4470
908.488	4497
908.604	4383
908.72	4303
908.836	4390
908.952	4375
909.068	4440
909.184	4542
909.3	4512
909.415	4592
909.531	4565
909.647	4360
909.762	4409
909.878	4322
909.993	4443
910.108	4440
910.224	4459
910.339	4443
910.454	4375
910.57	4367
910.685	4291
910.8	4649
910.915	4622
911.03	4497
911.145	4325
911.259	4322
911.374	4360
911.489	4329
911.604	4299
911.718	4150
911.833	4234
911.947	4071
912.062	4040
912.176	4211
912.291	4230
912.405	4265
912.519	4459
912.633	4474
912.748	4375
912.862	4329
912.976	4230
913.09	4131
913.204	4154
913.318	4249
913.431	4344
913.545	4379
913.659	4432
913.772	4379
913.886	4299
914	4207
914.113	4371
914.226	4424
914.34	4356
914.453	4204
914.566	4440
914.68	4299
914.793	4280
914.906	4200
915.019	4097
915.132	4105
915.245	4173
915.358	4223
915.47	4211
915.583	4257
915.696	4325
915.809	4383
915.921	4421
916.034	4242
916.146	4268
916.259	4238
916.371	4390
916.483	4344
916.595	4291
916.708	4348
916.82	4398
916.932	4352
917.044	4329
917.156	4284
917.268	4268
917.38	4306
917.491	4276
917.603	4367
917.715	4440
917.826	4447
917.938	4329
918.049	4249
918.161	4455
918.272	4459
918.384	4512
918.495	4493
918.606	4303
918.717	4223
918.828	4329
918.939	4375
919.05	4234
919.161	4318
919.272	4150
919.383	4242
919.494	4451
919.604	4630
919.715	4470
919.826	4363
919.936	4443
920.047	4489
920.157	4497
920.267	4710
920.378	4596
920.488	4504
920.598	4744
920.708	4877
920.818	4729
920.928	4774
921.038	4942
921.148	4930
921.258	4653
921.368	4538
921.477	4500
921.587	4424
921.697	4405
921.806	4531
921.916	4379
922.025	4284
922.134	4230
922.244	4230
922.353	4306
922.462	4185
922.571	4131
922.68	4051
922.789	4025
922.898	4071
923.007	4013
923.116	4109
923.224	4063
923.333	4086
923.442	3972
923.55	3991
923.659	4025
923.767	4143
923.876	4029
923.984	4139
924.092	3956
924.201	4067
924.309	4150
924.417	4120
924.525	4101
924.633	4097
924.741	4850
924.849	3884
924.956	4120
925.064	3975
925.172	3896
925.279	3956
925.387	4071
925.494	4025
925.602	4192
925.709	4177
925.816	4048
925.924	4131
926.031	4234
926.138	4204
926.245	4246
926.352	4112
926.459	4227
926.566	4303
926.673	4169
926.779	4139
926.886	4063
926.993	4025
927.099	3968
927.206	3968
927.312	3949
927.419	4059
927.525	4013
927.631	4071
927.737	3907
927.843	3953
927.95	3823
928.056	3907
928.162	3987
928.267	4082
928.373	4592
928.479	4162
928.585	3876
928.69	4006
928.796	4078
928.901	3972
929.007	3838
929.112	4025
929.218	3964
929.323	3941
929.428	3907
929.533	4101
929.638	3934
929.743	3972
929.848	4067
929.953	4013
930.058	3907
930.163	3781
930.267	3827
930.372	3972
930.477	3835
930.581	4135
930.685	3922
930.79	3842
930.894	3896
930.998	3865
931.103	4071
931.207	3766
931.311	3679
931.415	3663
931.519	3519
931.623	3553
