Data from test_V78500241_1940.txt Node
Date: Fri Mar 25 17:02:29 CST 2022
User: usil
Spectrometer: V785-0024
Trigger mode: 0
Integration Time (sec): 4.000000E-1
Scans to average: 1
Nonlinearity correction enabled: false
Boxcar width: 0
Storing dark spectrum: false
XAxis mode: Wavelengths
Number of Pixels in Spectrum: 1024
>>>>>Begin Spectral Data<<<<<
801.071	8024
801.214	7936
801.356	7871
801.499	7837
801.641	7765
801.783	7849
801.926	7947
802.068	7894
802.211	7997
802.353	8027
802.496	7913
802.638	7864
802.78	7925
802.923	7913
803.065	7837
803.208	7902
803.35	8027
803.492	8100
803.635	8149
803.777	7936
803.919	8176
804.061	8442
804.204	8210
804.346	8001
804.488	7986
804.63	8084
804.773	8005
804.915	8142
805.057	8282
805.199	8202
805.341	8206
805.483	8259
805.626	8161
805.768	8195
805.91	8233
806.052	8256
806.194	8138
806.336	8240
806.478	8096
806.62	8134
806.762	8161
806.904	8320
807.046	8522
807.188	8423
807.33	8282
807.472	8294
807.614	8164
807.756	8157
807.898	7970
808.04	7909
808.182	7890
808.324	7818
808.465	7959
808.607	8058
808.749	8024
808.891	8210
809.033	8301
809.174	8164
809.316	8084
809.458	8062
809.6	8001
809.741	8065
809.883	8084
810.025	8073
810.166	8081
810.308	8058
810.45	7974
810.591	7906
810.733	7693
810.875	7658
811.016	7499
811.158	7460
811.299	7563
811.441	7670
811.582	7643
811.724	7643
811.865	7533
812.007	7605
812.148	7582
812.29	7666
812.431	7799
812.573	7879
812.714	7955
812.855	8123
812.997	8206
813.138	8259
813.279	8183
813.421	8111
813.562	7974
813.703	7837
813.845	7807
813.986	7472
814.127	7221
814.268	7221
814.41	7228
814.551	7160
814.692	7244
814.833	7183
814.974	7061
815.115	7080
815.256	7050
815.397	6970
815.539	6985
815.68	6840
815.821	6738
815.962	6852
816.103	6859
816.244	6707
816.385	6684
816.526	6681
816.666	6490
816.807	6346
816.948	6456
817.089	6460
817.23	6464
817.371	6338
817.512	6391
817.653	6380
817.793	6365
817.934	6426
818.075	6471
818.216	6471
818.356	6441
818.497	6273
818.638	6140
818.778	6159
818.919	6140
819.06	6194
819.2	6308
819.341	6334
819.481	6331
819.622	6532
819.762	6730
819.903	6719
820.043	6646
820.184	6616
820.324	6608
820.465	6715
820.605	6707
820.746	6642
820.886	6536
821.026	6730
821.167	6707
821.307	6791
821.447	6875
821.588	6639
821.728	6589
821.868	6464
822.008	6327
822.149	6350
822.289	6391
822.429	6144
822.569	6152
822.709	6144
822.849	5897
822.99	5855
823.13	5969
823.27	5931
823.41	5794
823.55	5794
823.69	5748
823.83	5809
823.97	5703
824.11	5581
824.25	5478
824.389	5539
824.529	5627
824.669	5516
824.809	5657
824.949	5646
825.089	5623
825.228	5558
825.368	5372
825.508	5360
825.648	5410
825.787	5402
825.927	5410
826.067	5307
826.206	5258
826.346	5364
826.485	5395
826.625	5440
826.765	5570
826.904	5482
827.044	5239
827.183	5178
827.323	5121
827.462	5242
827.601	5193
827.741	5189
827.88	5231
828.02	5083
828.159	5277
828.298	5345
828.437	5360
828.577	5254
828.716	5493
828.855	5292
828.994	5128
829.134	5159
829.273	5201
829.412	5162
829.551	5109
829.69	5181
829.829	5277
829.968	5353
830.107	5307
830.246	5242
830.385	5162
830.524	5102
830.663	5067
830.802	4968
830.941	4889
831.08	4892
831.219	4972
831.357	4938
831.496	5147
831.635	4953
831.774	4881
831.913	4831
832.051	4744
832.19	4748
832.329	4877
832.467	4733
832.606	4645
832.744	4740
832.883	4675
833.022	4706
833.16	4828
833.299	4850
833.437	4877
833.576	4835
833.714	4816
833.852	4854
833.991	4927
834.129	4957
834.267	4972
834.406	4927
834.544	5029
834.682	4961
834.821	4995
834.959	5193
835.097	5018
835.235	5109
835.373	5075
835.511	5098
835.65	5003
835.788	5018
835.926	4896
836.064	4824
836.202	4923
836.34	5189
836.478	5197
836.615	5170
836.753	5189
836.891	5303
837.029	5246
837.167	5208
837.305	5170
837.443	5143
837.58	5098
837.718	5258
837.856	5162
837.993	5147
838.131	5231
838.269	5189
838.406	5162
838.544	5151
838.681	5029
838.819	4957
838.956	4965
839.094	4934
839.231	5010
839.369	5083
839.506	5444
839.643	5242
839.781	5056
839.918	4999
840.055	5105
840.193	5113
840.33	5071
840.467	5083
840.604	5174
840.742	5459
840.879	5098
841.016	5025
841.153	5147
841.29	5395
841.427	5353
841.564	5265
841.701	5376
841.838	5280
841.975	5216
842.112	5269
842.249	5178
842.385	5098
842.522	5326
842.659	5109
842.796	5121
842.933	5170
843.069	5109
843.206	5193
843.343	5250
843.479	5258
843.616	5265
843.752	5033
843.889	5018
844.025	5216
844.162	4991
844.298	5216
844.435	5056
844.571	5056
844.708	5181
844.844	5311
844.98	5341
845.117	5258
845.253	5155
845.389	5086
845.525	5178
845.661	5109
845.798	5060
845.934	5098
846.07	5045
846.206	5189
846.342	5277
846.478	5197
846.614	5067
846.75	5010
846.886	4900
847.022	5140
847.158	5010
847.294	5052
847.429	5090
847.565	5067
847.701	5318
847.837	4835
847.972	4816
848.108	4984
848.244	4942
848.379	4816
848.515	4702
848.65	4691
848.786	4733
848.921	4786
849.057	4896
849.192	4930
849.328	4793
849.463	4870
849.598	4839
849.734	4744
849.869	4675
850.004	4649
850.14	4675
850.275	4630
850.41	4489
850.545	4561
850.68	4611
850.815	4637
850.95	4603
851.085	4820
851.22	4736
851.355	4626
851.49	4626
851.625	4599
851.76	4637
851.895	4569
852.03	4527
852.165	4641
852.299	4759
852.434	4850
852.569	4767
852.703	4790
852.838	4816
852.973	4953
853.107	4885
853.242	4725
853.376	4664
853.511	4569
853.645	4573
853.78	4892
853.914	4637
854.048	4649
854.183	4653
854.317	4668
854.451	4839
854.585	4691
854.72	4664
854.854	4767
854.988	4618
855.122	4546
855.256	4561
855.39	4634
855.524	4771
855.658	4790
855.792	4691
855.926	4702
856.06	4782
856.194	4805
856.327	4710
856.461	4607
856.595	4622
856.729	4637
856.862	4805
856.996	4691
857.13	4733
857.263	4698
857.397	4786
857.53	4675
857.664	4687
857.797	4736
857.931	4824
858.064	4694
858.197	4729
858.331	4611
858.464	4577
858.597	4519
858.731	4653
858.864	4660
858.997	4634
859.13	4660
859.263	4622
859.396	4793
859.529	4634
859.662	4558
859.795	4577
859.928	4577
860.061	4736
860.194	4782
860.327	4618
860.46	4550
860.592	4694
860.725	4801
860.858	4733
860.99	4626
861.123	4497
861.256	4527
861.388	4618
861.521	5315
861.653	4500
861.786	4432
861.918	4447
862.05	4493
862.183	4542
862.315	4577
862.447	4622
862.58	4542
862.712	4371
862.844	4352
862.976	4504
863.108	4436
863.24	4752
863.372	4363
863.504	4447
863.636	4386
863.768	4485
863.9	4440
864.032	4322
864.164	4459
864.296	4470
864.428	4580
864.559	4577
864.691	4538
864.823	4550
864.954	4478
865.086	4523
865.217	4421
865.349	4462
865.48	4470
865.612	4497
865.743	4664
865.875	4493
866.006	4371
866.137	4451
866.269	4417
866.4	4470
866.531	4386
866.662	4379
866.793	4402
866.924	4421
867.055	4497
867.186	4474
867.317	4440
867.448	4375
867.579	4390
867.71	4409
867.841	4367
867.972	4455
868.103	4451
868.233	4459
868.364	4470
868.495	4478
868.625	4645
868.756	4759
868.886	4584
869.017	4603
869.147	4691
869.278	4725
869.408	4656
869.539	4615
869.669	4710
869.799	4653
869.929	4782
870.06	4759
870.19	5003
870.32	4896
870.45	4957
870.58	5014
870.71	5094
870.84	5102
870.97	4949
871.1	4889
871.23	5136
871.36	5094
871.489	5045
871.619	5067
871.749	5121
871.879	5105
872.008	5155
872.138	5025
872.267	4934
872.397	4835
872.526	4828
872.656	4740
872.785	4782
872.915	4968
873.044	5045
873.173	4942
873.303	4953
873.432	4949
873.561	4919
873.69	4843
873.819	4866
873.948	4915
874.077	4782
874.206	4736
874.335	4774
874.464	4934
874.593	5075
874.722	4949
874.851	5162
874.979	5109
875.108	5048
875.237	4889
875.365	4854
875.494	4911
875.623	4980
875.751	4843
875.88	4858
876.008	5022
876.136	5025
876.265	5162
876.393	5379
876.521	5250
876.65	5212
876.778	5140
876.906	5060
877.034	5045
877.162	5052
877.29	4968
877.418	5033
877.546	5037
877.674	4995
877.802	5045
877.93	4987
878.058	4999
878.185	4927
878.313	4972
878.441	5041
878.568	4778
878.696	4877
878.824	4968
878.951	5006
879.079	5121
879.206	5307
879.333	5086
879.461	4980
879.588	4976
879.715	5132
879.842	5208
879.97	4953
880.097	4786
880.224	4793
880.351	4816
880.478	4831
880.605	4793
880.732	4755
880.859	5029
880.986	4900
881.112	4927
881.239	4812
881.366	4672
881.493	4596
881.619	4611
881.746	4637
881.872	4630
881.999	4637
882.125	4683
882.252	4797
882.378	4839
882.505	4976
882.631	4831
882.757	4702
882.883	4717
883.01	4714
883.136	4660
883.262	4584
883.388	4599
883.514	4820
883.64	4904
883.766	4771
883.892	4679
884.018	4656
884.143	4900
884.269	5071
884.395	4694
884.52	4649
884.646	4641
884.772	4546
884.897	4538
885.023	4675
885.148	4759
885.274	4873
885.399	4816
885.524	4778
885.65	4672
885.775	4755
885.9	4706
886.025	4911
886.15	4759
886.275	4736
886.4	4637
886.525	4733
886.65	4653
886.775	4706
886.9	4870
887.025	5060
887.149	4782
887.274	4683
887.399	4611
887.523	4588
887.648	4588
887.773	4577
887.897	4729
888.021	4725
888.146	4645
888.27	4870
888.395	4900
888.519	4824
888.643	4793
888.767	4824
888.891	4679
889.015	4599
889.139	4683
889.263	4588
889.387	4812
889.511	4850
889.635	4782
889.759	4660
889.883	4687
890.006	4668
890.13	4816
890.254	4656
890.377	4660
890.501	4542
890.624	4516
890.748	4653
890.871	4478
890.995	4451
891.118	4356
891.241	4474
891.364	4599
891.488	4611
891.611	4493
891.734	4538
891.857	4577
891.98	4565
892.103	4660
892.226	4607
892.349	4558
892.471	4481
892.594	4508
892.717	4565
892.839	4558
892.962	4603
893.085	4660
893.207	4535
893.33	4470
893.452	4508
893.575	4653
893.697	4561
893.819	4778
893.941	4812
894.064	4793
894.186	4573
894.308	4554
894.43	4733
894.552	4839
894.674	4755
894.796	4546
894.918	4641
895.04	4531
895.161	4710
895.283	4694
895.405	4626
895.526	4664
895.648	4675
895.769	4698
895.891	4729
896.012	4740
896.134	4694
896.255	4637
896.376	4599
896.498	4584
896.619	4710
896.74	4618
896.861	4626
896.982	4908
897.103	5098
897.224	4824
897.345	4698
897.466	4702
897.587	4752
897.708	4858
897.828	4763
897.949	4660
898.07	4558
898.19	4675
898.311	4805
898.431	4641
898.552	4759
898.672	4778
898.792	4786
898.913	4752
899.033	4630
899.153	4489
899.273	4443
899.393	4493
899.513	4516
899.633	4497
899.753	4519
899.873	4527
899.993	4618
900.113	4489
900.232	4577
900.352	4558
900.472	4421
900.591	4367
900.711	4504
900.83	4436
900.95	4637
901.069	4702
901.189	4558
901.308	4402
901.427	4306
901.546	4352
901.665	4489
901.784	4504
901.904	4402
902.023	4337
902.141	4204
902.26	4215
902.379	4287
902.498	4246
902.617	4200
902.735	4341
902.854	4443
902.973	4333
903.091	4215
903.21	4242
903.328	4280
903.446	4223
903.565	4257
903.683	4367
903.801	4287
903.919	4417
904.038	4451
904.156	4337
904.274	4436
904.392	4440
904.51	4417
904.627	4443
904.745	4573
904.863	4603
904.981	4386
905.098	4310
905.216	4329
905.334	4421
905.451	4405
905.569	4413
905.686	4561
905.803	4554
905.921	4367
906.038	4546
906.155	4504
906.272	4451
906.389	4447
906.506	4360
906.623	4398
906.74	4409
906.857	4272
906.974	4436
907.091	4531
907.208	4660
907.324	4577
907.441	4466
907.557	4325
907.674	4344
907.79	4341
907.907	4375
908.023	4443
908.139	4455
908.256	4413
908.372	4432
908.488	4493
908.604	4371
908.72	4363
908.836	4390
908.952	4367
909.068	4474
909.184	4577
909.3	4436
909.415	4561
909.531	4584
909.647	4363
909.762	4383
909.878	4352
909.993	4428
910.108	4367
910.224	4394
910.339	4500
910.454	4394
910.57	4348
910.685	4287
910.8	4649
910.915	4580
911.03	4478
911.145	4295
911.259	4333
911.374	4333
911.489	4265
911.604	4299
911.718	4166
911.833	4143
911.947	4116
912.062	4048
912.176	4196
912.291	4280
912.405	4223
912.519	4466
912.633	4535
912.748	4371
912.862	4287
912.976	4230
913.09	4090
913.204	4162
913.318	4196
913.431	4405
913.545	4363
913.659	4462
913.772	4341
913.886	4242
914	4253
914.113	4329
914.226	4386
914.34	4386
914.453	4295
914.566	4383
914.68	4344
914.793	4371
914.906	4177
915.019	4147
915.132	4093
915.245	4185
915.358	4219
915.47	4230
915.583	4211
915.696	4291
915.809	4386
915.921	4413
916.034	4234
916.146	4257
916.259	4246
916.371	4367
916.483	4375
916.595	4265
916.708	4348
916.82	4341
916.932	4333
917.044	4310
917.156	4318
917.268	4196
917.38	4265
917.491	4306
917.603	4295
917.715	4405
917.826	4371
917.938	4314
918.049	4249
918.161	4371
918.272	4512
918.384	4493
918.495	4413
918.606	4318
918.717	4234
918.828	4386
918.939	4375
919.05	4242
919.161	4303
919.272	4112
919.383	4207
919.494	4462
919.604	4634
919.715	4390
919.826	4375
919.936	4390
920.047	4516
920.157	4459
920.267	4717
920.378	4542
920.488	4489
920.598	4698
920.708	4908
920.818	4721
920.928	4748
921.038	4957
921.148	4915
921.258	4615
921.368	4508
921.477	4489
921.587	4447
921.697	4386
921.806	4497
921.916	4363
922.025	4280
922.134	4253
922.244	4219
922.353	4322
922.462	4173
922.571	4124
922.68	4013
922.789	3994
922.898	4059
923.007	3991
923.116	4109
923.224	4044
923.333	4086
923.442	3964
923.55	3998
923.659	4010
923.767	4090
923.876	3972
923.984	4105
924.092	3968
924.201	4086
924.309	4086
924.417	4082
924.525	4032
924.633	4112
924.741	5064
924.849	3888
924.956	4116
925.064	4017
925.172	3918
925.279	3964
925.387	4055
925.494	4082
925.602	4219
925.709	4166
925.816	4059
925.924	4150
926.031	4238
926.138	4173
926.245	4215
926.352	4067
926.459	4227
926.566	4249
926.673	4147
926.779	4090
926.886	4048
926.993	3960
927.099	3934
927.206	3941
927.312	3972
927.419	4074
927.525	4021
927.631	4131
927.737	3994
927.843	3937
927.95	3896
928.056	3945
928.162	4013
928.267	4071
928.373	4580
928.479	4101
928.585	3812
928.69	3979
928.796	4086
928.901	3987
929.007	3876
929.112	4013
929.218	3983
929.323	3926
929.428	3964
929.533	4086
929.638	3953
929.743	3941
929.848	4036
929.953	3979
930.058	3972
930.163	3747
930.267	3819
930.372	3979
930.477	3835
930.581	4082
930.685	4013
930.79	3816
930.894	3903
930.998	3850
931.103	3987
931.207	3740
931.311	3698
931.415	3694
931.519	3523
931.623	3545
