Data from test_V78500241_2409.txt Node
Date: Fri Mar 25 17:05:45 CST 2022
User: usil
Spectrometer: V785-0024
Trigger mode: 0
Integration Time (sec): 4.000000E-1
Scans to average: 1
Nonlinearity correction enabled: false
Boxcar width: 0
Storing dark spectrum: false
XAxis mode: Wavelengths
Number of Pixels in Spectrum: 1024
>>>>>Begin Spectral Data<<<<<
801.071	8008
801.214	8016
801.356	7818
801.499	7818
801.641	7841
801.783	7814
801.926	7978
802.068	7951
802.211	8039
802.353	8046
802.496	7769
802.638	7970
802.78	7883
802.923	7974
803.065	7860
803.208	7852
803.35	7925
803.492	8100
803.635	8218
803.777	8092
803.919	8119
804.061	8461
804.204	8206
804.346	8115
804.488	7974
804.63	8073
804.773	8020
804.915	8100
805.057	8347
805.199	8142
805.341	8240
805.483	8256
805.626	8259
805.768	8168
805.91	8275
806.052	8180
806.194	8138
806.336	8305
806.478	8088
806.62	8138
806.762	8119
806.904	8225
807.046	8469
807.188	8404
807.33	8271
807.472	8328
807.614	8221
807.756	8229
807.898	8043
808.04	7936
808.182	7947
808.324	7833
808.465	7917
808.607	8092
808.749	8123
808.891	8195
809.033	8339
809.174	8164
809.316	8107
809.458	8145
809.6	8031
809.741	8031
809.883	8039
810.025	8119
810.166	8043
810.308	8065
810.45	8069
810.591	7902
810.733	7772
810.875	7723
811.016	7510
811.158	7495
811.299	7594
811.441	7731
811.582	7670
811.724	7559
811.865	7548
812.007	7594
812.148	7586
812.29	7620
812.431	7734
812.573	7852
812.714	7989
812.855	8134
812.997	8191
813.138	8317
813.279	8134
813.421	8050
813.562	7898
813.703	7871
813.845	7731
813.986	7392
814.127	7301
814.268	7206
814.41	7179
814.551	7244
814.692	7259
814.833	7084
814.974	7107
815.115	7027
815.256	6909
815.397	6939
815.539	6970
815.68	6844
815.821	6818
815.962	6905
816.103	6867
816.244	6692
816.385	6635
816.526	6650
816.666	6509
816.807	6270
816.948	6452
817.089	6513
817.23	6395
817.371	6429
817.512	6380
817.653	6437
817.793	6380
817.934	6323
818.075	6456
818.216	6426
818.356	6418
818.497	6262
818.638	6152
818.778	6152
818.919	6175
819.06	6144
819.2	6369
819.341	6372
819.481	6414
819.622	6544
819.762	6719
819.903	6650
820.043	6601
820.184	6593
820.324	6578
820.465	6707
820.605	6669
820.746	6696
820.886	6521
821.026	6677
821.167	6722
821.307	6818
821.447	6772
821.588	6734
821.728	6563
821.868	6532
822.008	6300
822.149	6388
822.289	6403
822.429	6216
822.569	6121
822.709	6209
822.849	5946
822.99	5958
823.13	5954
823.27	5954
823.41	5790
823.55	5828
823.69	5794
823.83	5779
823.97	5691
824.11	5543
824.25	5482
824.389	5505
824.529	5554
824.669	5551
824.809	5604
824.949	5657
825.089	5611
825.228	5535
825.368	5433
825.508	5391
825.648	5334
825.787	5429
825.927	5391
826.067	5242
826.206	5322
826.346	5383
826.485	5425
826.625	5364
826.765	5528
826.904	5474
827.044	5246
827.183	5239
827.323	5113
827.462	5315
827.601	5189
827.741	5239
827.88	5197
828.02	5121
828.159	5254
828.298	5315
828.437	5406
828.577	5288
828.716	5486
828.855	5368
828.994	5181
829.134	5185
829.273	5223
829.412	5086
829.551	5124
829.69	5143
829.829	5223
829.968	5421
830.107	5280
830.246	5288
830.385	5189
830.524	5147
830.663	5094
830.802	4968
830.941	4904
831.08	4843
831.219	5014
831.357	4995
831.496	5155
831.635	4927
831.774	4866
831.913	4866
832.051	4736
832.19	4729
832.329	4824
832.467	4717
832.606	4645
832.744	4725
832.883	4706
833.022	4748
833.16	4729
833.299	4820
833.437	4854
833.576	4847
833.714	4850
833.852	4835
833.991	4908
834.129	4934
834.267	4949
834.406	4930
834.544	4980
834.682	4953
834.821	4987
834.959	5189
835.097	4980
835.235	5166
835.373	5067
835.511	5071
835.65	5037
835.788	5006
835.926	4881
836.064	4854
836.202	4930
836.34	5178
836.478	5288
836.615	5124
836.753	5223
836.891	5231
837.029	5277
837.167	5197
837.305	5170
837.443	5193
837.58	5102
837.718	5235
837.856	5189
837.993	5147
838.131	5231
838.269	5212
838.406	5197
838.544	5189
838.681	5052
838.819	4987
838.956	4911
839.094	4904
839.231	4968
839.369	5071
839.506	5402
839.643	5242
839.781	5090
839.918	4995
840.055	5147
840.193	5121
840.33	5128
840.467	5124
840.604	5143
840.742	5440
840.879	5060
841.016	5052
841.153	5121
841.29	5395
841.427	5330
841.564	5273
841.701	5330
841.838	5296
841.975	5284
842.112	5265
842.249	5166
842.385	5105
842.522	5337
842.659	5109
842.796	5181
842.933	5227
843.069	5128
843.206	5174
843.343	5288
843.479	5250
843.616	5273
843.752	5048
843.889	4999
844.025	5208
844.162	4999
844.298	5204
844.435	5117
844.571	5064
844.708	5223
844.844	5303
844.98	5326
845.117	5387
845.253	5098
845.389	5045
845.525	5189
845.661	5155
845.798	4991
845.934	5090
846.07	5105
846.206	5166
846.342	5307
846.478	5204
846.614	4991
846.75	4961
846.886	4972
847.022	5121
847.158	5048
847.294	5086
847.429	5117
847.565	5010
847.701	5322
847.837	4854
847.972	4801
848.108	4915
848.244	4919
848.379	4759
848.515	4714
848.65	4740
848.786	4721
848.921	4771
849.057	4854
849.192	4870
849.328	4771
849.463	4862
849.598	4828
849.734	4729
849.869	4641
850.004	4645
850.14	4672
850.275	4634
850.41	4554
850.545	4577
850.68	4596
850.815	4588
850.95	4653
851.085	4858
851.22	4744
851.355	4691
851.49	4611
851.625	4618
851.76	4618
851.895	4577
852.03	4546
852.165	4622
852.299	4691
852.434	4774
852.569	4752
852.703	4771
852.838	4809
852.973	4923
853.107	4927
853.242	4702
853.376	4649
853.511	4565
853.645	4656
853.78	4763
853.914	4691
854.048	4630
854.183	4645
854.317	4691
854.451	4839
854.585	4698
854.72	4656
854.854	4778
854.988	4588
855.122	4622
855.256	4546
855.39	4687
855.524	4809
855.658	4759
855.792	4687
855.926	4733
856.06	4782
856.194	4801
856.327	4702
856.461	4656
856.595	4603
856.729	4634
856.862	4767
856.996	4702
857.13	4740
857.263	4744
857.397	4767
857.53	4641
857.664	4729
857.797	4736
857.931	4733
858.064	4706
858.197	4736
858.331	4577
858.464	4649
858.597	4546
858.731	4645
858.864	4599
858.997	4561
859.13	4611
859.263	4683
859.396	4691
859.529	4592
859.662	4603
859.795	4622
859.928	4615
860.061	4755
860.194	4752
860.327	4622
860.46	4558
860.592	4748
860.725	4752
860.858	4691
860.99	4599
861.123	4531
861.256	4497
861.388	4565
861.521	5322
861.653	4481
861.786	4459
861.918	4489
862.05	4512
862.183	4542
862.315	4641
862.447	4630
862.58	4580
862.712	4402
862.844	4329
862.976	4436
863.108	4443
863.24	4771
863.372	4337
863.504	4440
863.636	4421
863.768	4462
863.9	4443
864.032	4356
864.164	4413
864.296	4447
864.428	4550
864.559	4558
864.691	4535
864.823	4561
864.954	4500
865.086	4531
865.217	4436
865.349	4386
865.48	4485
865.612	4493
865.743	4637
865.875	4466
866.006	4405
866.137	4462
866.269	4447
866.4	4455
866.531	4356
866.662	4432
866.793	4413
866.924	4462
867.055	4462
867.186	4447
867.317	4428
867.448	4352
867.579	4413
867.71	4379
867.841	4371
867.972	4500
868.103	4504
868.233	4470
868.364	4474
868.495	4455
868.625	4634
868.756	4786
868.886	4527
869.017	4660
869.147	4767
869.278	4854
869.408	4668
869.539	4596
869.669	4721
869.799	4634
869.929	4733
870.06	4702
870.19	4976
870.32	4919
870.45	4957
870.58	5018
870.71	5086
870.84	5121
870.97	4930
871.1	4923
871.23	5159
871.36	5083
871.489	4968
871.619	5102
871.749	5048
871.879	5109
872.008	5201
872.138	5079
872.267	5064
872.397	4831
872.526	4752
872.656	4721
872.785	4816
872.915	4927
873.044	5060
873.173	4915
873.303	5018
873.432	4930
873.561	4972
873.69	4839
873.819	4847
873.948	4919
874.077	4809
874.206	4771
874.335	4790
874.464	4949
874.593	5067
874.722	4957
874.851	5117
874.979	5117
875.108	5086
875.237	4915
875.365	4892
875.494	4885
875.623	4980
875.751	4847
875.88	4881
876.008	5006
876.136	5094
876.265	5197
876.393	5288
876.521	5261
876.65	5220
876.778	5166
876.906	5086
877.034	4961
877.162	5052
877.29	4980
877.418	5071
877.546	5003
877.674	5083
877.802	5022
877.93	5010
878.058	4942
878.185	4824
878.313	4984
878.441	4949
878.568	4778
878.696	4858
878.824	4915
878.951	4987
879.079	5117
879.206	5265
879.333	5136
879.461	4965
879.588	5022
879.715	5143
879.842	5181
879.97	4968
880.097	4759
880.224	4793
880.351	4801
880.478	4828
880.605	4797
880.732	4786
880.859	5052
880.986	4908
881.112	4919
881.239	4793
881.366	4656
881.493	4641
881.619	4580
881.746	4653
881.872	4634
881.999	4683
882.125	4675
882.252	4797
882.378	4801
882.505	4942
882.631	4793
882.757	4687
882.883	4717
883.01	4774
883.136	4702
883.262	4546
883.388	4580
883.514	4862
883.64	4850
883.766	4786
883.892	4672
884.018	4729
884.143	4919
884.269	5006
884.395	4668
884.52	4596
884.646	4656
884.772	4584
884.897	4584
885.023	4645
885.148	4793
885.274	4866
885.399	4778
885.524	4706
885.65	4687
885.775	4706
885.9	4649
886.025	4824
886.15	4755
886.275	4698
886.4	4675
886.525	4736
886.65	4634
886.775	4637
886.9	4885
887.025	5006
887.149	4793
887.274	4679
887.399	4592
887.523	4554
887.648	4554
887.773	4577
887.897	4748
888.021	4797
888.146	4656
888.27	4740
888.395	4919
888.519	4797
888.643	4782
888.767	4812
888.891	4641
889.015	4641
889.139	4618
889.263	4569
889.387	4774
889.511	4801
889.635	4778
889.759	4675
889.883	4641
890.006	4714
890.13	4809
890.254	4603
890.377	4679
890.501	4523
890.624	4527
890.748	4611
890.871	4474
890.995	4424
891.118	4371
891.241	4493
891.364	4504
891.488	4615
891.611	4478
891.734	4569
891.857	4622
891.98	4558
892.103	4679
892.226	4569
892.349	4508
892.471	4421
892.594	4519
892.717	4569
892.839	4573
892.962	4561
893.085	4634
893.207	4596
893.33	4493
893.452	4481
893.575	4675
893.697	4603
893.819	4752
893.941	4801
894.064	4736
894.186	4565
894.308	4577
894.43	4725
894.552	4862
894.674	4706
894.796	4550
894.918	4580
895.04	4550
895.161	4710
895.283	4710
895.405	4577
895.526	4656
895.648	4641
895.769	4691
895.891	4675
896.012	4706
896.134	4710
896.255	4653
896.376	4649
896.498	4630
896.619	4702
896.74	4622
896.861	4634
896.982	4889
897.103	5086
897.224	4843
897.345	4733
897.466	4664
897.587	4733
897.708	4809
897.828	4786
897.949	4645
898.07	4538
898.19	4588
898.311	4839
898.431	4599
898.552	4675
898.672	4828
898.792	4740
898.913	4721
899.033	4641
899.153	4542
899.273	4371
899.393	4451
899.513	4478
899.633	4489
899.753	4542
899.873	4455
899.993	4596
900.113	4508
900.232	4592
900.352	4546
900.472	4493
900.591	4432
900.711	4519
900.83	4440
900.95	4596
901.069	4698
901.189	4538
901.308	4417
901.427	4306
901.546	4348
901.665	4485
901.784	4516
901.904	4367
902.023	4314
902.141	4166
902.26	4154
902.379	4329
902.498	4272
902.617	4227
902.735	4390
902.854	4383
902.973	4398
903.091	4207
903.21	4200
903.328	4314
903.446	4284
903.565	4276
903.683	4356
903.801	4219
903.919	4402
904.038	4424
904.156	4295
904.274	4432
904.392	4421
904.51	4451
904.627	4459
904.745	4584
904.863	4634
904.981	4363
905.098	4249
905.216	4360
905.334	4462
905.451	4440
905.569	4440
905.686	4554
905.803	4569
905.921	4436
906.038	4531
906.155	4489
906.272	4413
906.389	4489
906.506	4367
906.623	4402
906.74	4440
906.857	4295
906.974	4398
907.091	4603
907.208	4626
907.324	4607
907.441	4558
907.557	4367
907.674	4375
907.79	4348
907.907	4386
908.023	4421
908.139	4504
908.256	4455
908.372	4432
908.488	4440
908.604	4360
908.72	4333
908.836	4375
908.952	4344
909.068	4432
909.184	4603
909.3	4527
909.415	4592
909.531	4558
909.647	4356
909.762	4360
909.878	4375
909.993	4405
910.108	4413
910.224	4394
910.339	4440
910.454	4398
910.57	4352
910.685	4291
910.8	4660
910.915	4599
911.03	4478
911.145	4337
911.259	4325
911.374	4383
911.489	4314
911.604	4272
911.718	4150
911.833	4185
911.947	4074
912.062	4036
912.176	4185
912.291	4246
912.405	4253
912.519	4466
912.633	4459
912.748	4356
912.862	4303
912.976	4227
913.09	4071
913.204	4147
913.318	4265
913.431	4394
913.545	4390
913.659	4478
913.772	4375
913.886	4246
914	4185
914.113	4383
914.226	4436
914.34	4424
914.453	4295
914.566	4447
914.68	4310
914.793	4337
914.906	4166
915.019	4150
915.132	4097
915.245	4242
915.358	4200
915.47	4246
915.583	4280
915.696	4261
915.809	4417
915.921	4421
916.034	4249
916.146	4234
916.259	4192
916.371	4394
916.483	4367
916.595	4253
916.708	4268
916.82	4325
916.932	4337
917.044	4287
917.156	4337
917.268	4207
917.38	4299
917.491	4257
917.603	4352
917.715	4390
917.826	4462
917.938	4352
918.049	4265
918.161	4413
918.272	4573
918.384	4538
918.495	4443
918.606	4268
918.717	4238
918.828	4337
918.939	4348
919.05	4227
919.161	4291
919.272	4139
919.383	4204
919.494	4500
919.604	4645
919.715	4440
919.826	4367
919.936	4344
920.047	4580
920.157	4493
920.267	4744
920.378	4516
920.488	4527
920.598	4736
920.708	4881
920.818	4774
920.928	4778
921.038	4911
921.148	4911
921.258	4584
921.368	4565
921.477	4497
921.587	4421
921.697	4352
921.806	4561
921.916	4428
922.025	4276
922.134	4265
922.244	4211
922.353	4337
922.462	4185
922.571	4143
922.68	4074
922.789	3960
922.898	3983
923.007	3972
923.116	4059
923.224	4097
923.333	4090
923.442	3987
923.55	3960
923.659	4063
923.767	4051
923.876	3991
923.984	4150
924.092	3987
924.201	4109
924.309	4105
924.417	4124
924.525	4059
924.633	4097
924.741	5071
924.849	3892
924.956	4120
925.064	3956
925.172	3880
925.279	3972
925.387	4090
925.494	4082
925.602	4204
925.709	4230
925.816	4032
925.924	4097
926.031	4261
926.138	4158
926.245	4215
926.352	4101
926.459	4223
926.566	4280
926.673	4135
926.779	4067
926.886	4051
926.993	4029
927.099	3934
927.206	3949
927.312	3949
927.419	4029
927.525	4032
927.631	4059
927.737	3979
927.843	3979
927.95	3842
928.056	3949
928.162	3987
928.267	4051
928.373	4706
928.479	4139
928.585	3926
928.69	4078
928.796	4059
928.901	3987
929.007	3888
929.112	4067
929.218	3975
929.323	3941
929.428	3926
929.533	4128
929.638	3922
929.743	3983
929.848	4036
929.953	4010
930.058	3918
930.163	3766
930.267	3804
930.372	4029
930.477	3861
930.581	4055
930.685	3918
930.79	3835
930.894	3857
930.998	3812
931.103	4055
931.207	3724
931.311	3705
931.415	3629
931.519	3545
931.623	3618
