Data from test_V78500241_1993.txt Node
Date: Fri Mar 25 17:02:51 CST 2022
User: usil
Spectrometer: V785-0024
Trigger mode: 0
Integration Time (sec): 4.000000E-1
Scans to average: 1
Nonlinearity correction enabled: false
Boxcar width: 0
Storing dark spectrum: false
XAxis mode: Wavelengths
Number of Pixels in Spectrum: 1024
>>>>>Begin Spectral Data<<<<<
801.071	7993
801.214	8043
801.356	7814
801.499	7811
801.641	7818
801.783	7826
801.926	8008
802.068	7974
802.211	8031
802.353	7989
802.496	7837
802.638	7906
802.78	7959
802.923	7909
803.065	7883
803.208	7837
803.35	7925
803.492	8111
803.635	8153
803.777	7955
803.919	8081
804.061	8454
804.204	8161
804.346	8031
804.488	7963
804.63	8161
804.773	8012
804.915	8130
805.057	8317
805.199	8145
805.341	8244
805.483	8271
805.626	8240
805.768	8081
805.91	8229
806.052	8221
806.194	8111
806.336	8324
806.478	8107
806.62	8046
806.762	8134
806.904	8328
807.046	8636
807.188	8351
807.33	8305
807.472	8347
807.614	8073
807.756	8149
807.898	8001
808.04	7837
808.182	7928
808.324	7921
808.465	7955
808.607	8123
808.749	8073
808.891	8256
809.033	8317
809.174	8240
809.316	8065
809.458	8130
809.6	8058
809.741	8054
809.883	7993
810.025	8149
810.166	8046
810.308	8043
810.45	8001
810.591	7769
810.733	7708
810.875	7681
811.016	7552
811.158	7377
811.299	7613
811.441	7666
811.582	7624
811.724	7552
811.865	7582
812.007	7662
812.148	7590
812.29	7597
812.431	7803
812.573	7894
812.714	7928
812.855	8088
812.997	8252
813.138	8313
813.279	8149
813.421	8088
813.562	7982
813.703	7871
813.845	7696
813.986	7426
814.127	7213
814.268	7152
814.41	7194
814.551	7129
814.692	7232
814.833	7091
814.974	7034
815.115	7152
815.256	7008
815.397	6970
815.539	6947
815.68	6852
815.821	6859
815.962	6833
816.103	6878
816.244	6696
816.385	6597
816.526	6620
816.666	6471
816.807	6342
816.948	6410
817.089	6509
817.23	6452
817.371	6369
817.512	6399
817.653	6407
817.793	6391
817.934	6407
818.075	6456
818.216	6460
818.356	6456
818.497	6247
818.638	6163
818.778	6209
818.919	6125
819.06	6209
819.2	6315
819.341	6365
819.481	6395
819.622	6513
819.762	6700
819.903	6681
820.043	6623
820.184	6540
820.324	6597
820.465	6715
820.605	6711
820.746	6696
820.886	6513
821.026	6646
821.167	6722
821.307	6768
821.447	6779
821.588	6662
821.728	6551
821.868	6517
822.008	6395
822.149	6353
822.289	6308
822.429	6095
822.569	6068
822.709	6140
822.849	5935
822.99	5950
823.13	5901
823.27	5961
823.41	5745
823.55	5805
823.69	5764
823.83	5790
823.97	5672
824.11	5505
824.25	5459
824.389	5570
824.529	5604
824.669	5509
824.809	5642
824.949	5691
825.089	5691
825.228	5596
825.368	5410
825.508	5383
825.648	5337
825.787	5425
825.927	5360
826.067	5307
826.206	5296
826.346	5391
826.485	5433
826.625	5402
826.765	5577
826.904	5471
827.044	5261
827.183	5181
827.323	5159
827.462	5265
827.601	5189
827.741	5155
827.88	5208
828.02	5098
828.159	5193
828.298	5288
828.437	5383
828.577	5296
828.716	5528
828.855	5360
828.994	5124
829.134	5155
829.273	5170
829.412	5166
829.551	5143
829.69	5170
829.829	5269
829.968	5376
830.107	5269
830.246	5254
830.385	5193
830.524	5132
830.663	5071
830.802	5014
830.941	4934
831.08	4889
831.219	4953
831.357	4942
831.496	5109
831.635	4968
831.774	4858
831.913	4816
832.051	4774
832.19	4793
832.329	4839
832.467	4706
832.606	4653
832.744	4767
832.883	4759
833.022	4771
833.16	4828
833.299	4771
833.437	4873
833.576	4824
833.714	4870
833.852	4908
833.991	4889
834.129	4953
834.267	4938
834.406	4889
834.544	4995
834.682	4953
834.821	4984
834.959	5151
835.097	5018
835.235	5143
835.373	5079
835.511	5117
835.65	5071
835.788	5014
835.926	4915
836.064	4889
836.202	4915
836.34	5136
836.478	5250
836.615	5109
836.753	5220
836.891	5292
837.029	5299
837.167	5204
837.305	5174
837.443	5143
837.58	5094
837.718	5288
837.856	5261
837.993	5128
838.131	5201
838.269	5239
838.406	5246
838.544	5212
838.681	5018
838.819	4972
838.956	4927
839.094	4889
839.231	4987
839.369	5094
839.506	5429
839.643	5246
839.781	5033
839.918	5041
840.055	5094
840.193	5136
840.33	5117
840.467	5094
840.604	5166
840.742	5421
840.879	5033
841.016	5086
841.153	5178
841.29	5414
841.427	5307
841.564	5337
841.701	5353
841.838	5299
841.975	5220
842.112	5269
842.249	5151
842.385	5079
842.522	5326
842.659	5155
842.796	5159
842.933	5197
843.069	5208
843.206	5132
843.343	5258
843.479	5220
843.616	5288
843.752	5067
843.889	4999
844.025	5197
844.162	5025
844.298	5204
844.435	5090
844.571	5083
844.708	5181
844.844	5242
844.98	5372
845.117	5254
845.253	5079
845.389	5079
845.525	5174
845.661	5079
845.798	5045
845.934	5155
846.07	5018
846.206	5193
846.342	5239
846.478	5140
846.614	4949
846.75	4938
846.886	4923
847.022	5147
847.158	5014
847.294	5052
847.429	5090
847.565	5075
847.701	5269
847.837	4801
847.972	4824
848.108	4911
848.244	4904
848.379	4763
848.515	4729
848.65	4698
848.786	4733
848.921	4778
849.057	4862
849.192	4839
849.328	4786
849.463	4828
849.598	4824
849.734	4793
849.869	4698
850.004	4607
850.14	4664
850.275	4618
850.41	4527
850.545	4596
850.68	4611
850.815	4649
850.95	4672
851.085	4858
851.22	4717
851.355	4675
851.49	4634
851.625	4588
851.76	4611
851.895	4550
852.03	4481
852.165	4641
852.299	4744
852.434	4767
852.569	4733
852.703	4816
852.838	4831
852.973	4923
853.107	4946
853.242	4721
853.376	4672
853.511	4535
853.645	4607
853.78	4755
853.914	4717
854.048	4622
854.183	4668
854.317	4687
854.451	4877
854.585	4675
854.72	4618
854.854	4812
854.988	4615
855.122	4626
855.256	4504
855.39	4660
855.524	4790
855.658	4679
855.792	4675
855.926	4767
856.06	4797
856.194	4782
856.327	4672
856.461	4683
856.595	4626
856.729	4634
856.862	4694
856.996	4729
857.13	4729
857.263	4729
857.397	4801
857.53	4694
857.664	4660
857.797	4831
857.931	4774
858.064	4672
858.197	4736
858.331	4656
858.464	4649
858.597	4531
858.731	4630
858.864	4596
858.997	4630
859.13	4691
859.263	4649
859.396	4694
859.529	4618
859.662	4527
859.795	4527
859.928	4637
860.061	4752
860.194	4771
860.327	4603
860.46	4573
860.592	4717
860.725	4721
860.858	4634
860.99	4550
861.123	4516
861.256	4546
861.388	4615
861.521	5170
861.653	4470
861.786	4409
861.918	4443
862.05	4504
862.183	4519
862.315	4603
862.447	4664
862.58	4516
862.712	4459
862.844	4344
862.976	4504
863.108	4417
863.24	4790
863.372	4402
863.504	4447
863.636	4398
863.768	4462
863.9	4409
864.032	4363
864.164	4409
864.296	4489
864.428	4596
864.559	4535
864.691	4542
864.823	4531
864.954	4478
865.086	4546
865.217	4443
865.349	4386
865.48	4440
865.612	4451
865.743	4584
865.875	4447
866.006	4436
866.137	4478
866.269	4440
866.4	4447
866.531	4428
866.662	4379
866.793	4402
866.924	4436
867.055	4542
867.186	4485
867.317	4409
867.448	4383
867.579	4367
867.71	4375
867.841	4356
867.972	4459
868.103	4394
868.233	4447
868.364	4421
868.495	4478
868.625	4740
868.756	4744
868.886	4531
869.017	4637
869.147	4782
869.278	4717
869.408	4637
869.539	4656
869.669	4691
869.799	4668
869.929	4793
870.06	4740
870.19	4946
870.32	4923
870.45	4949
870.58	4995
870.71	5121
870.84	5147
870.97	4942
871.1	4915
871.23	5151
871.36	5159
871.489	5018
871.619	5067
871.749	5083
871.879	5090
872.008	5174
872.138	5090
872.267	4953
872.397	4877
872.526	4831
872.656	4733
872.785	4812
872.915	4889
873.044	5033
873.173	4934
873.303	4991
873.432	4949
873.561	4889
873.69	4892
873.819	4904
873.948	4866
874.077	4771
874.206	4725
874.335	4782
874.464	4911
874.593	5018
874.722	5022
874.851	5052
874.979	5029
875.108	5041
875.237	4919
875.365	4847
875.494	4908
875.623	4999
875.751	4767
875.88	4892
876.008	4942
876.136	5060
876.265	5231
876.393	5299
876.521	5288
876.65	5212
876.778	5189
876.906	5071
877.034	4999
877.162	4987
877.29	4991
877.418	5033
877.546	5037
877.674	5041
877.802	5022
877.93	5022
878.058	4930
878.185	4877
878.313	4942
878.441	4946
878.568	4774
878.696	4892
878.824	4919
878.951	4976
879.079	5155
879.206	5288
879.333	5121
879.461	4980
879.588	4972
879.715	5121
879.842	5292
879.97	4991
880.097	4778
880.224	4748
880.351	4812
880.478	4847
880.605	4812
880.732	4778
880.859	5098
880.986	4946
881.112	4881
881.239	4763
881.366	4649
881.493	4599
881.619	4573
881.746	4660
881.872	4668
881.999	4607
882.125	4649
882.252	4797
882.378	4820
882.505	4980
882.631	4816
882.757	4672
882.883	4748
883.01	4687
883.136	4691
883.262	4592
883.388	4580
883.514	4820
883.64	4824
883.766	4793
883.892	4664
884.018	4710
884.143	4911
884.269	4923
884.395	4698
884.52	4645
884.646	4660
884.772	4569
884.897	4580
885.023	4656
885.148	4809
885.274	4824
885.399	4824
885.524	4683
885.65	4725
885.775	4782
885.9	4725
886.025	4896
886.15	4759
886.275	4714
886.4	4725
886.525	4698
886.65	4694
886.775	4698
886.9	4873
887.025	5022
887.149	4782
887.274	4691
887.399	4580
887.523	4584
887.648	4592
887.773	4577
887.897	4740
888.021	4755
888.146	4672
888.27	4809
888.395	4923
888.519	4774
888.643	4812
888.767	4889
888.891	4664
889.015	4611
889.139	4603
889.263	4668
889.387	4759
889.511	4858
889.635	4774
889.759	4645
889.883	4622
890.006	4691
890.13	4816
890.254	4634
890.377	4679
890.501	4516
890.624	4504
890.748	4656
890.871	4485
890.995	4481
891.118	4394
891.241	4504
891.364	4580
891.488	4637
891.611	4538
891.734	4580
891.857	4580
891.98	4531
892.103	4634
892.226	4615
892.349	4519
892.471	4493
892.594	4538
892.717	4577
892.839	4558
892.962	4649
893.085	4618
893.207	4580
893.33	4421
893.452	4508
893.575	4675
893.697	4592
893.819	4786
893.941	4835
894.064	4755
894.186	4626
894.308	4538
894.43	4675
894.552	4793
894.674	4736
894.796	4542
894.918	4630
895.04	4592
895.161	4672
895.283	4660
895.405	4630
895.526	4653
895.648	4679
895.769	4702
895.891	4714
896.012	4740
896.134	4744
896.255	4675
896.376	4596
896.498	4577
896.619	4664
896.74	4596
896.861	4622
896.982	4949
897.103	5048
897.224	4858
897.345	4725
897.466	4675
897.587	4714
897.708	4809
897.828	4786
897.949	4687
898.07	4565
898.19	4599
898.311	4839
898.431	4668
898.552	4786
898.672	4805
898.792	4812
898.913	4744
899.033	4626
899.153	4554
899.273	4432
899.393	4523
899.513	4523
899.633	4527
899.753	4554
899.873	4497
899.993	4546
900.113	4523
900.232	4668
900.352	4516
900.472	4478
900.591	4421
900.711	4508
900.83	4481
900.95	4554
901.069	4668
901.189	4519
901.308	4329
901.427	4306
901.546	4299
901.665	4493
901.784	4500
901.904	4371
902.023	4284
902.141	4211
902.26	4185
902.379	4257
902.498	4215
902.617	4227
902.735	4379
902.854	4363
902.973	4363
903.091	4200
903.21	4211
903.328	4295
903.446	4261
903.565	4276
903.683	4318
903.801	4303
903.919	4356
904.038	4443
904.156	4333
904.274	4436
904.392	4363
904.51	4417
904.627	4447
904.745	4558
904.863	4599
904.981	4398
905.098	4341
905.216	4383
905.334	4405
905.451	4451
905.569	4402
905.686	4508
905.803	4500
905.921	4371
906.038	4512
906.155	4485
906.272	4409
906.389	4424
906.506	4318
906.623	4363
906.74	4417
906.857	4261
906.974	4386
907.091	4546
907.208	4710
907.324	4558
907.441	4535
907.557	4356
907.674	4344
907.79	4295
907.907	4398
908.023	4470
908.139	4470
908.256	4398
908.372	4474
908.488	4462
908.604	4360
908.72	4318
908.836	4371
908.952	4398
909.068	4462
909.184	4512
909.3	4455
909.415	4626
909.531	4554
909.647	4352
909.762	4356
909.878	4306
909.993	4424
910.108	4421
910.224	4485
910.339	4470
910.454	4375
910.57	4379
910.685	4348
910.8	4603
910.915	4577
911.03	4447
911.145	4329
911.259	4314
911.374	4344
911.489	4299
911.604	4253
911.718	4166
911.833	4177
911.947	4093
912.062	3991
912.176	4192
912.291	4230
912.405	4246
912.519	4459
912.633	4493
912.748	4386
912.862	4318
912.976	4211
913.09	4116
913.204	4177
913.318	4230
913.431	4375
913.545	4363
913.659	4447
913.772	4310
913.886	4268
914	4211
914.113	4413
914.226	4398
914.34	4390
914.453	4215
914.566	4447
914.68	4333
914.793	4344
914.906	4093
915.019	4131
915.132	4082
915.245	4173
915.358	4196
915.47	4249
915.583	4287
915.696	4291
915.809	4413
915.921	4432
916.034	4261
916.146	4234
916.259	4276
916.371	4409
916.483	4310
916.595	4272
916.708	4344
916.82	4310
916.932	4284
917.044	4287
917.156	4329
917.268	4219
917.38	4287
917.491	4299
917.603	4325
917.715	4421
917.826	4417
917.938	4329
918.049	4227
918.161	4405
918.272	4569
918.384	4561
918.495	4417
918.606	4280
918.717	4253
918.828	4329
918.939	4390
919.05	4257
919.161	4322
919.272	4116
919.383	4284
919.494	4432
919.604	4607
919.715	4462
919.826	4394
919.936	4421
920.047	4504
920.157	4417
920.267	4710
920.378	4554
920.488	4508
920.598	4706
920.708	4831
920.818	4767
920.928	4774
921.038	4953
921.148	4881
921.258	4580
921.368	4573
921.477	4462
921.587	4470
921.697	4341
921.806	4512
921.916	4447
922.025	4249
922.134	4291
922.244	4196
922.353	4291
922.462	4166
922.571	4169
922.68	3991
922.789	3983
922.898	4017
923.007	4010
923.116	4093
923.224	4040
923.333	4074
923.442	3998
923.55	3994
923.659	4051
923.767	4105
923.876	3972
923.984	4150
924.092	4010
924.201	4101
924.309	4128
924.417	4135
924.525	4063
924.633	4097
924.741	5041
924.849	3930
924.956	4078
925.064	3979
925.172	3880
925.279	3960
925.387	4017
925.494	4044
925.602	4207
925.709	4162
925.816	4032
925.924	4162
926.031	4230
926.138	4227
926.245	4177
926.352	4116
926.459	4280
926.566	4310
926.673	4166
926.779	4086
926.886	4105
926.993	3968
927.099	3941
927.206	3975
927.312	3945
927.419	4059
927.525	4029
927.631	4101
927.737	3941
927.843	3960
927.95	3800
928.056	3972
928.162	3956
928.267	4029
928.373	4596
928.479	4090
928.585	3846
928.69	4040
928.796	4055
928.901	3975
929.007	3823
929.112	3983
929.218	3975
929.323	3915
929.428	3926
929.533	4086
929.638	3918
929.743	3945
929.848	4017
929.953	4029
930.058	3918
930.163	3774
930.267	3800
930.372	3979
930.477	3846
930.581	4120
930.685	3949
930.79	3835
930.894	3850
930.998	3865
931.103	4055
931.207	3709
931.311	3720
931.415	3694
931.519	3538
931.623	3542
