Data from test_V78500241_2303.txt Node
Date: Fri Mar 25 17:05:00 CST 2022
User: usil
Spectrometer: V785-0024
Trigger mode: 0
Integration Time (sec): 4.000000E-1
Scans to average: 1
Nonlinearity correction enabled: false
Boxcar width: 0
Storing dark spectrum: false
XAxis mode: Wavelengths
Number of Pixels in Spectrum: 1024
>>>>>Begin Spectral Data<<<<<
801.071	8043
801.214	8008
801.356	7845
801.499	7860
801.641	7799
801.783	7837
801.926	8008
802.068	7887
802.211	8035
802.353	7925
802.496	7826
802.638	7883
802.78	7849
802.923	7909
803.065	7894
803.208	7967
803.35	8054
803.492	8092
803.635	8191
803.777	7993
803.919	8164
804.061	8419
804.204	8149
804.346	8039
804.488	8027
804.63	8088
804.773	7993
804.915	8096
805.057	8298
805.199	8149
805.341	8164
805.483	8259
805.626	8221
805.768	8100
805.91	8183
806.052	8252
806.194	8157
806.336	8332
806.478	8096
806.62	8039
806.762	8111
806.904	8180
807.046	8492
807.188	8366
807.33	8279
807.472	8301
807.614	8145
807.756	8096
807.898	7997
808.04	7868
808.182	7871
808.324	7890
808.465	7932
808.607	8058
808.749	8081
808.891	8202
809.033	8393
809.174	8313
809.316	8130
809.458	8062
809.6	8062
809.741	8062
809.883	8077
810.025	8119
810.166	8157
810.308	8016
810.45	8043
810.591	7951
810.733	7681
810.875	7628
811.016	7419
811.158	7529
811.299	7537
811.441	7647
811.582	7677
811.724	7575
811.865	7518
812.007	7639
812.148	7594
812.29	7620
812.431	7704
812.573	7993
812.714	7974
812.855	8168
812.997	8229
813.138	8275
813.279	8191
813.421	8084
813.562	7936
813.703	7890
813.845	7719
813.986	7384
814.127	7209
814.268	7202
814.41	7221
814.551	7149
814.692	7213
814.833	7145
814.974	7099
815.115	7118
815.256	7027
815.397	6924
815.539	6886
815.68	6787
815.821	6696
815.962	6863
816.103	6840
816.244	6745
816.385	6627
816.526	6616
816.666	6544
816.807	6304
816.948	6441
817.089	6494
817.23	6410
817.371	6422
817.512	6388
817.653	6380
817.793	6346
817.934	6418
818.075	6483
818.216	6418
818.356	6384
818.497	6270
818.638	6155
818.778	6102
818.919	6117
819.06	6148
819.2	6346
819.341	6334
819.481	6357
819.622	6513
819.762	6757
819.903	6722
820.043	6631
820.184	6551
820.324	6589
820.465	6707
820.605	6658
820.746	6677
820.886	6486
821.026	6692
821.167	6738
821.307	6738
821.447	6745
821.588	6639
821.728	6525
821.868	6494
822.008	6327
822.149	6407
822.289	6399
822.429	6190
822.569	6087
822.709	6190
822.849	5897
822.99	5878
823.13	5908
823.27	5904
823.41	5844
823.55	5760
823.69	5771
823.83	5794
823.97	5627
824.11	5547
824.25	5501
824.389	5604
824.529	5577
824.669	5566
824.809	5653
824.949	5646
825.089	5665
825.228	5501
825.368	5436
825.508	5315
825.648	5360
825.787	5391
825.927	5425
826.067	5322
826.206	5307
826.346	5357
826.485	5455
826.625	5433
826.765	5547
826.904	5566
827.044	5288
827.183	5227
827.323	5174
827.462	5277
827.601	5181
827.741	5242
827.88	5261
828.02	5147
828.159	5265
828.298	5326
828.437	5406
828.577	5318
828.716	5467
828.855	5326
828.994	5216
829.134	5132
829.273	5227
829.412	5201
829.551	5178
829.69	5216
829.829	5288
829.968	5387
830.107	5311
830.246	5357
830.385	5201
830.524	5162
830.663	5121
830.802	4984
830.941	4908
831.08	4870
831.219	5052
831.357	5018
831.496	5223
831.635	5022
831.774	4877
831.913	4908
832.051	4740
832.19	4752
832.329	4850
832.467	4763
832.606	4637
832.744	4771
832.883	4797
833.022	4744
833.16	4812
833.299	4881
833.437	4850
833.576	4854
833.714	4908
833.852	4877
833.991	4976
834.129	5029
834.267	5010
834.406	4908
834.544	4987
834.682	5006
834.821	5010
834.959	5220
835.097	5079
835.235	5204
835.373	5132
835.511	5102
835.65	5083
835.788	5079
835.926	4938
836.064	4927
836.202	4995
836.34	5227
836.478	5246
836.615	5216
836.753	5242
836.891	5341
837.029	5334
837.167	5231
837.305	5185
837.443	5201
837.58	5136
837.718	5311
837.856	5258
837.993	5193
838.131	5265
838.269	5284
838.406	5204
838.544	5223
838.681	5102
838.819	5060
838.956	4946
839.094	4923
839.231	4991
839.369	5124
839.506	5402
839.643	5273
839.781	5048
839.918	5048
840.055	5094
840.193	5132
840.33	5143
840.467	5181
840.604	5178
840.742	5448
840.879	5121
841.016	5140
841.153	5170
841.29	5440
841.427	5360
841.564	5337
841.701	5372
841.838	5315
841.975	5250
842.112	5296
842.249	5174
842.385	5162
842.522	5360
842.659	5246
842.796	5159
842.933	5208
843.069	5178
843.206	5166
843.343	5284
843.479	5273
843.616	5269
843.752	4984
843.889	5140
844.025	5269
844.162	5045
844.298	5273
844.435	5105
844.571	5090
844.708	5220
844.844	5364
844.98	5360
845.117	5212
845.253	5155
845.389	5136
845.525	5189
845.661	5223
845.798	5075
845.934	5162
846.07	5090
846.206	5288
846.342	5261
846.478	5254
846.614	4984
846.75	4938
846.886	4972
847.022	5208
847.158	4987
847.294	5102
847.429	5197
847.565	5071
847.701	5349
847.837	4911
847.972	4801
848.108	5052
848.244	4953
848.379	4797
848.515	4809
848.65	4744
848.786	4744
848.921	4782
849.057	4847
849.192	4881
849.328	4900
849.463	4911
849.598	4816
849.734	4805
849.869	4710
850.004	4656
850.14	4744
850.275	4649
850.41	4561
850.545	4622
850.68	4611
850.815	4660
850.95	4672
851.085	4892
851.22	4839
851.355	4694
851.49	4630
851.625	4687
851.76	4675
851.895	4626
852.03	4558
852.165	4691
852.299	4740
852.434	4824
852.569	4717
852.703	4774
852.838	4843
852.973	4942
853.107	4980
853.242	4755
853.376	4706
853.511	4554
853.645	4607
853.78	4786
853.914	4717
854.048	4672
854.183	4653
854.317	4763
854.451	4892
854.585	4721
854.72	4660
854.854	4793
854.988	4626
855.122	4615
855.256	4592
855.39	4641
855.524	4786
855.658	4797
855.792	4725
855.926	4763
856.06	4778
856.194	4824
856.327	4710
856.461	4611
856.595	4641
856.729	4630
856.862	4744
856.996	4725
857.13	4809
857.263	4778
857.397	4850
857.53	4622
857.664	4740
857.797	4774
857.931	4812
858.064	4721
858.197	4736
858.331	4691
858.464	4672
858.597	4538
858.731	4622
858.864	4668
858.997	4615
859.13	4630
859.263	4694
859.396	4710
859.529	4641
859.662	4634
859.795	4546
859.928	4641
860.061	4774
860.194	4797
860.327	4656
860.46	4596
860.592	4687
860.725	4687
860.858	4744
860.99	4618
861.123	4577
861.256	4535
861.388	4611
861.521	5204
861.653	4504
861.786	4508
861.918	4493
862.05	4523
862.183	4542
862.315	4592
862.447	4622
862.58	4634
862.712	4379
862.844	4341
862.976	4519
863.108	4508
863.24	4923
863.372	4314
863.504	4462
863.636	4455
863.768	4493
863.9	4466
864.032	4367
864.164	4417
864.296	4489
864.428	4569
864.559	4573
864.691	4531
864.823	4577
864.954	4485
865.086	4531
865.217	4508
865.349	4474
865.48	4459
865.612	4504
865.743	4672
865.875	4447
866.006	4428
866.137	4481
866.269	4447
866.4	4462
866.531	4436
866.662	4413
866.793	4424
866.924	4466
867.055	4527
867.186	4489
867.317	4470
867.448	4367
867.579	4432
867.71	4436
867.841	4390
867.972	4459
868.103	4470
868.233	4474
868.364	4497
868.495	4508
868.625	4615
868.756	4748
868.886	4580
869.017	4664
869.147	4774
869.278	4774
869.408	4767
869.539	4664
869.669	4763
869.799	4714
869.929	4812
870.06	4740
870.19	4949
870.32	4900
870.45	4972
870.58	5041
870.71	5098
870.84	5067
870.97	4957
871.1	4885
871.23	5155
871.36	5140
871.489	5014
871.619	5060
871.749	5124
871.879	5098
872.008	5227
872.138	5056
872.267	4980
872.397	4850
872.526	4767
872.656	4725
872.785	4801
872.915	4923
873.044	5079
873.173	4927
873.303	4957
873.432	5006
873.561	4934
873.69	4923
873.819	4862
873.948	4930
874.077	4858
874.206	4797
874.335	4850
874.464	4942
874.593	5067
874.722	4972
874.851	5109
874.979	5041
875.108	5064
875.237	4953
875.365	4946
875.494	4885
875.623	4965
875.751	4870
875.88	4953
876.008	5010
876.136	5022
876.265	5242
876.393	5353
876.521	5307
876.65	5277
876.778	5197
876.906	5094
877.034	4991
877.162	5064
877.29	5033
877.418	5067
877.546	5083
877.674	5014
877.802	5079
877.93	5006
878.058	4953
878.185	4927
878.313	5010
878.441	4999
878.568	4854
878.696	4938
878.824	4949
878.951	5033
879.079	5174
879.206	5311
879.333	5121
879.461	4976
879.588	5041
879.715	5162
879.842	5223
879.97	5025
880.097	4797
880.224	4736
880.351	4790
880.478	4839
880.605	4831
880.732	4805
880.859	5121
880.986	4923
881.112	4934
881.239	4812
881.366	4675
881.493	4641
881.619	4588
881.746	4645
881.872	4664
881.999	4664
882.125	4710
882.252	4801
882.378	4839
882.505	4999
882.631	4835
882.757	4664
882.883	4778
883.01	4801
883.136	4714
883.262	4649
883.388	4653
883.514	4812
883.64	4847
883.766	4797
883.892	4683
884.018	4755
884.143	4930
884.269	5048
884.395	4637
884.52	4672
884.646	4649
884.772	4596
884.897	4584
885.023	4656
885.148	4839
885.274	4854
885.399	4805
885.524	4740
885.65	4710
885.775	4740
885.9	4698
886.025	4877
886.15	4831
886.275	4767
886.4	4645
886.525	4740
886.65	4683
886.775	4744
886.9	4877
887.025	5060
887.149	4877
887.274	4668
887.399	4580
887.523	4611
887.648	4596
887.773	4615
887.897	4790
888.021	4805
888.146	4698
888.27	4778
888.395	4892
888.519	4759
888.643	4786
888.767	4824
888.891	4691
889.015	4596
889.139	4618
889.263	4630
889.387	4782
889.511	4835
889.635	4809
889.759	4668
889.883	4675
890.006	4755
890.13	4824
890.254	4675
890.377	4683
890.501	4546
890.624	4588
890.748	4653
890.871	4565
890.995	4409
891.118	4390
891.241	4512
891.364	4538
891.488	4622
891.611	4565
891.734	4569
891.857	4645
891.98	4584
892.103	4641
892.226	4573
892.349	4588
892.471	4421
892.594	4577
892.717	4611
892.839	4588
892.962	4588
893.085	4694
893.207	4637
893.33	4432
893.452	4493
893.575	4706
893.697	4592
893.819	4771
893.941	4828
894.064	4801
894.186	4569
894.308	4580
894.43	4736
894.552	4854
894.674	4744
894.796	4607
894.918	4603
895.04	4580
895.161	4687
895.283	4694
895.405	4603
895.526	4626
895.648	4656
895.769	4714
895.891	4694
896.012	4786
896.134	4729
896.255	4683
896.376	4656
896.498	4664
896.619	4672
896.74	4653
896.861	4694
896.982	4980
897.103	5105
897.224	4801
897.345	4721
897.466	4641
897.587	4679
897.708	4881
897.828	4763
897.949	4691
898.07	4588
898.19	4611
898.311	4797
898.431	4683
898.552	4740
898.672	4809
898.792	4831
898.913	4740
899.033	4645
899.153	4489
899.273	4421
899.393	4489
899.513	4485
899.633	4527
899.753	4569
899.873	4538
899.993	4546
900.113	4554
900.232	4596
900.352	4485
900.472	4497
900.591	4356
900.711	4470
900.83	4421
900.95	4584
901.069	4736
901.189	4569
901.308	4371
901.427	4348
901.546	4367
901.665	4474
901.784	4508
901.904	4375
902.023	4333
902.141	4196
902.26	4181
902.379	4329
902.498	4215
902.617	4227
902.735	4432
902.854	4367
902.973	4409
903.091	4230
903.21	4253
903.328	4310
903.446	4299
903.565	4287
903.683	4375
903.801	4261
903.919	4398
904.038	4485
904.156	4329
904.274	4493
904.392	4451
904.51	4462
904.627	4519
904.745	4577
904.863	4645
904.981	4352
905.098	4303
905.216	4398
905.334	4417
905.451	4481
905.569	4459
905.686	4565
905.803	4588
905.921	4417
906.038	4554
906.155	4481
906.272	4367
906.389	4462
906.506	4367
906.623	4375
906.74	4436
906.857	4276
906.974	4402
907.091	4580
907.208	4675
907.324	4622
907.441	4546
907.557	4314
907.674	4375
907.79	4318
907.907	4398
908.023	4512
908.139	4474
908.256	4428
908.372	4455
908.488	4443
908.604	4363
908.72	4318
908.836	4394
908.952	4367
909.068	4390
909.184	4592
909.3	4447
909.415	4588
909.531	4516
909.647	4310
909.762	4413
909.878	4344
909.993	4443
910.108	4462
910.224	4417
910.339	4474
910.454	4394
910.57	4383
910.685	4329
910.8	4675
910.915	4611
911.03	4485
911.145	4348
911.259	4318
911.374	4405
911.489	4306
911.604	4284
911.718	4192
911.833	4215
911.947	4032
912.062	4059
912.176	4223
912.291	4295
912.405	4223
912.519	4470
912.633	4481
912.748	4360
912.862	4333
912.976	4192
913.09	4143
913.204	4181
913.318	4280
913.431	4379
913.545	4360
913.659	4443
913.772	4394
913.886	4249
914	4215
914.113	4402
914.226	4443
914.34	4390
914.453	4249
914.566	4421
914.68	4329
914.793	4303
914.906	4158
915.019	4158
915.132	4101
915.245	4166
915.358	4204
915.47	4257
915.583	4306
915.696	4329
915.809	4386
915.921	4424
916.034	4280
916.146	4272
916.259	4261
916.371	4344
916.483	4371
916.595	4268
916.708	4318
916.82	4341
916.932	4344
917.044	4329
917.156	4341
917.268	4242
917.38	4287
917.491	4280
917.603	4325
917.715	4402
917.826	4428
917.938	4356
918.049	4242
918.161	4402
918.272	4497
918.384	4466
918.495	4474
918.606	4242
918.717	4272
918.828	4325
918.939	4341
919.05	4291
919.161	4341
919.272	4166
919.383	4215
919.494	4451
919.604	4656
919.715	4455
919.826	4348
919.936	4421
920.047	4577
920.157	4523
920.267	4767
920.378	4546
920.488	4550
920.598	4683
920.708	4896
920.818	4767
920.928	4717
921.038	4927
921.148	4923
921.258	4637
921.368	4603
921.477	4462
921.587	4489
921.697	4379
921.806	4569
921.916	4424
922.025	4276
922.134	4287
922.244	4227
922.353	4394
922.462	4196
922.571	4135
922.68	4010
922.789	3975
922.898	4032
923.007	4013
923.116	4105
923.224	4090
923.333	4055
923.442	3994
923.55	3960
923.659	4059
923.767	4112
923.876	3975
923.984	4101
924.092	3998
924.201	4082
924.309	4101
924.417	4101
924.525	4090
924.633	4063
924.741	5071
924.849	3922
924.956	4131
925.064	3972
925.172	3899
925.279	3945
925.387	4036
925.494	4078
925.602	4188
925.709	4196
925.816	4017
925.924	4154
926.031	4234
926.138	4169
926.245	4204
926.352	4082
926.459	4257
926.566	4299
926.673	4150
926.779	4086
926.886	4074
926.993	3960
927.099	3937
927.206	3918
927.312	3922
927.419	4017
927.525	4063
927.631	4116
927.737	3964
927.843	3880
927.95	3857
928.056	3975
928.162	3991
928.267	4040
928.373	4702
928.479	4109
928.585	3899
928.69	4040
928.796	4067
928.901	3979
929.007	3861
929.112	3998
929.218	3975
929.323	3975
929.428	3930
929.533	4131
929.638	3918
929.743	3937
929.848	4055
929.953	4002
930.058	3934
930.163	3785
930.267	3846
930.372	3987
930.477	3838
930.581	4055
930.685	3941
930.79	3766
930.894	3884
930.998	3884
931.103	4040
931.207	3717
931.311	3671
931.415	3637
931.519	3545
931.623	3542
