Data from test_V78500241_1737.txt Node
Date: Fri Mar 25 17:01:04 CST 2022
User: usil
Spectrometer: V785-0024
Trigger mode: 0
Integration Time (sec): 4.000000E-1
Scans to average: 1
Nonlinearity correction enabled: false
Boxcar width: 0
Storing dark spectrum: false
XAxis mode: Wavelengths
Number of Pixels in Spectrum: 1024
>>>>>Begin Spectral Data<<<<<
801.071	7986
801.214	7997
801.356	7879
801.499	7871
801.641	7799
801.783	7803
801.926	7982
802.068	7967
802.211	7978
802.353	8012
802.496	7860
802.638	7887
802.78	7906
802.923	7902
803.065	7894
803.208	7860
803.35	7997
803.492	8073
803.635	8153
803.777	7997
803.919	8058
804.061	8480
804.204	8210
804.346	8065
804.488	7993
804.63	8126
804.773	8008
804.915	8123
805.057	8313
805.199	8153
805.341	8275
805.483	8267
805.626	8191
805.768	8115
805.91	8199
806.052	8271
806.194	8107
806.336	8286
806.478	8119
806.62	8005
806.762	8172
806.904	8267
807.046	8461
807.188	8374
807.33	8328
807.472	8317
807.614	8172
807.756	8176
807.898	7974
808.04	7883
808.182	7826
808.324	7852
808.465	7887
808.607	8153
808.749	8031
808.891	8195
809.033	8336
809.174	8221
809.316	8081
809.458	8130
809.6	7970
809.741	8046
809.883	7963
810.025	8126
810.166	8084
810.308	7989
810.45	7951
810.591	7818
810.733	7681
810.875	7651
811.016	7472
811.158	7480
811.299	7597
811.441	7674
811.582	7662
811.724	7559
811.865	7510
812.007	7525
812.148	7529
812.29	7571
812.431	7738
812.573	7879
812.714	7947
812.855	8092
812.997	8187
813.138	8351
813.279	8153
813.421	8069
813.562	7970
813.703	7849
813.845	7719
813.986	7441
814.127	7274
814.268	7171
814.41	7217
814.551	7175
814.692	7232
814.833	7072
814.974	7137
815.115	7114
815.256	6932
815.397	6954
815.539	6985
815.68	6814
815.821	6753
815.962	6863
816.103	6810
816.244	6684
816.385	6563
816.526	6570
816.666	6467
816.807	6323
816.948	6399
817.089	6460
817.23	6369
817.371	6315
817.512	6418
817.653	6403
817.793	6391
817.934	6399
818.075	6437
818.216	6475
818.356	6426
818.497	6209
818.638	6068
818.778	6205
818.919	6133
819.06	6155
819.2	6304
819.341	6289
819.481	6353
819.622	6506
819.762	6753
819.903	6684
820.043	6574
820.184	6513
820.324	6597
820.465	6734
820.605	6688
820.746	6665
820.886	6517
821.026	6623
821.167	6681
821.307	6776
821.447	6783
821.588	6650
821.728	6585
821.868	6509
822.008	6334
822.149	6422
822.289	6380
822.429	6152
822.569	6079
822.709	6155
822.849	5904
822.99	5901
823.13	5950
823.27	5973
823.41	5794
823.55	5771
823.69	5824
823.83	5821
823.97	5707
824.11	5573
824.25	5566
824.389	5562
824.529	5653
824.669	5596
824.809	5649
824.949	5695
825.089	5684
825.228	5570
825.368	5414
825.508	5357
825.648	5326
825.787	5463
825.927	5448
826.067	5372
826.206	5284
826.346	5402
826.485	5425
826.625	5497
826.765	5657
826.904	5467
827.044	5311
827.183	5261
827.323	5185
827.462	5292
827.601	5197
827.741	5193
827.88	5220
828.02	5155
828.159	5220
828.298	5372
828.437	5383
828.577	5337
828.716	5520
828.855	5349
828.994	5166
829.134	5162
829.273	5231
829.412	5181
829.551	5178
829.69	5227
829.829	5334
829.968	5402
830.107	5334
830.246	5284
830.385	5155
830.524	5121
830.663	5086
830.802	4961
830.941	4961
831.08	4934
831.219	5022
831.357	5006
831.496	5216
831.635	4995
831.774	4915
831.913	4881
832.051	4698
832.19	4744
832.329	4908
832.467	4721
832.606	4660
832.744	4767
832.883	4782
833.022	4771
833.16	4812
833.299	4847
833.437	4850
833.576	4843
833.714	4915
833.852	4858
833.991	4900
834.129	4930
834.267	4957
834.406	4957
834.544	5033
834.682	5003
834.821	4995
834.959	5155
835.097	5037
835.235	5212
835.373	5124
835.511	5159
835.65	5094
835.788	5105
835.926	4919
836.064	4908
836.202	4949
836.34	5201
836.478	5265
836.615	5185
836.753	5265
836.891	5311
837.029	5315
837.167	5239
837.305	5178
837.443	5162
837.58	5121
837.718	5273
837.856	5227
837.993	5170
838.131	5235
838.269	5246
838.406	5193
838.544	5178
838.681	5060
838.819	5079
838.956	4915
839.094	4919
839.231	5003
839.369	5124
839.506	5433
839.643	5273
839.781	5132
839.918	5045
840.055	5143
840.193	5151
840.33	5159
840.467	5166
840.604	5220
840.742	5440
840.879	5155
841.016	5151
841.153	5170
841.29	5452
841.427	5387
841.564	5360
841.701	5318
841.838	5269
841.975	5258
842.112	5296
842.249	5193
842.385	5132
842.522	5345
842.659	5212
842.796	5174
842.933	5235
843.069	5178
843.206	5132
843.343	5318
843.479	5265
843.616	5284
843.752	5056
843.889	5041
844.025	5216
844.162	5025
844.298	5189
844.435	5098
844.571	5018
844.708	5223
844.844	5280
844.98	5311
845.117	5284
845.253	5162
845.389	5094
845.525	5151
845.661	5143
845.798	4995
845.934	5132
846.07	5094
846.206	5201
846.342	5299
846.478	5162
846.614	5064
846.75	5048
846.886	4957
847.022	5132
847.158	5048
847.294	5071
847.429	5121
847.565	5025
847.701	5360
847.837	4850
847.972	4850
848.108	4987
848.244	4984
848.379	4797
848.515	4774
848.65	4694
848.786	4797
848.921	4812
849.057	4896
849.192	4919
849.328	4831
849.463	4892
849.598	4824
849.734	4759
849.869	4755
850.004	4679
850.14	4687
850.275	4607
850.41	4546
850.545	4573
850.68	4634
850.815	4656
850.95	4637
851.085	4866
851.22	4790
851.355	4714
851.49	4607
851.625	4615
851.76	4691
851.895	4535
852.03	4542
852.165	4702
852.299	4778
852.434	4847
852.569	4816
852.703	4790
852.838	4850
852.973	4968
853.107	4976
853.242	4740
853.376	4687
853.511	4599
853.645	4637
853.78	4801
853.914	4634
854.048	4694
854.183	4694
854.317	4717
854.451	4854
854.585	4710
854.72	4683
854.854	4774
854.988	4618
855.122	4683
855.256	4561
855.39	4691
855.524	4820
855.658	4767
855.792	4729
855.926	4759
856.06	4771
856.194	4843
856.327	4702
856.461	4607
856.595	4645
856.729	4698
856.862	4790
856.996	4694
857.13	4733
857.263	4809
857.397	4828
857.53	4675
857.664	4771
857.797	4740
857.931	4778
858.064	4767
858.197	4767
858.331	4668
858.464	4615
858.597	4546
858.731	4675
858.864	4675
858.997	4634
859.13	4710
859.263	4675
859.396	4755
859.529	4641
859.662	4599
859.795	4535
859.928	4641
860.061	4782
860.194	4816
860.327	4687
860.46	4596
860.592	4725
860.725	4733
860.858	4733
860.99	4596
861.123	4538
861.256	4542
861.388	4672
861.521	5322
861.653	4497
861.786	4508
861.918	4500
862.05	4565
862.183	4565
862.315	4626
862.447	4672
862.58	4588
862.712	4436
862.844	4386
862.976	4470
863.108	4481
863.24	4923
863.372	4348
863.504	4436
863.636	4417
863.768	4558
863.9	4436
864.032	4417
864.164	4428
864.296	4546
864.428	4588
864.559	4603
864.691	4542
864.823	4535
864.954	4512
865.086	4573
865.217	4466
865.349	4421
865.48	4447
865.612	4512
865.743	4603
865.875	4470
866.006	4455
866.137	4470
866.269	4493
866.4	4470
866.531	4462
866.662	4466
866.793	4402
866.924	4443
867.055	4527
867.186	4531
867.317	4413
867.448	4428
867.579	4436
867.71	4394
867.841	4413
867.972	4493
868.103	4485
868.233	4546
868.364	4432
868.495	4516
868.625	4687
868.756	4725
868.886	4615
869.017	4630
869.147	4793
869.278	4759
869.408	4683
869.539	4683
869.669	4729
869.799	4664
869.929	4752
870.06	4786
870.19	4980
870.32	4942
870.45	4949
870.58	5003
870.71	5140
870.84	5121
870.97	4968
871.1	4942
871.23	5166
871.36	5071
871.489	5048
871.619	5064
871.749	5090
871.879	5117
872.008	5181
872.138	5037
872.267	5022
872.397	4900
872.526	4805
872.656	4767
872.785	4847
872.915	4957
873.044	5102
873.173	4984
873.303	5025
873.432	4980
873.561	4976
873.69	4915
873.819	4885
873.948	4949
874.077	4843
874.206	4809
874.335	4805
874.464	4946
874.593	5086
874.722	4968
874.851	5140
874.979	5105
875.108	5075
875.237	4923
875.365	4908
875.494	4915
875.623	4972
875.751	4828
875.88	4885
876.008	5006
876.136	5075
876.265	5204
876.393	5299
876.521	5277
876.65	5261
876.778	5170
876.906	5151
877.034	5029
877.162	5018
877.29	5052
877.418	5105
877.546	5086
877.674	5045
877.802	5025
877.93	5037
878.058	4946
878.185	4847
878.313	4972
878.441	4968
878.568	4885
878.696	4908
878.824	4965
878.951	5014
879.079	5159
879.206	5334
879.333	5086
879.461	5003
879.588	4961
879.715	5136
879.842	5239
879.97	5003
880.097	4835
880.224	4847
880.351	4831
880.478	4790
880.605	4797
880.732	4816
880.859	5124
880.986	4904
881.112	4915
881.239	4797
881.366	4698
881.493	4618
881.619	4558
881.746	4664
881.872	4599
881.999	4637
882.125	4721
882.252	4812
882.378	4850
882.505	4923
882.631	4843
882.757	4721
882.883	4763
883.01	4755
883.136	4694
883.262	4637
883.388	4653
883.514	4843
883.64	4885
883.766	4843
883.892	4679
884.018	4767
884.143	4911
884.269	5075
884.395	4694
884.52	4660
884.646	4645
884.772	4615
884.897	4592
885.023	4683
885.148	4805
885.274	4831
885.399	4831
885.524	4752
885.65	4691
885.775	4778
885.9	4740
886.025	4839
886.15	4801
886.275	4721
886.4	4664
886.525	4755
886.65	4714
886.775	4721
886.9	4938
887.025	5060
887.149	4771
887.274	4694
887.399	4592
887.523	4626
887.648	4519
887.773	4569
887.897	4774
888.021	4786
888.146	4637
888.27	4786
888.395	4919
888.519	4786
888.643	4797
888.767	4831
888.891	4687
889.015	4637
889.139	4672
889.263	4630
889.387	4820
889.511	4896
889.635	4839
889.759	4675
889.883	4618
890.006	4752
890.13	4854
890.254	4637
890.377	4733
890.501	4523
890.624	4474
890.748	4653
890.871	4519
890.995	4428
891.118	4402
891.241	4546
891.364	4577
891.488	4584
891.611	4508
891.734	4565
891.857	4626
891.98	4588
892.103	4672
892.226	4615
892.349	4546
892.471	4409
892.594	4588
892.717	4607
892.839	4607
892.962	4577
893.085	4668
893.207	4550
893.33	4489
893.452	4550
893.575	4717
893.697	4607
893.819	4816
893.941	4828
894.064	4767
894.186	4546
894.308	4569
894.43	4744
894.552	4820
894.674	4767
894.796	4596
894.918	4596
895.04	4527
895.161	4714
895.283	4634
895.405	4554
895.526	4660
895.648	4733
895.769	4672
895.891	4782
896.012	4771
896.134	4706
896.255	4729
896.376	4641
896.498	4694
896.619	4672
896.74	4660
896.861	4660
896.982	4942
897.103	5124
897.224	4812
897.345	4736
897.466	4691
897.587	4706
897.708	4797
897.828	4820
897.949	4664
898.07	4592
898.19	4664
898.311	4850
898.431	4679
898.552	4771
898.672	4820
898.792	4790
898.913	4748
899.033	4649
899.153	4508
899.273	4508
899.393	4531
899.513	4500
899.633	4577
899.753	4538
899.873	4504
899.993	4565
900.113	4561
900.232	4561
900.352	4546
900.472	4451
900.591	4360
900.711	4485
900.83	4443
900.95	4618
901.069	4649
901.189	4527
901.308	4375
901.427	4306
901.546	4394
901.665	4478
901.784	4523
901.904	4379
902.023	4314
902.141	4207
902.26	4116
902.379	4325
902.498	4249
902.617	4200
902.735	4402
902.854	4436
902.973	4348
903.091	4280
903.21	4223
903.328	4314
903.446	4238
903.565	4265
903.683	4405
903.801	4284
903.919	4409
904.038	4485
904.156	4303
904.274	4451
904.392	4443
904.51	4462
904.627	4478
904.745	4592
904.863	4649
904.981	4402
905.098	4280
905.216	4337
905.334	4478
905.451	4436
905.569	4455
905.686	4550
905.803	4542
905.921	4447
906.038	4561
906.155	4470
906.272	4409
906.389	4527
906.506	4386
906.623	4356
906.74	4348
906.857	4337
906.974	4428
907.091	4577
907.208	4702
907.324	4596
907.441	4497
907.557	4363
907.674	4352
907.79	4356
907.907	4379
908.023	4455
908.139	4462
908.256	4451
908.372	4459
908.488	4481
908.604	4363
908.72	4295
908.836	4367
908.952	4348
909.068	4440
909.184	4535
909.3	4470
909.415	4592
909.531	4542
909.647	4390
909.762	4352
909.878	4348
909.993	4432
910.108	4379
910.224	4398
910.339	4497
910.454	4383
910.57	4398
910.685	4344
910.8	4611
910.915	4611
911.03	4535
911.145	4325
911.259	4303
911.374	4428
911.489	4322
911.604	4291
911.718	4181
911.833	4215
911.947	4147
912.062	4021
912.176	4207
912.291	4261
912.405	4238
912.519	4424
912.633	4489
912.748	4386
912.862	4333
912.976	4200
913.09	4150
913.204	4188
913.318	4272
913.431	4417
913.545	4383
913.659	4462
913.772	4360
913.886	4246
914	4234
914.113	4363
914.226	4421
914.34	4402
914.453	4246
914.566	4409
914.68	4268
914.793	4363
914.906	4120
915.019	4173
915.132	4101
915.245	4169
915.358	4261
915.47	4227
915.583	4280
915.696	4310
915.809	4440
915.921	4383
916.034	4333
916.146	4223
916.259	4242
916.371	4341
916.483	4379
916.595	4227
916.708	4352
916.82	4276
916.932	4325
917.044	4299
917.156	4322
917.268	4215
917.38	4276
917.491	4268
917.603	4363
917.715	4394
917.826	4402
917.938	4333
918.049	4242
918.161	4417
918.272	4527
918.384	4538
918.495	4493
918.606	4276
918.717	4253
918.828	4348
918.939	4379
919.05	4268
919.161	4344
919.272	4116
919.383	4295
919.494	4455
919.604	4592
919.715	4424
919.826	4322
919.936	4421
920.047	4519
920.157	4485
920.267	4675
920.378	4538
920.488	4493
920.598	4710
920.708	4889
920.818	4771
920.928	4729
921.038	4938
921.148	4934
921.258	4634
921.368	4554
921.477	4561
921.587	4417
921.697	4447
921.806	4558
921.916	4451
922.025	4295
922.134	4276
922.244	4227
922.353	4363
922.462	4181
922.571	4105
922.68	4025
922.789	3991
922.898	4055
923.007	3975
923.116	4093
923.224	4051
923.333	4071
923.442	3998
923.55	4013
923.659	4036
923.767	4101
923.876	3998
923.984	4086
924.092	3964
924.201	4078
924.309	4086
924.417	4128
924.525	4059
924.633	4124
924.741	4927
924.849	3964
924.956	4169
925.064	3949
925.172	3911
925.279	3956
925.387	4029
925.494	4093
925.602	4215
925.709	4207
925.816	4040
925.924	4177
926.031	4196
926.138	4166
926.245	4242
926.352	4120
926.459	4268
926.566	4348
926.673	4181
926.779	4086
926.886	4105
926.993	3983
927.099	3953
927.206	3907
927.312	3979
927.419	4029
927.525	4021
927.631	4059
927.737	3994
927.843	3956
927.95	3823
928.056	3964
928.162	4021
928.267	4032
928.373	4683
928.479	4105
928.585	3884
928.69	4059
928.796	4093
928.901	3991
929.007	3857
929.112	3991
929.218	3953
929.323	3911
929.428	3930
929.533	4063
929.638	3918
929.743	3937
929.848	4029
929.953	3949
930.058	3945
930.163	3797
930.267	3873
930.372	3979
930.477	3812
930.581	4116
930.685	3945
930.79	3827
930.894	3892
930.998	3831
931.103	4067
931.207	3701
931.311	3728
931.415	3682
931.519	3526
931.623	3595
