Data from test_V78500241_1917.txt Node
Date: Fri Mar 25 17:02:19 CST 2022
User: usil
Spectrometer: V785-0024
Trigger mode: 0
Integration Time (sec): 4.000000E-1
Scans to average: 1
Nonlinearity correction enabled: false
Boxcar width: 0
Storing dark spectrum: false
XAxis mode: Wavelengths
Number of Pixels in Spectrum: 1024
>>>>>Begin Spectral Data<<<<<
801.071	7963
801.214	8012
801.356	7868
801.499	7883
801.641	7799
801.783	7852
801.926	7913
802.068	7890
802.211	8012
802.353	7925
802.496	7811
802.638	7837
802.78	7879
802.923	7947
803.065	7898
803.208	7837
803.35	7906
803.492	8054
803.635	8180
803.777	7967
803.919	8054
804.061	8389
804.204	8180
804.346	8031
804.488	7925
804.63	8058
804.773	8016
804.915	8077
805.057	8313
805.199	8130
805.341	8123
805.483	8252
805.626	8206
805.768	8069
805.91	8210
806.052	8210
806.194	8096
806.336	8259
806.478	8065
806.62	7986
806.762	8065
806.904	8328
807.046	8495
807.188	8427
807.33	8218
807.472	8324
807.614	8130
807.756	8134
807.898	7986
808.04	7902
808.182	7871
808.324	7814
808.465	7883
808.607	8012
808.749	8084
808.891	8138
809.033	8279
809.174	8142
809.316	8081
809.458	8130
809.6	8008
809.741	8069
809.883	7989
810.025	8115
810.166	8046
810.308	8020
810.45	7986
810.591	7811
810.733	7757
810.875	7685
811.016	7567
811.158	7441
811.299	7605
811.441	7624
811.582	7624
811.724	7525
811.865	7502
812.007	7529
812.148	7670
812.29	7643
812.431	7792
812.573	7921
812.714	7970
812.855	8145
812.997	8183
813.138	8370
813.279	8096
813.421	8073
813.562	7993
813.703	7811
813.845	7803
813.986	7457
814.127	7206
814.268	7225
814.41	7156
814.551	7198
814.692	7221
814.833	7091
814.974	7095
815.115	7152
815.256	7015
815.397	6962
815.539	6894
815.68	6840
815.821	6760
815.962	6795
816.103	6806
816.244	6692
816.385	6589
816.526	6582
816.666	6475
816.807	6331
816.948	6456
817.089	6502
817.23	6513
817.371	6334
817.512	6410
817.653	6365
817.793	6346
817.934	6407
818.075	6452
818.216	6418
818.356	6433
818.497	6254
818.638	6114
818.778	6163
818.919	6175
819.06	6194
819.2	6300
819.341	6292
819.481	6365
819.622	6536
819.762	6688
819.903	6616
820.043	6604
820.184	6479
820.324	6566
820.465	6662
820.605	6688
820.746	6639
820.886	6528
821.026	6646
821.167	6669
821.307	6741
821.447	6779
821.588	6642
821.728	6604
821.868	6441
822.008	6300
822.149	6315
822.289	6285
822.429	6167
822.569	6064
822.709	6110
822.849	5916
822.99	5923
823.13	5866
823.27	5927
823.41	5756
823.55	5809
823.69	5779
823.83	5783
823.97	5710
824.11	5532
824.25	5547
824.389	5646
824.529	5608
824.669	5448
824.809	5627
824.949	5619
825.089	5615
825.228	5573
825.368	5337
825.508	5368
825.648	5368
825.787	5376
825.927	5315
826.067	5265
826.206	5280
826.346	5379
826.485	5410
826.625	5341
826.765	5558
826.904	5490
827.044	5288
827.183	5197
827.323	5162
827.462	5246
827.601	5201
827.741	5201
827.88	5258
828.02	5147
828.159	5258
828.298	5311
828.437	5417
828.577	5311
828.716	5493
828.855	5334
828.994	5208
829.134	5159
829.273	5212
829.412	5143
829.551	5124
829.69	5220
829.829	5273
829.968	5376
830.107	5334
830.246	5318
830.385	5204
830.524	5181
830.663	5071
830.802	4991
830.941	4961
831.08	4889
831.219	4991
831.357	4999
831.496	5223
831.635	4972
831.774	4900
831.913	4873
832.051	4790
832.19	4778
832.329	4816
832.467	4771
832.606	4710
832.744	4717
832.883	4717
833.022	4782
833.16	4847
833.299	4877
833.437	4835
833.576	4858
833.714	4927
833.852	4911
833.991	4953
834.129	4946
834.267	5006
834.406	4961
834.544	4991
834.682	5014
834.821	5041
834.959	5155
835.097	4984
835.235	5155
835.373	5071
835.511	5162
835.65	5102
835.788	5090
835.926	4938
836.064	4919
836.202	4923
836.34	5204
836.478	5318
836.615	5166
836.753	5261
836.891	5349
837.029	5246
837.167	5258
837.305	5155
837.443	5162
837.58	5136
837.718	5254
837.856	5201
837.993	5162
838.131	5296
838.269	5227
838.406	5193
838.544	5220
838.681	5048
838.819	5060
838.956	4915
839.094	4927
839.231	4949
839.369	5140
839.506	5516
839.643	5299
839.781	5147
839.918	5025
840.055	5098
840.193	5124
840.33	5121
840.467	5181
840.604	5181
840.742	5501
840.879	5143
841.016	5178
841.153	5162
841.29	5417
841.427	5353
841.564	5376
841.701	5414
841.838	5288
841.975	5277
842.112	5322
842.249	5166
842.385	5140
842.522	5379
842.659	5223
842.796	5159
842.933	5201
843.069	5155
843.206	5212
843.343	5292
843.479	5250
843.616	5292
843.752	5071
843.889	5079
844.025	5212
844.162	5041
844.298	5208
844.435	5140
844.571	5071
844.708	5242
844.844	5296
844.98	5368
845.117	5357
845.253	5189
845.389	5147
845.525	5216
845.661	5124
845.798	5098
845.934	5162
846.07	5083
846.206	5239
846.342	5288
846.478	5189
846.614	5064
846.75	5006
846.886	4930
847.022	5181
847.158	4984
847.294	5109
847.429	5105
847.565	5052
847.701	5398
847.837	4930
847.972	4824
848.108	4984
848.244	4965
848.379	4831
848.515	4755
848.65	4706
848.786	4740
848.921	4786
849.057	4877
849.192	4900
849.328	4858
849.463	4911
849.598	4831
849.734	4805
849.869	4710
850.004	4641
850.14	4687
850.275	4615
850.41	4588
850.545	4592
850.68	4656
850.815	4592
850.95	4653
851.085	4866
851.22	4771
851.355	4656
851.49	4645
851.625	4645
851.76	4691
851.895	4569
852.03	4596
852.165	4687
852.299	4721
852.434	4805
852.569	4790
852.703	4812
852.838	4877
852.973	4942
853.107	4949
853.242	4752
853.376	4675
853.511	4569
853.645	4660
853.78	4782
853.914	4725
854.048	4687
854.183	4656
854.317	4733
854.451	4885
854.585	4721
854.72	4721
854.854	4774
854.988	4607
855.122	4653
855.256	4542
855.39	4668
855.524	4850
855.658	4759
855.792	4729
855.926	4744
856.06	4831
856.194	4858
856.327	4687
856.461	4634
856.595	4645
856.729	4618
856.862	4793
856.996	4725
857.13	4748
857.263	4790
857.397	4809
857.53	4694
857.664	4744
857.797	4809
857.931	4812
858.064	4694
858.197	4771
858.331	4630
858.464	4649
858.597	4573
858.731	4641
858.864	4694
858.997	4634
859.13	4675
859.263	4660
859.396	4714
859.529	4588
859.662	4527
859.795	4542
859.928	4668
860.061	4793
860.194	4763
860.327	4634
860.46	4580
860.592	4721
860.725	4755
860.858	4736
860.99	4618
861.123	4497
861.256	4538
861.388	4649
861.521	5345
861.653	4535
861.786	4478
861.918	4447
862.05	4558
862.183	4573
862.315	4641
862.447	4637
862.58	4542
862.712	4481
862.844	4318
862.976	4542
863.108	4489
863.24	4771
863.372	4360
863.504	4443
863.636	4409
863.768	4500
863.9	4478
864.032	4413
864.164	4436
864.296	4470
864.428	4550
864.559	4561
864.691	4607
864.823	4527
864.954	4493
865.086	4554
865.217	4508
865.349	4440
865.48	4500
865.612	4531
865.743	4618
865.875	4504
866.006	4485
866.137	4535
866.269	4421
866.4	4466
866.531	4451
866.662	4405
866.793	4443
866.924	4466
867.055	4512
867.186	4459
867.317	4447
867.448	4390
867.579	4485
867.71	4402
867.841	4390
867.972	4523
868.103	4516
868.233	4466
868.364	4489
868.495	4466
868.625	4653
868.756	4763
868.886	4558
869.017	4656
869.147	4793
869.278	4774
869.408	4702
869.539	4656
869.669	4668
869.799	4660
869.929	4782
870.06	4797
870.19	4953
870.32	4934
870.45	4965
870.58	5045
870.71	5098
870.84	5151
870.97	5006
871.1	4919
871.23	5155
871.36	5151
871.489	5048
871.619	5147
871.749	5052
871.879	5140
872.008	5181
872.138	5109
872.267	5014
872.397	4889
872.526	4816
872.656	4759
872.785	4816
872.915	4961
873.044	5083
873.173	4976
873.303	4972
873.432	4938
873.561	4999
873.69	4892
873.819	4866
873.948	4923
874.077	4862
874.206	4816
874.335	4835
874.464	4972
874.593	5094
874.722	4995
874.851	5094
874.979	5075
875.108	5083
875.237	4919
875.365	4923
875.494	4930
875.623	5018
875.751	4915
875.88	4896
876.008	5029
876.136	5060
876.265	5231
876.393	5318
876.521	5258
876.65	5223
876.778	5162
876.906	5033
877.034	5025
877.162	5083
877.29	4946
877.418	5105
877.546	5086
877.674	5041
877.802	5067
877.93	5048
878.058	4987
878.185	4911
878.313	4976
878.441	4995
878.568	4881
878.696	4877
878.824	4965
878.951	5041
879.079	5124
879.206	5307
879.333	5113
879.461	5014
879.588	4987
879.715	5166
879.842	5235
879.97	5025
880.097	4809
880.224	4736
880.351	4889
880.478	4892
880.605	4793
880.732	4797
880.859	5109
880.986	4908
881.112	4946
881.239	4801
881.366	4694
881.493	4649
881.619	4645
881.746	4626
881.872	4630
881.999	4694
882.125	4672
882.252	4812
882.378	4820
882.505	4938
882.631	4759
882.757	4694
882.883	4744
883.01	4790
883.136	4664
883.262	4622
883.388	4630
883.514	4820
883.64	4843
883.766	4778
883.892	4672
884.018	4755
884.143	4896
884.269	5037
884.395	4729
884.52	4618
884.646	4618
884.772	4672
884.897	4550
885.023	4668
885.148	4828
885.274	4854
885.399	4812
885.524	4763
885.65	4714
885.775	4771
885.9	4725
886.025	4843
886.15	4793
886.275	4698
886.4	4672
886.525	4763
886.65	4710
886.775	4679
886.9	4892
887.025	5064
887.149	4816
887.274	4653
887.399	4588
887.523	4618
887.648	4603
887.773	4577
887.897	4778
888.021	4793
888.146	4714
888.27	4858
888.395	4942
888.519	4843
888.643	4828
888.767	4870
888.891	4740
889.015	4618
889.139	4649
889.263	4630
889.387	4774
889.511	4858
889.635	4812
889.759	4630
889.883	4626
890.006	4733
890.13	4839
890.254	4660
890.377	4679
890.501	4531
890.624	4531
890.748	4660
890.871	4527
890.995	4474
891.118	4424
891.241	4592
891.364	4516
891.488	4634
891.611	4516
891.734	4519
891.857	4641
891.98	4550
892.103	4649
892.226	4660
892.349	4500
892.471	4485
892.594	4565
892.717	4607
892.839	4615
892.962	4580
893.085	4622
893.207	4592
893.33	4466
893.452	4531
893.575	4641
893.697	4569
893.819	4854
893.941	4828
894.064	4778
894.186	4649
894.308	4577
894.43	4763
894.552	4831
894.674	4755
894.796	4546
894.918	4592
895.04	4573
895.161	4679
895.283	4683
895.405	4542
895.526	4694
895.648	4679
895.769	4672
895.891	4698
896.012	4679
896.134	4729
896.255	4675
896.376	4645
896.498	4607
896.619	4706
896.74	4622
896.861	4694
896.982	4934
897.103	5117
897.224	4873
897.345	4786
897.466	4675
897.587	4710
897.708	4839
897.828	4801
897.949	4683
898.07	4546
898.19	4607
898.311	4847
898.431	4687
898.552	4729
898.672	4790
898.792	4786
898.913	4721
899.033	4618
899.153	4497
899.273	4451
899.393	4470
899.513	4523
899.633	4558
899.753	4580
899.873	4516
899.993	4569
900.113	4573
900.232	4630
900.352	4516
900.472	4497
900.591	4394
900.711	4462
900.83	4474
900.95	4645
901.069	4660
901.189	4565
901.308	4398
901.427	4303
901.546	4360
901.665	4432
901.784	4512
901.904	4394
902.023	4261
902.141	4238
902.26	4150
902.379	4295
902.498	4253
902.617	4227
902.735	4329
902.854	4413
902.973	4333
903.091	4223
903.21	4234
903.328	4280
903.446	4280
903.565	4234
903.683	4333
903.801	4276
903.919	4428
904.038	4421
904.156	4322
904.274	4432
904.392	4451
904.51	4417
904.627	4470
904.745	4573
904.863	4622
904.981	4428
905.098	4352
905.216	4386
905.334	4432
905.451	4474
905.569	4436
905.686	4538
905.803	4588
905.921	4428
906.038	4588
906.155	4512
906.272	4402
906.389	4421
906.506	4379
906.623	4352
906.74	4367
906.857	4329
906.974	4371
907.091	4558
907.208	4691
907.324	4634
907.441	4478
907.557	4356
907.674	4356
907.79	4337
907.907	4383
908.023	4523
908.139	4478
908.256	4436
908.372	4485
908.488	4470
908.604	4348
908.72	4318
908.836	4428
908.952	4394
909.068	4428
909.184	4558
909.3	4489
909.415	4569
909.531	4546
909.647	4386
909.762	4371
909.878	4367
909.993	4409
910.108	4413
910.224	4394
910.339	4504
910.454	4451
910.57	4390
910.685	4318
910.8	4645
910.915	4641
911.03	4470
911.145	4329
911.259	4341
911.374	4394
911.489	4333
911.604	4268
911.718	4173
911.833	4238
911.947	4090
912.062	4048
912.176	4177
912.291	4234
912.405	4291
912.519	4519
912.633	4497
912.748	4398
912.862	4341
912.976	4173
913.09	4078
913.204	4139
913.318	4276
913.431	4360
913.545	4421
913.659	4462
913.772	4379
913.886	4268
914	4215
914.113	4360
914.226	4443
914.34	4432
914.453	4238
914.566	4405
914.68	4322
914.793	4306
914.906	4192
915.019	4131
915.132	4067
915.245	4211
915.358	4242
915.47	4238
915.583	4268
915.696	4303
915.809	4360
915.921	4443
916.034	4318
916.146	4242
916.259	4234
916.371	4363
916.483	4379
916.595	4242
916.708	4314
916.82	4306
916.932	4356
917.044	4318
917.156	4344
917.268	4238
917.38	4318
917.491	4299
917.603	4325
917.715	4402
917.826	4421
917.938	4329
918.049	4242
918.161	4436
918.272	4550
918.384	4512
918.495	4470
918.606	4318
918.717	4253
918.828	4287
918.939	4398
919.05	4284
919.161	4333
919.272	4158
919.383	4299
919.494	4428
919.604	4630
919.715	4398
919.826	4333
919.936	4398
920.047	4546
920.157	4497
920.267	4698
920.378	4558
920.488	4531
920.598	4710
920.708	4915
920.818	4714
920.928	4767
921.038	4953
921.148	4938
921.258	4630
921.368	4580
921.477	4512
921.587	4428
921.697	4363
921.806	4485
921.916	4421
922.025	4306
922.134	4268
922.244	4246
922.353	4306
922.462	4173
922.571	4207
922.68	4029
922.789	3941
922.898	4013
923.007	3991
923.116	4097
923.224	4021
923.333	4055
923.442	4013
923.55	3972
923.659	4017
923.767	4105
923.876	4002
923.984	4112
924.092	3956
924.201	4078
924.309	4120
924.417	4109
924.525	4051
924.633	4101
924.741	4987
924.849	3975
924.956	4185
925.064	3998
925.172	3884
925.279	3930
925.387	4055
925.494	4059
925.602	4215
925.709	4257
925.816	4036
925.924	4131
926.031	4177
926.138	4166
926.245	4196
926.352	4086
926.459	4230
926.566	4291
926.673	4135
926.779	4059
926.886	4074
926.993	3972
927.099	3941
927.206	3937
927.312	3979
927.419	4044
927.525	4010
927.631	4139
927.737	3968
927.843	3964
927.95	3861
928.056	4002
928.162	4002
928.267	4048
928.373	4584
928.479	4131
928.585	3869
928.69	4048
928.796	4051
928.901	3949
929.007	3857
929.112	3998
929.218	4006
929.323	3945
929.428	3983
929.533	4093
929.638	3922
929.743	3960
929.848	4002
929.953	4006
930.058	3911
930.163	3800
930.267	3793
930.372	3949
930.477	3793
930.581	4143
930.685	3979
930.79	3808
930.894	3876
930.998	3808
931.103	4048
931.207	3720
931.311	3701
931.415	3698
931.519	3519
931.623	3549
