Data from test_V78500241_511.txt Node
Date: Fri Mar 25 16:52:33 CST 2022
User: usil
Spectrometer: V785-0024
Trigger mode: 0
Integration Time (sec): 4.000000E-1
Scans to average: 1
Nonlinearity correction enabled: false
Boxcar width: 0
Storing dark spectrum: false
XAxis mode: Wavelengths
Number of Pixels in Spectrum: 1024
>>>>>Begin Spectral Data<<<<<
801.071	7986
801.214	7959
801.356	7883
801.499	7868
801.641	7822
801.783	7875
801.926	7963
802.068	8084
802.211	7989
802.353	8024
802.496	7879
802.638	7818
802.78	7959
802.923	7894
803.065	7803
803.208	7822
803.35	7970
803.492	7993
803.635	8183
803.777	8027
803.919	8149
804.061	8396
804.204	8153
804.346	7974
804.488	7955
804.63	7993
804.773	7963
804.915	8092
805.057	8275
805.199	8081
805.341	8153
805.483	8275
805.626	8225
805.768	8012
805.91	8058
806.052	8149
806.194	8073
806.336	8252
806.478	8126
806.62	8077
806.762	8183
806.904	8187
807.046	8355
807.188	8305
807.33	8191
807.472	8248
807.614	8183
807.756	8126
807.898	7986
808.04	7807
808.182	7913
808.324	7917
808.465	7871
808.607	8027
808.749	8107
808.891	8195
809.033	8229
809.174	8176
809.316	8039
809.458	8020
809.6	7921
809.741	8012
809.883	8031
810.025	8138
810.166	8027
810.308	7989
810.45	7967
810.591	7818
810.733	7708
810.875	7639
811.016	7556
811.158	7487
811.299	7636
811.441	7769
811.582	7731
811.724	7544
811.865	7567
812.007	7616
812.148	7594
812.29	7567
812.431	7677
812.573	7894
812.714	7921
812.855	8092
812.997	8313
813.138	8339
813.279	8202
813.421	8153
813.562	8016
813.703	7909
813.845	7822
813.986	7499
814.127	7331
814.268	7274
814.41	7278
814.551	7141
814.692	7110
814.833	7088
814.974	7099
815.115	7095
815.256	6989
815.397	6878
815.539	6985
815.68	6875
815.821	6776
815.962	6878
816.103	6863
816.244	6734
816.385	6669
816.526	6547
816.666	6464
816.807	6315
816.948	6494
817.089	6475
817.23	6429
817.371	6365
817.512	6384
817.653	6410
817.793	6350
817.934	6369
818.075	6414
818.216	6422
818.356	6407
818.497	6235
818.638	6106
818.778	6194
818.919	6133
819.06	6091
819.2	6220
819.341	6292
819.481	6292
819.622	6521
819.762	6741
819.903	6654
820.043	6585
820.184	6555
820.324	6498
820.465	6658
820.605	6650
820.746	6639
820.886	6441
821.026	6654
821.167	6734
821.307	6734
821.447	6779
821.588	6662
821.728	6536
821.868	6448
822.008	6323
822.149	6338
822.289	6361
822.429	6163
822.569	6102
822.709	6133
822.849	5935
822.99	5912
823.13	5950
823.27	5863
823.41	5809
823.55	5767
823.69	5767
823.83	5779
823.97	5688
824.11	5570
824.25	5570
824.389	5608
824.529	5554
824.669	5611
824.809	5676
824.949	5684
825.089	5646
825.228	5573
825.368	5425
825.508	5448
825.648	5353
825.787	5417
825.927	5383
826.067	5372
826.206	5357
826.346	5417
826.485	5414
826.625	5452
826.765	5611
826.904	5551
827.044	5273
827.183	5246
827.323	5204
827.462	5284
827.601	5147
827.741	5212
827.88	5273
828.02	5204
828.159	5261
828.298	5334
828.437	5459
828.577	5303
828.716	5532
828.855	5357
828.994	5223
829.134	5220
829.273	5204
829.412	5162
829.551	5239
829.69	5151
829.829	5242
829.968	5395
830.107	5284
830.246	5326
830.385	5181
830.524	5174
830.663	5098
830.802	5014
830.941	4930
831.08	4946
831.219	5018
831.357	5022
831.496	5201
831.635	4995
831.774	4915
831.913	4870
832.051	4801
832.19	4767
832.329	4900
832.467	4752
832.606	4694
832.744	4790
832.883	4710
833.022	4793
833.16	4850
833.299	4828
833.437	4820
833.576	4877
833.714	4900
833.852	4923
833.991	4896
834.129	4980
834.267	5037
834.406	4908
834.544	5010
834.682	5010
834.821	5003
834.959	5212
835.097	5041
835.235	5113
835.373	5105
835.511	5136
835.65	5041
835.788	5083
835.926	4911
836.064	4877
836.202	4911
836.34	5189
836.478	5246
836.615	5124
836.753	5250
836.891	5315
837.029	5250
837.167	5277
837.305	5208
837.443	5170
837.58	5128
837.718	5277
837.856	5220
837.993	5178
838.131	5246
838.269	5280
838.406	5235
838.544	5231
838.681	5098
838.819	5052
838.956	4919
839.094	4885
839.231	5025
839.369	5094
839.506	5433
839.643	5296
839.781	5090
839.918	5025
840.055	5155
840.193	5102
840.33	5147
840.467	5166
840.604	5208
840.742	5455
840.879	5124
841.016	5094
841.153	5178
841.29	5387
841.427	5360
841.564	5391
841.701	5330
841.838	5254
841.975	5269
842.112	5269
842.249	5204
842.385	5151
842.522	5296
842.659	5201
842.796	5185
842.933	5189
843.069	5189
843.206	5181
843.343	5353
843.479	5239
843.616	5269
843.752	5105
843.889	5033
844.025	5239
844.162	5052
844.298	5273
844.435	5109
844.571	5056
844.708	5261
844.844	5345
844.98	5357
845.117	5353
845.253	5166
845.389	5132
845.525	5162
845.661	5105
845.798	5056
845.934	5197
846.07	5079
846.206	5201
846.342	5318
846.478	5201
846.614	5132
846.75	5003
846.886	4999
847.022	5124
847.158	5060
847.294	5136
847.429	5147
847.565	5067
847.701	5334
847.837	4908
847.972	4881
848.108	4965
848.244	4976
848.379	4839
848.515	4805
848.65	4729
848.786	4744
848.921	4805
849.057	4881
849.192	4904
849.328	4862
849.463	4877
849.598	4831
849.734	4786
849.869	4687
850.004	4687
850.14	4725
850.275	4649
850.41	4580
850.545	4577
850.68	4577
850.815	4645
850.95	4706
851.085	4854
851.22	4801
851.355	4706
851.49	4679
851.625	4672
851.76	4687
851.895	4607
852.03	4580
852.165	4702
852.299	4759
852.434	4805
852.569	4828
852.703	4759
852.838	4847
852.973	4949
853.107	4934
853.242	4771
853.376	4698
853.511	4569
853.645	4675
853.78	4847
853.914	4748
854.048	4668
854.183	4683
854.317	4714
854.451	4873
854.585	4710
854.72	4744
854.854	4782
854.988	4626
855.122	4645
855.256	4569
855.39	4717
855.524	4790
855.658	4744
855.792	4702
855.926	4771
856.06	4793
856.194	4812
856.327	4725
856.461	4634
856.595	4645
856.729	4653
856.862	4812
856.996	4679
857.13	4691
857.263	4755
857.397	4858
857.53	4683
857.664	4771
857.797	4752
857.931	4809
858.064	4717
858.197	4824
858.331	4660
858.464	4626
858.597	4592
858.731	4660
858.864	4714
858.997	4653
859.13	4717
859.263	4714
859.396	4710
859.529	4565
859.662	4611
859.795	4569
859.928	4668
860.061	4774
860.194	4828
860.327	4649
860.46	4611
860.592	4748
860.725	4748
860.858	4759
860.99	4588
861.123	4519
861.256	4542
861.388	4611
861.521	5425
861.653	4493
861.786	4443
861.918	4462
862.05	4523
862.183	4588
862.315	4664
862.447	4702
862.58	4546
862.712	4413
862.844	4344
862.976	4493
863.108	4436
863.24	4930
863.372	4390
863.504	4462
863.636	4432
863.768	4500
863.9	4489
864.032	4409
864.164	4478
864.296	4508
864.428	4561
864.559	4580
864.691	4584
864.823	4519
864.954	4558
865.086	4535
865.217	4508
865.349	4497
865.48	4497
865.612	4516
865.743	4668
865.875	4481
866.006	4447
866.137	4481
866.269	4519
866.4	4474
866.531	4440
866.662	4489
866.793	4432
866.924	4440
867.055	4519
867.186	4462
867.317	4402
867.448	4413
867.579	4413
867.71	4440
867.841	4405
867.972	4516
868.103	4538
868.233	4478
868.364	4512
868.495	4504
868.625	4664
868.756	4725
868.886	4573
869.017	4672
869.147	4797
869.278	4801
869.408	4691
869.539	4645
869.669	4691
869.799	4683
869.929	4774
870.06	4733
870.19	4972
870.32	4987
870.45	5003
870.58	4987
870.71	5128
870.84	5109
870.97	4999
871.1	4938
871.23	5189
871.36	5143
871.489	5052
871.619	5060
871.749	5132
871.879	5140
872.008	5227
872.138	5113
872.267	4984
872.397	4911
872.526	4816
872.656	4767
872.785	4786
872.915	5022
873.044	5071
873.173	4984
873.303	5033
873.432	4972
873.561	4976
873.69	4915
873.819	4877
873.948	4957
874.077	4797
874.206	4805
874.335	4862
874.464	4976
874.593	5064
874.722	4953
874.851	5094
874.979	5083
875.108	5014
875.237	4946
875.365	4927
875.494	4908
875.623	4991
875.751	4885
875.88	4831
876.008	5006
876.136	5033
876.265	5227
876.393	5372
876.521	5235
876.65	5204
876.778	5201
876.906	5083
877.034	5067
877.162	5003
877.29	5029
877.418	5128
877.546	5094
877.674	5037
877.802	5022
877.93	5048
878.058	4976
878.185	4835
878.313	4987
878.441	4938
878.568	4790
878.696	4934
878.824	4968
878.951	5006
879.079	5117
879.206	5273
879.333	5105
879.461	5067
879.588	5048
879.715	5159
879.842	5254
879.97	5041
880.097	4850
880.224	4763
880.351	4828
880.478	4820
880.605	4828
880.732	4828
880.859	5155
880.986	4949
881.112	4961
881.239	4797
881.366	4679
881.493	4672
881.619	4603
881.746	4683
881.872	4649
881.999	4664
882.125	4687
882.252	4839
882.378	4900
882.505	4972
882.631	4797
882.757	4691
882.883	4710
883.01	4771
883.136	4691
883.262	4641
883.388	4653
883.514	4839
883.64	4892
883.766	4820
883.892	4687
884.018	4729
884.143	4881
884.269	5029
884.395	4774
884.52	4649
884.646	4664
884.772	4584
884.897	4592
885.023	4649
885.148	4793
885.274	4923
885.399	4835
885.524	4744
885.65	4759
885.775	4744
885.9	4805
886.025	4873
886.15	4778
886.275	4702
886.4	4694
886.525	4710
886.65	4694
886.775	4725
886.9	4927
887.025	5102
887.149	4793
887.274	4645
887.399	4607
887.523	4618
887.648	4607
887.773	4592
887.897	4755
888.021	4820
888.146	4691
888.27	4850
888.395	4957
888.519	4816
888.643	4847
888.767	4889
888.891	4717
889.015	4580
889.139	4672
889.263	4687
889.387	4755
889.511	4862
889.635	4824
889.759	4630
889.883	4649
890.006	4782
890.13	4820
890.254	4656
890.377	4714
890.501	4546
890.624	4546
890.748	4630
890.871	4527
890.995	4462
891.118	4409
891.241	4546
891.364	4550
891.488	4710
891.611	4500
891.734	4542
891.857	4649
891.98	4599
892.103	4637
892.226	4558
892.349	4542
892.471	4356
892.594	4550
892.717	4637
892.839	4626
892.962	4611
893.085	4733
893.207	4634
893.33	4489
893.452	4516
893.575	4744
893.697	4580
893.819	4774
893.941	4809
894.064	4778
894.186	4592
894.308	4664
894.43	4767
894.552	4828
894.674	4793
894.796	4546
894.918	4596
895.04	4565
895.161	4714
895.283	4710
895.405	4603
895.526	4649
895.648	4748
895.769	4729
895.891	4694
896.012	4812
896.134	4717
896.255	4683
896.376	4603
896.498	4626
896.619	4706
896.74	4637
896.861	4668
896.982	4968
897.103	5067
897.224	4831
897.345	4767
897.466	4702
897.587	4733
897.708	4885
897.828	4820
897.949	4675
898.07	4607
898.19	4649
898.311	4843
898.431	4729
898.552	4733
898.672	4858
898.792	4843
898.913	4786
899.033	4656
899.153	4519
899.273	4424
899.393	4523
899.513	4546
899.633	4558
899.753	4577
899.873	4538
899.993	4641
900.113	4554
900.232	4592
900.352	4504
900.472	4516
900.591	4447
900.711	4497
900.83	4443
900.95	4611
901.069	4664
901.189	4542
901.308	4386
901.427	4341
901.546	4363
901.665	4493
901.784	4569
901.904	4417
902.023	4344
902.141	4253
902.26	4200
902.379	4329
902.498	4238
902.617	4253
902.735	4371
902.854	4421
902.973	4405
903.091	4219
903.21	4223
903.328	4295
903.446	4299
903.565	4284
903.683	4310
903.801	4310
903.919	4402
904.038	4459
904.156	4344
904.274	4455
904.392	4409
904.51	4470
904.627	4485
904.745	4592
904.863	4683
904.981	4402
905.098	4329
905.216	4436
905.334	4447
905.451	4459
905.569	4489
905.686	4607
905.803	4641
905.921	4436
906.038	4618
906.155	4508
906.272	4436
906.389	4466
906.506	4367
906.623	4417
906.74	4398
906.857	4306
906.974	4390
907.091	4615
907.208	4702
907.324	4584
907.441	4538
907.557	4341
907.674	4398
907.79	4314
907.907	4379
908.023	4535
908.139	4493
908.256	4447
908.372	4527
908.488	4459
908.604	4390
908.72	4295
908.836	4367
908.952	4356
909.068	4440
909.184	4611
909.3	4504
909.415	4607
909.531	4558
909.647	4356
909.762	4394
909.878	4379
909.993	4466
910.108	4470
910.224	4455
910.339	4493
910.454	4413
910.57	4367
910.685	4329
910.8	4714
910.915	4599
911.03	4500
911.145	4360
911.259	4360
911.374	4348
911.489	4310
911.604	4291
911.718	4223
911.833	4185
911.947	4082
912.062	4082
912.176	4188
912.291	4272
912.405	4227
912.519	4497
912.633	4489
912.748	4333
912.862	4329
912.976	4173
913.09	4158
913.204	4166
913.318	4268
913.431	4390
913.545	4329
913.659	4474
913.772	4379
913.886	4280
914	4265
914.113	4383
914.226	4417
914.34	4405
914.453	4242
914.566	4443
914.68	4303
914.793	4375
914.906	4188
915.019	4139
915.132	4086
915.245	4207
915.358	4223
915.47	4261
915.583	4276
915.696	4306
915.809	4447
915.921	4455
916.034	4310
916.146	4257
916.259	4215
916.371	4360
916.483	4383
916.595	4280
916.708	4386
916.82	4379
916.932	4344
917.044	4314
917.156	4303
917.268	4272
917.38	4287
917.491	4261
917.603	4318
917.715	4428
917.826	4436
917.938	4348
918.049	4223
918.161	4390
918.272	4554
918.384	4512
918.495	4432
918.606	4306
918.717	4227
918.828	4303
918.939	4379
919.05	4227
919.161	4291
919.272	4158
919.383	4249
919.494	4504
919.604	4584
919.715	4424
919.826	4310
919.936	4424
920.047	4527
920.157	4481
920.267	4679
920.378	4538
920.488	4497
920.598	4748
920.708	4843
920.818	4759
920.928	4752
921.038	4999
921.148	4900
921.258	4626
921.368	4607
921.477	4470
921.587	4474
921.697	4390
921.806	4550
921.916	4451
922.025	4295
922.134	4291
922.244	4223
922.353	4352
922.462	4169
922.571	4192
922.68	3998
922.789	4017
922.898	4055
923.007	4013
923.116	4097
923.224	4097
923.333	4112
923.442	3983
923.55	3949
923.659	4048
923.767	4128
923.876	3994
923.984	4162
924.092	3979
924.201	4044
924.309	4112
924.417	4105
924.525	4067
924.633	4105
924.741	5060
924.849	3968
924.956	4169
925.064	3956
925.172	3873
925.279	3972
925.387	4063
925.494	4063
925.602	4204
925.709	4188
925.816	4086
925.924	4135
926.031	4215
926.138	4154
926.245	4272
926.352	4112
926.459	4280
926.566	4344
926.673	4173
926.779	4071
926.886	4124
926.993	3960
927.099	3968
927.206	3937
927.312	3945
927.419	4036
927.525	4071
927.631	4067
927.737	3972
927.843	3949
927.95	3835
928.056	3975
928.162	3975
928.267	4097
928.373	4733
928.479	4109
928.585	3888
928.69	4036
928.796	4093
928.901	3968
929.007	3857
929.112	3991
929.218	4013
929.323	3937
929.428	3941
929.533	4154
929.638	3911
929.743	3964
929.848	4044
929.953	4002
930.058	3892
930.163	3751
930.267	3857
930.372	3991
930.477	3827
930.581	4071
930.685	3972
930.79	3823
930.894	3884
930.998	3838
931.103	4048
931.207	3740
931.311	3705
931.415	3675
931.519	3507
931.623	3580
