Data from test_V78500241_2536.txt Node
Date: Fri Mar 25 17:06:38 CST 2022
User: usil
Spectrometer: V785-0024
Trigger mode: 0
Integration Time (sec): 4.000000E-1
Scans to average: 1
Nonlinearity correction enabled: false
Boxcar width: 0
Storing dark spectrum: false
XAxis mode: Wavelengths
Number of Pixels in Spectrum: 1024
>>>>>Begin Spectral Data<<<<<
801.071	7967
801.214	8008
801.356	7856
801.499	7879
801.641	7742
801.783	7814
801.926	7978
802.068	7894
802.211	7997
802.353	7963
802.496	7845
802.638	7879
802.78	7913
802.923	7887
803.065	7875
803.208	7864
803.35	7955
803.492	8088
803.635	8176
803.777	8043
803.919	8176
804.061	8389
804.204	8130
804.346	8008
804.488	7940
804.63	8107
804.773	7974
804.915	8062
805.057	8237
805.199	8161
805.341	8248
805.483	8267
805.626	8225
805.768	8077
805.91	8191
806.052	8221
806.194	8062
806.336	8286
806.478	8126
806.62	8039
806.762	8096
806.904	8282
807.046	8381
807.188	8309
807.33	8393
807.472	8275
807.614	8081
807.756	8138
807.898	8092
808.04	7871
808.182	7917
808.324	7837
808.465	7871
808.607	8123
808.749	8077
808.891	8210
809.033	8320
809.174	8191
809.316	8046
809.458	8077
809.6	8043
809.741	8062
809.883	8012
810.025	8069
810.166	8081
810.308	7997
810.45	7940
810.591	7879
810.733	7753
810.875	7712
811.016	7544
811.158	7495
811.299	7552
811.441	7734
811.582	7715
811.724	7575
811.865	7582
812.007	7578
812.148	7578
812.29	7628
812.431	7723
812.573	7883
812.714	7940
812.855	8145
812.997	8191
813.138	8313
813.279	8142
813.421	8058
813.562	7974
813.703	7811
813.845	7780
813.986	7403
814.127	7244
814.268	7164
814.41	7183
814.551	7187
814.692	7175
814.833	7084
814.974	7129
815.115	7171
815.256	6939
815.397	6909
815.539	6939
815.68	6863
815.821	6787
815.962	6871
816.103	6798
816.244	6719
816.385	6585
816.526	6620
816.666	6536
816.807	6308
816.948	6410
817.089	6528
817.23	6422
817.371	6410
817.512	6437
817.653	6426
817.793	6342
817.934	6384
818.075	6445
818.216	6448
818.356	6448
818.497	6254
818.638	6186
818.778	6110
818.919	6155
819.06	6083
819.2	6346
819.341	6308
819.481	6395
819.622	6563
819.762	6776
819.903	6707
820.043	6639
820.184	6604
820.324	6566
820.465	6642
820.605	6707
820.746	6696
820.886	6479
821.026	6650
821.167	6818
821.307	6798
821.447	6840
821.588	6711
821.728	6578
821.868	6517
822.008	6292
822.149	6422
822.289	6410
822.429	6209
822.569	6129
822.709	6148
822.849	5935
822.99	5885
823.13	5935
823.27	5969
823.41	5840
823.55	5805
823.69	5783
823.83	5790
823.97	5722
824.11	5596
824.25	5459
824.389	5592
824.529	5547
824.669	5532
824.809	5608
824.949	5676
825.089	5589
825.228	5577
825.368	5402
825.508	5368
825.648	5345
825.787	5391
825.927	5353
826.067	5311
826.206	5280
826.346	5383
826.485	5353
826.625	5391
826.765	5554
826.904	5452
827.044	5277
827.183	5212
827.323	5113
827.462	5189
827.601	5170
827.741	5159
827.88	5170
828.02	5098
828.159	5223
828.298	5299
828.437	5353
828.577	5284
828.716	5440
828.855	5357
828.994	5143
829.134	5132
829.273	5128
829.412	5124
829.551	5132
829.69	5147
829.829	5204
829.968	5376
830.107	5239
830.246	5246
830.385	5197
830.524	5159
830.663	5124
830.802	4991
830.941	4854
831.08	4938
831.219	5006
831.357	4957
831.496	5105
831.635	4908
831.774	4858
831.913	4877
832.051	4729
832.19	4755
832.329	4828
832.467	4717
832.606	4592
832.744	4748
832.883	4721
833.022	4774
833.16	4736
833.299	4831
833.437	4820
833.576	4839
833.714	4885
833.852	4896
833.991	4927
834.129	4911
834.267	4942
834.406	4889
834.544	4942
834.682	4991
834.821	4972
834.959	5159
835.097	5037
835.235	5109
835.373	5094
835.511	5086
835.65	4987
835.788	4984
835.926	4896
836.064	4839
836.202	4904
836.34	5208
836.478	5223
836.615	5151
836.753	5223
836.891	5284
837.029	5265
837.167	5231
837.305	5159
837.443	5143
837.58	5064
837.718	5223
837.856	5174
837.993	5147
838.131	5258
838.269	5227
838.406	5201
838.544	5201
838.681	5041
838.819	5041
838.956	4911
839.094	4873
839.231	4972
839.369	5147
839.506	5368
839.643	5307
839.781	5056
839.918	4991
840.055	5083
840.193	5147
840.33	5124
840.467	5166
840.604	5174
840.742	5414
840.879	5067
841.016	5079
841.153	5143
841.29	5318
841.427	5360
841.564	5292
841.701	5417
841.838	5265
841.975	5227
842.112	5299
842.249	5094
842.385	5083
842.522	5280
842.659	5124
842.796	5155
842.933	5239
843.069	5067
843.206	5151
843.343	5284
843.479	5212
843.616	5208
843.752	4995
843.889	4953
844.025	5136
844.162	5033
844.298	5204
844.435	5056
844.571	5071
844.708	5258
844.844	5288
844.98	5376
845.117	5242
845.253	5166
845.389	5056
845.525	5109
845.661	5056
845.798	5086
845.934	5132
846.07	5025
846.206	5201
846.342	5280
846.478	5162
846.614	5014
846.75	4984
846.886	4919
847.022	5136
847.158	4972
847.294	5041
847.429	5109
847.565	5045
847.701	5242
847.837	4892
847.972	4801
848.108	4968
848.244	4942
848.379	4748
848.515	4736
848.65	4683
848.786	4706
848.921	4740
849.057	4881
849.192	4946
849.328	4839
849.463	4870
849.598	4820
849.734	4786
849.869	4675
850.004	4618
850.14	4664
850.275	4596
850.41	4527
850.545	4538
850.68	4596
850.815	4603
850.95	4683
851.085	4809
851.22	4748
851.355	4656
851.49	4622
851.625	4618
851.76	4637
851.895	4538
852.03	4546
852.165	4637
852.299	4706
852.434	4763
852.569	4729
852.703	4767
852.838	4839
852.973	4839
853.107	4908
853.242	4740
853.376	4672
853.511	4561
853.645	4580
853.78	4812
853.914	4710
854.048	4694
854.183	4645
854.317	4656
854.451	4854
854.585	4634
854.72	4641
854.854	4759
854.988	4603
855.122	4626
855.256	4493
855.39	4634
855.524	4793
855.658	4752
855.792	4763
855.926	4736
856.06	4733
856.194	4759
856.327	4691
856.461	4618
856.595	4584
856.729	4634
856.862	4733
856.996	4702
857.13	4767
857.263	4721
857.397	4797
857.53	4611
857.664	4698
857.797	4801
857.931	4752
858.064	4649
858.197	4725
858.331	4687
858.464	4630
858.597	4546
858.731	4641
858.864	4573
858.997	4569
859.13	4660
859.263	4649
859.396	4714
859.529	4599
859.662	4565
859.795	4504
859.928	4577
860.061	4744
860.194	4786
860.327	4607
860.46	4535
860.592	4698
860.725	4710
860.858	4694
860.99	4546
861.123	4493
861.256	4523
861.388	4554
861.521	5208
861.653	4504
861.786	4436
861.918	4432
862.05	4455
862.183	4531
862.315	4596
862.447	4607
862.58	4542
862.712	4424
862.844	4337
862.976	4500
863.108	4424
863.24	4755
863.372	4329
863.504	4466
863.636	4390
863.768	4440
863.9	4459
864.032	4383
864.164	4375
864.296	4493
864.428	4546
864.559	4565
864.691	4512
864.823	4489
864.954	4478
865.086	4516
865.217	4432
865.349	4405
865.48	4447
865.612	4546
865.743	4645
865.875	4466
866.006	4417
866.137	4455
866.269	4424
866.4	4485
866.531	4481
866.662	4390
866.793	4394
866.924	4417
867.055	4493
867.186	4447
867.317	4424
867.448	4352
867.579	4417
867.71	4375
867.841	4356
867.972	4478
868.103	4474
868.233	4451
868.364	4428
868.495	4447
868.625	4630
868.756	4725
868.886	4546
869.017	4599
869.147	4759
869.278	4774
869.408	4656
869.539	4656
869.669	4668
869.799	4634
869.929	4767
870.06	4706
870.19	4896
870.32	4923
870.45	4953
870.58	4987
870.71	5162
870.84	5086
870.97	4911
871.1	4885
871.23	5128
871.36	5132
871.489	5014
871.619	5075
871.749	5094
871.879	5105
872.008	5151
872.138	5056
872.267	4976
872.397	4824
872.526	4797
872.656	4725
872.785	4793
872.915	4908
873.044	5048
873.173	4942
873.303	4953
873.432	4942
873.561	4946
873.69	4911
873.819	4858
873.948	4850
874.077	4835
874.206	4710
874.335	4801
874.464	4904
874.593	5086
874.722	5010
874.851	5071
874.979	5056
875.108	5052
875.237	4904
875.365	4904
875.494	4870
875.623	4972
875.751	4835
875.88	4904
876.008	5018
876.136	5037
876.265	5239
876.393	5318
876.521	5269
876.65	5242
876.778	5121
876.906	5060
877.034	5045
877.162	5045
877.29	4961
877.418	5048
877.546	5033
877.674	5128
877.802	5071
877.93	5018
878.058	4957
878.185	4911
878.313	4885
878.441	4930
878.568	4786
878.696	4877
878.824	4968
878.951	5067
879.079	5102
879.206	5265
879.333	5105
879.461	4968
879.588	4995
879.715	5132
879.842	5212
879.97	5029
880.097	4748
880.224	4736
880.351	4774
880.478	4854
880.605	4801
880.732	4763
880.859	5075
880.986	4885
881.112	4858
881.239	4839
881.366	4634
881.493	4565
881.619	4588
881.746	4641
881.872	4668
881.999	4675
882.125	4660
882.252	4790
882.378	4862
882.505	4927
882.631	4786
882.757	4668
882.883	4679
883.01	4733
883.136	4615
883.262	4588
883.388	4592
883.514	4744
883.64	4835
883.766	4767
883.892	4691
884.018	4721
884.143	4885
884.269	5052
884.395	4679
884.52	4622
884.646	4664
884.772	4573
884.897	4546
885.023	4637
885.148	4786
885.274	4881
885.399	4759
885.524	4634
885.65	4706
885.775	4771
885.9	4679
886.025	4866
886.15	4782
886.275	4771
886.4	4653
886.525	4717
886.65	4691
886.775	4607
886.9	4892
887.025	5014
887.149	4790
887.274	4634
887.399	4561
887.523	4649
887.648	4569
887.773	4535
887.897	4740
888.021	4809
888.146	4660
888.27	4828
888.395	4873
888.519	4793
888.643	4850
888.767	4824
888.891	4717
889.015	4607
889.139	4645
889.263	4569
889.387	4733
889.511	4900
889.635	4790
889.759	4607
889.883	4641
890.006	4759
890.13	4801
890.254	4607
890.377	4660
890.501	4516
890.624	4470
890.748	4599
890.871	4508
890.995	4379
891.118	4386
891.241	4519
891.364	4580
891.488	4626
891.611	4489
891.734	4497
891.857	4599
891.98	4577
892.103	4637
892.226	4588
892.349	4504
892.471	4424
892.594	4542
892.717	4550
892.839	4584
892.962	4611
893.085	4691
893.207	4584
893.33	4421
893.452	4550
893.575	4634
893.697	4577
893.819	4786
893.941	4793
894.064	4736
894.186	4584
894.308	4516
894.43	4706
894.552	4774
894.674	4733
894.796	4516
894.918	4550
895.04	4519
895.161	4694
895.283	4615
895.405	4558
895.526	4622
895.648	4694
895.769	4679
895.891	4706
896.012	4702
896.134	4660
896.255	4675
896.376	4656
896.498	4592
896.619	4603
896.74	4580
896.861	4649
896.982	4858
897.103	5052
897.224	4786
897.345	4725
897.466	4656
897.587	4687
897.708	4854
897.828	4740
897.949	4660
898.07	4565
898.19	4653
898.311	4790
898.431	4687
898.552	4691
898.672	4790
898.792	4793
898.913	4717
899.033	4622
899.153	4470
899.273	4417
899.393	4470
899.513	4523
899.633	4523
899.753	4542
899.873	4542
899.993	4573
900.113	4512
900.232	4565
900.352	4565
900.472	4538
900.591	4417
900.711	4455
900.83	4424
900.95	4603
901.069	4687
901.189	4569
901.308	4367
901.427	4322
901.546	4379
901.665	4413
901.784	4535
901.904	4394
902.023	4352
902.141	4211
902.26	4204
902.379	4337
902.498	4276
902.617	4242
902.735	4394
902.854	4417
902.973	4371
903.091	4246
903.21	4249
903.328	4325
903.446	4303
903.565	4276
903.683	4341
903.801	4299
903.919	4432
904.038	4474
904.156	4367
904.274	4504
904.392	4428
904.51	4455
904.627	4489
904.745	4630
904.863	4630
904.981	4409
905.098	4306
905.216	4417
905.334	4531
905.451	4474
905.569	4485
905.686	4573
905.803	4603
905.921	4409
906.038	4599
906.155	4508
906.272	4432
906.389	4500
906.506	4363
906.623	4440
906.74	4409
906.857	4356
906.974	4394
907.091	4611
907.208	4694
907.324	4588
907.441	4531
907.557	4394
907.674	4375
907.79	4348
907.907	4398
908.023	4558
908.139	4569
908.256	4409
908.372	4519
908.488	4497
908.604	4402
908.72	4375
908.836	4459
908.952	4455
909.068	4428
909.184	4637
909.3	4489
909.415	4653
909.531	4573
909.647	4451
909.762	4409
909.878	4409
909.993	4462
910.108	4428
910.224	4383
910.339	4546
910.454	4424
910.57	4375
910.685	4341
910.8	4702
910.915	4641
911.03	4554
911.145	4379
911.259	4360
911.374	4409
911.489	4318
911.604	4314
911.718	4234
911.833	4276
911.947	4169
912.062	4086
912.176	4257
912.291	4246
912.405	4322
912.519	4485
912.633	4561
912.748	4379
912.862	4367
912.976	4223
913.09	4181
913.204	4215
913.318	4280
913.431	4432
913.545	4413
913.659	4455
913.772	4367
913.886	4268
914	4295
914.113	4394
914.226	4443
914.34	4417
914.453	4268
914.566	4428
914.68	4337
914.793	4386
914.906	4215
915.019	4162
915.132	4116
915.245	4215
915.358	4242
915.47	4276
915.583	4322
915.696	4318
915.809	4462
915.921	4474
916.034	4272
916.146	4299
916.259	4219
916.371	4417
916.483	4413
916.595	4329
916.708	4333
916.82	4379
916.932	4299
917.044	4360
917.156	4371
917.268	4253
917.38	4310
917.491	4280
917.603	4348
917.715	4405
917.826	4474
917.938	4344
918.049	4257
918.161	4443
918.272	4565
918.384	4565
918.495	4504
918.606	4352
918.717	4265
918.828	4344
918.939	4398
919.05	4280
919.161	4348
919.272	4181
919.383	4284
919.494	4497
919.604	4668
919.715	4462
919.826	4371
919.936	4413
920.047	4561
920.157	4474
920.267	4702
920.378	4550
920.488	4535
920.598	4759
920.708	4946
920.818	4820
920.928	4812
921.038	5006
921.148	4957
921.258	4649
921.368	4603
921.477	4573
921.587	4493
921.697	4383
921.806	4561
921.916	4512
922.025	4272
922.134	4284
922.244	4230
922.353	4360
922.462	4207
922.571	4166
922.68	4055
922.789	4029
922.898	4086
923.007	4010
923.116	4124
923.224	4082
923.333	4101
923.442	4002
923.55	4025
923.659	4059
923.767	4101
923.876	4048
923.984	4154
924.092	4029
924.201	4101
924.309	4086
924.417	4154
924.525	4051
924.633	4162
924.741	5067
924.849	3987
924.956	4154
925.064	3979
925.172	3903
925.279	3991
925.387	4051
925.494	4071
925.602	4242
925.709	4181
925.816	4059
925.924	4169
926.031	4219
926.138	4173
926.245	4242
926.352	4124
926.459	4280
926.566	4329
926.673	4204
926.779	4128
926.886	4116
926.993	4013
927.099	3956
927.206	3968
927.312	3964
927.419	4105
927.525	4032
927.631	4112
927.737	4013
927.843	3998
927.95	3861
928.056	3972
928.162	4025
928.267	4078
928.373	4596
928.479	4131
928.585	3941
928.69	4010
928.796	4120
928.901	4044
929.007	3850
929.112	4071
929.218	3968
929.323	4013
929.428	3964
929.533	4093
929.638	3915
929.743	3994
929.848	4017
929.953	4006
930.058	3964
930.163	3838
930.267	3892
930.372	4010
930.477	3861
930.581	4120
930.685	3991
930.79	3854
930.894	3907
930.998	3896
931.103	4071
931.207	3762
931.311	3728
931.415	3690
931.519	3545
931.623	3584
