Data from test_V78500241_2622.txt Node
Date: Fri Mar 25 17:07:14 CST 2022
User: usil
Spectrometer: V785-0024
Trigger mode: 0
Integration Time (sec): 4.000000E-1
Scans to average: 1
Nonlinearity correction enabled: false
Boxcar width: 0
Storing dark spectrum: false
XAxis mode: Wavelengths
Number of Pixels in Spectrum: 1024
>>>>>Begin Spectral Data<<<<<
801.071	7967
801.214	7982
801.356	7913
801.499	7856
801.641	7864
801.783	7814
801.926	7967
802.068	7997
802.211	8005
802.353	8031
802.496	7852
802.638	7864
802.78	7913
802.923	7883
803.065	7894
803.208	7856
803.35	8008
803.492	8084
803.635	8176
803.777	8008
803.919	8088
804.061	8442
804.204	8142
804.346	7986
804.488	7963
804.63	7997
804.773	8054
804.915	8092
805.057	8336
805.199	8161
805.341	8237
805.483	8267
805.626	8358
805.768	8149
805.91	8180
806.052	8218
806.194	8096
806.336	8256
806.478	7997
806.62	7997
806.762	8058
806.904	8252
807.046	8442
807.188	8381
807.33	8301
807.472	8240
807.614	8130
807.756	8123
807.898	7986
808.04	7841
808.182	7841
808.324	7868
808.465	7921
808.607	8073
808.749	8214
808.891	8229
809.033	8252
809.174	8187
809.316	7993
809.458	8039
809.6	7978
809.741	8005
809.883	8054
810.025	8092
810.166	8073
810.308	8065
810.45	7986
810.591	7795
810.733	7704
810.875	7658
811.016	7586
811.158	7476
811.299	7567
811.441	7715
811.582	7647
811.724	7521
811.865	7533
812.007	7620
812.148	7639
812.29	7693
812.431	7723
812.573	7807
812.714	7955
812.855	8096
812.997	8275
813.138	8377
813.279	8187
813.421	8126
813.562	7890
813.703	7864
813.845	7727
813.986	7453
814.127	7263
814.268	7228
814.41	7187
814.551	7149
814.692	7232
814.833	7069
814.974	7160
815.115	7031
815.256	6996
815.397	6890
815.539	6901
815.68	6760
815.821	6772
815.962	6932
816.103	6829
816.244	6715
816.385	6612
816.526	6620
816.666	6475
816.807	6292
816.948	6407
817.089	6475
817.23	6422
817.371	6372
817.512	6407
817.653	6422
817.793	6319
817.934	6471
818.075	6521
818.216	6437
818.356	6376
818.497	6270
818.638	6140
818.778	6102
818.919	6121
819.06	6167
819.2	6346
819.341	6319
819.481	6414
819.622	6536
819.762	6783
819.903	6650
820.043	6623
820.184	6612
820.324	6578
820.465	6700
820.605	6692
820.746	6734
820.886	6509
821.026	6669
821.167	6707
821.307	6837
821.447	6738
821.588	6711
821.728	6608
821.868	6479
822.008	6334
822.149	6315
822.289	6372
822.429	6125
822.569	6076
822.709	6053
822.849	5844
822.99	5904
823.13	5973
823.27	5904
823.41	5840
823.55	5760
823.69	5840
823.83	5710
823.97	5642
824.11	5509
824.25	5524
824.389	5573
824.529	5627
824.669	5543
824.809	5600
824.949	5638
825.089	5619
825.228	5611
825.368	5433
825.508	5349
825.648	5315
825.787	5368
825.927	5410
826.067	5292
826.206	5288
826.346	5387
826.485	5421
826.625	5395
826.765	5501
826.904	5478
827.044	5258
827.183	5242
827.323	5170
827.462	5254
827.601	5197
827.741	5231
827.88	5246
828.02	5052
828.159	5242
828.298	5303
828.437	5417
828.577	5277
828.716	5467
828.855	5322
828.994	5185
829.134	5239
829.273	5258
829.412	5193
829.551	5155
829.69	5231
829.829	5303
829.968	5357
830.107	5258
830.246	5307
830.385	5208
830.524	5212
830.663	5102
830.802	5048
830.941	4904
831.08	4942
831.219	5029
831.357	5010
831.496	5204
831.635	4957
831.774	4870
831.913	4908
832.051	4816
832.19	4828
832.329	4892
832.467	4771
832.606	4664
832.744	4733
832.883	4820
833.022	4771
833.16	4854
833.299	4805
833.437	4885
833.576	4904
833.714	4923
833.852	4919
833.991	4923
834.129	4949
834.267	4980
834.406	4934
834.544	5022
834.682	5025
834.821	5003
834.959	5208
835.097	5048
835.235	5231
835.373	5147
835.511	5151
835.65	5113
835.788	5048
835.926	4949
836.064	4957
836.202	4946
836.34	5227
836.478	5292
836.615	5178
836.753	5269
836.891	5307
837.029	5296
837.167	5269
837.305	5235
837.443	5193
837.58	5105
837.718	5261
837.856	5174
837.993	5223
838.131	5299
838.269	5254
838.406	5246
838.544	5212
838.681	5098
838.819	5090
838.956	4961
839.094	4949
839.231	5025
839.369	5151
839.506	5452
839.643	5299
839.781	5128
839.918	5018
840.055	5136
840.193	5102
840.33	5159
840.467	5178
840.604	5185
840.742	5463
840.879	5090
841.016	5124
841.153	5212
841.29	5376
841.427	5353
841.564	5322
841.701	5448
841.838	5220
841.975	5258
842.112	5303
842.249	5136
842.385	5151
842.522	5353
842.659	5254
842.796	5159
842.933	5223
843.069	5193
843.206	5170
843.343	5379
843.479	5288
843.616	5349
843.752	5094
843.889	5048
844.025	5220
844.162	5037
844.298	5235
844.435	5086
844.571	5083
844.708	5216
844.844	5357
844.98	5357
845.117	5326
845.253	5185
845.389	5067
845.525	5223
845.661	5185
845.798	5060
845.934	5105
846.07	5083
846.206	5261
846.342	5311
846.478	5208
846.614	5029
846.75	5010
846.886	4965
847.022	5147
847.158	5086
847.294	5113
847.429	5132
847.565	5143
847.701	5337
847.837	4915
847.972	4873
848.108	4980
848.244	4980
848.379	4839
848.515	4767
848.65	4763
848.786	4774
848.921	4801
849.057	4858
849.192	4919
849.328	4843
849.463	4896
849.598	4828
849.734	4767
849.869	4748
850.004	4653
850.14	4691
850.275	4668
850.41	4596
850.545	4649
850.68	4687
850.815	4649
850.95	4683
851.085	4900
851.22	4793
851.355	4694
851.49	4672
851.625	4672
851.76	4706
851.895	4592
852.03	4500
852.165	4691
852.299	4736
852.434	4790
852.569	4782
852.703	4820
852.838	4889
852.973	4980
853.107	4938
853.242	4771
853.376	4729
853.511	4607
853.645	4675
853.78	4843
853.914	4691
854.048	4675
854.183	4675
854.317	4725
854.451	4915
854.585	4714
854.72	4679
854.854	4790
854.988	4634
855.122	4679
855.256	4554
855.39	4653
855.524	4858
855.658	4793
855.792	4698
855.926	4752
856.06	4744
856.194	4831
856.327	4774
856.461	4668
856.595	4607
856.729	4634
856.862	4774
856.996	4714
857.13	4744
857.263	4778
857.397	4866
857.53	4710
857.664	4752
857.797	4748
857.931	4831
858.064	4733
858.197	4752
858.331	4645
858.464	4645
858.597	4592
858.731	4679
858.864	4622
858.997	4630
859.13	4691
859.263	4668
859.396	4714
859.529	4664
859.662	4626
859.795	4558
859.928	4683
860.061	4828
860.194	4790
860.327	4618
860.46	4607
860.592	4736
860.725	4710
860.858	4714
860.99	4527
861.123	4603
861.256	4558
861.388	4637
861.521	5478
861.653	4489
861.786	4459
861.918	4500
862.05	4565
862.183	4580
862.315	4607
862.447	4679
862.58	4573
862.712	4451
862.844	4394
862.976	4516
863.108	4493
863.24	4721
863.372	4383
863.504	4409
863.636	4459
863.768	4481
863.9	4470
864.032	4413
864.164	4428
864.296	4527
864.428	4588
864.559	4588
864.691	4584
864.823	4538
864.954	4554
865.086	4565
865.217	4497
865.349	4405
865.48	4516
865.612	4527
865.743	4656
865.875	4493
866.006	4459
866.137	4447
866.269	4508
866.4	4489
866.531	4451
866.662	4421
866.793	4459
866.924	4432
867.055	4527
867.186	4481
867.317	4451
867.448	4402
867.579	4443
867.71	4352
867.841	4394
867.972	4493
868.103	4508
868.233	4512
868.364	4512
868.495	4554
868.625	4736
868.756	4774
868.886	4622
869.017	4656
869.147	4828
869.278	4790
869.408	4706
869.539	4622
869.669	4717
869.799	4672
869.929	4771
870.06	4771
870.19	4953
870.32	4919
870.45	4972
870.58	5022
870.71	5113
870.84	5159
870.97	4927
871.1	4908
871.23	5201
871.36	5151
871.489	5094
871.619	5075
871.749	5102
871.879	5140
872.008	5170
872.138	5033
872.267	4995
872.397	4854
872.526	4843
872.656	4782
872.785	4862
872.915	4949
873.044	5029
873.173	4976
873.303	4991
873.432	5003
873.561	4987
873.69	4877
873.819	4908
873.948	4892
874.077	4812
874.206	4801
874.335	4858
874.464	4980
874.593	5083
874.722	5014
874.851	5086
874.979	5029
875.108	5086
875.237	4915
875.365	4896
875.494	4877
875.623	4995
875.751	4877
875.88	4892
876.008	5010
876.136	5052
876.265	5239
876.393	5353
876.521	5311
876.65	5246
876.778	5201
876.906	5083
877.034	5071
877.162	5117
877.29	5029
877.418	5045
877.546	5060
877.674	5079
877.802	5045
877.93	5067
878.058	4938
878.185	4862
878.313	4995
878.441	4942
878.568	4812
878.696	4930
878.824	5025
878.951	4987
879.079	5121
879.206	5326
879.333	5109
879.461	5006
879.588	5006
879.715	5151
879.842	5250
879.97	4999
880.097	4862
880.224	4797
880.351	4831
880.478	4858
880.605	4812
880.732	4828
880.859	5083
880.986	4896
881.112	4927
881.239	4839
881.366	4748
881.493	4653
881.619	4626
881.746	4698
881.872	4675
881.999	4664
882.125	4679
882.252	4771
882.378	4862
882.505	4972
882.631	4767
882.757	4679
882.883	4752
883.01	4740
883.136	4702
883.262	4649
883.388	4660
883.514	4828
883.64	4900
883.766	4816
883.892	4683
884.018	4767
884.143	4908
884.269	5033
884.395	4744
884.52	4672
884.646	4637
884.772	4596
884.897	4577
885.023	4653
885.148	4771
885.274	4892
885.399	4786
885.524	4717
885.65	4706
885.775	4839
885.9	4717
886.025	4870
886.15	4805
886.275	4694
886.4	4694
886.525	4759
886.65	4759
886.775	4694
886.9	4892
887.025	5052
887.149	4809
887.274	4714
887.399	4637
887.523	4622
887.648	4577
887.773	4565
887.897	4736
888.021	4828
888.146	4649
888.27	4835
888.395	4927
888.519	4847
888.643	4870
888.767	4828
888.891	4706
889.015	4630
889.139	4653
889.263	4611
889.387	4721
889.511	4843
889.635	4782
889.759	4668
889.883	4641
890.006	4725
890.13	4862
890.254	4634
890.377	4679
890.501	4538
890.624	4554
890.748	4607
890.871	4531
890.995	4421
891.118	4352
891.241	4550
891.364	4531
891.488	4634
891.611	4546
891.734	4599
891.857	4626
891.98	4615
892.103	4656
892.226	4618
892.349	4550
892.471	4489
892.594	4588
892.717	4618
892.839	4596
892.962	4588
893.085	4637
893.207	4618
893.33	4512
893.452	4554
893.575	4694
893.697	4580
893.819	4767
893.941	4809
894.064	4752
894.186	4637
894.308	4577
894.43	4782
894.552	4809
894.674	4778
894.796	4577
894.918	4592
895.04	4618
895.161	4736
895.283	4649
895.405	4542
895.526	4660
895.648	4733
895.769	4748
895.891	4702
896.012	4774
896.134	4740
896.255	4675
896.376	4611
896.498	4622
896.619	4653
896.74	4607
896.861	4683
896.982	4938
897.103	5071
897.224	4839
897.345	4801
897.466	4679
897.587	4748
897.708	4858
897.828	4790
897.949	4660
898.07	4565
898.19	4710
898.311	4862
898.431	4679
898.552	4782
898.672	4828
898.792	4778
898.913	4774
899.033	4683
899.153	4531
899.273	4421
899.393	4497
899.513	4558
899.633	4516
899.753	4550
899.873	4580
899.993	4542
900.113	4527
900.232	4588
900.352	4569
900.472	4508
900.591	4428
900.711	4493
900.83	4459
900.95	4588
901.069	4706
901.189	4588
901.308	4344
901.427	4314
901.546	4375
901.665	4493
901.784	4569
901.904	4402
902.023	4386
902.141	4211
902.26	4150
902.379	4295
902.498	4333
902.617	4230
902.735	4405
902.854	4402
902.973	4383
903.091	4234
903.21	4261
903.328	4352
903.446	4325
903.565	4287
903.683	4394
903.801	4337
903.919	4481
904.038	4493
904.156	4398
904.274	4436
904.392	4451
904.51	4481
904.627	4523
904.745	4626
904.863	4694
904.981	4428
905.098	4310
905.216	4398
905.334	4493
905.451	4470
905.569	4447
905.686	4603
905.803	4611
905.921	4447
906.038	4573
906.155	4546
906.272	4432
906.389	4485
906.506	4409
906.623	4440
906.74	4440
906.857	4398
906.974	4390
907.091	4641
907.208	4748
907.324	4649
907.441	4592
907.557	4402
907.674	4417
907.79	4394
907.907	4447
908.023	4558
908.139	4516
908.256	4504
908.372	4535
908.488	4474
908.604	4417
908.72	4333
908.836	4421
908.952	4379
909.068	4470
909.184	4653
909.3	4500
909.415	4611
909.531	4577
909.647	4451
909.762	4402
909.878	4371
909.993	4470
910.108	4421
910.224	4443
910.339	4542
910.454	4443
910.57	4371
910.685	4360
910.8	4717
910.915	4653
911.03	4504
911.145	4394
911.259	4344
911.374	4478
911.489	4356
911.604	4325
911.718	4234
911.833	4238
911.947	4135
912.062	4055
912.176	4265
912.291	4318
912.405	4253
912.519	4519
912.633	4565
912.748	4379
912.862	4325
912.976	4257
913.09	4185
913.204	4234
913.318	4287
913.431	4413
913.545	4390
913.659	4497
913.772	4405
913.886	4265
914	4257
914.113	4383
914.226	4485
914.34	4424
914.453	4261
914.566	4493
914.68	4306
914.793	4356
914.906	4188
915.019	4124
915.132	4131
915.245	4223
915.358	4257
915.47	4249
915.583	4318
915.696	4337
915.809	4497
915.921	4443
916.034	4299
916.146	4295
916.259	4257
916.371	4428
916.483	4310
916.595	4318
916.708	4363
916.82	4352
916.932	4371
917.044	4322
917.156	4356
917.268	4291
917.38	4341
917.491	4341
917.603	4409
917.715	4436
917.826	4405
917.938	4367
918.049	4306
918.161	4398
918.272	4596
918.384	4535
918.495	4462
918.606	4322
918.717	4299
918.828	4371
918.939	4421
919.05	4306
919.161	4409
919.272	4162
919.383	4211
919.494	4508
919.604	4679
919.715	4428
919.826	4443
919.936	4447
920.047	4573
920.157	4569
920.267	4691
920.378	4596
920.488	4565
920.598	4763
920.708	4938
920.818	4809
920.928	4805
921.038	4995
921.148	4923
921.258	4664
921.368	4641
921.477	4489
921.587	4462
921.697	4363
921.806	4599
921.916	4516
922.025	4325
922.134	4329
922.244	4276
922.353	4379
922.462	4227
922.571	4200
922.68	4059
922.789	4032
922.898	4082
923.007	4032
923.116	4162
923.224	4097
923.333	4128
923.442	4086
923.55	4025
923.659	4036
923.767	4158
923.876	4010
923.984	4169
924.092	4021
924.201	4143
924.309	4150
924.417	4139
924.525	4074
924.633	4147
924.741	5079
924.849	4013
924.956	4169
925.064	3983
925.172	3975
925.279	3998
925.387	4051
925.494	4074
925.602	4253
925.709	4204
925.816	4071
925.924	4128
926.031	4261
926.138	4215
926.245	4215
926.352	4086
926.459	4322
926.566	4314
926.673	4215
926.779	4105
926.886	4131
926.993	4032
927.099	3964
927.206	3972
927.312	4002
927.419	4086
927.525	4086
927.631	4120
927.737	3953
927.843	3975
927.95	3918
928.056	3956
928.162	3998
928.267	4093
928.373	4641
928.479	4181
928.585	3953
928.69	4017
928.796	4128
928.901	3968
929.007	3907
929.112	4040
929.218	4013
929.323	3949
929.428	3975
929.533	4143
929.638	3968
929.743	3994
929.848	4086
929.953	4017
930.058	3972
930.163	3808
930.267	3869
930.372	3979
930.477	3888
930.581	4135
930.685	3975
930.79	3884
930.894	3903
930.998	3888
931.103	4074
931.207	3740
931.311	3793
931.415	3720
931.519	3523
931.623	3587
