Data from test_V78500241_193.txt Node
Date: Fri Mar 25 16:50:20 CST 2022
User: usil
Spectrometer: V785-0024
Trigger mode: 0
Integration Time (sec): 4.000000E-1
Scans to average: 1
Nonlinearity correction enabled: false
Boxcar width: 0
Storing dark spectrum: false
XAxis mode: Wavelengths
Number of Pixels in Spectrum: 1024
>>>>>Begin Spectral Data<<<<<
801.071	8031
801.214	7970
801.356	7875
801.499	7860
801.641	7868
801.783	7925
801.926	8050
802.068	7951
802.211	7997
802.353	7993
802.496	7871
802.638	7849
802.78	7978
802.923	7978
803.065	7871
803.208	7856
803.35	7955
803.492	8092
803.635	8145
803.777	8065
803.919	8058
804.061	8408
804.204	8134
804.346	8024
804.488	7963
804.63	8069
804.773	7978
804.915	8138
805.057	8320
805.199	8195
805.341	8218
805.483	8233
805.626	8180
805.768	8107
805.91	8119
806.052	8233
806.194	8062
806.336	8309
806.478	8054
806.62	8138
806.762	8092
806.904	8138
807.046	8442
807.188	8324
807.33	8286
807.472	8252
807.614	8168
807.756	8134
807.898	8046
808.04	7894
808.182	7875
808.324	7902
808.465	7947
808.607	8081
808.749	8115
808.891	8279
809.033	8282
809.174	8183
809.316	8065
809.458	8039
809.6	7967
809.741	8058
809.883	8001
810.025	8134
810.166	8088
810.308	8107
810.45	8065
810.591	7913
810.733	7757
810.875	7693
811.016	7571
811.158	7533
811.299	7643
811.441	7696
811.582	7784
811.724	7632
811.865	7578
812.007	7658
812.148	7655
812.29	7628
812.431	7807
812.573	7963
812.714	8062
812.855	8153
812.997	8240
813.138	8374
813.279	8267
813.421	8138
813.562	8058
813.703	7856
813.845	7723
813.986	7464
814.127	7244
814.268	7247
814.41	7247
814.551	7164
814.692	7225
814.833	7095
814.974	7126
815.115	7198
815.256	6947
815.397	6958
815.539	6943
815.68	6856
815.821	6810
815.962	6894
816.103	6791
816.244	6711
816.385	6692
816.526	6623
816.666	6525
816.807	6357
816.948	6479
817.089	6498
817.23	6418
817.371	6403
817.512	6429
817.653	6399
817.793	6399
817.934	6460
818.075	6456
818.216	6456
818.356	6376
818.497	6243
818.638	6148
818.778	6140
818.919	6148
819.06	6182
819.2	6292
819.341	6277
819.481	6346
819.622	6544
819.762	6734
819.903	6681
820.043	6642
820.184	6566
820.324	6650
820.465	6692
820.605	6665
820.746	6585
820.886	6433
821.026	6707
821.167	6772
821.307	6779
821.447	6753
821.588	6741
821.728	6642
821.868	6532
822.008	6376
822.149	6323
822.289	6296
822.429	6144
822.569	6057
822.709	6152
822.849	5923
822.99	5923
823.13	5946
823.27	5954
823.41	5817
823.55	5805
823.69	5805
823.83	5805
823.97	5608
824.11	5539
824.25	5482
824.389	5570
824.529	5688
824.669	5535
824.809	5600
824.949	5684
825.089	5653
825.228	5566
825.368	5376
825.508	5360
825.648	5387
825.787	5353
825.927	5387
826.067	5326
826.206	5273
826.346	5406
826.485	5421
826.625	5410
826.765	5528
826.904	5516
827.044	5292
827.183	5227
827.323	5147
827.462	5242
827.601	5162
827.741	5178
827.88	5212
828.02	5155
828.159	5250
828.298	5326
828.437	5379
828.577	5235
828.716	5520
828.855	5292
828.994	5151
829.134	5155
829.273	5208
829.412	5181
829.551	5147
829.69	5189
829.829	5315
829.968	5410
830.107	5296
830.246	5318
830.385	5216
830.524	5143
830.663	5143
830.802	4987
830.941	4892
831.08	4908
831.219	4995
831.357	5052
831.496	5193
831.635	4942
831.774	4900
831.913	4850
832.051	4710
832.19	4782
832.329	4870
832.467	4679
832.606	4656
832.744	4755
832.883	4740
833.022	4698
833.16	4812
833.299	4870
833.437	4820
833.576	4824
833.714	4873
833.852	4900
833.991	4904
834.129	4953
834.267	4900
834.406	4900
834.544	4999
834.682	4999
834.821	4991
834.959	5166
835.097	4976
835.235	5189
835.373	5090
835.511	5098
835.65	5048
835.788	5041
835.926	4911
836.064	4889
836.202	4938
836.34	5212
836.478	5250
836.615	5140
836.753	5250
836.891	5288
837.029	5288
837.167	5250
837.305	5162
837.443	5204
837.58	5045
837.718	5280
837.856	5155
837.993	5132
838.131	5296
838.269	5258
838.406	5265
838.544	5132
838.681	5079
838.819	5056
838.956	4843
839.094	4908
839.231	5006
839.369	5067
839.506	5444
839.643	5307
839.781	5117
839.918	5048
840.055	5052
840.193	5086
840.33	5117
840.467	5132
840.604	5113
840.742	5398
840.879	5071
841.016	5029
841.153	5155
841.29	5440
841.427	5349
841.564	5383
841.701	5349
841.838	5326
841.975	5201
842.112	5246
842.249	5159
842.385	5098
842.522	5303
842.659	5174
842.796	5166
842.933	5227
843.069	5185
843.206	5204
843.343	5341
843.479	5296
843.616	5330
843.752	5048
843.889	4987
844.025	5197
844.162	5045
844.298	5246
844.435	5079
844.571	5045
844.708	5201
844.844	5277
844.98	5337
845.117	5254
845.253	5159
845.389	5105
845.525	5189
845.661	5132
845.798	5048
845.934	5166
846.07	5094
846.206	5231
846.342	5235
846.478	5143
846.614	5083
846.75	4972
846.886	4942
847.022	5113
847.158	5006
847.294	5079
847.429	5124
847.565	5086
847.701	5303
847.837	4828
847.972	4843
848.108	4965
848.244	4927
848.379	4782
848.515	4767
848.65	4691
848.786	4771
848.921	4767
849.057	4900
849.192	4968
849.328	4850
849.463	4843
849.598	4805
849.734	4763
849.869	4714
850.004	4664
850.14	4706
850.275	4622
850.41	4592
850.545	4558
850.68	4596
850.815	4653
850.95	4645
851.085	4854
851.22	4748
851.355	4694
851.49	4634
851.625	4641
851.76	4630
851.895	4546
852.03	4535
852.165	4710
852.299	4656
852.434	4839
852.569	4748
852.703	4778
852.838	4847
852.973	4949
853.107	4968
853.242	4774
853.376	4630
853.511	4607
853.645	4596
853.78	4847
853.914	4679
854.048	4702
854.183	4698
854.317	4714
854.451	4889
854.585	4679
854.72	4630
854.854	4767
854.988	4558
855.122	4607
855.256	4538
855.39	4691
855.524	4801
855.658	4710
855.792	4752
855.926	4683
856.06	4729
856.194	4771
856.327	4733
856.461	4660
856.595	4599
856.729	4649
856.862	4790
856.996	4702
857.13	4733
857.263	4793
857.397	4858
857.53	4672
857.664	4759
857.797	4793
857.931	4816
858.064	4691
858.197	4778
858.331	4656
858.464	4634
858.597	4554
858.731	4592
858.864	4668
858.997	4607
859.13	4649
859.263	4668
859.396	4710
859.529	4634
859.662	4615
859.795	4489
859.928	4668
860.061	4816
860.194	4755
860.327	4584
860.46	4550
860.592	4733
860.725	4733
860.858	4759
860.99	4577
861.123	4565
861.256	4508
861.388	4645
861.521	5406
861.653	4485
861.786	4417
861.918	4489
862.05	4542
862.183	4531
862.315	4618
862.447	4649
862.58	4527
862.712	4451
862.844	4341
862.976	4481
863.108	4485
863.24	4839
863.372	4367
863.504	4459
863.636	4428
863.768	4489
863.9	4447
864.032	4405
864.164	4421
864.296	4481
864.428	4561
864.559	4615
864.691	4573
864.823	4535
864.954	4493
865.086	4546
865.217	4481
865.349	4466
865.48	4424
865.612	4489
865.743	4694
865.875	4470
866.006	4440
866.137	4481
866.269	4447
866.4	4428
866.531	4428
866.662	4440
866.793	4383
866.924	4409
867.055	4554
867.186	4493
867.317	4443
867.448	4417
867.579	4413
867.71	4409
867.841	4394
867.972	4451
868.103	4474
868.233	4512
868.364	4485
868.495	4481
868.625	4683
868.756	4767
868.886	4592
869.017	4618
869.147	4744
869.278	4793
869.408	4679
869.539	4634
869.669	4733
869.799	4702
869.929	4786
870.06	4710
870.19	4976
870.32	4934
870.45	4938
870.58	4968
870.71	5121
870.84	5071
870.97	5029
871.1	4930
871.23	5105
871.36	5132
871.489	5045
871.619	5071
871.749	5098
871.879	5162
872.008	5212
872.138	5090
872.267	4965
872.397	4885
872.526	4812
872.656	4725
872.785	4805
872.915	4976
873.044	5018
873.173	4946
873.303	5018
873.432	4927
873.561	5022
873.69	4843
873.819	4866
873.948	4904
874.077	4809
874.206	4752
874.335	4786
874.464	4915
874.593	5067
874.722	4972
874.851	5117
874.979	5079
875.108	5041
875.237	4965
875.365	4885
875.494	4877
875.623	4999
875.751	4854
875.88	4839
876.008	5014
876.136	5079
876.265	5212
876.393	5391
876.521	5231
876.65	5239
876.778	5178
876.906	5102
877.034	5018
877.162	5083
877.29	4949
877.418	5025
877.546	5037
877.674	5090
877.802	5048
877.93	5056
878.058	4968
878.185	4839
878.313	4949
878.441	4957
878.568	4820
878.696	4877
878.824	5010
878.951	4984
879.079	5102
879.206	5353
879.333	5143
879.461	4953
879.588	5006
879.715	5197
879.842	5204
879.97	5018
880.097	4778
880.224	4759
880.351	4858
880.478	4820
880.605	4831
880.732	4790
880.859	5155
880.986	4892
881.112	4923
881.239	4752
881.366	4675
881.493	4599
881.619	4569
881.746	4603
881.872	4622
881.999	4672
882.125	4725
882.252	4782
882.378	4896
882.505	4965
882.631	4816
882.757	4675
882.883	4748
883.01	4710
883.136	4656
883.262	4622
883.388	4611
883.514	4850
883.64	4877
883.766	4774
883.892	4649
884.018	4755
884.143	4904
884.269	5041
884.395	4683
884.52	4626
884.646	4626
884.772	4653
884.897	4592
885.023	4664
885.148	4816
885.274	4885
885.399	4801
885.524	4733
885.65	4710
885.775	4736
885.9	4733
886.025	4877
886.15	4824
886.275	4782
886.4	4687
886.525	4694
886.65	4675
886.775	4702
886.9	4923
887.025	5083
887.149	4862
887.274	4748
887.399	4603
887.523	4580
887.648	4542
887.773	4622
887.897	4797
888.021	4790
888.146	4668
888.27	4854
888.395	4957
888.519	4763
888.643	4805
888.767	4835
888.891	4691
889.015	4634
889.139	4630
889.263	4679
889.387	4793
889.511	4824
889.635	4805
889.759	4702
889.883	4672
890.006	4725
890.13	4801
890.254	4626
890.377	4634
890.501	4519
890.624	4527
890.748	4641
890.871	4554
890.995	4432
891.118	4356
891.241	4535
891.364	4527
891.488	4641
891.611	4481
891.734	4554
891.857	4653
891.98	4538
892.103	4687
892.226	4607
892.349	4573
892.471	4455
892.594	4542
892.717	4592
892.839	4565
892.962	4592
893.085	4641
893.207	4599
893.33	4440
893.452	4577
893.575	4710
893.697	4596
893.819	4847
893.941	4843
894.064	4755
894.186	4603
894.308	4512
894.43	4748
894.552	4843
894.674	4714
894.796	4550
894.918	4592
895.04	4542
895.161	4710
895.283	4649
895.405	4580
895.526	4641
895.648	4733
895.769	4691
895.891	4725
896.012	4752
896.134	4748
896.255	4691
896.376	4687
896.498	4607
896.619	4653
896.74	4630
896.861	4675
896.982	4965
897.103	5060
897.224	4881
897.345	4771
897.466	4675
897.587	4752
897.708	4892
897.828	4812
897.949	4744
898.07	4622
898.19	4645
898.311	4809
898.431	4683
898.552	4748
898.672	4820
898.792	4805
898.913	4706
899.033	4656
899.153	4531
899.273	4383
899.393	4508
899.513	4538
899.633	4527
899.753	4512
899.873	4523
899.993	4592
900.113	4569
900.232	4596
900.352	4558
900.472	4481
900.591	4394
900.711	4497
900.83	4436
900.95	4584
901.069	4752
901.189	4523
901.308	4367
901.427	4306
901.546	4398
901.665	4470
901.784	4500
901.904	4440
902.023	4363
902.141	4230
902.26	4185
902.379	4333
902.498	4280
902.617	4230
902.735	4424
902.854	4379
902.973	4348
903.091	4223
903.21	4196
903.328	4306
903.446	4265
903.565	4272
903.683	4287
903.801	4265
903.919	4413
904.038	4440
904.156	4322
904.274	4424
904.392	4398
904.51	4405
904.627	4481
904.745	4649
904.863	4691
904.981	4405
905.098	4276
905.216	4344
905.334	4470
905.451	4413
905.569	4455
905.686	4569
905.803	4599
905.921	4432
906.038	4558
906.155	4493
906.272	4478
906.389	4493
906.506	4360
906.623	4348
906.74	4394
906.857	4344
906.974	4371
907.091	4554
907.208	4653
907.324	4615
907.441	4519
907.557	4367
907.674	4333
907.79	4314
907.907	4379
908.023	4531
908.139	4493
908.256	4413
908.372	4504
908.488	4497
908.604	4363
908.72	4371
908.836	4386
908.952	4398
909.068	4417
909.184	4596
909.3	4481
909.415	4622
909.531	4565
909.647	4329
909.762	4341
909.878	4409
909.993	4440
910.108	4428
910.224	4417
910.339	4481
910.454	4405
910.57	4394
910.685	4314
910.8	4637
910.915	4622
911.03	4512
911.145	4333
911.259	4371
911.374	4344
911.489	4291
911.604	4310
911.718	4192
911.833	4181
911.947	4112
912.062	3994
912.176	4227
912.291	4211
912.405	4253
912.519	4436
912.633	4497
912.748	4383
912.862	4322
912.976	4162
913.09	4150
913.204	4139
913.318	4265
913.431	4421
913.545	4367
913.659	4470
913.772	4398
913.886	4253
914	4249
914.113	4375
914.226	4481
914.34	4432
914.453	4253
914.566	4402
914.68	4310
914.793	4291
914.906	4192
915.019	4116
915.132	4082
915.245	4196
915.358	4238
915.47	4257
915.583	4306
915.696	4322
915.809	4398
915.921	4516
916.034	4299
916.146	4280
916.259	4200
916.371	4386
916.483	4390
916.595	4234
916.708	4344
916.82	4306
916.932	4325
917.044	4352
917.156	4360
917.268	4287
917.38	4284
917.491	4272
917.603	4341
917.715	4470
917.826	4470
917.938	4367
918.049	4280
918.161	4383
918.272	4588
918.384	4565
918.495	4462
918.606	4310
918.717	4276
918.828	4337
918.939	4394
919.05	4280
919.161	4367
919.272	4177
919.383	4234
919.494	4493
919.604	4626
919.715	4466
919.826	4348
919.936	4367
920.047	4554
920.157	4500
920.267	4694
920.378	4554
920.488	4523
920.598	4733
920.708	4881
920.818	4778
920.928	4793
921.038	4965
921.148	4968
921.258	4683
921.368	4542
921.477	4485
921.587	4497
921.697	4356
921.806	4550
921.916	4459
922.025	4284
922.134	4318
922.244	4219
922.353	4314
922.462	4188
922.571	4112
922.68	4029
922.789	3994
922.898	4063
923.007	4021
923.116	4082
923.224	4067
923.333	4093
923.442	3991
923.55	3964
923.659	4010
923.767	4086
923.876	4040
923.984	4120
924.092	4040
924.201	4093
924.309	4120
924.417	4143
924.525	4105
924.633	4105
924.741	4915
924.849	3930
924.956	4158
925.064	3998
925.172	3937
925.279	3991
925.387	4086
925.494	4051
925.602	4242
925.709	4204
925.816	4063
925.924	4078
926.031	4257
926.138	4196
926.245	4219
926.352	4086
926.459	4265
926.566	4322
926.673	4204
926.779	4131
926.886	4097
926.993	3991
927.099	3937
927.206	3945
927.312	3945
927.419	4055
927.525	4036
927.631	4112
927.737	3972
927.843	3964
927.95	3831
928.056	3945
928.162	3960
928.267	4032
928.373	4729
928.479	4101
928.585	3926
928.69	3994
928.796	4112
928.901	4002
929.007	3850
929.112	4021
929.218	4017
929.323	3926
929.428	3964
929.533	4162
929.638	3911
929.743	3968
929.848	4067
929.953	4006
930.058	3972
930.163	3781
930.267	3823
930.372	3991
930.477	3816
930.581	4071
930.685	3937
930.79	3861
930.894	3953
930.998	3880
931.103	4040
931.207	3740
931.311	3720
931.415	3667
931.519	3496
931.623	3549
