Data from test_V78500241_2028.txt Node
Date: Fri Mar 25 17:03:06 CST 2022
User: usil
Spectrometer: V785-0024
Trigger mode: 0
Integration Time (sec): 4.000000E-1
Scans to average: 1
Nonlinearity correction enabled: false
Boxcar width: 0
Storing dark spectrum: false
XAxis mode: Wavelengths
Number of Pixels in Spectrum: 1024
>>>>>Begin Spectral Data<<<<<
801.071	8012
801.214	7932
801.356	7860
801.499	7837
801.641	7769
801.783	7807
801.926	7951
802.068	7909
802.211	8035
802.353	8027
802.496	7951
802.638	7887
802.78	7898
802.923	7982
803.065	7890
803.208	7856
803.35	7955
803.492	8084
803.635	8172
803.777	8084
803.919	8119
804.061	8412
804.204	8229
804.346	8088
804.488	7989
804.63	8012
804.773	7989
804.915	8100
805.057	8221
805.199	8161
805.341	8221
805.483	8267
805.626	8183
805.768	8142
805.91	8214
806.052	8279
806.194	8149
806.336	8259
806.478	8168
806.62	8069
806.762	8145
806.904	8286
807.046	8454
807.188	8389
807.33	8347
807.472	8404
807.614	8138
807.756	8123
807.898	7978
808.04	7898
808.182	7921
808.324	7864
808.465	7925
808.607	8084
808.749	8123
808.891	8221
809.033	8298
809.174	8279
809.316	8069
809.458	8103
809.6	8043
809.741	8111
809.883	8084
810.025	8088
810.166	8115
810.308	7989
810.45	7989
810.591	7849
810.733	7746
810.875	7715
811.016	7559
811.158	7495
811.299	7563
811.441	7715
811.582	7674
811.724	7578
811.865	7559
812.007	7620
812.148	7651
812.29	7639
812.431	7818
812.573	7849
812.714	8035
812.855	8084
812.997	8142
813.138	8252
813.279	8149
813.421	8084
813.562	7963
813.703	7849
813.845	7753
813.986	7480
814.127	7247
814.268	7183
814.41	7164
814.551	7198
814.692	7217
814.833	7175
814.974	7103
815.115	7133
815.256	7023
815.397	6920
815.539	6932
815.68	6852
815.821	6783
815.962	6848
816.103	6791
816.244	6669
816.385	6623
816.526	6570
816.666	6513
816.807	6308
816.948	6407
817.089	6528
817.23	6426
817.371	6407
817.512	6395
817.653	6414
817.793	6361
817.934	6410
818.075	6494
818.216	6429
818.356	6433
818.497	6247
818.638	6129
818.778	6148
818.919	6136
819.06	6163
819.2	6361
819.341	6380
819.481	6323
819.622	6578
819.762	6700
819.903	6688
820.043	6566
820.184	6601
820.324	6559
820.465	6734
820.605	6726
820.746	6631
820.886	6494
821.026	6658
821.167	6715
821.307	6837
821.447	6772
821.588	6677
821.728	6593
821.868	6486
822.008	6304
822.149	6391
822.289	6353
822.429	6148
822.569	6171
822.709	6144
822.849	5916
822.99	5893
823.13	5931
823.27	5870
823.41	5767
823.55	5771
823.69	5779
823.83	5741
823.97	5684
824.11	5520
824.25	5532
824.389	5573
824.529	5646
824.669	5528
824.809	5680
824.949	5653
825.089	5577
825.228	5608
825.368	5368
825.508	5349
825.648	5395
825.787	5421
825.927	5372
826.067	5292
826.206	5345
826.346	5326
826.485	5402
826.625	5406
826.765	5570
826.904	5493
827.044	5250
827.183	5242
827.323	5147
827.462	5299
827.601	5166
827.741	5216
827.88	5181
828.02	5113
828.159	5280
828.298	5303
828.437	5341
828.577	5265
828.716	5482
828.855	5334
828.994	5189
829.134	5121
829.273	5208
829.412	5109
829.551	5174
829.69	5174
829.829	5280
829.968	5368
830.107	5269
830.246	5288
830.385	5208
830.524	5159
830.663	5071
830.802	5025
830.941	4892
831.08	4900
831.219	5014
831.357	4995
831.496	5189
831.635	4881
831.774	4896
831.913	4820
832.051	4736
832.19	4698
832.329	4866
832.467	4710
832.606	4626
832.744	4679
832.883	4748
833.022	4729
833.16	4786
833.299	4843
833.437	4831
833.576	4801
833.714	4843
833.852	4900
833.991	4938
834.129	4972
834.267	4957
834.406	4930
834.544	4946
834.682	4968
834.821	4984
834.959	5143
835.097	4984
835.235	5159
835.373	5071
835.511	5121
835.65	5025
835.788	5094
835.926	4896
836.064	4885
836.202	4927
836.34	5143
836.478	5269
836.615	5117
836.753	5208
836.891	5246
837.029	5284
837.167	5201
837.305	5117
837.443	5060
837.58	5071
837.718	5254
837.856	5143
837.993	5159
838.131	5242
838.269	5197
838.406	5197
838.544	5136
838.681	5022
838.819	4995
838.956	4892
839.094	4839
839.231	4968
839.369	5067
839.506	5398
839.643	5250
839.781	5048
839.918	4995
840.055	5105
840.193	5155
840.33	5117
840.467	5162
840.604	5143
840.742	5452
840.879	5083
841.016	5071
841.153	5105
841.29	5372
841.427	5345
841.564	5318
841.701	5372
841.838	5265
841.975	5258
842.112	5239
842.249	5170
842.385	5102
842.522	5337
842.659	5166
842.796	5159
842.933	5212
843.069	5174
843.206	5181
843.343	5299
843.479	5227
843.616	5216
843.752	5029
843.889	4987
844.025	5185
844.162	5033
844.298	5109
844.435	5132
844.571	5052
844.708	5227
844.844	5307
844.98	5364
845.117	5307
845.253	5117
845.389	5090
845.525	5197
845.661	5151
845.798	5022
845.934	5105
846.07	5037
846.206	5208
846.342	5277
846.478	5220
846.614	5048
846.75	4908
846.886	4930
847.022	5094
847.158	5018
847.294	5056
847.429	5128
847.565	5064
847.701	5368
847.837	4881
847.972	4835
848.108	4965
848.244	4972
848.379	4812
848.515	4805
848.65	4744
848.786	4763
848.921	4733
849.057	4862
849.192	4858
849.328	4835
849.463	4877
849.598	4744
849.734	4786
849.869	4687
850.004	4637
850.14	4694
850.275	4584
850.41	4478
850.545	4565
850.68	4592
850.815	4653
850.95	4622
851.085	4816
851.22	4729
851.355	4615
851.49	4603
851.625	4611
851.76	4615
851.895	4554
852.03	4523
852.165	4603
852.299	4702
852.434	4797
852.569	4748
852.703	4778
852.838	4774
852.973	4938
853.107	4877
853.242	4721
853.376	4668
853.511	4527
853.645	4599
853.78	4778
853.914	4683
854.048	4725
854.183	4580
854.317	4687
854.451	4835
854.585	4664
854.72	4653
854.854	4748
854.988	4558
855.122	4656
855.256	4516
855.39	4634
855.524	4831
855.658	4679
855.792	4679
855.926	4748
856.06	4748
856.194	4809
856.327	4710
856.461	4622
856.595	4615
856.729	4668
856.862	4683
856.996	4717
857.13	4698
857.263	4793
857.397	4820
857.53	4634
857.664	4698
857.797	4752
857.931	4767
858.064	4675
858.197	4771
858.331	4668
858.464	4531
858.597	4573
858.731	4596
858.864	4630
858.997	4596
859.13	4668
859.263	4672
859.396	4668
859.529	4569
859.662	4512
859.795	4493
859.928	4603
860.061	4755
860.194	4778
860.327	4577
860.46	4558
860.592	4702
860.725	4710
860.858	4706
860.99	4542
861.123	4546
861.256	4478
861.388	4607
861.521	5337
861.653	4462
861.786	4405
861.918	4470
862.05	4538
862.183	4550
862.315	4603
862.447	4630
862.58	4516
862.712	4466
862.844	4386
862.976	4504
863.108	4421
863.24	4733
863.372	4325
863.504	4428
863.636	4390
863.768	4500
863.9	4421
864.032	4363
864.164	4451
864.296	4485
864.428	4516
864.559	4519
864.691	4565
864.823	4538
864.954	4500
865.086	4508
865.217	4447
865.349	4379
865.48	4443
865.612	4466
865.743	4622
865.875	4481
866.006	4436
866.137	4424
866.269	4489
866.4	4432
866.531	4417
866.662	4379
866.793	4341
866.924	4489
867.055	4508
867.186	4459
867.317	4451
867.448	4413
867.579	4432
867.71	4386
867.841	4398
867.972	4512
868.103	4436
868.233	4440
868.364	4512
868.495	4489
868.625	4660
868.756	4710
868.886	4573
869.017	4656
869.147	4767
869.278	4755
869.408	4660
869.539	4596
869.669	4702
869.799	4706
869.929	4782
870.06	4698
870.19	4934
870.32	4889
870.45	4980
870.58	5010
870.71	5064
870.84	5067
870.97	4961
871.1	4900
871.23	5140
871.36	5166
871.489	5037
871.619	5117
871.749	5136
871.879	5117
872.008	5174
872.138	5048
872.267	5010
872.397	4847
872.526	4839
872.656	4763
872.785	4767
872.915	4957
873.044	5037
873.173	4957
873.303	4908
873.432	4919
873.561	4919
873.69	4896
873.819	4911
873.948	4850
874.077	4850
874.206	4790
874.335	4790
874.464	4961
874.593	5018
874.722	4991
874.851	5121
874.979	5022
875.108	5037
875.237	4881
875.365	4896
875.494	4881
875.623	5014
875.751	4854
875.88	4847
876.008	4949
876.136	5022
876.265	5246
876.393	5383
876.521	5242
876.65	5223
876.778	5155
876.906	5071
877.034	5014
877.162	4980
877.29	4957
877.418	5025
877.546	5022
877.674	5041
877.802	4999
877.93	4991
878.058	4908
878.185	4915
878.313	4999
878.441	4957
878.568	4850
878.696	4870
878.824	5018
878.951	4984
879.079	5117
879.206	5284
879.333	5117
879.461	4957
879.588	5067
879.715	5162
879.842	5151
879.97	4972
880.097	4782
880.224	4729
880.351	4778
880.478	4805
880.605	4748
880.732	4767
880.859	5151
880.986	4908
881.112	4896
881.239	4774
881.366	4641
881.493	4634
881.619	4573
881.746	4672
881.872	4656
881.999	4649
882.125	4687
882.252	4763
882.378	4797
882.505	4953
882.631	4797
882.757	4634
882.883	4714
883.01	4748
883.136	4649
883.262	4588
883.388	4626
883.514	4801
883.64	4847
883.766	4763
883.892	4683
884.018	4668
884.143	4908
884.269	5022
884.395	4717
884.52	4618
884.646	4634
884.772	4634
884.897	4561
885.023	4653
885.148	4755
885.274	4850
885.399	4896
885.524	4683
885.65	4691
885.775	4729
885.9	4694
886.025	4816
886.15	4717
886.275	4733
886.4	4675
886.525	4771
886.65	4721
886.775	4675
886.9	4915
887.025	4972
887.149	4774
887.274	4641
887.399	4592
887.523	4565
887.648	4577
887.773	4561
887.897	4748
888.021	4763
888.146	4733
888.27	4824
888.395	4862
888.519	4797
888.643	4805
888.767	4801
888.891	4691
889.015	4554
889.139	4607
889.263	4664
889.387	4744
889.511	4892
889.635	4782
889.759	4599
889.883	4660
890.006	4710
890.13	4835
890.254	4573
890.377	4641
890.501	4535
890.624	4580
890.748	4615
890.871	4485
890.995	4440
891.118	4405
891.241	4459
891.364	4523
891.488	4596
891.611	4451
891.734	4580
891.857	4596
891.98	4527
892.103	4694
892.226	4550
892.349	4508
892.471	4409
892.594	4550
892.717	4618
892.839	4558
892.962	4607
893.085	4649
893.207	4607
893.33	4417
893.452	4481
893.575	4588
893.697	4573
893.819	4790
893.941	4816
894.064	4801
894.186	4561
894.308	4577
894.43	4694
894.552	4797
894.674	4759
894.796	4538
894.918	4527
895.04	4580
895.161	4729
895.283	4637
895.405	4550
895.526	4641
895.648	4675
895.769	4714
895.891	4721
896.012	4736
896.134	4736
896.255	4660
896.376	4641
896.498	4580
896.619	4679
896.74	4660
896.861	4626
896.982	4915
897.103	5109
897.224	4839
897.345	4752
897.466	4615
897.587	4752
897.708	4847
897.828	4778
897.949	4675
898.07	4516
898.19	4603
898.311	4839
898.431	4683
898.552	4752
898.672	4809
898.792	4797
898.913	4774
899.033	4599
899.153	4504
899.273	4413
899.393	4500
899.513	4462
899.633	4489
899.753	4542
899.873	4535
899.993	4531
900.113	4519
900.232	4584
900.352	4550
900.472	4512
900.591	4363
900.711	4504
900.83	4440
900.95	4550
901.069	4672
901.189	4554
901.308	4333
901.427	4333
901.546	4394
901.665	4459
901.784	4535
901.904	4413
902.023	4344
902.141	4162
902.26	4211
902.379	4306
902.498	4272
902.617	4211
902.735	4390
902.854	4386
902.973	4344
903.091	4188
903.21	4204
903.328	4272
903.446	4265
903.565	4238
903.683	4394
903.801	4280
903.919	4402
904.038	4432
904.156	4314
904.274	4428
904.392	4379
904.51	4436
904.627	4443
904.745	4546
904.863	4603
904.981	4383
905.098	4318
905.216	4322
905.334	4485
905.451	4436
905.569	4417
905.686	4519
905.803	4592
905.921	4379
906.038	4580
906.155	4527
906.272	4394
906.389	4478
906.506	4310
906.623	4371
906.74	4443
906.857	4257
906.974	4394
907.091	4554
907.208	4660
907.324	4577
907.441	4462
907.557	4333
907.674	4322
907.79	4333
907.907	4360
908.023	4497
908.139	4466
908.256	4436
908.372	4497
908.488	4402
908.604	4367
908.72	4318
908.836	4344
908.952	4367
909.068	4462
909.184	4538
909.3	4478
909.415	4603
909.531	4607
909.647	4375
909.762	4413
909.878	4375
909.993	4466
910.108	4424
910.224	4424
910.339	4508
910.454	4466
910.57	4405
910.685	4322
910.8	4580
910.915	4584
911.03	4466
911.145	4333
911.259	4344
911.374	4310
911.489	4295
911.604	4314
911.718	4177
911.833	4227
911.947	4101
912.062	4071
912.176	4188
912.291	4238
912.405	4246
912.519	4466
912.633	4546
912.748	4383
912.862	4341
912.976	4230
913.09	4109
913.204	4188
913.318	4325
913.431	4356
913.545	4363
913.659	4436
913.772	4356
913.886	4299
914	4291
914.113	4375
914.226	4428
914.34	4379
914.453	4238
914.566	4417
914.68	4287
914.793	4314
914.906	4173
915.019	4116
915.132	4063
915.245	4173
915.358	4188
915.47	4185
915.583	4246
915.696	4325
915.809	4402
915.921	4443
916.034	4299
916.146	4265
916.259	4268
916.371	4344
916.483	4363
916.595	4227
916.708	4284
916.82	4291
916.932	4257
917.044	4337
917.156	4352
917.268	4253
917.38	4322
917.491	4253
917.603	4287
917.715	4462
917.826	4424
917.938	4325
918.049	4238
918.161	4417
918.272	4561
918.384	4569
918.495	4428
918.606	4322
918.717	4230
918.828	4348
918.939	4360
919.05	4287
919.161	4341
919.272	4139
919.383	4196
919.494	4409
919.604	4637
919.715	4413
919.826	4322
919.936	4394
920.047	4512
920.157	4459
920.267	4733
920.378	4519
920.488	4500
920.598	4725
920.708	4919
920.818	4771
920.928	4778
921.038	4965
921.148	4900
921.258	4626
921.368	4531
921.477	4485
921.587	4474
921.697	4341
921.806	4569
921.916	4459
922.025	4257
922.134	4268
922.244	4207
922.353	4284
922.462	4169
922.571	4059
922.68	4032
922.789	4010
922.898	3998
923.007	4040
923.116	4097
923.224	4051
923.333	4074
923.442	3983
923.55	3930
923.659	4048
923.767	4067
923.876	4013
923.984	4086
924.092	3968
924.201	4059
924.309	4116
924.417	4116
924.525	4040
924.633	4093
924.741	5018
924.849	3880
924.956	4158
925.064	3937
925.172	3888
925.279	3983
925.387	4071
925.494	4059
925.602	4204
925.709	4200
925.816	4086
925.924	4128
926.031	4204
926.138	4154
926.245	4219
926.352	4086
926.459	4280
926.566	4333
926.673	4169
926.779	4048
926.886	4071
926.993	3983
927.099	4006
927.206	3941
927.312	3907
927.419	4055
927.525	4025
927.631	4074
927.737	3945
927.843	3934
927.95	3876
928.056	3960
928.162	3994
928.267	4074
928.373	4558
928.479	4158
928.585	3884
928.69	3975
928.796	4051
928.901	3972
929.007	3892
929.112	4021
929.218	3998
929.323	3949
929.428	3975
929.533	4116
929.638	3926
929.743	3941
929.848	4044
929.953	4017
930.058	3899
930.163	3793
930.267	3846
930.372	3994
930.477	3846
930.581	4105
930.685	3922
930.79	3797
930.894	3873
930.998	3838
931.103	4051
931.207	3713
931.311	3713
931.415	3698
931.519	3530
931.623	3580
