Data from test_V78500241_2392.txt Node
Date: Fri Mar 25 17:05:38 CST 2022
User: usil
Spectrometer: V785-0024
Trigger mode: 0
Integration Time (sec): 4.000000E-1
Scans to average: 1
Nonlinearity correction enabled: false
Boxcar width: 0
Storing dark spectrum: false
XAxis mode: Wavelengths
Number of Pixels in Spectrum: 1024
>>>>>Begin Spectral Data<<<<<
801.071	7986
801.214	7997
801.356	7795
801.499	7837
801.641	7772
801.783	7887
801.926	7967
802.068	7986
802.211	7963
802.353	8050
802.496	7860
802.638	7917
802.78	7898
802.923	7925
803.065	7944
803.208	7909
803.35	7978
803.492	8111
803.635	8164
803.777	8043
803.919	8149
804.061	8450
804.204	8263
804.346	8020
804.488	7932
804.63	8069
804.773	7970
804.915	8107
805.057	8355
805.199	8153
805.341	8195
805.483	8294
805.626	8221
805.768	8111
805.91	8195
806.052	8202
806.194	8073
806.336	8282
806.478	8058
806.62	8058
806.762	8123
806.904	8218
807.046	8393
807.188	8309
807.33	8355
807.472	8355
807.614	8134
807.756	8088
807.898	7970
808.04	7902
808.182	7803
808.324	7883
808.465	7890
808.607	8062
808.749	8084
808.891	8218
809.033	8339
809.174	8240
809.316	8123
809.458	8024
809.6	8008
809.741	8008
809.883	8035
810.025	8180
810.166	8069
810.308	8005
810.45	8046
810.591	7830
810.733	7700
810.875	7639
811.016	7537
811.158	7464
811.299	7655
811.441	7696
811.582	7704
811.724	7514
811.865	7601
812.007	7586
812.148	7590
812.29	7639
812.431	7769
812.573	7883
812.714	7951
812.855	8187
812.997	8180
813.138	8286
813.279	8210
813.421	7997
813.562	7963
813.703	7913
813.845	7826
813.986	7411
814.127	7282
814.268	7236
814.41	7213
814.551	7228
814.692	7228
814.833	7061
814.974	7103
815.115	7114
815.256	7000
815.397	6916
815.539	6924
815.68	6871
815.821	6829
815.962	6795
816.103	6814
816.244	6681
816.385	6635
816.526	6593
816.666	6471
816.807	6285
816.948	6460
817.089	6483
817.23	6525
817.371	6403
817.512	6422
817.653	6380
817.793	6346
817.934	6384
818.075	6403
818.216	6464
818.356	6414
818.497	6239
818.638	6121
818.778	6171
818.919	6190
819.06	6136
819.2	6300
819.341	6323
819.481	6414
819.622	6528
819.762	6760
819.903	6741
820.043	6585
820.184	6585
820.324	6566
820.465	6688
820.605	6681
820.746	6650
820.886	6513
821.026	6684
821.167	6707
821.307	6802
821.447	6848
821.588	6665
821.728	6547
821.868	6502
822.008	6342
822.149	6399
822.289	6338
822.429	6182
822.569	6125
822.709	6155
822.849	5939
822.99	5912
823.13	5912
823.27	5942
823.41	5828
823.55	5798
823.69	5752
823.83	5771
823.97	5691
824.11	5512
824.25	5524
824.389	5596
824.529	5638
824.669	5486
824.809	5684
824.949	5657
825.089	5623
825.228	5528
825.368	5410
825.508	5357
825.648	5315
825.787	5376
825.927	5368
826.067	5341
826.206	5261
826.346	5433
826.485	5341
826.625	5364
826.765	5543
826.904	5444
827.044	5277
827.183	5216
827.323	5143
827.462	5246
827.601	5162
827.741	5201
827.88	5189
828.02	5121
828.159	5223
828.298	5299
828.437	5448
828.577	5231
828.716	5501
828.855	5307
828.994	5197
829.134	5124
829.273	5204
829.412	5098
829.551	5105
829.69	5151
829.829	5204
829.968	5357
830.107	5261
830.246	5326
830.385	5231
830.524	5128
830.663	5109
830.802	4942
830.941	4904
831.08	4824
831.219	4980
831.357	4999
831.496	5162
831.635	5003
831.774	4847
831.913	4862
832.051	4748
832.19	4752
832.329	4843
832.467	4694
832.606	4637
832.744	4706
832.883	4717
833.022	4778
833.16	4786
833.299	4801
833.437	4812
833.576	4839
833.714	4866
833.852	4847
833.991	4850
834.129	4976
834.267	4968
834.406	4904
834.544	4881
834.682	5025
834.821	4946
834.959	5140
835.097	4957
835.235	5155
835.373	5083
835.511	5022
835.65	5006
835.788	5010
835.926	4896
836.064	4885
836.202	4885
836.34	5170
836.478	5189
836.615	5155
836.753	5155
836.891	5364
837.029	5181
837.167	5216
837.305	5181
837.443	5185
837.58	5060
837.718	5258
837.856	5189
837.993	5136
838.131	5258
838.269	5197
838.406	5250
838.544	5189
838.681	5037
838.819	4980
838.956	4919
839.094	4915
839.231	4991
839.369	5067
839.506	5444
839.643	5239
839.781	5056
839.918	5037
840.055	5105
840.193	5128
840.33	5109
840.467	5143
840.604	5105
840.742	5463
840.879	5094
841.016	5094
841.153	5132
841.29	5349
841.427	5296
841.564	5357
841.701	5322
841.838	5258
841.975	5280
842.112	5288
842.249	5178
842.385	5090
842.522	5288
842.659	5159
842.796	5143
842.933	5189
843.069	5143
843.206	5140
843.343	5284
843.479	5231
843.616	5246
843.752	5029
843.889	5025
844.025	5189
844.162	4991
844.298	5220
844.435	5090
844.571	5064
844.708	5181
844.844	5296
844.98	5318
845.117	5280
845.253	5159
845.389	5098
845.525	5170
845.661	5098
845.798	5060
845.934	5166
846.07	5048
846.206	5201
846.342	5242
846.478	5227
846.614	5037
846.75	4961
846.886	4957
847.022	5159
847.158	5037
847.294	5060
847.429	5140
847.565	5083
847.701	5277
847.837	4858
847.972	4847
848.108	4991
848.244	4934
848.379	4816
848.515	4702
848.65	4698
848.786	4771
848.921	4835
849.057	4839
849.192	4885
849.328	4774
849.463	4847
849.598	4805
849.734	4721
849.869	4698
850.004	4599
850.14	4660
850.275	4641
850.41	4523
850.545	4561
850.68	4592
850.815	4622
850.95	4653
851.085	4797
851.22	4748
851.355	4672
851.49	4634
851.625	4637
851.76	4637
851.895	4580
852.03	4527
852.165	4649
852.299	4740
852.434	4748
852.569	4717
852.703	4752
852.838	4870
852.973	4942
853.107	4965
853.242	4801
853.376	4641
853.511	4546
853.645	4645
853.78	4759
853.914	4675
854.048	4653
854.183	4660
854.317	4687
854.451	4831
854.585	4660
854.72	4615
854.854	4752
854.988	4622
855.122	4653
855.256	4546
855.39	4645
855.524	4824
855.658	4752
855.792	4672
855.926	4782
856.06	4782
856.194	4782
856.327	4668
856.461	4615
856.595	4592
856.729	4641
856.862	4736
856.996	4687
857.13	4702
857.263	4725
857.397	4797
857.53	4649
857.664	4702
857.797	4740
857.931	4805
858.064	4698
858.197	4805
858.331	4599
858.464	4596
858.597	4508
858.731	4626
858.864	4634
858.997	4577
859.13	4618
859.263	4630
859.396	4653
859.529	4596
859.662	4546
859.795	4508
859.928	4607
860.061	4721
860.194	4812
860.327	4637
860.46	4558
860.592	4710
860.725	4725
860.858	4694
860.99	4546
861.123	4565
861.256	4542
861.388	4611
861.521	5311
861.653	4474
861.786	4440
861.918	4436
862.05	4500
862.183	4527
862.315	4615
862.447	4615
862.58	4550
862.712	4360
862.844	4329
862.976	4485
863.108	4485
863.24	4755
863.372	4299
863.504	4424
863.636	4428
863.768	4500
863.9	4470
864.032	4333
864.164	4417
864.296	4470
864.428	4531
864.559	4592
864.691	4561
864.823	4523
864.954	4478
865.086	4462
865.217	4481
865.349	4455
865.48	4451
865.612	4527
865.743	4607
865.875	4436
866.006	4409
866.137	4481
866.269	4455
866.4	4462
866.531	4409
866.662	4432
866.793	4409
866.924	4424
867.055	4478
867.186	4512
867.317	4428
867.448	4356
867.579	4417
867.71	4424
867.841	4390
867.972	4459
868.103	4436
868.233	4459
868.364	4398
868.495	4497
868.625	4706
868.756	4790
868.886	4599
869.017	4618
869.147	4763
869.278	4782
869.408	4615
869.539	4626
869.669	4752
869.799	4660
869.929	4744
870.06	4736
870.19	4957
870.32	4904
870.45	4930
870.58	4972
870.71	5060
870.84	5071
870.97	4957
871.1	4923
871.23	5098
871.36	5147
871.489	4957
871.619	5052
871.749	5083
871.879	5143
872.008	5178
872.138	5048
872.267	5029
872.397	4854
872.526	4812
872.656	4694
872.785	4793
872.915	4987
873.044	5025
873.173	4919
873.303	4965
873.432	4904
873.561	4938
873.69	4862
873.819	4908
873.948	4896
874.077	4839
874.206	4812
874.335	4809
874.464	4892
874.593	5086
874.722	4991
874.851	5067
874.979	5071
875.108	4999
875.237	4896
875.365	4870
875.494	4881
875.623	4957
875.751	4843
875.88	4866
876.008	4961
876.136	5003
876.265	5140
876.393	5364
876.521	5258
876.65	5162
876.778	5147
876.906	5052
877.034	5018
877.162	5029
877.29	5010
877.418	5071
877.546	5075
877.674	4999
877.802	5014
877.93	5022
878.058	4900
878.185	4843
878.313	4965
878.441	4930
878.568	4729
878.696	4839
878.824	4919
878.951	4972
879.079	5140
879.206	5261
879.333	5098
879.461	4987
879.588	4984
879.715	5124
879.842	5254
879.97	5041
880.097	4733
880.224	4744
880.351	4786
880.478	4850
880.605	4820
880.732	4786
880.859	5094
880.986	4877
881.112	4870
881.239	4755
881.366	4679
881.493	4630
881.619	4611
881.746	4656
881.872	4645
881.999	4618
882.125	4664
882.252	4763
882.378	4850
882.505	4904
882.631	4801
882.757	4649
882.883	4748
883.01	4733
883.136	4653
883.262	4607
883.388	4565
883.514	4801
883.64	4881
883.766	4847
883.892	4687
884.018	4759
884.143	4900
884.269	5037
884.395	4687
884.52	4603
884.646	4672
884.772	4592
884.897	4512
885.023	4687
885.148	4774
885.274	4847
885.399	4797
885.524	4740
885.65	4660
885.775	4752
885.9	4668
886.025	4873
886.15	4759
886.275	4683
886.4	4706
886.525	4755
886.65	4691
886.775	4698
886.9	4900
887.025	5056
887.149	4820
887.274	4649
887.399	4561
887.523	4615
887.648	4592
887.773	4561
887.897	4748
888.021	4759
888.146	4653
888.27	4774
888.395	4873
888.519	4767
888.643	4793
888.767	4831
888.891	4706
889.015	4615
889.139	4622
889.263	4641
889.387	4763
889.511	4816
889.635	4812
889.759	4630
889.883	4660
890.006	4721
890.13	4805
890.254	4573
890.377	4691
890.501	4527
890.624	4508
890.748	4611
890.871	4466
890.995	4470
891.118	4383
891.241	4512
891.364	4558
891.488	4603
891.611	4462
891.734	4527
891.857	4565
891.98	4573
892.103	4702
892.226	4577
892.349	4478
892.471	4440
892.594	4599
892.717	4508
892.839	4550
892.962	4554
893.085	4656
893.207	4607
893.33	4481
893.452	4489
893.575	4645
893.697	4558
893.819	4782
893.941	4759
894.064	4733
894.186	4611
894.308	4565
894.43	4721
894.552	4782
894.674	4767
894.796	4519
894.918	4554
895.04	4573
895.161	4706
895.283	4641
895.405	4542
895.526	4618
895.648	4668
895.769	4637
895.891	4744
896.012	4702
896.134	4717
896.255	4675
896.376	4622
896.498	4630
896.619	4721
896.74	4603
896.861	4664
896.982	4896
897.103	5033
897.224	4828
897.345	4694
897.466	4675
897.587	4721
897.708	4839
897.828	4759
897.949	4733
898.07	4607
898.19	4618
898.311	4824
898.431	4653
898.552	4706
898.672	4812
898.792	4797
898.913	4740
899.033	4615
899.153	4489
899.273	4462
899.393	4481
899.513	4531
899.633	4508
899.753	4535
899.873	4497
899.993	4607
900.113	4554
900.232	4565
900.352	4584
900.472	4455
900.591	4375
900.711	4443
900.83	4447
900.95	4675
901.069	4691
901.189	4577
901.308	4367
901.427	4333
901.546	4379
901.665	4516
901.784	4508
901.904	4325
902.023	4329
902.141	4181
902.26	4116
902.379	4371
902.498	4211
902.617	4265
902.735	4367
902.854	4413
902.973	4386
903.091	4207
903.21	4238
903.328	4299
903.446	4276
903.565	4291
903.683	4333
903.801	4314
903.919	4413
904.038	4455
904.156	4299
904.274	4428
904.392	4455
904.51	4459
904.627	4421
904.745	4538
904.863	4603
904.981	4375
905.098	4291
905.216	4348
905.334	4428
905.451	4413
905.569	4432
905.686	4546
905.803	4577
905.921	4402
906.038	4580
906.155	4428
906.272	4375
906.389	4508
906.506	4337
906.623	4409
906.74	4405
906.857	4341
906.974	4356
907.091	4550
907.208	4687
907.324	4573
907.441	4462
907.557	4398
907.674	4360
907.79	4337
907.907	4402
908.023	4451
908.139	4474
908.256	4436
908.372	4497
908.488	4440
908.604	4356
908.72	4291
908.836	4390
908.952	4310
909.068	4402
909.184	4546
909.3	4523
909.415	4603
909.531	4546
909.647	4352
909.762	4371
909.878	4341
909.993	4417
910.108	4383
910.224	4421
910.339	4466
910.454	4413
910.57	4375
910.685	4242
910.8	4672
910.915	4641
911.03	4508
911.145	4325
911.259	4287
911.374	4371
911.489	4295
911.604	4265
911.718	4200
911.833	4181
911.947	4135
912.062	4021
912.176	4242
912.291	4246
912.405	4257
912.519	4470
912.633	4481
912.748	4329
912.862	4257
912.976	4204
913.09	4105
913.204	4200
913.318	4223
913.431	4379
913.545	4402
913.659	4417
913.772	4371
913.886	4196
914	4207
914.113	4363
914.226	4405
914.34	4356
914.453	4234
914.566	4383
914.68	4329
914.793	4325
914.906	4154
915.019	4093
915.132	4105
915.245	4158
915.358	4234
915.47	4200
915.583	4268
915.696	4314
915.809	4417
915.921	4436
916.034	4268
916.146	4246
916.259	4181
916.371	4325
916.483	4329
916.595	4261
916.708	4310
916.82	4306
916.932	4341
917.044	4348
917.156	4394
917.268	4227
917.38	4291
917.491	4223
917.603	4299
917.715	4409
917.826	4432
917.938	4356
918.049	4249
918.161	4344
918.272	4527
918.384	4580
918.495	4432
918.606	4318
918.717	4246
918.828	4344
918.939	4322
919.05	4223
919.161	4318
919.272	4120
919.383	4215
919.494	4459
919.604	4596
919.715	4383
919.826	4337
919.936	4394
920.047	4531
920.157	4527
920.267	4679
920.378	4538
920.488	4527
920.598	4717
920.708	4866
920.818	4748
920.928	4797
921.038	4942
921.148	4892
921.258	4660
921.368	4580
921.477	4546
921.587	4447
921.697	4356
921.806	4504
921.916	4428
922.025	4287
922.134	4306
922.244	4211
922.353	4341
922.462	4162
922.571	4116
922.68	3998
922.789	3975
922.898	4036
923.007	3975
923.116	4109
923.224	4051
923.333	4074
923.442	4017
923.55	3998
923.659	4021
923.767	4090
923.876	3987
923.984	4135
924.092	4021
924.201	4036
924.309	4090
924.417	4143
924.525	4063
924.633	4051
924.741	4991
924.849	3941
924.956	4093
925.064	3937
925.172	3861
925.279	3934
925.387	4063
925.494	4059
925.602	4207
925.709	4154
925.816	4036
925.924	4105
926.031	4188
926.138	4204
926.245	4207
926.352	4112
926.459	4238
926.566	4333
926.673	4128
926.779	4086
926.886	4051
926.993	3941
927.099	3922
927.206	3968
927.312	3964
927.419	4040
927.525	4036
927.631	4093
927.737	3979
927.843	3911
927.95	3808
928.056	3945
928.162	3968
928.267	4017
928.373	4694
928.479	4101
928.585	3880
928.69	3994
928.796	4048
928.901	3945
929.007	3823
929.112	4025
929.218	3994
929.323	3930
929.428	3926
929.533	4116
929.638	3899
929.743	3926
929.848	4071
929.953	3972
930.058	3888
930.163	3808
930.267	3842
930.372	4017
930.477	3835
930.581	4082
930.685	3972
930.79	3835
930.894	3899
930.998	3880
931.103	4051
931.207	3698
931.311	3720
931.415	3663
931.519	3519
931.623	3519
