Data from test_V78500241_1175.txt Node
Date: Fri Mar 25 16:57:10 CST 2022
User: usil
Spectrometer: V785-0024
Trigger mode: 0
Integration Time (sec): 4.000000E-1
Scans to average: 1
Nonlinearity correction enabled: false
Boxcar width: 0
Storing dark spectrum: false
XAxis mode: Wavelengths
Number of Pixels in Spectrum: 1024
>>>>>Begin Spectral Data<<<<<
801.071	8054
801.214	7963
801.356	7879
801.499	7849
801.641	7734
801.783	7841
801.926	7928
802.068	7925
802.211	7959
802.353	7970
802.496	7814
802.638	7890
802.78	7875
802.923	7898
803.065	7852
803.208	7890
803.35	7928
803.492	8088
803.635	8142
803.777	7959
803.919	8138
804.061	8469
804.204	8153
804.346	8054
804.488	7986
804.63	8008
804.773	8027
804.915	8024
805.057	8244
805.199	8153
805.341	8168
805.483	8263
805.626	8130
805.768	8142
805.91	8206
806.052	8214
806.194	8138
806.336	8309
806.478	8008
806.62	8005
806.762	8157
806.904	8237
807.046	8465
807.188	8339
807.33	8294
807.472	8259
807.614	8119
807.756	8107
807.898	7970
808.04	7792
808.182	7925
808.324	7875
808.465	7967
808.607	8069
808.749	8073
808.891	8153
809.033	8279
809.174	8202
809.316	8012
809.458	8050
809.6	8031
809.741	8069
809.883	8012
810.025	8046
810.166	8039
810.308	8069
810.45	7974
810.591	7875
810.733	7731
810.875	7609
811.016	7548
811.158	7491
811.299	7609
811.441	7772
811.582	7734
811.724	7624
811.865	7521
812.007	7544
812.148	7563
812.29	7655
812.431	7746
812.573	7849
812.714	7947
812.855	8081
812.997	8191
813.138	8339
813.279	8168
813.421	8088
813.562	7997
813.703	7811
813.845	7685
813.986	7388
814.127	7251
814.268	7209
814.41	7198
814.551	7095
814.692	7107
814.833	7088
814.974	7076
815.115	7103
815.256	6924
815.397	6909
815.539	6985
815.68	6840
815.821	6806
815.962	6856
816.103	6772
816.244	6772
816.385	6627
816.526	6601
816.666	6445
816.807	6281
816.948	6509
817.089	6486
817.23	6410
817.371	6426
817.512	6372
817.653	6376
817.793	6365
817.934	6456
818.075	6471
818.216	6410
818.356	6422
818.497	6205
818.638	6136
818.778	6167
818.919	6163
819.06	6114
819.2	6376
819.341	6308
819.481	6350
819.622	6559
819.762	6734
819.903	6665
820.043	6574
820.184	6570
820.324	6540
820.465	6635
820.605	6639
820.746	6589
820.886	6486
821.026	6608
821.167	6650
821.307	6711
821.447	6715
821.588	6658
821.728	6551
821.868	6471
822.008	6285
822.149	6418
822.289	6308
822.429	6114
822.569	6068
822.709	6064
822.849	5927
822.99	5859
823.13	5893
823.27	5950
823.41	5733
823.55	5805
823.69	5733
823.83	5752
823.97	5634
824.11	5539
824.25	5478
824.389	5532
824.529	5539
824.669	5493
824.809	5653
824.949	5581
825.089	5577
825.228	5497
825.368	5391
825.508	5341
825.648	5357
825.787	5368
825.927	5379
826.067	5280
826.206	5258
826.346	5337
826.485	5357
826.625	5383
826.765	5592
826.904	5463
827.044	5223
827.183	5178
827.323	5083
827.462	5162
827.601	5151
827.741	5136
827.88	5170
828.02	5140
828.159	5239
828.298	5265
828.437	5334
828.577	5303
828.716	5490
828.855	5299
828.994	5140
829.134	5124
829.273	5159
829.412	5178
829.551	5113
829.69	5136
829.829	5216
829.968	5383
830.107	5296
830.246	5261
830.385	5136
830.524	5143
830.663	5056
830.802	4915
830.941	4885
831.08	4847
831.219	4938
831.357	4968
831.496	5136
831.635	4919
831.774	4858
831.913	4854
832.051	4710
832.19	4714
832.329	4839
832.467	4698
832.606	4645
832.744	4683
832.883	4691
833.022	4664
833.16	4778
833.299	4786
833.437	4839
833.576	4809
833.714	4782
833.852	4847
833.991	4873
834.129	4870
834.267	4908
834.406	4885
834.544	4961
834.682	4991
834.821	4911
834.959	5121
835.097	5025
835.235	5075
835.373	5052
835.511	5098
835.65	4942
835.788	4961
835.926	4839
836.064	4850
836.202	4870
836.34	5147
836.478	5242
836.615	5102
836.753	5246
836.891	5273
837.029	5231
837.167	5170
837.305	5121
837.443	5121
837.58	5048
837.718	5235
837.856	5170
837.993	5155
838.131	5242
838.269	5143
838.406	5212
838.544	5185
838.681	5014
838.819	4999
838.956	4870
839.094	4892
839.231	4942
839.369	5060
839.506	5364
839.643	5197
839.781	5033
839.918	4995
840.055	5075
840.193	5079
840.33	5075
840.467	5105
840.604	5151
840.742	5421
840.879	5094
841.016	5090
841.153	5159
841.29	5368
841.427	5330
841.564	5288
841.701	5353
841.838	5239
841.975	5216
842.112	5223
842.249	5155
842.385	5067
842.522	5292
842.659	5117
842.796	5113
842.933	5212
843.069	5113
843.206	5128
843.343	5315
843.479	5204
843.616	5242
843.752	4991
843.889	4980
844.025	5166
844.162	4995
844.298	5208
844.435	5052
844.571	5045
844.708	5181
844.844	5273
844.98	5292
845.117	5296
845.253	5121
845.389	5109
845.525	5147
845.661	5113
845.798	5033
845.934	5098
846.07	5041
846.206	5170
846.342	5235
846.478	5155
846.614	4968
846.75	5022
846.886	4915
847.022	5121
847.158	5025
847.294	5022
847.429	5067
847.565	5025
847.701	5315
847.837	4839
847.972	4778
848.108	4953
848.244	4949
848.379	4759
848.515	4672
848.65	4725
848.786	4744
848.921	4755
849.057	4816
849.192	4961
849.328	4790
849.463	4850
849.598	4771
849.734	4755
849.869	4721
850.004	4634
850.14	4706
850.275	4611
850.41	4535
850.545	4546
850.68	4630
850.815	4603
850.95	4630
851.085	4835
851.22	4729
851.355	4630
851.49	4641
851.625	4668
851.76	4626
851.895	4554
852.03	4542
852.165	4698
852.299	4744
852.434	4786
852.569	4706
852.703	4812
852.838	4816
852.973	4976
853.107	4927
853.242	4778
853.376	4656
853.511	4599
853.645	4668
853.78	4809
853.914	4717
854.048	4736
854.183	4664
854.317	4717
854.451	4873
854.585	4683
854.72	4656
854.854	4759
854.988	4611
855.122	4660
855.256	4531
855.39	4691
855.524	4881
855.658	4771
855.792	4740
855.926	4740
856.06	4759
856.194	4812
856.327	4729
856.461	4607
856.595	4675
856.729	4630
856.862	4797
856.996	4660
857.13	4778
857.263	4755
857.397	4885
857.53	4664
857.664	4793
857.797	4809
857.931	4793
858.064	4694
858.197	4778
858.331	4653
858.464	4694
858.597	4561
858.731	4668
858.864	4694
858.997	4592
859.13	4706
859.263	4706
859.396	4733
859.529	4592
859.662	4573
859.795	4538
859.928	4634
860.061	4778
860.194	4801
860.327	4603
860.46	4546
860.592	4702
860.725	4763
860.858	4721
860.99	4554
861.123	4550
861.256	4535
861.388	4653
861.521	5265
861.653	4554
861.786	4489
861.918	4459
862.05	4542
862.183	4577
862.315	4596
862.447	4694
862.58	4535
862.712	4398
862.844	4322
862.976	4512
863.108	4451
863.24	4927
863.372	4386
863.504	4421
863.636	4421
863.768	4535
863.9	4436
864.032	4405
864.164	4451
864.296	4489
864.428	4569
864.559	4565
864.691	4550
864.823	4569
864.954	4535
865.086	4558
865.217	4500
865.349	4500
865.48	4451
865.612	4527
865.743	4618
865.875	4512
866.006	4371
866.137	4519
866.269	4462
866.4	4466
866.531	4500
866.662	4436
866.793	4481
866.924	4451
867.055	4519
867.186	4478
867.317	4455
867.448	4360
867.579	4459
867.71	4383
867.841	4383
867.972	4493
868.103	4440
868.233	4500
868.364	4459
868.495	4470
868.625	4698
868.756	4797
868.886	4546
869.017	4573
869.147	4778
869.278	4767
869.408	4687
869.539	4607
869.669	4702
869.799	4656
869.929	4744
870.06	4733
870.19	4968
870.32	4904
870.45	4911
870.58	5041
870.71	5086
870.84	5128
870.97	4946
871.1	4915
871.23	5178
871.36	5121
871.489	4984
871.619	5090
871.749	5136
871.879	5166
872.008	5189
872.138	5052
872.267	4995
872.397	4858
872.526	4805
872.656	4752
872.785	4812
872.915	4968
873.044	5064
873.173	4942
873.303	4995
873.432	4965
873.561	4934
873.69	4961
873.819	4915
873.948	4915
874.077	4790
874.206	4786
874.335	4786
874.464	4946
874.593	5025
874.722	4930
874.851	5105
874.979	5048
875.108	5048
875.237	4881
875.365	4942
875.494	4934
875.623	4980
875.751	4885
875.88	4870
876.008	4949
876.136	5056
876.265	5250
876.393	5296
876.521	5292
876.65	5258
876.778	5204
876.906	5102
877.034	5033
877.162	5067
877.29	4976
877.418	5090
877.546	5121
877.674	5071
877.802	5075
877.93	4999
878.058	4968
878.185	4877
878.313	4991
878.441	4957
878.568	4812
878.696	4900
878.824	4980
878.951	5010
879.079	5090
879.206	5288
879.333	5109
879.461	4995
879.588	4999
879.715	5136
879.842	5242
879.97	5029
880.097	4793
880.224	4774
880.351	4782
880.478	4801
880.605	4809
880.732	4797
880.859	5102
880.986	4953
881.112	4949
881.239	4797
881.366	4679
881.493	4656
881.619	4603
881.746	4649
881.872	4664
881.999	4748
882.125	4664
882.252	4812
882.378	4862
882.505	4987
882.631	4816
882.757	4649
882.883	4759
883.01	4725
883.136	4698
883.262	4580
883.388	4611
883.514	4850
883.64	4870
883.766	4835
883.892	4710
884.018	4790
884.143	4900
884.269	5086
884.395	4679
884.52	4637
884.646	4675
884.772	4618
884.897	4577
885.023	4694
885.148	4763
885.274	4839
885.399	4908
885.524	4694
885.65	4725
885.775	4763
885.9	4778
886.025	4843
886.15	4828
886.275	4725
886.4	4645
886.525	4744
886.65	4729
886.775	4714
886.9	4904
887.025	5037
887.149	4816
887.274	4683
887.399	4573
887.523	4637
887.648	4599
887.773	4634
887.897	4801
888.021	4824
888.146	4710
888.27	4835
888.395	4946
888.519	4767
888.643	4824
888.767	4850
888.891	4679
889.015	4611
889.139	4694
889.263	4668
889.387	4801
889.511	4870
889.635	4786
889.759	4672
889.883	4698
890.006	4702
890.13	4824
890.254	4641
890.377	4675
890.501	4599
890.624	4569
890.748	4656
890.871	4542
890.995	4466
891.118	4405
891.241	4531
891.364	4508
891.488	4626
891.611	4519
891.734	4561
891.857	4634
891.98	4577
892.103	4683
892.226	4603
892.349	4535
892.471	4436
892.594	4569
892.717	4611
892.839	4611
892.962	4599
893.085	4675
893.207	4584
893.33	4455
893.452	4554
893.575	4710
893.697	4577
893.819	4835
893.941	4809
894.064	4797
894.186	4618
894.308	4573
894.43	4763
894.552	4843
894.674	4797
894.796	4535
894.918	4645
895.04	4485
895.161	4771
895.283	4672
895.405	4596
895.526	4649
895.648	4736
895.769	4733
895.891	4733
896.012	4729
896.134	4736
896.255	4668
896.376	4634
896.498	4679
896.619	4721
896.74	4672
896.861	4649
896.982	4908
897.103	5090
897.224	4858
897.345	4782
897.466	4668
897.587	4774
897.708	4900
897.828	4820
897.949	4668
898.07	4599
898.19	4634
898.311	4854
898.431	4679
898.552	4759
898.672	4812
898.792	4850
898.913	4752
899.033	4668
899.153	4519
899.273	4451
899.393	4527
899.513	4538
899.633	4542
899.753	4523
899.873	4500
899.993	4607
900.113	4500
900.232	4645
900.352	4542
900.472	4489
900.591	4375
900.711	4489
900.83	4474
900.95	4664
901.069	4683
901.189	4538
901.308	4314
901.427	4363
901.546	4394
901.665	4500
901.784	4500
901.904	4428
902.023	4352
902.141	4211
902.26	4177
902.379	4322
902.498	4268
902.617	4242
902.735	4367
902.854	4375
902.973	4386
903.091	4215
903.21	4234
903.328	4318
903.446	4268
903.565	4299
903.683	4352
903.801	4310
903.919	4417
904.038	4470
904.156	4295
904.274	4428
904.392	4360
904.51	4497
904.627	4466
904.745	4580
904.863	4702
904.981	4421
905.098	4348
905.216	4363
905.334	4413
905.451	4428
905.569	4413
905.686	4626
905.803	4641
905.921	4421
906.038	4535
906.155	4523
906.272	4409
906.389	4516
906.506	4383
906.623	4375
906.74	4405
906.857	4314
906.974	4363
907.091	4558
907.208	4687
907.324	4618
907.441	4497
907.557	4375
907.674	4363
907.79	4329
907.907	4344
908.023	4478
908.139	4519
908.256	4436
908.372	4417
908.488	4474
908.604	4363
908.72	4344
908.836	4386
908.952	4367
909.068	4421
909.184	4558
909.3	4470
909.415	4565
909.531	4538
909.647	4421
909.762	4383
909.878	4348
909.993	4443
910.108	4402
910.224	4424
910.339	4481
910.454	4405
910.57	4371
910.685	4280
910.8	4645
910.915	4599
911.03	4466
911.145	4303
911.259	4318
911.374	4402
911.489	4356
911.604	4257
911.718	4196
911.833	4234
911.947	4105
912.062	4063
912.176	4204
912.291	4265
912.405	4253
912.519	4447
912.633	4500
912.748	4367
912.862	4325
912.976	4261
913.09	4074
913.204	4185
913.318	4284
913.431	4371
913.545	4337
913.659	4459
913.772	4386
913.886	4242
914	4242
914.113	4356
914.226	4432
914.34	4333
914.453	4230
914.566	4360
914.68	4356
914.793	4314
914.906	4169
915.019	4097
915.132	4093
915.245	4158
915.358	4211
915.47	4234
915.583	4295
915.696	4303
915.809	4405
915.921	4424
916.034	4242
916.146	4284
916.259	4246
916.371	4424
916.483	4314
916.595	4261
916.708	4303
916.82	4291
916.932	4303
917.044	4352
917.156	4344
917.268	4242
917.38	4314
917.491	4299
917.603	4371
917.715	4466
917.826	4443
917.938	4379
918.049	4299
918.161	4424
918.272	4527
918.384	4569
918.495	4500
918.606	4295
918.717	4280
918.828	4318
918.939	4409
919.05	4287
919.161	4337
919.272	4177
919.383	4238
919.494	4413
919.604	4653
919.715	4440
919.826	4375
919.936	4432
920.047	4588
920.157	4523
920.267	4736
920.378	4592
920.488	4558
920.598	4729
920.708	4930
920.818	4797
920.928	4801
921.038	4968
921.148	4930
921.258	4645
921.368	4588
921.477	4573
921.587	4462
921.697	4398
921.806	4615
921.916	4462
922.025	4329
922.134	4325
922.244	4268
922.353	4390
922.462	4223
922.571	4154
922.68	3994
922.789	4074
922.898	4074
923.007	4021
923.116	4120
923.224	4101
923.333	4135
923.442	4040
923.55	4010
923.659	4044
923.767	4185
923.876	4063
923.984	4150
924.092	3987
924.201	4112
924.309	4158
924.417	4196
924.525	4131
924.633	4124
924.741	5075
924.849	3911
924.956	4139
925.064	3987
925.172	3941
925.279	3987
925.387	4109
925.494	4082
925.602	4211
925.709	4188
925.816	4082
925.924	4131
926.031	4249
926.138	4181
926.245	4257
926.352	4135
926.459	4303
926.566	4329
926.673	4188
926.779	4101
926.886	4090
926.993	4074
927.099	3964
927.206	3949
927.312	3960
927.419	4109
927.525	4021
927.631	4162
927.737	4048
927.843	3994
927.95	3896
928.056	4006
928.162	4025
928.267	4105
928.373	4744
928.479	4162
928.585	3930
928.69	3994
928.796	4093
928.901	4013
929.007	3884
929.112	4021
929.218	3964
929.323	3964
929.428	3964
929.533	4169
929.638	3956
929.743	4017
929.848	4078
929.953	4044
930.058	3983
930.163	3804
930.267	3896
930.372	4017
930.477	3857
930.581	4116
930.685	3941
930.79	3850
930.894	3949
930.998	3846
931.103	4112
931.207	3743
931.311	3720
931.415	3717
931.519	3564
931.623	3633
