Data from test_V78500241_1552.txt Node
Date: Fri Mar 25 16:59:47 CST 2022
User: usil
Spectrometer: V785-0024
Trigger mode: 0
Integration Time (sec): 4.000000E-1
Scans to average: 1
Nonlinearity correction enabled: false
Boxcar width: 0
Storing dark spectrum: false
XAxis mode: Wavelengths
Number of Pixels in Spectrum: 1024
>>>>>Begin Spectral Data<<<<<
801.071	8012
801.214	8027
801.356	7917
801.499	7769
801.641	7765
801.783	7822
801.926	7902
802.068	7887
802.211	7997
802.353	8001
802.496	7780
802.638	7864
802.78	7868
802.923	7913
803.065	7761
803.208	7795
803.35	7917
803.492	8073
803.635	8183
803.777	7982
803.919	8084
804.061	8419
804.204	8081
804.346	8043
804.488	7959
804.63	8050
804.773	8088
804.915	8134
805.057	8282
805.199	8119
805.341	8240
805.483	8313
805.626	8176
805.768	8096
805.91	8176
806.052	8172
806.194	8100
806.336	8259
806.478	8050
806.62	8065
806.762	8149
806.904	8214
807.046	8457
807.188	8374
807.33	8290
807.472	8336
807.614	8157
807.756	8096
807.898	7917
808.04	7849
808.182	7898
808.324	7856
808.465	7864
808.607	8088
808.749	8092
808.891	8142
809.033	8263
809.174	8157
809.316	8077
809.458	8046
809.6	7986
809.741	7928
809.883	7951
810.025	8084
810.166	8069
810.308	7974
810.45	7982
810.591	7856
810.733	7681
810.875	7643
811.016	7460
811.158	7502
811.299	7620
811.441	7731
811.582	7609
811.724	7582
811.865	7571
812.007	7552
812.148	7563
812.29	7597
812.431	7704
812.573	7871
812.714	7963
812.855	8130
812.997	8233
813.138	8324
813.279	8252
813.421	8058
813.562	7986
813.703	7792
813.845	7750
813.986	7430
814.127	7289
814.268	7305
814.41	7213
814.551	7209
814.692	7164
814.833	7015
814.974	7095
815.115	7164
815.256	6886
815.397	6939
815.539	6939
815.68	6795
815.821	6757
815.962	6825
816.103	6783
816.244	6696
816.385	6620
816.526	6578
816.666	6490
816.807	6266
816.948	6429
817.089	6479
817.23	6441
817.371	6327
817.512	6384
817.653	6342
817.793	6346
817.934	6376
818.075	6388
818.216	6380
818.356	6334
818.497	6292
818.638	6106
818.778	6106
818.919	6171
819.06	6136
819.2	6277
819.341	6346
819.481	6369
819.622	6517
819.762	6734
819.903	6730
820.043	6589
820.184	6646
820.324	6547
820.465	6639
820.605	6703
820.746	6635
820.886	6429
821.026	6684
821.167	6677
821.307	6779
821.447	6749
821.588	6684
821.728	6517
821.868	6532
822.008	6342
822.149	6357
822.289	6346
822.429	6159
822.569	6087
822.709	6083
822.849	5920
822.99	5870
823.13	5893
823.27	5927
823.41	5805
823.55	5752
823.69	5748
823.83	5775
823.97	5649
824.11	5535
824.25	5528
824.389	5539
824.529	5566
824.669	5547
824.809	5592
824.949	5653
825.089	5600
825.228	5539
825.368	5391
825.508	5349
825.648	5376
825.787	5387
825.927	5330
826.067	5292
826.206	5318
826.346	5387
826.485	5353
826.625	5402
826.765	5585
826.904	5505
827.044	5250
827.183	5197
827.323	5083
827.462	5250
827.601	5159
827.741	5140
827.88	5185
828.02	5136
828.159	5250
828.298	5261
828.437	5337
828.577	5334
828.716	5532
828.855	5337
828.994	5140
829.134	5098
829.273	5181
829.412	5162
829.551	5185
829.69	5151
829.829	5258
829.968	5315
830.107	5227
830.246	5201
830.385	5147
830.524	5109
830.663	5041
830.802	4949
830.941	4831
831.08	4858
831.219	4972
831.357	4984
831.496	5178
831.635	4862
831.774	4812
831.913	4862
832.051	4748
832.19	4706
832.329	4809
832.467	4698
832.606	4630
832.744	4733
832.883	4740
833.022	4725
833.16	4744
833.299	4843
833.437	4816
833.576	4809
833.714	4839
833.852	4816
833.991	4866
834.129	4900
834.267	4957
834.406	4862
834.544	4953
834.682	4938
834.821	4968
834.959	5140
835.097	5003
835.235	5174
835.373	5136
835.511	5121
835.65	5045
835.788	4991
835.926	4831
836.064	4828
836.202	4866
836.34	5178
836.478	5208
836.615	5117
836.753	5166
836.891	5227
837.029	5277
837.167	5185
837.305	5124
837.443	5102
837.58	5045
837.718	5201
837.856	5162
837.993	5155
838.131	5239
838.269	5227
838.406	5185
838.544	5117
838.681	5010
838.819	4999
838.956	4915
839.094	4896
839.231	4968
839.369	5079
839.506	5334
839.643	5258
839.781	5048
839.918	4984
840.055	5117
840.193	5071
840.33	5071
840.467	5147
840.604	5197
840.742	5459
840.879	5056
841.016	5048
841.153	5136
841.29	5402
841.427	5322
841.564	5349
841.701	5345
841.838	5277
841.975	5197
842.112	5231
842.249	5102
842.385	5045
842.522	5315
842.659	5181
842.796	5128
842.933	5185
843.069	5136
843.206	5079
843.343	5258
843.479	5254
843.616	5284
843.752	5075
843.889	4961
844.025	5246
844.162	5014
844.298	5193
844.435	5079
844.571	5048
844.708	5178
844.844	5337
844.98	5318
845.117	5349
845.253	5162
845.389	5079
845.525	5159
845.661	5098
845.798	5014
845.934	5090
846.07	5090
846.206	5166
846.342	5269
846.478	5159
846.614	5041
846.75	4961
846.886	4927
847.022	5121
847.158	5018
847.294	4999
847.429	5060
847.565	5003
847.701	5379
847.837	4908
847.972	4786
848.108	4930
848.244	4942
848.379	4744
848.515	4717
848.65	4710
848.786	4763
848.921	4771
849.057	4900
849.192	4885
849.328	4782
849.463	4835
849.598	4752
849.734	4725
849.869	4687
850.004	4637
850.14	4649
850.275	4596
850.41	4504
850.545	4504
850.68	4592
850.815	4580
850.95	4656
851.085	4835
851.22	4755
851.355	4683
851.49	4607
851.625	4618
851.76	4653
851.895	4561
852.03	4485
852.165	4634
852.299	4717
852.434	4759
852.569	4729
852.703	4740
852.838	4873
852.973	4908
853.107	4854
853.242	4710
853.376	4672
853.511	4596
853.645	4611
853.78	4812
853.914	4653
854.048	4660
854.183	4626
854.317	4668
854.451	4850
854.585	4668
854.72	4668
854.854	4778
854.988	4588
855.122	4649
855.256	4527
855.39	4634
855.524	4778
855.658	4752
855.792	4733
855.926	4694
856.06	4740
856.194	4782
856.327	4649
856.461	4558
856.595	4637
856.729	4618
856.862	4721
856.996	4687
857.13	4679
857.263	4793
857.397	4755
857.53	4599
857.664	4687
857.797	4835
857.931	4786
858.064	4675
858.197	4748
858.331	4603
858.464	4611
858.597	4516
858.731	4580
858.864	4645
858.997	4573
859.13	4664
859.263	4641
859.396	4702
859.529	4611
859.662	4527
859.795	4554
859.928	4634
860.061	4755
860.194	4786
860.327	4607
860.46	4577
860.592	4664
860.725	4714
860.858	4653
860.99	4558
861.123	4504
861.256	4519
861.388	4584
861.521	5254
861.653	4497
861.786	4409
861.918	4466
862.05	4478
862.183	4558
862.315	4649
862.447	4687
862.58	4546
862.712	4409
862.844	4299
862.976	4455
863.108	4436
863.24	4771
863.372	4325
863.504	4421
863.636	4398
863.768	4466
863.9	4375
864.032	4386
864.164	4383
864.296	4455
864.428	4497
864.559	4531
864.691	4485
864.823	4504
864.954	4493
865.086	4500
865.217	4466
865.349	4394
865.48	4436
865.612	4478
865.743	4649
865.875	4474
866.006	4421
866.137	4462
866.269	4440
866.4	4436
866.531	4428
866.662	4405
866.793	4398
866.924	4394
867.055	4508
867.186	4447
867.317	4390
867.448	4379
867.579	4402
867.71	4394
867.841	4348
867.972	4424
868.103	4440
868.233	4428
868.364	4478
868.495	4493
868.625	4622
868.756	4733
868.886	4550
869.017	4630
869.147	4763
869.278	4759
869.408	4706
869.539	4607
869.669	4733
869.799	4618
869.929	4717
870.06	4668
870.19	4972
870.32	4904
870.45	4896
870.58	4984
870.71	5022
870.84	5109
870.97	4908
871.1	4847
871.23	5132
871.36	5121
871.489	5025
871.619	5033
871.749	5128
871.879	5086
872.008	5261
872.138	5045
872.267	4991
872.397	4778
872.526	4721
872.656	4710
872.785	4824
872.915	4957
873.044	5025
873.173	4949
873.303	4965
873.432	4919
873.561	4934
873.69	4889
873.819	4801
873.948	4877
874.077	4809
874.206	4744
874.335	4816
874.464	4900
874.593	5029
874.722	4968
874.851	5075
874.979	5071
875.108	5052
875.237	4927
875.365	4862
875.494	4870
875.623	4999
875.751	4755
875.88	4877
876.008	4991
876.136	4991
876.265	5140
876.393	5307
876.521	5242
876.65	5227
876.778	5151
876.906	5098
877.034	5037
877.162	5014
877.29	4976
877.418	5041
877.546	5075
877.674	5037
877.802	5003
877.93	5014
878.058	4942
878.185	4854
878.313	4968
878.441	4965
878.568	4774
878.696	4816
878.824	4957
878.951	5018
879.079	5128
879.206	5265
879.333	5094
879.461	4991
879.588	4957
879.715	5098
879.842	5174
879.97	5033
880.097	4771
880.224	4702
880.351	4812
880.478	4793
880.605	4824
880.732	4759
880.859	5121
880.986	4885
881.112	4942
881.239	4755
881.366	4656
881.493	4603
881.619	4599
881.746	4615
881.872	4653
881.999	4618
882.125	4710
882.252	4767
882.378	4862
882.505	4923
882.631	4812
882.757	4672
882.883	4721
883.01	4702
883.136	4622
883.262	4584
883.388	4546
883.514	4812
883.64	4831
883.766	4740
883.892	4656
884.018	4687
884.143	4870
884.269	4961
884.395	4668
884.52	4584
884.646	4607
884.772	4588
884.897	4561
885.023	4653
885.148	4767
885.274	4839
885.399	4771
885.524	4687
885.65	4714
885.775	4736
885.9	4702
886.025	4889
886.15	4767
886.275	4748
886.4	4664
886.525	4698
886.65	4706
886.775	4687
886.9	4873
887.025	4999
887.149	4820
887.274	4668
887.399	4538
887.523	4565
887.648	4588
887.773	4558
887.897	4755
888.021	4740
888.146	4660
888.27	4809
888.395	4892
888.519	4801
888.643	4793
888.767	4797
888.891	4615
889.015	4645
889.139	4675
889.263	4649
889.387	4736
889.511	4843
889.635	4805
889.759	4634
889.883	4649
890.006	4778
890.13	4793
890.254	4607
890.377	4683
890.501	4531
890.624	4550
890.748	4672
890.871	4558
890.995	4459
891.118	4356
891.241	4474
891.364	4504
891.488	4611
891.611	4489
891.734	4508
891.857	4626
891.98	4538
892.103	4630
892.226	4573
892.349	4500
892.471	4432
892.594	4588
892.717	4607
892.839	4565
892.962	4596
893.085	4668
893.207	4588
893.33	4428
893.452	4535
893.575	4656
893.697	4596
893.819	4831
893.941	4793
894.064	4736
894.186	4603
894.308	4588
894.43	4710
894.552	4797
894.674	4771
894.796	4538
894.918	4615
895.04	4622
895.161	4710
895.283	4668
895.405	4580
895.526	4618
895.648	4660
895.769	4664
895.891	4755
896.012	4729
896.134	4694
896.255	4668
896.376	4664
896.498	4599
896.619	4672
896.74	4527
896.861	4615
896.982	4927
897.103	5056
897.224	4831
897.345	4740
897.466	4687
897.587	4702
897.708	4854
897.828	4778
897.949	4653
898.07	4554
898.19	4675
898.311	4828
898.431	4679
898.552	4733
898.672	4843
898.792	4778
898.913	4725
899.033	4573
899.153	4478
899.273	4451
899.393	4512
899.513	4508
899.633	4558
899.753	4531
899.873	4516
899.993	4558
900.113	4531
900.232	4577
900.352	4535
900.472	4443
900.591	4390
900.711	4485
900.83	4440
900.95	4645
901.069	4668
901.189	4565
901.308	4303
901.427	4375
901.546	4383
901.665	4447
901.784	4527
901.904	4363
902.023	4230
902.141	4227
902.26	4200
902.379	4287
902.498	4207
902.617	4215
902.735	4413
902.854	4398
902.973	4344
903.091	4188
903.21	4230
903.328	4291
903.446	4295
903.565	4291
903.683	4363
903.801	4249
903.919	4371
904.038	4432
904.156	4325
904.274	4424
904.392	4409
904.51	4428
904.627	4451
904.745	4546
904.863	4588
904.981	4402
905.098	4291
905.216	4341
905.334	4428
905.451	4417
905.569	4459
905.686	4512
905.803	4599
905.921	4436
906.038	4558
906.155	4497
906.272	4375
906.389	4470
906.506	4352
906.623	4352
906.74	4394
906.857	4344
906.974	4363
907.091	4519
907.208	4679
907.324	4580
907.441	4481
907.557	4390
907.674	4356
907.79	4272
907.907	4348
908.023	4470
908.139	4497
908.256	4417
908.372	4489
908.488	4462
908.604	4329
908.72	4329
908.836	4398
908.952	4375
909.068	4436
909.184	4558
909.3	4489
909.415	4588
909.531	4538
909.647	4322
909.762	4398
909.878	4306
909.993	4428
910.108	4398
910.224	4417
910.339	4481
910.454	4375
910.57	4383
910.685	4295
910.8	4634
910.915	4584
911.03	4470
911.145	4295
911.259	4295
911.374	4405
911.489	4295
911.604	4272
911.718	4158
911.833	4196
911.947	4051
912.062	4063
912.176	4200
912.291	4204
912.405	4204
912.519	4462
912.633	4470
912.748	4333
912.862	4333
912.976	4215
913.09	4101
913.204	4166
913.318	4249
913.431	4360
913.545	4371
913.659	4470
913.772	4363
913.886	4238
914	4207
914.113	4371
914.226	4421
914.34	4402
914.453	4238
914.566	4394
914.68	4295
914.793	4306
914.906	4166
915.019	4116
915.132	4097
915.245	4150
915.358	4230
915.47	4295
915.583	4238
915.696	4272
915.809	4390
915.921	4421
916.034	4230
916.146	4223
916.259	4200
916.371	4383
916.483	4371
916.595	4253
916.708	4337
916.82	4325
916.932	4333
917.044	4367
917.156	4341
917.268	4219
917.38	4272
917.491	4257
917.603	4360
917.715	4424
917.826	4432
917.938	4344
918.049	4234
918.161	4348
918.272	4569
918.384	4561
918.495	4466
918.606	4287
918.717	4261
918.828	4299
918.939	4341
919.05	4230
919.161	4299
919.272	4109
919.383	4249
919.494	4428
919.604	4687
919.715	4421
919.826	4390
919.936	4356
920.047	4535
920.157	4447
920.267	4687
920.378	4558
920.488	4462
920.598	4683
920.708	4877
920.818	4759
920.928	4812
921.038	4934
921.148	4923
921.258	4599
921.368	4542
921.477	4538
921.587	4466
921.697	4375
921.806	4535
921.916	4436
922.025	4303
922.134	4284
922.244	4192
922.353	4265
922.462	4166
922.571	4120
922.68	3994
922.789	3964
922.898	4002
923.007	3998
923.116	4128
923.224	4044
923.333	4109
923.442	3964
923.55	3994
923.659	3987
923.767	4082
923.876	3998
923.984	4166
924.092	3972
924.201	4078
924.309	4044
924.417	4082
924.525	4071
924.633	4112
924.741	4949
924.849	3876
924.956	4131
925.064	3941
925.172	3873
925.279	3953
925.387	4078
925.494	4036
925.602	4207
925.709	4211
925.816	4025
925.924	4090
926.031	4200
926.138	4169
926.245	4181
926.352	4048
926.459	4268
926.566	4295
926.673	4131
926.779	4109
926.886	4017
926.993	3979
927.099	3975
927.206	3926
927.312	3972
927.419	4059
927.525	4025
927.631	4086
927.737	4010
927.843	3953
927.95	3842
928.056	3991
928.162	3983
928.267	4036
928.373	4573
928.479	4150
928.585	3873
928.69	3979
928.796	4040
928.901	3991
929.007	3850
929.112	3949
929.218	3979
929.323	3960
929.428	3972
929.533	4078
929.638	3876
929.743	3979
929.848	4044
929.953	3956
930.058	3888
930.163	3808
930.267	3854
930.372	3930
930.477	3755
930.581	4078
930.685	3903
930.79	3812
930.894	3903
930.998	3816
931.103	4036
931.207	3728
931.311	3675
931.415	3656
931.519	3542
931.623	3568
