Data from test_V78500241_2331.txt Node
Date: Fri Mar 25 17:05:12 CST 2022
User: usil
Spectrometer: V785-0024
Trigger mode: 0
Integration Time (sec): 4.000000E-1
Scans to average: 1
Nonlinearity correction enabled: false
Boxcar width: 0
Storing dark spectrum: false
XAxis mode: Wavelengths
Number of Pixels in Spectrum: 1024
>>>>>Begin Spectral Data<<<<<
801.071	7959
801.214	7963
801.356	7852
801.499	7875
801.641	7822
801.783	7826
801.926	7909
802.068	7890
802.211	8058
802.353	7978
802.496	7902
802.638	7830
802.78	7826
802.923	7875
803.065	7894
803.208	7875
803.35	8001
803.492	8111
803.635	8134
803.777	8008
803.919	8142
804.061	8415
804.204	8237
804.346	8035
804.488	7963
804.63	8092
804.773	8039
804.915	8115
805.057	8328
805.199	8229
805.341	8244
805.483	8267
805.626	8244
805.768	8054
805.91	8202
806.052	8214
806.194	8134
806.336	8305
806.478	8100
806.62	8073
806.762	8107
806.904	8305
807.046	8461
807.188	8393
807.33	8298
807.472	8385
807.614	8134
807.756	8126
807.898	8035
808.04	7799
808.182	7898
808.324	7894
808.465	7894
808.607	8069
808.749	8115
808.891	8244
809.033	8358
809.174	8271
809.316	8168
809.458	8100
809.6	8058
809.741	8027
809.883	8008
810.025	8103
810.166	8012
810.308	8050
810.45	8016
810.591	7837
810.733	7822
810.875	7662
811.016	7487
811.158	7453
811.299	7609
811.441	7731
811.582	7738
811.724	7559
811.865	7525
812.007	7613
812.148	7544
812.29	7655
812.431	7708
812.573	7856
812.714	7959
812.855	8130
812.997	8202
813.138	8214
813.279	8126
813.421	8096
813.562	7970
813.703	7837
813.845	7811
813.986	7434
814.127	7259
814.268	7236
814.41	7213
814.551	7118
814.692	7194
814.833	7118
814.974	7095
815.115	7129
815.256	6958
815.397	6894
815.539	6943
815.68	6787
815.821	6787
815.962	6844
816.103	6875
816.244	6696
816.385	6601
816.526	6642
816.666	6532
816.807	6338
816.948	6452
817.089	6490
817.23	6429
817.371	6391
817.512	6410
817.653	6391
817.793	6353
817.934	6414
818.075	6498
818.216	6445
818.356	6384
818.497	6270
818.638	6159
818.778	6190
818.919	6076
819.06	6220
819.2	6331
819.341	6285
819.481	6357
819.622	6608
819.762	6726
819.903	6669
820.043	6608
820.184	6593
820.324	6623
820.465	6757
820.605	6650
820.746	6692
820.886	6513
821.026	6688
821.167	6787
821.307	6776
821.447	6779
821.588	6700
821.728	6570
821.868	6536
822.008	6319
822.149	6391
822.289	6403
822.429	6133
822.569	6064
822.709	6072
822.849	5908
822.99	5916
823.13	5935
823.27	5984
823.41	5836
823.55	5828
823.69	5756
823.83	5817
823.97	5646
824.11	5528
824.25	5497
824.389	5596
824.529	5566
824.669	5524
824.809	5627
824.949	5661
825.089	5646
825.228	5551
825.368	5414
825.508	5311
825.648	5318
825.787	5452
825.927	5376
826.067	5334
826.206	5296
826.346	5368
826.485	5383
826.625	5444
826.765	5486
826.904	5539
827.044	5242
827.183	5143
827.323	5132
827.462	5261
827.601	5204
827.741	5185
827.88	5204
828.02	5109
828.159	5220
828.298	5379
828.437	5357
828.577	5334
828.716	5535
828.855	5299
828.994	5159
829.134	5159
829.273	5189
829.412	5117
829.551	5143
829.69	5170
829.829	5193
829.968	5337
830.107	5277
830.246	5299
830.385	5216
830.524	5181
830.663	5124
830.802	5022
830.941	4850
831.08	4885
831.219	4980
831.357	4987
831.496	5155
831.635	4900
831.774	4877
831.913	4824
832.051	4721
832.19	4740
832.329	4812
832.467	4725
832.606	4668
832.744	4729
832.883	4702
833.022	4740
833.16	4774
833.299	4843
833.437	4870
833.576	4839
833.714	4881
833.852	4858
833.991	4900
834.129	4953
834.267	4949
834.406	4908
834.544	4961
834.682	5006
834.821	5010
834.959	5155
835.097	5018
835.235	5166
835.373	5086
835.511	5060
835.65	4991
835.788	4999
835.926	4900
836.064	4930
836.202	4896
836.34	5159
836.478	5265
836.615	5132
836.753	5239
836.891	5296
837.029	5227
837.167	5216
837.305	5128
837.443	5147
837.58	5079
837.718	5216
837.856	5197
837.993	5159
838.131	5227
838.269	5216
838.406	5185
838.544	5193
838.681	4984
838.819	5014
838.956	4877
839.094	4915
839.231	5025
839.369	5117
839.506	5463
839.643	5303
839.781	5060
839.918	5052
840.055	5109
840.193	5071
840.33	5079
840.467	5143
840.604	5170
840.742	5406
840.879	5064
841.016	5121
841.153	5128
841.29	5349
841.427	5258
841.564	5303
841.701	5349
841.838	5292
841.975	5197
842.112	5299
842.249	5166
842.385	5132
842.522	5307
842.659	5136
842.796	5109
842.933	5197
843.069	5128
843.206	5132
843.343	5353
843.479	5216
843.616	5235
843.752	5033
843.889	5037
844.025	5181
844.162	5056
844.298	5212
844.435	5064
844.571	5105
844.708	5216
844.844	5334
844.98	5326
845.117	5258
845.253	5181
845.389	5083
845.525	5140
845.661	5170
845.798	5048
845.934	5140
846.07	5014
846.206	5193
846.342	5311
846.478	5235
846.614	4991
846.75	4999
846.886	4949
847.022	5132
847.158	5018
847.294	5010
847.429	5067
847.565	5003
847.701	5357
847.837	4896
847.972	4847
848.108	4987
848.244	4942
848.379	4782
848.515	4736
848.65	4694
848.786	4721
848.921	4755
849.057	4911
849.192	4900
849.328	4763
849.463	4854
849.598	4748
849.734	4759
849.869	4679
850.004	4622
850.14	4706
850.275	4618
850.41	4554
850.545	4519
850.68	4618
850.815	4626
850.95	4645
851.085	4858
851.22	4748
851.355	4649
851.49	4607
851.625	4630
851.76	4618
851.895	4519
852.03	4561
852.165	4588
852.299	4702
852.434	4763
852.569	4706
852.703	4793
852.838	4843
852.973	4896
853.107	4930
853.242	4767
853.376	4668
853.511	4516
853.645	4653
853.78	4793
853.914	4672
854.048	4687
854.183	4641
854.317	4687
854.451	4831
854.585	4698
854.72	4675
854.854	4759
854.988	4649
855.122	4630
855.256	4489
855.39	4679
855.524	4710
855.658	4786
855.792	4683
855.926	4790
856.06	4752
856.194	4816
856.327	4706
856.461	4607
856.595	4641
856.729	4607
856.862	4744
856.996	4733
857.13	4755
857.263	4740
857.397	4816
857.53	4630
857.664	4733
857.797	4740
857.931	4778
858.064	4714
858.197	4744
858.331	4649
858.464	4611
858.597	4569
858.731	4660
858.864	4637
858.997	4622
859.13	4683
859.263	4645
859.396	4660
859.529	4577
859.662	4558
859.795	4527
859.928	4565
860.061	4733
860.194	4755
860.327	4554
860.46	4565
860.592	4687
860.725	4706
860.858	4691
860.99	4580
861.123	4531
861.256	4504
861.388	4622
861.521	5410
861.653	4466
861.786	4466
861.918	4428
862.05	4516
862.183	4519
862.315	4615
862.447	4611
862.58	4565
862.712	4402
862.844	4325
862.976	4508
863.108	4512
863.24	4870
863.372	4265
863.504	4386
863.636	4413
863.768	4497
863.9	4402
864.032	4363
864.164	4402
864.296	4497
864.428	4481
864.559	4504
864.691	4527
864.823	4478
864.954	4504
865.086	4508
865.217	4409
865.349	4470
865.48	4440
865.612	4500
865.743	4615
865.875	4489
866.006	4424
866.137	4447
866.269	4405
866.4	4436
866.531	4421
866.662	4421
866.793	4383
866.924	4394
867.055	4481
867.186	4497
867.317	4417
867.448	4386
867.579	4394
867.71	4402
867.841	4360
867.972	4443
868.103	4409
868.233	4440
868.364	4432
868.495	4512
868.625	4596
868.756	4767
868.886	4554
869.017	4634
869.147	4786
869.278	4812
869.408	4664
869.539	4618
869.669	4733
869.799	4660
869.929	4729
870.06	4725
870.19	4885
870.32	4980
870.45	4908
870.58	5018
870.71	5067
870.84	5064
870.97	4961
871.1	4908
871.23	5121
871.36	5094
871.489	5029
871.619	5071
871.749	5098
871.879	5105
872.008	5181
872.138	5041
872.267	5006
872.397	4809
872.526	4740
872.656	4714
872.785	4835
872.915	4908
873.044	5022
873.173	4885
873.303	4980
873.432	4976
873.561	4892
873.69	4866
873.819	4858
873.948	4881
874.077	4816
874.206	4767
874.335	4793
874.464	4904
874.593	5060
874.722	4938
874.851	5109
874.979	5105
875.108	5025
875.237	4919
875.365	4828
875.494	4870
875.623	4995
875.751	4847
875.88	4824
876.008	4946
876.136	5033
876.265	5185
876.393	5334
876.521	5227
876.65	5208
876.778	5231
876.906	5147
877.034	4995
877.162	5010
877.29	5003
877.418	5041
877.546	5037
877.674	5052
877.802	5033
877.93	4976
878.058	4919
878.185	4889
878.313	4995
878.441	4934
878.568	4847
878.696	4889
878.824	4949
878.951	5003
879.079	5162
879.206	5292
879.333	5102
879.461	4972
879.588	4987
879.715	5056
879.842	5231
879.97	5029
880.097	4809
880.224	4744
880.351	4828
880.478	4778
880.605	4835
880.732	4767
880.859	5136
880.986	4847
881.112	4915
881.239	4782
881.366	4664
881.493	4569
881.619	4565
881.746	4615
881.872	4645
881.999	4656
882.125	4702
882.252	4767
882.378	4771
882.505	4934
882.631	4797
882.757	4679
882.883	4736
883.01	4733
883.136	4675
883.262	4622
883.388	4622
883.514	4790
883.64	4911
883.766	4805
883.892	4679
884.018	4710
884.143	4873
884.269	5022
884.395	4664
884.52	4615
884.646	4694
884.772	4558
884.897	4607
885.023	4675
885.148	4736
885.274	4816
885.399	4828
885.524	4740
885.65	4653
885.775	4748
885.9	4702
886.025	4850
886.15	4793
886.275	4759
886.4	4645
886.525	4744
886.65	4710
886.775	4710
886.9	4908
887.025	5045
887.149	4809
887.274	4637
887.399	4592
887.523	4603
887.648	4569
887.773	4561
887.897	4763
888.021	4786
888.146	4675
888.27	4831
888.395	4908
888.519	4793
888.643	4877
888.767	4809
888.891	4679
889.015	4569
889.139	4645
889.263	4546
889.387	4752
889.511	4873
889.635	4793
889.759	4649
889.883	4660
890.006	4717
890.13	4824
890.254	4641
890.377	4675
890.501	4580
890.624	4527
890.748	4637
890.871	4516
890.995	4413
891.118	4402
891.241	4512
891.364	4580
891.488	4615
891.611	4535
891.734	4546
891.857	4630
891.98	4561
892.103	4645
892.226	4569
892.349	4565
892.471	4440
892.594	4546
892.717	4596
892.839	4577
892.962	4531
893.085	4675
893.207	4584
893.33	4436
893.452	4504
893.575	4679
893.697	4584
893.819	4748
893.941	4850
894.064	4744
894.186	4531
894.308	4531
894.43	4694
894.552	4835
894.674	4736
894.796	4527
894.918	4592
895.04	4558
895.161	4691
895.283	4660
895.405	4550
895.526	4626
895.648	4672
895.769	4660
895.891	4729
896.012	4691
896.134	4702
896.255	4645
896.376	4672
896.498	4615
896.619	4656
896.74	4615
896.861	4656
896.982	4870
897.103	5105
897.224	4805
897.345	4774
897.466	4672
897.587	4759
897.708	4900
897.828	4771
897.949	4637
898.07	4573
898.19	4660
898.311	4824
898.431	4611
898.552	4744
898.672	4778
898.792	4786
898.913	4733
899.033	4611
899.153	4523
899.273	4443
899.393	4474
899.513	4519
899.633	4531
899.753	4497
899.873	4497
899.993	4573
900.113	4542
900.232	4569
900.352	4577
900.472	4493
900.591	4440
900.711	4474
900.83	4421
900.95	4588
901.069	4679
901.189	4538
901.308	4390
901.427	4310
901.546	4390
901.665	4512
901.784	4489
901.904	4367
902.023	4314
902.141	4154
902.26	4169
902.379	4242
902.498	4242
902.617	4196
902.735	4325
902.854	4383
902.973	4398
903.091	4253
903.21	4238
903.328	4341
903.446	4238
903.565	4242
903.683	4352
903.801	4249
903.919	4405
904.038	4390
904.156	4268
904.274	4462
904.392	4379
904.51	4417
904.627	4466
904.745	4584
904.863	4660
904.981	4405
905.098	4291
905.216	4390
905.334	4421
905.451	4417
905.569	4462
905.686	4561
905.803	4577
905.921	4383
906.038	4569
906.155	4489
906.272	4402
906.389	4455
906.506	4348
906.623	4371
906.74	4474
906.857	4318
906.974	4318
907.091	4580
907.208	4672
907.324	4622
907.441	4516
907.557	4325
907.674	4318
907.79	4356
907.907	4367
908.023	4447
908.139	4443
908.256	4413
908.372	4470
908.488	4417
908.604	4356
908.72	4341
908.836	4306
908.952	4356
909.068	4421
909.184	4584
909.3	4485
909.415	4592
909.531	4554
909.647	4360
909.762	4344
909.878	4325
909.993	4428
910.108	4402
910.224	4352
910.339	4478
910.454	4447
910.57	4367
910.685	4295
910.8	4649
910.915	4561
911.03	4500
911.145	4310
911.259	4360
911.374	4379
911.489	4295
911.604	4303
911.718	4166
911.833	4196
911.947	4082
912.062	4002
912.176	4249
912.291	4215
912.405	4207
912.519	4474
912.633	4481
912.748	4325
912.862	4348
912.976	4181
913.09	4082
913.204	4162
913.318	4223
913.431	4356
913.545	4360
913.659	4451
913.772	4371
913.886	4230
914	4257
914.113	4402
914.226	4440
914.34	4409
914.453	4272
914.566	4360
914.68	4325
914.793	4333
914.906	4150
915.019	4101
915.132	4086
915.245	4128
915.358	4196
915.47	4253
915.583	4299
915.696	4280
915.809	4394
915.921	4379
916.034	4257
916.146	4272
916.259	4219
916.371	4341
916.483	4363
916.595	4238
916.708	4295
916.82	4322
916.932	4325
917.044	4314
917.156	4348
917.268	4207
917.38	4257
917.491	4295
917.603	4310
917.715	4485
917.826	4428
917.938	4356
918.049	4204
918.161	4371
918.272	4497
918.384	4531
918.495	4462
918.606	4295
918.717	4223
918.828	4379
918.939	4367
919.05	4276
919.161	4348
919.272	4147
919.383	4192
919.494	4436
919.604	4603
919.715	4436
919.826	4383
919.936	4417
920.047	4523
920.157	4481
920.267	4729
920.378	4531
920.488	4443
920.598	4729
920.708	4923
920.818	4801
920.928	4767
921.038	4972
921.148	4927
921.258	4637
921.368	4573
921.477	4535
921.587	4432
921.697	4379
921.806	4569
921.916	4432
922.025	4299
922.134	4249
922.244	4230
922.353	4348
922.462	4154
922.571	4181
922.68	3972
922.789	3964
922.898	4048
923.007	3979
923.116	4105
923.224	4097
923.333	4093
923.442	3983
923.55	4044
923.659	4029
923.767	4105
923.876	4029
923.984	4120
924.092	3987
924.201	4032
924.309	4120
924.417	4166
924.525	4059
924.633	4124
924.741	5006
924.849	3968
924.956	4143
925.064	3998
925.172	3907
925.279	3956
925.387	4051
925.494	4040
925.602	4223
925.709	4200
925.816	4036
925.924	4169
926.031	4223
926.138	4219
926.245	4238
926.352	4105
926.459	4280
926.566	4314
926.673	4196
926.779	4067
926.886	4071
926.993	3994
927.099	3983
927.206	3930
927.312	3888
927.419	4105
927.525	4021
927.631	4074
927.737	4017
927.843	3945
927.95	3819
928.056	3941
928.162	3968
928.267	4093
928.373	4721
928.479	4093
928.585	3911
928.69	4067
928.796	4093
928.901	3979
929.007	3835
929.112	4013
929.218	3987
929.323	3941
929.428	3907
929.533	4116
929.638	3930
929.743	3903
929.848	3994
929.953	4002
930.058	3968
930.163	3778
930.267	3846
930.372	3941
930.477	3804
930.581	4097
930.685	3949
930.79	3755
930.894	3876
930.998	3804
931.103	4063
931.207	3709
931.311	3709
931.415	3682
931.519	3526
931.623	3542
