Data from test_V78500241_2014.txt Node
Date: Fri Mar 25 17:03:00 CST 2022
User: usil
Spectrometer: V785-0024
Trigger mode: 0
Integration Time (sec): 4.000000E-1
Scans to average: 1
Nonlinearity correction enabled: false
Boxcar width: 0
Storing dark spectrum: false
XAxis mode: Wavelengths
Number of Pixels in Spectrum: 1024
>>>>>Begin Spectral Data<<<<<
801.071	7936
801.214	7993
801.356	7868
801.499	7852
801.641	7788
801.783	7852
801.926	7917
802.068	7959
802.211	7951
802.353	8031
802.496	7841
802.638	7811
802.78	7868
802.923	7883
803.065	7814
803.208	7845
803.35	7963
803.492	8016
803.635	8119
803.777	8035
803.919	8168
804.061	8457
804.204	8168
804.346	8012
804.488	7932
804.63	8096
804.773	7947
804.915	8092
805.057	8259
805.199	8172
805.341	8149
805.483	8244
805.626	8259
805.768	8111
805.91	8199
806.052	8313
806.194	8103
806.336	8279
806.478	8081
806.62	8054
806.762	8096
806.904	8328
807.046	8454
807.188	8336
807.33	8332
807.472	8240
807.614	8134
807.756	8126
807.898	7967
808.04	7841
808.182	7879
808.324	7898
808.465	7883
808.607	8058
808.749	8115
808.891	8256
809.033	8218
809.174	8195
809.316	8092
809.458	8081
809.6	8016
809.741	7963
809.883	8020
810.025	8092
810.166	8054
810.308	7883
810.45	7970
810.591	7780
810.733	7715
810.875	7624
811.016	7563
811.158	7476
811.299	7483
811.441	7746
811.582	7651
811.724	7597
811.865	7529
812.007	7582
812.148	7567
812.29	7597
812.431	7765
812.573	7898
812.714	7959
812.855	8058
812.997	8195
813.138	8252
813.279	8187
813.421	8096
813.562	7925
813.703	7837
813.845	7712
813.986	7411
814.127	7266
814.268	7228
814.41	7129
814.551	7217
814.692	7297
814.833	7091
814.974	7133
815.115	7141
815.256	6939
815.397	6962
815.539	6981
815.68	6810
815.821	6722
815.962	6821
816.103	6833
816.244	6639
816.385	6627
816.526	6616
816.666	6559
816.807	6304
816.948	6467
817.089	6483
817.23	6460
817.371	6418
817.512	6338
817.653	6460
817.793	6410
817.934	6407
818.075	6532
818.216	6460
818.356	6460
818.497	6197
818.638	6159
818.778	6110
818.919	6144
819.06	6216
819.2	6338
819.341	6369
819.481	6365
819.622	6521
819.762	6738
819.903	6692
820.043	6566
820.184	6540
820.324	6521
820.465	6662
820.605	6696
820.746	6597
820.886	6494
821.026	6589
821.167	6703
821.307	6764
821.447	6787
821.588	6684
821.728	6574
821.868	6528
822.008	6266
822.149	6395
822.289	6350
822.429	6125
822.569	6064
822.709	6098
822.849	6011
822.99	5855
823.13	5927
823.27	5813
823.41	5786
823.55	5745
823.69	5783
823.83	5752
823.97	5611
824.11	5467
824.25	5463
824.389	5474
824.529	5562
824.669	5505
824.809	5630
824.949	5657
825.089	5589
825.228	5562
825.368	5429
825.508	5334
825.648	5345
825.787	5360
825.927	5376
826.067	5303
826.206	5303
826.346	5395
826.485	5471
826.625	5364
826.765	5573
826.904	5512
827.044	5246
827.183	5201
827.323	5121
827.462	5258
827.601	5170
827.741	5227
827.88	5166
828.02	5045
828.159	5220
828.298	5254
828.437	5353
828.577	5216
828.716	5467
828.855	5330
828.994	5201
829.134	5155
829.273	5185
829.412	5121
829.551	5128
829.69	5162
829.829	5250
829.968	5349
830.107	5265
830.246	5280
830.385	5197
830.524	5140
830.663	5041
830.802	4942
830.941	4934
831.08	4870
831.219	4957
831.357	5018
831.496	5181
831.635	4938
831.774	4854
831.913	4847
832.051	4691
832.19	4717
832.329	4862
832.467	4729
832.606	4603
832.744	4687
832.883	4672
833.022	4675
833.16	4793
833.299	4831
833.437	4782
833.576	4862
833.714	4847
833.852	4877
833.991	4862
834.129	4957
834.267	4946
834.406	4908
834.544	5006
834.682	4995
834.821	4976
834.959	5170
835.097	4976
835.235	5185
835.373	5109
835.511	5037
835.65	5003
835.788	5041
835.926	4885
836.064	4881
836.202	4919
836.34	5147
836.478	5162
836.615	5143
836.753	5223
836.891	5292
837.029	5254
837.167	5197
837.305	5166
837.443	5105
837.58	5083
837.718	5280
837.856	5212
837.993	5121
838.131	5250
838.269	5246
838.406	5193
838.544	5181
838.681	5029
838.819	4968
838.956	4892
839.094	4892
839.231	4957
839.369	5086
839.506	5398
839.643	5296
839.781	5041
839.918	5037
840.055	5083
840.193	5071
840.33	5090
840.467	5132
840.604	5128
840.742	5463
840.879	5094
841.016	5094
841.153	5174
841.29	5360
841.427	5311
841.564	5284
841.701	5406
841.838	5208
841.975	5204
842.112	5261
842.249	5109
842.385	5090
842.522	5326
842.659	5170
842.796	5174
842.933	5162
843.069	5140
843.206	5178
843.343	5292
843.479	5231
843.616	5292
843.752	4976
843.889	5014
844.025	5166
844.162	5033
844.298	5181
844.435	5102
844.571	5064
844.708	5162
844.844	5277
844.98	5337
845.117	5322
845.253	5132
845.389	5086
845.525	5155
845.661	5143
845.798	5052
845.934	5086
846.07	5041
846.206	5197
846.342	5315
846.478	5189
846.614	4995
846.75	4957
846.886	5010
847.022	5109
847.158	5010
847.294	5105
847.429	5071
847.565	5014
847.701	5341
847.837	4809
847.972	4771
848.108	4957
848.244	4889
848.379	4755
848.515	4763
848.65	4717
848.786	4752
848.921	4782
849.057	4866
849.192	4877
849.328	4809
849.463	4831
849.598	4801
849.734	4729
849.869	4729
850.004	4611
850.14	4675
850.275	4584
850.41	4474
850.545	4565
850.68	4611
850.815	4656
850.95	4611
851.085	4824
851.22	4733
851.355	4615
851.49	4641
851.625	4580
851.76	4615
851.895	4497
852.03	4558
852.165	4672
852.299	4733
852.434	4740
852.569	4717
852.703	4767
852.838	4839
852.973	4904
853.107	4930
853.242	4725
853.376	4687
853.511	4516
853.645	4645
853.78	4767
853.914	4668
854.048	4675
854.183	4634
854.317	4710
854.451	4782
854.585	4710
854.72	4653
854.854	4744
854.988	4592
855.122	4618
855.256	4497
855.39	4622
855.524	4809
855.658	4725
855.792	4694
855.926	4729
856.06	4774
856.194	4805
856.327	4679
856.461	4630
856.595	4618
856.729	4626
856.862	4736
856.996	4672
857.13	4740
857.263	4736
857.397	4778
857.53	4637
857.664	4752
857.797	4752
857.931	4805
858.064	4702
858.197	4763
858.331	4637
858.464	4588
858.597	4546
858.731	4649
858.864	4611
858.997	4588
859.13	4626
859.263	4626
859.396	4683
859.529	4603
859.662	4538
859.795	4527
859.928	4611
860.061	4752
860.194	4733
860.327	4622
860.46	4588
860.592	4717
860.725	4656
860.858	4710
860.99	4577
861.123	4531
861.256	4485
861.388	4565
861.521	5280
861.653	4481
861.786	4443
861.918	4470
862.05	4516
862.183	4569
862.315	4637
862.447	4607
862.58	4519
862.712	4390
862.844	4306
862.976	4466
863.108	4466
863.24	4767
863.372	4329
863.504	4379
863.636	4443
863.768	4459
863.9	4436
864.032	4360
864.164	4451
864.296	4447
864.428	4546
864.559	4584
864.691	4497
864.823	4516
864.954	4500
865.086	4531
865.217	4470
865.349	4462
865.48	4489
865.612	4519
865.743	4618
865.875	4466
866.006	4428
866.137	4451
866.269	4485
866.4	4409
866.531	4474
866.662	4371
866.793	4386
866.924	4409
867.055	4504
867.186	4424
867.317	4409
867.448	4398
867.579	4390
867.71	4394
867.841	4348
867.972	4451
868.103	4447
868.233	4443
868.364	4436
868.495	4409
868.625	4618
868.756	4736
868.886	4523
869.017	4634
869.147	4736
869.278	4759
869.408	4656
869.539	4637
869.669	4717
869.799	4660
869.929	4778
870.06	4771
870.19	4911
870.32	4892
870.45	4949
870.58	5064
870.71	5033
870.84	5155
870.97	4953
871.1	4873
871.23	5155
871.36	5162
871.489	5018
871.619	5094
871.749	5075
871.879	5105
872.008	5166
872.138	5033
872.267	4972
872.397	4877
872.526	4812
872.656	4729
872.785	4812
872.915	4915
873.044	4965
873.173	4927
873.303	4930
873.432	4965
873.561	4938
873.69	4885
873.819	4843
873.948	4881
874.077	4850
874.206	4717
874.335	4771
874.464	4953
874.593	5003
874.722	4972
874.851	5083
874.979	5018
875.108	5025
875.237	4908
875.365	4850
875.494	4873
875.623	4946
875.751	4843
875.88	4847
876.008	4965
876.136	5025
876.265	5181
876.393	5337
876.521	5242
876.65	5235
876.778	5140
876.906	5109
877.034	5052
877.162	5048
877.29	4968
877.418	5025
877.546	5018
877.674	5010
877.802	5025
877.93	5071
878.058	4911
878.185	4839
878.313	4942
878.441	4915
878.568	4771
878.696	4892
878.824	4942
878.951	4991
879.079	5140
879.206	5292
879.333	5143
879.461	4942
879.588	4930
879.715	5075
879.842	5216
879.97	5022
880.097	4733
880.224	4698
880.351	4843
880.478	4812
880.605	4797
880.732	4793
880.859	5090
880.986	4900
881.112	4927
881.239	4790
881.366	4641
881.493	4569
881.619	4588
881.746	4637
881.872	4656
881.999	4611
882.125	4679
882.252	4771
882.378	4793
882.505	4938
882.631	4786
882.757	4645
882.883	4729
883.01	4691
883.136	4645
883.262	4626
883.388	4656
883.514	4801
883.64	4835
883.766	4740
883.892	4645
884.018	4748
884.143	4835
884.269	5018
884.395	4645
884.52	4660
884.646	4630
884.772	4573
884.897	4554
885.023	4668
885.148	4755
885.274	4854
885.399	4805
885.524	4702
885.65	4717
885.775	4748
885.9	4714
886.025	4831
886.15	4801
886.275	4675
886.4	4687
886.525	4714
886.65	4645
886.775	4691
886.9	4911
887.025	5006
887.149	4831
887.274	4656
887.399	4550
887.523	4588
887.648	4542
887.773	4596
887.897	4816
888.021	4721
888.146	4675
888.27	4809
888.395	4896
888.519	4786
888.643	4809
888.767	4824
888.891	4679
889.015	4622
889.139	4611
889.263	4615
889.387	4702
889.511	4850
889.635	4820
889.759	4573
889.883	4649
890.006	4687
890.13	4847
890.254	4592
890.377	4656
890.501	4478
890.624	4500
890.748	4634
890.871	4493
890.995	4436
891.118	4398
891.241	4447
891.364	4523
891.488	4607
891.611	4485
891.734	4535
891.857	4599
891.98	4603
892.103	4637
892.226	4596
892.349	4508
892.471	4440
892.594	4508
892.717	4637
892.839	4607
892.962	4535
893.085	4679
893.207	4573
893.33	4421
893.452	4527
893.575	4656
893.697	4584
893.819	4801
893.941	4881
894.064	4698
894.186	4580
894.308	4535
894.43	4672
894.552	4805
894.674	4740
894.796	4577
894.918	4573
895.04	4565
895.161	4645
895.283	4645
895.405	4603
895.526	4622
895.648	4698
895.769	4702
895.891	4744
896.012	4733
896.134	4664
896.255	4653
896.376	4615
896.498	4615
896.619	4664
896.74	4603
896.861	4679
896.982	4900
897.103	5048
897.224	4847
897.345	4725
897.466	4672
897.587	4683
897.708	4824
897.828	4771
897.949	4679
898.07	4615
898.19	4630
898.311	4748
898.431	4710
898.552	4755
898.672	4786
898.792	4820
898.913	4710
899.033	4603
899.153	4424
899.273	4440
899.393	4485
899.513	4497
899.633	4554
899.753	4550
899.873	4485
899.993	4565
900.113	4546
900.232	4596
900.352	4516
900.472	4451
900.591	4379
900.711	4481
900.83	4432
900.95	4592
901.069	4672
901.189	4561
901.308	4402
901.427	4352
901.546	4386
901.665	4462
901.784	4481
901.904	4360
902.023	4341
902.141	4192
902.26	4169
902.379	4344
902.498	4280
902.617	4219
902.735	4360
902.854	4394
902.973	4341
903.091	4204
903.21	4162
903.328	4299
903.446	4207
903.565	4265
903.683	4329
903.801	4253
903.919	4405
904.038	4440
904.156	4352
904.274	4394
904.392	4386
904.51	4405
904.627	4413
904.745	4596
904.863	4664
904.981	4383
905.098	4291
905.216	4360
905.334	4470
905.451	4394
905.569	4405
905.686	4538
905.803	4523
905.921	4405
906.038	4542
906.155	4489
906.272	4383
906.389	4440
906.506	4325
906.623	4363
906.74	4379
906.857	4318
906.974	4371
907.091	4519
907.208	4675
907.324	4580
907.441	4535
907.557	4341
907.674	4325
907.79	4291
907.907	4417
908.023	4493
908.139	4493
908.256	4398
908.372	4466
908.488	4432
908.604	4344
908.72	4280
908.836	4383
908.952	4383
909.068	4390
909.184	4592
909.3	4466
909.415	4603
909.531	4531
909.647	4299
909.762	4402
909.878	4344
909.993	4398
910.108	4402
910.224	4424
910.339	4470
910.454	4432
910.57	4375
910.685	4325
910.8	4721
910.915	4607
911.03	4474
911.145	4352
911.259	4344
911.374	4363
911.489	4261
911.604	4246
911.718	4154
911.833	4211
911.947	4067
912.062	4010
912.176	4227
912.291	4227
912.405	4265
912.519	4493
912.633	4497
912.748	4405
912.862	4363
912.976	4196
913.09	4143
913.204	4177
913.318	4242
913.431	4341
913.545	4333
913.659	4447
913.772	4363
913.886	4204
914	4211
914.113	4402
914.226	4462
914.34	4390
914.453	4249
914.566	4398
914.68	4280
914.793	4299
914.906	4135
915.019	4071
915.132	4063
915.245	4124
915.358	4166
915.47	4215
915.583	4253
915.696	4265
915.809	4436
915.921	4417
916.034	4234
916.146	4246
916.259	4257
916.371	4363
916.483	4325
916.595	4265
916.708	4322
916.82	4276
916.932	4344
917.044	4360
917.156	4284
917.268	4154
917.38	4253
917.491	4306
917.603	4306
917.715	4436
917.826	4466
917.938	4318
918.049	4219
918.161	4409
918.272	4538
918.384	4489
918.495	4390
918.606	4310
918.717	4234
918.828	4344
918.939	4390
919.05	4276
919.161	4287
919.272	4169
919.383	4219
919.494	4443
919.604	4596
919.715	4417
919.826	4356
919.936	4478
920.047	4546
920.157	4466
920.267	4668
920.378	4554
920.488	4538
920.598	4653
920.708	4843
920.818	4748
920.928	4706
921.038	4919
921.148	4889
921.258	4599
921.368	4618
921.477	4478
921.587	4402
921.697	4413
921.806	4500
921.916	4383
922.025	4299
922.134	4257
922.244	4181
922.353	4310
922.462	4154
922.571	4105
922.68	3960
922.789	3956
922.898	4036
923.007	3975
923.116	4086
923.224	3987
923.333	4055
923.442	3979
923.55	4029
923.659	4006
923.767	4097
923.876	3979
923.984	4131
924.092	3975
924.201	4074
924.309	4086
924.417	4139
924.525	4051
924.633	4086
924.741	5037
924.849	3934
924.956	4124
925.064	3964
925.172	3880
925.279	3964
925.387	4032
925.494	4055
925.602	4219
925.709	4196
925.816	4059
925.924	4150
926.031	4177
926.138	4143
926.245	4200
926.352	4051
926.459	4268
926.566	4295
926.673	4109
926.779	4055
926.886	4090
926.993	3964
927.099	3926
927.206	3926
927.312	3922
927.419	4036
927.525	4013
927.631	4059
927.737	3956
927.843	3960
927.95	3778
928.056	3922
928.162	3937
928.267	4017
928.373	4535
928.479	4059
928.585	3922
928.69	4021
928.796	4063
928.901	3949
929.007	3827
929.112	3926
929.218	3960
929.323	3960
929.428	3937
929.533	4097
929.638	3876
929.743	3956
929.848	4025
929.953	4006
930.058	3956
930.163	3781
930.267	3846
930.372	3975
930.477	3827
930.581	4067
930.685	3915
930.79	3797
930.894	3888
930.998	3857
931.103	4063
931.207	3709
931.311	3720
931.415	3656
931.519	3530
931.623	3553
