Data from test_V78500241_153.txt Node
Date: Fri Mar 25 16:50:04 CST 2022
User: usil
Spectrometer: V785-0024
Trigger mode: 0
Integration Time (sec): 4.000000E-1
Scans to average: 1
Nonlinearity correction enabled: false
Boxcar width: 0
Storing dark spectrum: false
XAxis mode: Wavelengths
Number of Pixels in Spectrum: 1024
>>>>>Begin Spectral Data<<<<<
801.071	7989
801.214	8031
801.356	7852
801.499	7894
801.641	7788
801.783	7894
801.926	8008
802.068	7970
802.211	8005
802.353	8024
802.496	7947
802.638	7894
802.78	7917
802.923	7967
803.065	7883
803.208	7792
803.35	8020
803.492	8115
803.635	8172
803.777	7978
803.919	8031
804.061	8358
804.204	8084
804.346	7993
804.488	7967
804.63	8088
804.773	7970
804.915	8024
805.057	8187
805.199	8100
805.341	8176
805.483	8282
805.626	8180
805.768	8119
805.91	8187
806.052	8130
806.194	8119
806.336	8267
806.478	8073
806.62	8081
806.762	8157
806.904	8229
807.046	8446
807.188	8366
807.33	8374
807.472	8317
807.614	8164
807.756	8138
807.898	8012
808.04	7898
808.182	7921
808.324	7940
808.465	7932
808.607	8031
808.749	8088
808.891	8195
809.033	8252
809.174	8256
809.316	8050
809.458	8065
809.6	7982
809.741	8027
809.883	8039
810.025	8115
810.166	8157
810.308	8073
810.45	8008
810.591	7883
810.733	7795
810.875	7753
811.016	7597
811.158	7449
811.299	7689
811.441	7757
811.582	7727
811.724	7575
811.865	7616
812.007	7647
812.148	7559
812.29	7689
812.431	7776
812.573	7932
812.714	8058
812.855	8248
812.997	8324
813.138	8404
813.279	8214
813.421	8221
813.562	8062
813.703	7906
813.845	7818
813.986	7434
814.127	7354
814.268	7358
814.41	7263
814.551	7152
814.692	7251
814.833	7145
814.974	7190
815.115	7126
815.256	6996
815.397	7000
815.539	7038
815.68	6852
815.821	6825
815.962	6894
816.103	6833
816.244	6677
816.385	6650
816.526	6715
816.666	6517
816.807	6391
816.948	6494
817.089	6467
817.23	6456
817.371	6384
817.512	6479
817.653	6399
817.793	6414
817.934	6456
818.075	6471
818.216	6414
818.356	6414
818.497	6216
818.638	6133
818.778	6171
818.919	6209
819.06	6182
819.2	6311
819.341	6311
819.481	6357
819.622	6574
819.762	6757
819.903	6681
820.043	6604
820.184	6566
820.324	6635
820.465	6745
820.605	6719
820.746	6688
820.886	6540
821.026	6684
821.167	6745
821.307	6730
821.447	6814
821.588	6677
821.728	6639
821.868	6517
822.008	6304
822.149	6407
822.289	6418
822.429	6178
822.569	6110
822.709	6178
822.849	5904
822.99	5908
823.13	5931
823.27	5961
823.41	5805
823.55	5821
823.69	5775
823.83	5794
823.97	5680
824.11	5611
824.25	5535
824.389	5589
824.529	5646
824.669	5562
824.809	5623
824.949	5646
825.089	5604
825.228	5573
825.368	5433
825.508	5357
825.648	5353
825.787	5429
825.927	5326
826.067	5326
826.206	5360
826.346	5379
826.485	5421
826.625	5345
826.765	5543
826.904	5486
827.044	5235
827.183	5254
827.323	5151
827.462	5250
827.601	5239
827.741	5208
827.88	5231
828.02	5174
828.159	5296
828.298	5280
828.437	5353
828.577	5303
828.716	5509
828.855	5280
828.994	5189
829.134	5170
829.273	5231
829.412	5208
829.551	5178
829.69	5242
829.829	5220
829.968	5398
830.107	5261
830.246	5284
830.385	5159
830.524	5121
830.663	5113
830.802	4999
830.941	4911
831.08	4866
831.219	5056
831.357	4987
831.496	5208
831.635	4949
831.774	4877
831.913	4816
832.051	4767
832.19	4767
832.329	4839
832.467	4660
832.606	4630
832.744	4660
832.883	4714
833.022	4721
833.16	4797
833.299	4850
833.437	4854
833.576	4885
833.714	4919
833.852	4854
833.991	4862
834.129	4930
834.267	4957
834.406	4968
834.544	4987
834.682	4976
834.821	4942
834.959	5235
835.097	4953
835.235	5178
835.373	5113
835.511	5162
835.65	5045
835.788	5048
835.926	4942
836.064	4877
836.202	4972
836.34	5201
836.478	5216
836.615	5193
836.753	5227
836.891	5261
837.029	5303
837.167	5178
837.305	5181
837.443	5181
837.58	5067
837.718	5269
837.856	5174
837.993	5181
838.131	5254
838.269	5242
838.406	5208
838.544	5181
838.681	5079
838.819	5041
838.956	4873
839.094	4919
839.231	4987
839.369	5041
839.506	5448
839.643	5288
839.781	5048
839.918	5006
840.055	5151
840.193	5086
840.33	5132
840.467	5083
840.604	5208
840.742	5474
840.879	5056
841.016	5102
841.153	5193
841.29	5353
841.427	5345
841.564	5341
841.701	5372
841.838	5330
841.975	5231
842.112	5273
842.249	5136
842.385	5109
842.522	5318
842.659	5216
842.796	5185
842.933	5246
843.069	5185
843.206	5204
843.343	5353
843.479	5280
843.616	5288
843.752	5037
843.889	5025
844.025	5235
844.162	4987
844.298	5212
844.435	5075
844.571	5056
844.708	5204
844.844	5292
844.98	5353
845.117	5284
845.253	5197
845.389	5109
845.525	5208
845.661	5140
845.798	5022
845.934	5140
846.07	5003
846.206	5159
846.342	5307
846.478	5216
846.614	5006
846.75	5037
846.886	4953
847.022	5181
847.158	4972
847.294	5064
847.429	5075
847.565	5052
847.701	5334
847.837	4831
847.972	4790
848.108	4968
848.244	4991
848.379	4809
848.515	4717
848.65	4771
848.786	4771
848.921	4771
849.057	4885
849.192	4896
849.328	4854
849.463	4847
849.598	4782
849.734	4778
849.869	4714
850.004	4618
850.14	4668
850.275	4649
850.41	4546
850.545	4592
850.68	4615
850.815	4668
850.95	4592
851.085	4831
851.22	4786
851.355	4698
851.49	4622
851.625	4653
851.76	4683
851.895	4565
852.03	4531
852.165	4668
852.299	4755
852.434	4835
852.569	4744
852.703	4809
852.838	4843
852.973	4934
853.107	4919
853.242	4774
853.376	4675
853.511	4573
853.645	4641
853.78	4828
853.914	4694
854.048	4672
854.183	4592
854.317	4702
854.451	4812
854.585	4675
854.72	4630
854.854	4774
854.988	4618
855.122	4656
855.256	4527
855.39	4637
855.524	4816
855.658	4740
855.792	4725
855.926	4755
856.06	4793
856.194	4793
856.327	4706
856.461	4626
856.595	4634
856.729	4660
856.862	4744
856.996	4691
857.13	4714
857.263	4759
857.397	4850
857.53	4649
857.664	4710
857.797	4736
857.931	4820
858.064	4706
858.197	4717
858.331	4618
858.464	4649
858.597	4519
858.731	4615
858.864	4668
858.997	4607
859.13	4641
859.263	4710
859.396	4778
859.529	4641
859.662	4580
859.795	4622
859.928	4634
860.061	4740
860.194	4782
860.327	4683
860.46	4561
860.592	4679
860.725	4721
860.858	4729
860.99	4565
861.123	4599
861.256	4531
861.388	4607
861.521	5395
861.653	4577
861.786	4474
861.918	4470
862.05	4523
862.183	4550
862.315	4611
862.447	4664
862.58	4531
862.712	4409
862.844	4314
862.976	4485
863.108	4421
863.24	4866
863.372	4318
863.504	4386
863.636	4398
863.768	4508
863.9	4478
864.032	4352
864.164	4409
864.296	4462
864.428	4554
864.559	4641
864.691	4561
864.823	4569
864.954	4531
865.086	4508
865.217	4447
865.349	4455
865.48	4485
865.612	4512
865.743	4649
865.875	4497
866.006	4379
866.137	4478
866.269	4417
866.4	4443
866.531	4428
866.662	4405
866.793	4451
866.924	4405
867.055	4474
867.186	4436
867.317	4462
867.448	4455
867.579	4383
867.71	4394
867.841	4352
867.972	4493
868.103	4493
868.233	4481
868.364	4428
868.495	4516
868.625	4702
868.756	4774
868.886	4565
869.017	4611
869.147	4820
869.278	4805
869.408	4694
869.539	4672
869.669	4759
869.799	4618
869.929	4793
870.06	4729
870.19	4995
870.32	4953
870.45	5003
870.58	5060
870.71	5117
870.84	5045
870.97	4972
871.1	4900
871.23	5155
871.36	5227
871.489	5060
871.619	5121
871.749	5098
871.879	5067
872.008	5189
872.138	5014
872.267	4972
872.397	4843
872.526	4820
872.656	4748
872.785	4820
872.915	4961
873.044	5048
873.173	4972
873.303	5048
873.432	5022
873.561	4938
873.69	4866
873.819	4885
873.948	4930
874.077	4847
874.206	4790
874.335	4847
874.464	4942
874.593	5079
874.722	4927
874.851	5121
874.979	5094
875.108	5003
875.237	4938
875.365	4854
875.494	4862
875.623	5037
875.751	4843
875.88	4942
876.008	4991
876.136	5083
876.265	5235
876.393	5372
876.521	5242
876.65	5280
876.778	5166
876.906	5098
877.034	5045
877.162	5117
877.29	5010
877.418	5109
877.546	5041
877.674	5090
877.802	4980
877.93	5045
878.058	4976
878.185	4866
878.313	4987
878.441	4961
878.568	4793
878.696	4870
878.824	4972
878.951	5029
879.079	5174
879.206	5277
879.333	5067
879.461	4972
879.588	5033
879.715	5121
879.842	5258
879.97	5018
880.097	4809
880.224	4778
880.351	4805
880.478	4820
880.605	4797
880.732	4831
880.859	5056
880.986	4927
881.112	4942
881.239	4793
881.366	4702
881.493	4611
881.619	4653
881.746	4683
881.872	4656
881.999	4641
882.125	4706
882.252	4797
882.378	4854
882.505	4965
882.631	4835
882.757	4729
882.883	4729
883.01	4736
883.136	4725
883.262	4618
883.388	4615
883.514	4812
883.64	4896
883.766	4809
883.892	4672
884.018	4744
884.143	4858
884.269	5045
884.395	4687
884.52	4599
884.646	4691
884.772	4634
884.897	4596
885.023	4668
885.148	4793
885.274	4854
885.399	4824
885.524	4721
885.65	4721
885.775	4714
885.9	4778
886.025	4904
886.15	4774
886.275	4740
886.4	4687
886.525	4793
886.65	4763
886.775	4702
886.9	4892
887.025	4987
887.149	4870
887.274	4694
887.399	4588
887.523	4611
887.648	4561
887.773	4607
887.897	4748
888.021	4736
888.146	4672
888.27	4870
888.395	4896
888.519	4812
888.643	4839
888.767	4820
888.891	4675
889.015	4683
889.139	4675
889.263	4599
889.387	4752
889.511	4873
889.635	4809
889.759	4649
889.883	4679
890.006	4752
890.13	4847
890.254	4611
890.377	4675
890.501	4580
890.624	4519
890.748	4653
890.871	4561
890.995	4443
891.118	4432
891.241	4519
891.364	4489
891.488	4691
891.611	4535
891.734	4554
891.857	4615
891.98	4588
892.103	4698
892.226	4634
892.349	4538
892.471	4432
892.594	4577
892.717	4599
892.839	4607
892.962	4580
893.085	4672
893.207	4649
893.33	4466
893.452	4554
893.575	4717
893.697	4584
893.819	4767
893.941	4816
894.064	4801
894.186	4611
894.308	4599
894.43	4740
894.552	4885
894.674	4805
894.796	4580
894.918	4615
895.04	4596
895.161	4721
895.283	4694
895.405	4596
895.526	4626
895.648	4687
895.769	4721
895.891	4717
896.012	4755
896.134	4759
896.255	4706
896.376	4675
896.498	4645
896.619	4660
896.74	4577
896.861	4618
896.982	4896
897.103	5109
897.224	4862
897.345	4782
897.466	4641
897.587	4786
897.708	4892
897.828	4805
897.949	4683
898.07	4630
898.19	4637
898.311	4870
898.431	4698
898.552	4752
898.672	4816
898.792	4824
898.913	4778
899.033	4698
899.153	4573
899.273	4455
899.393	4558
899.513	4542
899.633	4504
899.753	4538
899.873	4523
899.993	4599
900.113	4588
900.232	4607
900.352	4554
900.472	4508
900.591	4436
900.711	4470
900.83	4462
900.95	4599
901.069	4698
901.189	4603
901.308	4394
901.427	4375
901.546	4360
901.665	4516
901.784	4569
901.904	4371
902.023	4379
902.141	4185
902.26	4207
902.379	4333
902.498	4276
902.617	4253
902.735	4405
902.854	4390
902.973	4375
903.091	4177
903.21	4242
903.328	4314
903.446	4257
903.565	4253
903.683	4363
903.801	4314
903.919	4428
904.038	4440
904.156	4322
904.274	4470
904.392	4428
904.51	4470
904.627	4462
904.745	4607
904.863	4615
904.981	4424
905.098	4325
905.216	4363
905.334	4424
905.451	4508
905.569	4455
905.686	4599
905.803	4592
905.921	4413
906.038	4573
906.155	4478
906.272	4363
906.389	4470
906.506	4356
906.623	4386
906.74	4428
906.857	4337
906.974	4394
907.091	4599
907.208	4691
907.324	4622
907.441	4516
907.557	4341
907.674	4356
907.79	4371
907.907	4383
908.023	4485
908.139	4481
908.256	4440
908.372	4504
908.488	4466
908.604	4379
908.72	4383
908.836	4386
908.952	4363
909.068	4443
909.184	4573
909.3	4519
909.415	4584
909.531	4588
909.647	4417
909.762	4352
909.878	4386
909.993	4485
910.108	4405
910.224	4417
910.339	4497
910.454	4440
910.57	4363
910.685	4295
910.8	4668
910.915	4618
911.03	4516
911.145	4356
911.259	4356
911.374	4356
911.489	4310
911.604	4287
911.718	4181
911.833	4234
911.947	4116
912.062	3968
912.176	4219
912.291	4303
912.405	4272
912.519	4508
912.633	4546
912.748	4413
912.862	4314
912.976	4215
913.09	4086
913.204	4188
913.318	4253
913.431	4386
913.545	4394
913.659	4428
913.772	4390
913.886	4242
914	4261
914.113	4405
914.226	4462
914.34	4428
914.453	4204
914.566	4440
914.68	4337
914.793	4333
914.906	4158
915.019	4154
915.132	4071
915.245	4204
915.358	4219
915.47	4268
915.583	4291
915.696	4272
915.809	4443
915.921	4436
916.034	4291
916.146	4227
916.259	4211
916.371	4440
916.483	4405
916.595	4280
916.708	4337
916.82	4322
916.932	4329
917.044	4375
917.156	4333
917.268	4268
917.38	4306
917.491	4265
917.603	4337
917.715	4443
917.826	4497
917.938	4341
918.049	4268
918.161	4398
918.272	4531
918.384	4561
918.495	4489
918.606	4329
918.717	4253
918.828	4375
918.939	4409
919.05	4299
919.161	4333
919.272	4131
919.383	4238
919.494	4447
919.604	4664
919.715	4451
919.826	4337
919.936	4356
920.047	4478
920.157	4512
920.267	4698
920.378	4580
920.488	4519
920.598	4748
920.708	4904
920.818	4736
920.928	4812
921.038	4987
921.148	4938
921.258	4710
921.368	4561
921.477	4516
921.587	4474
921.697	4356
921.806	4615
921.916	4470
922.025	4268
922.134	4337
922.244	4257
922.353	4314
922.462	4124
922.571	4200
922.68	4013
922.789	3998
922.898	4071
923.007	4025
923.116	4090
923.224	4082
923.333	4063
923.442	4032
923.55	3979
923.659	4044
923.767	4143
923.876	4017
923.984	4131
924.092	3991
924.201	4063
924.309	4128
924.417	4150
924.525	4051
924.633	4120
924.741	4930
924.849	3911
924.956	4147
925.064	3968
925.172	3964
925.279	3941
925.387	4109
925.494	4063
925.602	4215
925.709	4204
925.816	4032
925.924	4143
926.031	4207
926.138	4177
926.245	4215
926.352	4086
926.459	4265
926.566	4367
926.673	4204
926.779	4116
926.886	4116
926.993	4025
927.099	3960
927.206	3926
927.312	3937
927.419	4116
927.525	4029
927.631	4143
927.737	3994
927.843	3930
927.95	3816
928.056	3987
928.162	4010
928.267	4055
928.373	4691
928.479	4105
928.585	3934
928.69	4006
928.796	4082
928.901	3968
929.007	3865
929.112	4021
929.218	4002
929.323	3956
929.428	3953
929.533	4128
929.638	3941
929.743	3979
929.848	4093
929.953	4002
930.058	3949
930.163	3800
930.267	3827
930.372	4006
930.477	3835
930.581	4090
930.685	3968
930.79	3861
930.894	3861
930.998	3842
931.103	4048
931.207	3728
931.311	3717
931.415	3694
931.519	3523
931.623	3553
