Data from test_V78500241_1763.txt Node
Date: Fri Mar 25 17:01:15 CST 2022
User: usil
Spectrometer: V785-0024
Trigger mode: 0
Integration Time (sec): 4.000000E-1
Scans to average: 1
Nonlinearity correction enabled: false
Boxcar width: 0
Storing dark spectrum: false
XAxis mode: Wavelengths
Number of Pixels in Spectrum: 1024
>>>>>Begin Spectral Data<<<<<
801.071	8001
801.214	7974
801.356	7913
801.499	7833
801.641	7849
801.783	7811
801.926	7989
802.068	8031
802.211	7974
802.353	8062
802.496	7906
802.638	7932
802.78	7898
802.923	7932
803.065	7879
803.208	7849
803.35	8020
803.492	8096
803.635	8164
803.777	8035
803.919	8176
804.061	8507
804.204	8206
804.346	8088
804.488	7993
804.63	8142
804.773	8054
804.915	8206
805.057	8370
805.199	8176
805.341	8176
805.483	8351
805.626	8221
805.768	8115
805.91	8248
806.052	8252
806.194	8088
806.336	8286
806.478	8092
806.62	8073
806.762	8180
806.904	8248
807.046	8541
807.188	8404
807.33	8355
807.472	8286
807.614	8176
807.756	8096
807.898	7989
808.04	7913
808.182	7913
808.324	7917
808.465	7947
808.607	8081
808.749	8153
808.891	8218
809.033	8259
809.174	8267
809.316	8058
809.458	8119
809.6	8008
809.741	8035
809.883	8020
810.025	8084
810.166	8115
810.308	8050
810.45	8058
810.591	7887
810.733	7700
810.875	7704
811.016	7578
811.158	7537
811.299	7605
811.441	7727
811.582	7761
811.724	7575
811.865	7586
812.007	7571
812.148	7540
812.29	7734
812.431	7830
812.573	7925
812.714	7993
812.855	8187
812.997	8237
813.138	8324
813.279	8237
813.421	8130
813.562	8035
813.703	7845
813.845	7696
813.986	7407
814.127	7274
814.268	7247
814.41	7217
814.551	7183
814.692	7274
814.833	7110
814.974	7160
815.115	7110
815.256	6954
815.397	6996
815.539	6875
815.68	6821
815.821	6776
815.962	6821
816.103	6818
816.244	6711
816.385	6639
816.526	6631
816.666	6517
816.807	6304
816.948	6471
817.089	6486
817.23	6456
817.371	6410
817.512	6361
817.653	6388
817.793	6334
817.934	6429
818.075	6437
818.216	6433
818.356	6418
818.497	6220
818.638	6159
818.778	6175
818.919	6106
819.06	6171
819.2	6353
819.341	6369
819.481	6372
819.622	6544
819.762	6757
819.903	6707
820.043	6623
820.184	6578
820.324	6589
820.465	6745
820.605	6673
820.746	6650
820.886	6532
821.026	6692
821.167	6719
821.307	6802
821.447	6806
821.588	6684
821.728	6563
821.868	6445
822.008	6331
822.149	6346
822.289	6372
822.429	6155
822.569	6117
822.709	6117
822.849	5946
822.99	5908
823.13	5931
823.27	5946
823.41	5821
823.55	5809
823.69	5741
823.83	5775
823.97	5726
824.11	5554
824.25	5509
824.389	5566
824.529	5623
824.669	5581
824.809	5665
824.949	5672
825.089	5619
825.228	5509
825.368	5410
825.508	5406
825.648	5372
825.787	5391
825.927	5349
826.067	5330
826.206	5288
826.346	5421
826.485	5406
826.625	5463
826.765	5592
826.904	5474
827.044	5227
827.183	5223
827.323	5170
827.462	5246
827.601	5216
827.741	5174
827.88	5242
828.02	5121
828.159	5242
828.298	5280
828.437	5364
828.577	5296
828.716	5452
828.855	5322
828.994	5109
829.134	5147
829.273	5212
829.412	5185
829.551	5162
829.69	5166
829.829	5246
829.968	5368
830.107	5254
830.246	5315
830.385	5193
830.524	5170
830.663	5064
830.802	4991
830.941	4889
831.08	4866
831.219	4961
831.357	4938
831.496	5239
831.635	4961
831.774	4885
831.913	4911
832.051	4729
832.19	4706
832.329	4828
832.467	4717
832.606	4637
832.744	4717
832.883	4755
833.022	4736
833.16	4805
833.299	4820
833.437	4828
833.576	4858
833.714	4847
833.852	4866
833.991	4885
834.129	4934
834.267	4987
834.406	4938
834.544	4987
834.682	4946
834.821	4980
834.959	5250
835.097	4987
835.235	5193
835.373	5094
835.511	5098
835.65	5079
835.788	5033
835.926	4911
836.064	4870
836.202	4915
836.34	5174
836.478	5227
836.615	5170
836.753	5201
836.891	5311
837.029	5246
837.167	5197
837.305	5124
837.443	5170
837.58	5105
837.718	5288
837.856	5185
837.993	5159
838.131	5311
838.269	5223
838.406	5185
838.544	5170
838.681	5064
838.819	4949
838.956	4915
839.094	4892
839.231	4991
839.369	5094
839.506	5440
839.643	5246
839.781	5128
839.918	5033
840.055	5083
840.193	5155
840.33	5197
840.467	5105
840.604	5208
840.742	5406
840.879	5124
841.016	5075
841.153	5162
841.29	5349
841.427	5288
841.564	5307
841.701	5395
841.838	5254
841.975	5212
842.112	5273
842.249	5117
842.385	5124
842.522	5334
842.659	5189
842.796	5147
842.933	5189
843.069	5155
843.206	5162
843.343	5250
843.479	5265
843.616	5261
843.752	5060
843.889	4991
844.025	5261
844.162	5003
844.298	5250
844.435	5056
844.571	5064
844.708	5181
844.844	5292
844.98	5326
845.117	5303
845.253	5113
845.389	5033
845.525	5185
845.661	5155
845.798	5029
845.934	5109
846.07	5045
846.206	5166
846.342	5269
846.478	5159
846.614	5006
846.75	4930
846.886	4911
847.022	5143
847.158	5037
847.294	5022
847.429	5117
847.565	5052
847.701	5357
847.837	4824
847.972	4774
848.108	4934
848.244	4923
848.379	4744
848.515	4759
848.65	4691
848.786	4733
848.921	4752
849.057	4824
849.192	4911
849.328	4809
849.463	4873
849.598	4839
849.734	4733
849.869	4710
850.004	4675
850.14	4668
850.275	4637
850.41	4481
850.545	4599
850.68	4668
850.815	4656
850.95	4634
851.085	4816
851.22	4771
851.355	4615
851.49	4622
851.625	4649
851.76	4683
851.895	4565
852.03	4516
852.165	4706
852.299	4721
852.434	4828
852.569	4759
852.703	4812
852.838	4889
852.973	4995
853.107	4953
853.242	4763
853.376	4672
853.511	4546
853.645	4679
853.78	4816
853.914	4755
854.048	4672
854.183	4615
854.317	4736
854.451	4873
854.585	4767
854.72	4656
854.854	4790
854.988	4607
855.122	4729
855.256	4588
855.39	4672
855.524	4809
855.658	4755
855.792	4752
855.926	4812
856.06	4778
856.194	4828
856.327	4717
856.461	4656
856.595	4611
856.729	4694
856.862	4771
856.996	4679
857.13	4778
857.263	4824
857.397	4828
857.53	4694
857.664	4778
857.797	4805
857.931	4782
858.064	4748
858.197	4828
858.331	4710
858.464	4664
858.597	4542
858.731	4664
858.864	4721
858.997	4660
859.13	4752
859.263	4698
859.396	4801
859.529	4618
859.662	4603
859.795	4569
859.928	4679
860.061	4771
860.194	4824
860.327	4653
860.46	4603
860.592	4790
860.725	4717
860.858	4733
860.99	4641
861.123	4561
861.256	4577
861.388	4626
861.521	5307
861.653	4531
861.786	4481
861.918	4508
862.05	4565
862.183	4664
862.315	4596
862.447	4683
862.58	4592
862.712	4421
862.844	4417
862.976	4481
863.108	4516
863.24	4908
863.372	4352
863.504	4497
863.636	4428
863.768	4554
863.9	4470
864.032	4394
864.164	4455
864.296	4500
864.428	4569
864.559	4630
864.691	4607
864.823	4588
864.954	4554
865.086	4527
865.217	4478
865.349	4478
865.48	4478
865.612	4512
865.743	4672
865.875	4497
866.006	4542
866.137	4516
866.269	4470
866.4	4455
866.531	4443
866.662	4443
866.793	4409
866.924	4428
867.055	4542
867.186	4478
867.317	4436
867.448	4417
867.579	4428
867.71	4447
867.841	4421
867.972	4485
868.103	4508
868.233	4470
868.364	4500
868.495	4577
868.625	4702
868.756	4812
868.886	4599
869.017	4641
869.147	4820
869.278	4828
869.408	4702
869.539	4634
869.669	4683
869.799	4710
869.929	4820
870.06	4793
870.19	4961
870.32	4980
870.45	4991
870.58	5060
870.71	5166
870.84	5128
870.97	4965
871.1	4896
871.23	5178
871.36	5124
871.489	5071
871.619	5086
871.749	5132
871.879	5121
872.008	5185
872.138	5025
872.267	5029
872.397	4881
872.526	4809
872.656	4736
872.785	4839
872.915	4961
873.044	5060
873.173	4961
873.303	4961
873.432	4934
873.561	5014
873.69	4930
873.819	4877
873.948	4930
874.077	4885
874.206	4793
874.335	4847
874.464	4961
874.593	5121
874.722	5014
874.851	5121
874.979	5083
875.108	5083
875.237	4949
875.365	4885
875.494	4927
875.623	5003
875.751	4839
875.88	4946
876.008	5025
876.136	5117
876.265	5246
876.393	5334
876.521	5242
876.65	5223
876.778	5166
876.906	5071
877.034	5006
877.162	5083
877.29	5048
877.418	5086
877.546	5079
877.674	5086
877.802	5056
877.93	5045
878.058	4934
878.185	4915
878.313	4957
878.441	5006
878.568	4847
878.696	4900
878.824	4987
878.951	5003
879.079	5121
879.206	5265
879.333	5128
879.461	5010
879.588	5022
879.715	5170
879.842	5235
879.97	5060
880.097	4850
880.224	4763
880.351	4835
880.478	4866
880.605	4828
880.732	4828
880.859	5079
880.986	4911
881.112	4927
881.239	4805
881.366	4725
881.493	4675
881.619	4599
881.746	4649
881.872	4668
881.999	4656
882.125	4721
882.252	4767
882.378	4885
882.505	4995
882.631	4828
882.757	4706
882.883	4717
883.01	4744
883.136	4683
883.262	4626
883.388	4656
883.514	4828
883.64	4862
883.766	4809
883.892	4721
884.018	4721
884.143	4927
884.269	5086
884.395	4691
884.52	4645
884.646	4672
884.772	4649
884.897	4584
885.023	4721
885.148	4805
885.274	4900
885.399	4839
885.524	4729
885.65	4714
885.775	4755
885.9	4721
886.025	4870
886.15	4790
886.275	4763
886.4	4687
886.525	4755
886.65	4744
886.775	4714
886.9	4923
887.025	5045
887.149	4877
887.274	4694
887.399	4618
887.523	4645
887.648	4611
887.773	4630
887.897	4828
888.021	4828
888.146	4759
888.27	4801
888.395	4946
888.519	4858
888.643	4828
888.767	4839
888.891	4714
889.015	4637
889.139	4653
889.263	4611
889.387	4778
889.511	4896
889.635	4797
889.759	4664
889.883	4626
890.006	4771
890.13	4835
890.254	4618
890.377	4698
890.501	4558
890.624	4573
890.748	4679
890.871	4523
890.995	4451
891.118	4428
891.241	4550
891.364	4561
891.488	4698
891.611	4512
891.734	4546
891.857	4592
891.98	4561
892.103	4660
892.226	4584
892.349	4546
892.471	4440
892.594	4569
892.717	4592
892.839	4615
892.962	4664
893.085	4672
893.207	4630
893.33	4474
893.452	4538
893.575	4694
893.697	4565
893.819	4809
893.941	4843
894.064	4809
894.186	4584
894.308	4573
894.43	4733
894.552	4847
894.674	4733
894.796	4550
894.918	4656
895.04	4580
895.161	4717
895.283	4702
895.405	4599
895.526	4691
895.648	4721
895.769	4729
895.891	4748
896.012	4793
896.134	4729
896.255	4725
896.376	4656
896.498	4660
896.619	4694
896.74	4588
896.861	4675
896.982	4946
897.103	5124
897.224	4805
897.345	4790
897.466	4702
897.587	4782
897.708	4873
897.828	4820
897.949	4702
898.07	4542
898.19	4618
898.311	4858
898.431	4668
898.552	4744
898.672	4797
898.792	4816
898.913	4740
899.033	4641
899.153	4516
899.273	4462
899.393	4478
899.513	4569
899.633	4577
899.753	4546
899.873	4546
899.993	4588
900.113	4538
900.232	4596
900.352	4516
900.472	4516
900.591	4402
900.711	4489
900.83	4451
900.95	4634
901.069	4679
901.189	4558
901.308	4398
901.427	4325
901.546	4394
901.665	4550
901.784	4546
901.904	4360
902.023	4291
902.141	4200
902.26	4147
902.379	4371
902.498	4257
902.617	4253
902.735	4371
902.854	4417
902.973	4371
903.091	4204
903.21	4234
903.328	4280
903.446	4325
903.565	4246
903.683	4394
903.801	4344
903.919	4394
904.038	4455
904.156	4352
904.274	4459
904.392	4417
904.51	4379
904.627	4485
904.745	4611
904.863	4622
904.981	4409
905.098	4322
905.216	4341
905.334	4432
905.451	4421
905.569	4440
905.686	4565
905.803	4588
905.921	4478
906.038	4573
906.155	4500
906.272	4398
906.389	4459
906.506	4325
906.623	4352
906.74	4394
906.857	4265
906.974	4417
907.091	4558
907.208	4634
907.324	4622
907.441	4516
907.557	4344
907.674	4375
907.79	4333
907.907	4402
908.023	4478
908.139	4508
908.256	4421
908.372	4470
908.488	4478
908.604	4383
908.72	4341
908.836	4379
908.952	4352
909.068	4440
909.184	4584
909.3	4497
909.415	4626
909.531	4523
909.647	4394
909.762	4383
909.878	4383
909.993	4455
910.108	4470
910.224	4443
910.339	4531
910.454	4356
910.57	4360
910.685	4299
910.8	4649
910.915	4603
911.03	4489
911.145	4333
911.259	4352
911.374	4363
911.489	4325
911.604	4272
911.718	4204
911.833	4200
911.947	4154
912.062	4029
912.176	4249
912.291	4265
912.405	4261
912.519	4500
912.633	4508
912.748	4379
912.862	4299
912.976	4200
913.09	4128
913.204	4188
913.318	4253
913.431	4424
913.545	4383
913.659	4447
913.772	4325
913.886	4272
914	4242
914.113	4390
914.226	4459
914.34	4386
914.453	4265
914.566	4432
914.68	4306
914.793	4348
914.906	4200
915.019	4177
915.132	4120
915.245	4177
915.358	4219
915.47	4257
915.583	4295
915.696	4325
915.809	4405
915.921	4402
916.034	4272
916.146	4234
916.259	4253
916.371	4409
916.483	4417
916.595	4265
916.708	4314
916.82	4325
916.932	4379
917.044	4356
917.156	4325
917.268	4242
917.38	4261
917.491	4257
917.603	4360
917.715	4436
917.826	4489
917.938	4379
918.049	4272
918.161	4375
918.272	4565
918.384	4554
918.495	4421
918.606	4268
918.717	4211
918.828	4344
918.939	4398
919.05	4257
919.161	4367
919.272	4105
919.383	4242
919.494	4466
919.604	4622
919.715	4432
919.826	4367
919.936	4459
920.047	4500
920.157	4497
920.267	4698
920.378	4523
920.488	4519
920.598	4771
920.708	4930
920.818	4736
920.928	4733
921.038	4961
921.148	4927
921.258	4641
921.368	4584
921.477	4485
921.587	4527
921.697	4386
921.806	4554
921.916	4459
922.025	4310
922.134	4268
922.244	4177
922.353	4344
922.462	4211
922.571	4185
922.68	4029
922.789	3968
922.898	4036
923.007	4044
923.116	4093
923.224	4074
923.333	4071
923.442	3968
923.55	4002
923.659	4021
923.767	4116
923.876	3983
923.984	4135
924.092	3998
924.201	4116
924.309	4116
924.417	4162
924.525	4059
924.633	4135
924.741	5056
924.849	3915
924.956	4150
925.064	3968
925.172	3880
925.279	3972
925.387	4078
925.494	4059
925.602	4230
925.709	4154
925.816	4048
925.924	4173
926.031	4234
926.138	4177
926.245	4181
926.352	4093
926.459	4238
926.566	4306
926.673	4162
926.779	4097
926.886	4086
926.993	4017
927.099	3934
927.206	3964
927.312	3934
927.419	4063
927.525	4067
927.631	4090
927.737	3991
927.843	3949
927.95	3846
928.056	3964
928.162	4040
928.267	4059
928.373	4569
928.479	4101
928.585	3884
928.69	4025
928.796	4086
928.901	3945
929.007	3884
929.112	4032
929.218	3979
929.323	4025
929.428	3949
929.533	4116
929.638	3884
929.743	3945
929.848	4074
929.953	4002
930.058	3937
930.163	3804
930.267	3827
930.372	3956
930.477	3781
930.581	4078
930.685	3953
930.79	3831
930.894	3884
930.998	3827
931.103	4036
931.207	3701
931.311	3690
931.415	3644
931.519	3519
931.623	3545
